Data from 17600_1_HRD10591_00026.txt Node
Date: Mon Jan 19 14:07:37 EST 2026
User: Yrep
Spectrometer: HR+D1059
Trigger mode: 1
Integration Time (sec): 1.000000E-1
Scans to average: 1
Electric dark correction enabled: true
Nonlinearity correction enabled: false
Boxcar width: 0
XAxis mode: Wavelengths
Number of Pixels in Spectrum: 2048
>>>>>Begin Spectral Data<<<<<
223.165	-12.38
223.4	-12.38
223.635	-12.38
223.869	-25.38
224.104	-14.38
224.338	-11.38
224.573	-1.38
224.808	-13.38
225.042	-13.38
225.277	-9.38
225.511	5.62
225.746	-2.38
225.98	-11.38
226.215	7.62
226.449	16.62
226.683	21.62
226.918	18.62
227.152	44.62
227.387	34.62
227.621	37.62
227.856	32.62
228.09	44.62
228.324	49.62
228.559	62.62
228.793	38.62
229.027	55.62
229.262	72.62
229.496	64.62
229.73	68.62
229.964	73.62
230.199	68.62
230.433	80.62
230.667	65.62
230.901	76.62
231.136	62.62
231.37	71.62
231.604	75.62
231.838	77.62
232.072	85.62
232.306	90.62
232.541	82.62
232.775	81.62
233.009	87.62
233.243	83.62
233.477	70.62
233.711	85.62
233.945	76.62
234.179	87.62
234.413	89.62
234.647	96.62
234.881	66.62
235.115	73.62
235.349	81.62
235.583	74.62
235.817	64.62
236.051	70.62
236.285	80.62
236.519	76.62
236.753	90.62
236.987	82.62
237.221	72.62
237.455	80.62
237.689	65.62
237.922	83.62
238.156	59.62
238.39	75.62
238.624	68.62
238.858	76.62
239.091	74.62
239.325	73.62
239.559	67.62
239.793	71.62
240.027	63.62
240.26	87.62
240.494	72.62
240.728	68.62
240.961	86.62
241.195	82.62
241.429	80.62
241.662	65.62
241.896	68.62
242.13	67.62
242.363	75.62
242.597	77.62
242.83	79.62
243.064	74.62
243.298	79.62
243.531	82.62
243.765	75.62
243.998	71.62
244.232	74.62
244.465	82.62
244.699	68.62
244.932	69.62
245.166	74.62
245.399	85.62
245.633	86.62
245.866	75.62
246.099	82.62
246.333	68.62
246.566	60.62
246.8	77.62
247.033	73.62
247.266	88.62
247.5	74.62
247.733	73.62
247.966	76.62
248.2	64.62
248.433	88.62
248.666	65.62
248.899	73.62
249.133	82.62
249.366	84.62
249.599	83.62
249.832	55.62
250.066	73.62
250.299	74.62
250.532	82.62
250.765	84.62
250.998	87.62
251.231	77.62
251.465	77.62
251.698	74.62
251.931	84.62
252.164	74.62
252.397	78.62
252.63	84.62
252.863	77.62
253.096	85.62
253.329	70.62
253.562	84.62
253.795	70.62
254.028	77.62
254.261	71.62
254.494	75.62
254.727	74.62
254.96	66.62
255.193	79.62
255.426	71.62
255.659	83.62
255.892	82.62
256.124	77.62
256.357	84.62
256.59	68.62
256.823	69.62
257.056	76.62
257.289	75.62
257.521	80.62
257.754	72.62
257.987	58.62
258.22	84.62
258.452	84.62
258.685	78.62
258.918	88.62
259.151	85.62
259.383	78.62
259.616	93.62
259.849	89.62
260.081	84.62
260.314	83.62
260.547	84.62
260.779	82.62
261.012	75.62
261.244	85.62
261.477	86.62
261.71	83.62
261.942	81.62
262.175	88.62
262.407	84.62
262.64	78.62
262.872	74.62
263.105	74.62
263.337	80.62
263.57	80.62
263.802	90.62
264.035	87.62
264.267	72.62
264.499	78.62
264.732	82.62
264.964	73.62
265.197	73.62
265.429	77.62
265.661	83.62
265.894	82.62
266.126	88.62
266.358	87.62
266.591	89.62
266.823	88.62
267.055	80.62
267.287	73.62
267.52	82.62
267.752	88.62
267.984	95.62
268.216	81.62
268.448	80.62
268.681	88.62
268.913	88.62
269.145	71.62
269.377	89.62
269.609	82.62
269.841	81.62
270.073	79.62
270.306	82.62
270.538	86.62
270.77	95.62
271.002	76.62
271.234	79.62
271.466	90.62
271.698	73.62
271.93	87.62
272.162	83.62
272.394	78.62
272.626	71.62
272.858	89.62
273.09	79.62
273.322	71.62
273.553	80.62
273.785	66.62
274.017	94.62
274.249	86.62
274.481	82.62
274.713	77.62
274.945	87.62
275.176	80.62
275.408	86.62
275.64	91.62
275.872	87.62
276.104	81.62
276.335	83.62
276.567	72.62
276.799	81.62
277.031	78.62
277.262	82.62
277.494	67.62
277.726	79.62
277.957	84.62
278.189	87.62
278.421	79.62
278.652	72.62
278.884	92.62
279.115	83.62
279.347	90.62
279.579	75.62
279.81	61.62
280.042	73.62
280.273	74.62
280.505	81.62
280.736	70.62
280.968	69.62
281.199	84.62
281.431	74.62
281.662	76.62
281.894	90.62
282.125	79.62
282.356	80.62
282.588	82.62
282.819	72.62
283.051	80.62
283.282	86.62
283.513	88.62
283.745	78.62
283.976	73.62
284.207	68.62
284.439	94.62
284.67	99.62
284.901	72.62
285.132	89.62
285.364	100.62
285.595	95.62
285.826	89.62
286.057	96.62
286.288	75.62
286.52	71.62
286.751	81.62
286.982	74.62
287.213	87.62
287.444	83.62
287.675	80.62
287.906	84.62
288.138	86.62
288.369	75.62
288.6	81.62
288.831	73.62
289.062	83.62
289.293	78.62
289.524	83.62
289.755	95.62
289.986	81.62
290.217	87.62
290.448	87.62
290.679	86.62
290.91	88.62
291.141	85.62
291.371	82.62
291.602	92.62
291.833	78.62
292.064	79.62
292.295	77.62
292.526	88.62
292.757	68.62
292.987	75.62
293.218	96.62
293.449	86.62
293.68	84.62
293.91	81.62
294.141	78.62
294.372	84.62
294.603	73.62
294.833	87.62
295.064	81.62
295.295	81.62
295.525	86.62
295.756	93.62
295.987	80.62
296.217	84.62
296.448	74.62
296.679	82.62
296.909	87.62
297.14	83.62
297.37	73.62
297.601	80.62
297.831	84.62
298.062	72.62
298.292	88.62
298.523	89.62
298.753	84.62
298.984	85.62
299.214	91.62
299.445	78.62
299.675	84.62
299.905	91.62
300.136	70.62
300.366	81.62
300.597	68.62
300.827	94.62
301.057	75.62
301.288	92.62
301.518	82.62
301.748	84.62
301.979	97.62
302.209	78.62
302.439	90.62
302.669	84.62
302.9	98.62
303.13	76.62
303.36	85.62
303.59	83.62
303.82	86.62
304.051	96.62
304.281	79.62
304.511	89.62
304.741	78.62
304.971	66.62
305.201	98.62
305.431	71.62
305.661	86.62
305.891	66.62
306.121	76.62
306.352	97.62
306.582	89.62
306.812	84.62
307.042	79.62
307.272	77.62
307.502	98.62
307.731	80.62
307.961	81.62
308.191	74.62
308.421	87.62
308.651	94.62
308.881	86.62
309.111	78.62
309.341	66.62
309.571	86.62
309.8	65.62
310.03	93.62
310.26	92.62
310.49	101.62
310.72	84.62
310.949	90.62
311.179	66.62
311.409	86.62
311.639	98.62
311.868	70.62
312.098	97.62
312.328	80.62
312.557	88.62
312.787	77.62
313.017	84.62
313.246	86.62
313.476	88.62
313.706	71.62
313.935	80.62
314.165	78.62
314.394	79.62
314.624	87.62
314.853	73.62
315.083	79.62
315.312	78.62
315.542	92.62
315.771	88.62
316.001	71.62
316.23	92.62
316.46	104.62
316.689	70.62
316.919	79.62
317.148	90.62
317.377	86.62
317.607	81.62
317.836	88.62
318.065	98.62
318.295	89.62
318.524	78.62
318.753	86.62
318.983	90.62
319.212	93.62
319.441	90.62
319.67	87.62
319.9	78.62
320.129	84.62
320.358	86.62
320.587	89.62
320.816	76.62
321.046	87.62
321.275	75.62
321.504	84.62
321.733	88.62
321.962	86.62
322.191	82.62
322.42	79.62
322.649	79.62
322.878	88.62
323.108	84.62
323.337	83.62
323.566	85.62
323.795	102.62
324.024	93.62
324.253	64.62
324.482	86.62
324.71	86.62
324.939	79.62
325.168	79.62
325.397	85.62
325.626	80.62
325.855	78.62
326.084	77.62
326.313	77.62
326.542	61.62
326.77	78.62
326.999	80.62
327.228	92.62
327.457	82.62
327.686	77.62
327.914	77.62
328.143	81.62
328.372	72.62
328.6	66.62
328.829	84.62
329.058	85.62
329.287	82.62
329.515	85.62
329.744	86.62
329.972	84.62
330.201	61.62
330.43	96.62
330.658	82.62
330.887	78.62
331.115	76.62
331.344	78.62
331.572	71.62
331.801	78.62
332.03	81.62
332.258	91.62
332.486	74.62
332.715	80.62
332.943	82.62
333.172	84.62
333.4	90.62
333.629	92.62
333.857	90.62
334.085	80.62
334.314	80.62
334.542	78.62
334.771	82.62
334.999	73.62
335.227	79.62
335.455	94.62
335.684	88.62
335.912	102.62
336.14	86.62
336.369	69.62
336.597	80.62
336.825	72.62
337.053	80.62
337.281	78.62
337.51	92.62
337.738	87.62
337.966	73.62
338.194	89.62
338.422	69.62
338.65	90.62
338.878	86.62
339.106	66.62
339.334	72.62
339.562	92.62
339.79	94.62
340.018	89.62
340.246	82.62
340.474	73.62
340.702	92.62
340.93	76.62
341.158	80.62
341.386	77.62
341.614	72.62
341.842	80.62
342.07	86.62
342.298	81.62
342.526	90.62
342.754	66.62
342.981	74.62
343.209	92.62
343.437	107.62
343.665	68.62
343.893	81.62
344.12	95.62
344.348	74.62
344.576	68.62
344.804	81.62
345.031	67.62
345.259	72.62
345.487	93.62
345.714	77.62
345.942	59.62
346.17	84.62
346.397	83.62
346.625	73.62
346.853	81.62
347.08	65.62
347.308	89.62
347.535	86.62
347.763	84.62
347.99	91.62
348.218	91.62
348.445	72.62
348.673	77.62
348.9	84.62
349.128	87.62
349.355	75.62
349.583	90.62
349.81	88.62
350.037	85.62
350.265	85.62
350.492	72.62
350.72	87.62
350.947	96.62
351.174	80.62
351.402	81.62
351.629	80.62
351.856	75.62
352.083	97.62
352.311	82.62
352.538	78.62
352.765	74.62
352.992	75.62
353.22	86.62
353.447	74.62
353.674	85.62
353.901	94.62
354.128	68.62
354.355	86.62
354.583	78.62
354.81	74.62
355.037	69.62
355.264	87.62
355.491	81.62
355.718	72.62
355.945	68.62
356.172	72.62
356.399	88.62
356.626	79.62
356.853	82.62
357.08	79.62
357.307	71.62
357.534	102.62
357.761	81.62
357.988	80.62
358.215	75.62
358.441	105.62
358.668	85.62
358.895	75.62
359.122	84.62
359.349	77.62
359.576	82.62
359.802	73.62
360.029	85.62
360.256	82.62
360.483	81.62
360.709	86.62
360.936	82.62
361.163	76.62
361.39	81.62
361.616	82.62
361.843	80.62
362.07	89.62
362.296	103.62
362.523	73.62
362.749	74.62
362.976	79.62
363.203	76.62
363.429	80.62
363.656	99.62
363.882	84.62
364.109	78.62
364.335	96.62
364.562	92.62
364.788	79.62
365.015	94.62
365.241	75.62
365.468	91.62
365.694	97.62
365.92	73.62
366.147	86.62
366.373	70.62
366.599	74.62
366.826	71.62
367.052	80.62
367.278	78.62
367.505	63.62
367.731	84.62
367.957	93.62
368.184	86.62
368.41	85.62
368.636	88.62
368.862	75.62
369.089	95.62
369.315	68.62
369.541	80.62
369.767	85.62
369.993	78.62
370.219	70.62
370.445	76.62
370.672	79.62
370.898	90.62
371.124	85.62
371.35	78.62
371.576	82.62
371.802	84.62
372.028	73.62
372.254	65.62
372.48	70.62
372.706	85.62
372.932	77.62
373.158	89.62
373.384	92.62
373.61	92.62
373.835	97.62
374.061	73.62
374.287	79.62
374.513	83.62
374.739	81.62
374.965	85.62
375.191	88.62
375.416	82.62
375.642	88.62
375.868	78.62
376.094	93.62
376.319	76.62
376.545	72.62
376.771	79.62
376.997	76.62
377.222	84.62
377.448	67.62
377.674	87.62
377.899	90.62
378.125	82.62
378.35	80.62
378.576	74.62
378.802	82.62
379.027	75.62
379.253	97.62
379.478	78.62
379.704	80.62
379.929	72.62
380.155	69.62
380.38	81.62
380.606	82.62
380.831	75.62
381.057	81.62
381.282	92.62
381.507	68.62
381.733	83.62
381.958	80.62
382.184	86.62
382.409	84.62
382.634	86.62
382.86	74.62
383.085	77.62
383.31	88.62
383.535	68.62
383.761	97.62
383.986	95.62
384.211	81.62
384.436	75.62
384.662	73.62
384.887	82.62
385.112	81.62
385.337	84.62
385.562	65.62
385.787	98.62
386.013	87.62
386.238	95.62
386.463	71.62
386.688	100.62
386.913	86.62
387.138	81.62
387.363	72.62
387.588	79.62
387.813	77.62
388.038	100.62
388.263	74.62
388.488	69.62
388.713	88.62
388.938	86.62
389.163	64.62
389.387	83.62
389.612	70.62
389.837	64.62
390.062	82.62
390.287	85.62
390.512	79.62
390.736	82.62
390.961	86.62
391.186	76.62
391.411	85.62
391.636	79.62
391.86	83.62
392.085	85.62
392.31	80.62
392.534	89.62
392.759	84.62
392.984	108.62
393.208	164.62
393.433	222.62
393.658	179.62
393.882	88.62
394.107	96.62
394.331	86.62
394.556	83.62
394.78	76.62
395.005	84.62
395.229	99.62
395.454	85.62
395.678	86.62
395.903	90.62
396.127	82.62
396.352	96.62
396.576	118.62
396.801	165.62
397.025	193.62
397.249	121.62
397.474	84.62
397.698	86.62
397.922	86.62
398.147	87.62
398.371	81.62
398.595	83.62
398.82	75.62
399.044	81.62
399.268	94.62
399.492	89.62
399.717	75.62
399.941	70.62
400.165	82.62
400.389	84.62
400.613	86.62
400.837	75.62
401.062	81.62
401.286	89.62
401.51	84.62
401.734	98.62
401.958	75.62
402.182	93.62
402.406	73.62
402.63	77.62
402.854	71.62
403.078	86.62
403.302	77.62
403.526	80.62
403.75	79.62
403.974	83.62
404.198	77.62
404.422	80.62
404.645	94.62
404.869	78.62
405.093	82.62
405.317	79.62
405.541	74.62
405.765	67.62
405.988	84.62
406.212	78.62
406.436	73.62
406.66	73.62
406.883	85.62
407.107	69.62
407.331	71.62
407.555	92.62
407.778	106.62
408.002	110.62
408.226	92.62
408.449	79.62
408.673	84.62
408.896	75.62
409.12	74.62
409.344	94.62
409.567	88.62
409.791	81.62
410.014	83.62
410.238	87.62
410.461	62.62
410.685	88.62
410.908	65.62
411.132	86.62
411.355	74.62
411.578	83.62
411.802	82.62
412.025	80.62
412.249	79.62
412.472	67.62
412.695	84.62
412.919	78.62
413.142	67.62
413.365	70.62
413.589	82.62
413.812	86.62
414.035	83.62
414.258	78.62
414.482	86.62
414.705	86.62
414.928	81.62
415.151	67.62
415.374	57.62
415.597	84.62
415.821	77.62
416.044	65.62
416.267	82.62
416.49	67.62
416.713	89.62
416.936	87.62
417.159	90.62
417.382	79.62
417.605	84.62
417.828	79.62
418.051	85.62
418.274	76.62
418.497	80.62
418.72	78.62
418.943	70.62
419.166	87.62
419.389	85.62
419.611	75.62
419.834	74.62
420.057	80.62
420.28	73.62
420.503	68.62
420.726	61.62
420.948	84.62
421.171	84.62
421.394	77.62
421.617	95.62
421.839	96.62
422.062	85.62
422.285	88.62
422.507	106.62
422.73	150.62
422.953	131.62
423.175	99.62
423.398	84.62
423.621	80.62
423.843	80.62
424.066	85.62
424.288	74.62
424.511	88.62
424.733	80.62
424.956	81.62
425.178	77.62
425.401	77.62
425.623	64.62
425.846	94.62
426.068	80.62
426.291	80.62
426.513	85.62
426.735	78.62
426.958	88.62
427.18	69.62
427.402	79.62
427.625	70.62
427.847	84.62
428.069	79.62
428.292	84.62
428.514	69.62
428.736	92.62
428.958	78.62
429.181	95.62
429.403	68.62
429.625	74.62
429.847	86.62
430.069	80.62
430.292	99.62
430.514	77.62
430.736	73.62
430.958	83.62
431.18	60.62
431.402	78.62
431.624	85.62
431.846	87.62
432.068	90.62
432.29	88.62
432.512	103.62
432.734	85.62
432.956	86.62
433.178	80.62
433.4	94.62
433.622	92.62
433.844	90.62
434.066	82.62
434.287	73.62
434.509	74.62
434.731	68.62
434.953	81.62
435.175	87.62
435.397	76.62
435.618	58.62
435.84	79.62
436.062	74.62
436.284	73.62
436.505	85.62
436.727	103.62
436.949	76.62
437.17	61.62
437.392	84.62
437.614	74.62
437.835	79.62
438.057	80.62
438.278	78.62
438.5	70.62
438.721	76.62
438.943	74.62
439.165	82.62
439.386	89.62
439.608	81.62
439.829	75.62
440.05	64.62
440.272	69.62
440.493	90.62
440.715	67.62
440.936	86.62
441.158	88.62
441.379	83.62
441.6	71.62
441.822	72.62
442.043	80.62
442.264	86.62
442.486	84.62
442.707	74.62
442.928	82.62
443.149	80.62
443.371	74.62
443.592	77.62
443.813	86.62
444.034	94.62
444.255	89.62
444.476	73.62
444.698	69.62
444.919	79.62
445.14	129.62
445.361	108.62
445.582	95.62
445.803	94.62
446.024	87.62
446.245	69.62
446.466	81.62
446.687	76.62
446.908	71.62
447.129	79.62
447.35	74.62
447.571	81.62
447.792	70.62
448.013	80.62
448.234	100.62
448.455	92.62
448.675	81.62
448.896	89.62
449.117	84.62
449.338	84.62
449.559	79.62
449.779	82.62
450	86.62
450.221	68.62
450.442	78.62
450.662	82.62
450.883	77.62
451.104	77.62
451.324	68.62
451.545	68.62
451.766	80.62
451.986	70.62
452.207	89.62
452.428	75.62
452.648	81.62
452.869	71.62
453.089	91.62
453.31	79.62
453.53	76.62
453.751	79.62
453.971	77.62
454.192	66.62
454.412	79.62
454.633	83.62
454.853	76.62
455.073	76.62
455.294	74.62
455.514	70.62
455.734	79.62
455.955	80.62
456.175	77.62
456.395	64.62
456.616	82.62
456.836	78.62
457.056	89.62
457.276	71.62
457.497	67.62
457.717	71.62
457.937	84.62
458.157	84.62
458.377	77.62
458.598	102.62
458.818	90.62
459.038	79.62
459.258	72.62
459.478	73.62
459.698	76.62
459.918	68.62
460.138	78.62
460.358	90.62
460.578	81.62
460.798	92.62
461.018	101.62
461.238	73.62
461.458	71.62
461.678	77.62
461.898	72.62
462.118	77.62
462.338	80.62
462.558	79.62
462.777	81.62
462.997	79.62
463.217	69.62
463.437	74.62
463.657	73.62
463.876	75.62
464.096	82.62
464.316	66.62
464.536	71.62
464.755	72.62
464.975	77.62
465.195	85.62
465.414	75.62
465.634	90.62
465.854	78.62
466.073	71.62
466.293	76.62
466.512	78.62
466.732	85.62
466.951	79.62
467.171	79.62
467.391	73.62
467.61	59.62
467.829	75.62
468.049	93.62
468.268	83.62
468.488	74.62
468.707	85.62
468.927	69.62
469.146	73.62
469.365	74.62
469.585	72.62
469.804	91.62
470.023	80.62
470.243	82.62
470.462	78.62
470.681	86.62
470.901	85.62
471.12	61.62
471.339	88.62
471.558	76.62
471.777	80.62
471.997	82.62
472.216	70.62
472.435	72.62
472.654	69.62
472.873	93.62
473.092	80.62
473.311	88.62
473.53	77.62
473.749	69.62
473.968	75.62
474.187	81.62
474.406	74.62
474.625	97.62
474.844	81.62
475.063	70.62
475.282	89.62
475.501	88.62
475.72	84.62
475.939	76.62
476.158	81.62
476.377	85.62
476.596	70.62
476.814	84.62
477.033	80.62
477.252	92.62
477.471	89.62
477.69	77.62
477.908	83.62
478.127	82.62
478.346	77.62
478.564	65.62
478.783	66.62
479.002	80.62
479.22	88.62
479.439	78.62
479.658	65.62
479.876	86.62
480.095	82.62
480.313	86.62
480.532	73.62
480.751	76.62
480.969	80.62
481.188	86.62
481.406	68.62
481.624	72.62
481.843	81.62
482.061	86.62
482.28	88.62
482.498	76.62
482.717	77.62
482.935	71.62
483.153	80.62
483.372	74.62
483.59	81.62
483.808	86.62
484.027	76.62
484.245	93.62
484.463	87.62
484.681	82.62
484.9	82.62
485.118	80.62
485.336	82.62
485.554	77.62
485.772	90.62
485.99	86.62
486.209	81.62
486.427	98.62
486.645	78.62
486.863	90.62
487.081	89.62
487.299	79.62
487.517	78.62
487.735	75.62
487.953	87.62
488.171	83.62
488.389	83.62
488.607	80.62
488.825	80.62
489.043	75.62
489.261	80.62
489.479	75.62
489.696	82.62
489.914	81.62
490.132	78.62
490.35	74.62
490.568	77.62
490.786	80.62
491.003	78.62
491.221	83.62
491.439	85.62
491.657	88.62
491.874	76.62
492.092	73.62
492.31	82.62
492.527	84.62
492.745	75.62
492.963	70.62
493.18	80.62
493.398	83.62
493.615	106.62
493.833	87.62
494.05	78.62
494.268	80.62
494.485	82.62
494.703	71.62
494.92	74.62
495.138	83.62
495.355	93.62
495.573	74.62
495.79	56.62
496.008	80.62
496.225	81.62
496.442	80.62
496.66	79.62
496.877	81.62
497.094	91.62
497.312	72.62
497.529	85.62
497.746	88.62
497.963	75.62
498.181	85.62
498.398	88.62
498.615	72.62
498.832	78.62
499.049	82.62
499.267	87.62
499.484	69.62
499.701	86.62
499.918	84.62
500.135	92.62
500.352	88.62
500.569	80.62
500.786	92.62
501.003	70.62
501.22	77.62
501.437	90.62
501.654	72.62
501.871	75.62
502.088	88.62
502.305	74.62
502.522	82.62
502.739	80.62
502.956	84.62
503.172	80.62
503.389	80.62
503.606	82.62
503.823	84.62
504.04	90.62
504.256	89.62
504.473	81.62
504.69	82.62
504.907	64.62
505.123	82.62
505.34	84.62
505.557	78.62
505.773	96.62
505.99	74.62
506.207	76.62
506.423	82.62
506.64	95.62
506.856	75.62
507.073	81.62
507.289	80.62
507.506	77.62
507.722	95.62
507.939	73.62
508.155	82.62
508.372	91.62
508.588	77.62
508.805	81.62
509.021	79.62
509.238	78.62
509.454	76.62
509.67	76.62
509.887	79.62
510.103	80.62
510.319	79.62
510.536	85.62
510.752	86.62
510.968	71.62
511.184	76.62
511.401	84.62
511.617	75.62
511.833	78.62
512.049	72.62
512.265	91.62
512.481	78.62
512.698	92.62
512.914	88.62
513.13	78.62
513.346	77.62
513.562	85.62
513.778	85.62
513.994	88.62
514.21	85.62
514.426	93.62
514.642	73.62
514.858	77.62
515.074	70.62
515.29	83.62
515.506	88.62
515.721	77.62
515.937	96.62
516.153	82.62
516.369	81.62
516.585	84.62
516.801	66.62
517.016	80.62
517.232	84.62
517.448	85.62
517.664	82.62
517.879	78.62
518.095	73.62
518.311	78.62
518.527	73.62
518.742	80.62
518.958	80.62
519.173	94.62
519.389	80.62
519.605	96.62
519.82	88.62
