Data from 17600_1_HRD10591_00009.txt Node
Date: Mon Jan 19 14:07:28 EST 2026
User: Yrep
Spectrometer: HR+D1059
Trigger mode: 1
Integration Time (sec): 1.000000E-1
Scans to average: 1
Electric dark correction enabled: true
Nonlinearity correction enabled: false
Boxcar width: 0
XAxis mode: Wavelengths
Number of Pixels in Spectrum: 2048
>>>>>Begin Spectral Data<<<<<
223.165	-22.06
223.4	-22.06
223.635	-22.06
223.869	-24.06
224.104	-14.06
224.338	-8.06
224.573	-11.06
224.808	-9.06
225.042	-12.06
225.277	-1.06
225.511	-3.06
225.746	-1.06
225.98	8.94
226.215	5.94
226.449	15.94
226.683	15.94
226.918	21.94
227.152	36.94
227.387	45.94
227.621	42.94
227.856	45.94
228.09	43.94
228.324	46.94
228.559	55.94
228.793	54.94
229.027	60.94
229.262	57.94
229.496	64.94
229.73	79.94
229.964	66.94
230.199	69.94
230.433	61.94
230.667	75.94
230.901	95.94
231.136	80.94
231.37	74.94
231.604	87.94
231.838	73.94
232.072	88.94
232.306	79.94
232.541	67.94
232.775	80.94
233.009	69.94
233.243	77.94
233.477	82.94
233.711	84.94
233.945	84.94
234.179	72.94
234.413	76.94
234.647	77.94
234.881	79.94
235.115	79.94
235.349	80.94
235.583	77.94
235.817	91.94
236.051	80.94
236.285	73.94
236.519	84.94
236.753	84.94
236.987	85.94
237.221	72.94
237.455	69.94
237.689	70.94
237.922	70.94
238.156	64.94
238.39	69.94
238.624	78.94
238.858	72.94
239.091	71.94
239.325	64.94
239.559	85.94
239.793	72.94
240.027	64.94
240.26	78.94
240.494	78.94
240.728	61.94
240.961	72.94
241.195	77.94
241.429	87.94
241.662	75.94
241.896	80.94
242.13	59.94
242.363	65.94
242.597	76.94
242.83	74.94
243.064	73.94
243.298	79.94
243.531	81.94
243.765	81.94
243.998	76.94
244.232	84.94
244.465	76.94
244.699	61.94
244.932	73.94
245.166	77.94
245.399	69.94
245.633	77.94
245.866	81.94
246.099	78.94
246.333	70.94
246.566	80.94
246.8	75.94
247.033	80.94
247.266	79.94
247.5	65.94
247.733	68.94
247.966	65.94
248.2	86.94
248.433	69.94
248.666	80.94
248.899	71.94
249.133	73.94
249.366	79.94
249.599	81.94
249.832	73.94
250.066	95.94
250.299	70.94
250.532	64.94
250.765	75.94
250.998	79.94
251.231	63.94
251.465	83.94
251.698	70.94
251.931	74.94
252.164	87.94
252.397	72.94
252.63	84.94
252.863	72.94
253.096	69.94
253.329	76.94
253.562	85.94
253.795	84.94
254.028	73.94
254.261	87.94
254.494	69.94
254.727	77.94
254.96	64.94
255.193	87.94
255.426	70.94
255.659	85.94
255.892	71.94
256.124	68.94
256.357	77.94
256.59	80.94
256.823	79.94
257.056	77.94
257.289	72.94
257.521	84.94
257.754	83.94
257.987	77.94
258.22	80.94
258.452	81.94
258.685	84.94
258.918	75.94
259.151	67.94
259.383	90.94
259.616	91.94
259.849	81.94
260.081	84.94
260.314	69.94
260.547	68.94
260.779	83.94
261.012	95.94
261.244	71.94
261.477	75.94
261.71	69.94
261.942	68.94
262.175	73.94
262.407	79.94
262.64	72.94
262.872	88.94
263.105	64.94
263.337	87.94
263.57	79.94
263.802	69.94
264.035	79.94
264.267	83.94
264.499	73.94
264.732	85.94
264.964	80.94
265.197	75.94
265.429	93.94
265.661	75.94
265.894	67.94
266.126	71.94
266.358	77.94
266.591	71.94
266.823	72.94
267.055	80.94
267.287	79.94
267.52	65.94
267.752	84.94
267.984	79.94
268.216	73.94
268.448	75.94
268.681	83.94
268.913	74.94
269.145	93.94
269.377	80.94
269.609	80.94
269.841	66.94
270.073	83.94
270.306	88.94
270.538	81.94
270.77	65.94
271.002	73.94
271.234	77.94
271.466	86.94
271.698	86.94
271.93	85.94
272.162	88.94
272.394	91.94
272.626	82.94
272.858	66.94
273.09	80.94
273.322	86.94
273.553	72.94
273.785	84.94
274.017	69.94
274.249	83.94
274.481	75.94
274.713	81.94
274.945	68.94
275.176	87.94
275.408	83.94
275.64	78.94
275.872	91.94
276.104	79.94
276.335	87.94
276.567	84.94
276.799	72.94
277.031	83.94
277.262	87.94
277.494	75.94
277.726	76.94
277.957	84.94
278.189	62.94
278.421	88.94
278.652	87.94
278.884	77.94
279.115	87.94
279.347	74.94
279.579	69.94
279.81	73.94
280.042	77.94
280.273	71.94
280.505	88.94
280.736	87.94
280.968	78.94
281.199	81.94
281.431	70.94
281.662	70.94
281.894	68.94
282.125	76.94
282.356	72.94
282.588	73.94
282.819	80.94
283.051	73.94
283.282	72.94
283.513	75.94
283.745	74.94
283.976	84.94
284.207	86.94
284.439	88.94
284.67	84.94
284.901	80.94
285.132	82.94
285.364	72.94
285.595	83.94
285.826	81.94
286.057	98.94
286.288	79.94
286.52	70.94
286.751	87.94
286.982	87.94
287.213	92.94
287.444	96.94
287.675	90.94
287.906	87.94
288.138	103.94
288.369	81.94
288.6	78.94
288.831	87.94
289.062	82.94
289.293	77.94
289.524	67.94
289.755	81.94
289.986	77.94
290.217	95.94
290.448	94.94
290.679	91.94
290.91	92.94
291.141	84.94
291.371	89.94
291.602	99.94
291.833	86.94
292.064	72.94
292.295	89.94
292.526	71.94
292.757	72.94
292.987	76.94
293.218	70.94
293.449	72.94
293.68	85.94
293.91	75.94
294.141	88.94
294.372	83.94
294.603	86.94
294.833	71.94
295.064	77.94
295.295	75.94
295.525	74.94
295.756	65.94
295.987	63.94
296.217	84.94
296.448	91.94
296.679	88.94
296.909	79.94
297.14	77.94
297.37	68.94
297.601	82.94
297.831	86.94
298.062	86.94
298.292	80.94
298.523	91.94
298.753	91.94
298.984	103.94
299.214	79.94
299.445	80.94
299.675	88.94
299.905	76.94
300.136	79.94
300.366	65.94
300.597	90.94
300.827	88.94
301.057	85.94
301.288	93.94
301.518	89.94
301.748	73.94
301.979	98.94
302.209	85.94
302.439	75.94
302.669	89.94
302.9	81.94
303.13	78.94
303.36	85.94
303.59	67.94
303.82	70.94
304.051	79.94
304.281	87.94
304.511	81.94
304.741	80.94
304.971	84.94
305.201	84.94
305.431	94.94
305.661	79.94
305.891	92.94
306.121	77.94
306.352	78.94
306.582	93.94
306.812	92.94
307.042	75.94
307.272	79.94
307.502	74.94
307.731	83.94
307.961	86.94
308.191	83.94
308.421	87.94
308.651	84.94
308.881	85.94
309.111	107.94
309.341	75.94
309.571	91.94
309.8	85.94
310.03	78.94
310.26	83.94
310.49	85.94
310.72	72.94
310.949	83.94
311.179	78.94
311.409	92.94
311.639	117.94
311.868	79.94
312.098	70.94
312.328	89.94
312.557	84.94
312.787	90.94
313.017	86.94
313.246	90.94
313.476	77.94
313.706	97.94
313.935	76.94
314.165	76.94
314.394	66.94
314.624	81.94
314.853	71.94
315.083	95.94
315.312	93.94
315.542	77.94
315.771	95.94
316.001	84.94
316.23	85.94
316.46	77.94
316.689	87.94
316.919	88.94
317.148	76.94
317.377	87.94
317.607	94.94
317.836	79.94
318.065	87.94
318.295	84.94
318.524	80.94
318.753	83.94
318.983	71.94
319.212	98.94
319.441	94.94
319.67	81.94
319.9	76.94
320.129	83.94
320.358	88.94
320.587	86.94
320.816	74.94
321.046	76.94
321.275	92.94
321.504	83.94
321.733	65.94
321.962	87.94
322.191	91.94
322.42	85.94
322.649	71.94
322.878	70.94
323.108	76.94
323.337	81.94
323.566	73.94
323.795	74.94
324.024	83.94
324.253	85.94
324.482	75.94
324.71	74.94
324.939	89.94
325.168	82.94
325.397	74.94
325.626	87.94
325.855	93.94
326.084	83.94
326.313	81.94
326.542	73.94
326.77	78.94
326.999	80.94
327.228	80.94
327.457	83.94
327.686	81.94
327.914	87.94
328.143	80.94
328.372	70.94
328.6	81.94
328.829	82.94
329.058	82.94
329.287	84.94
329.515	82.94
329.744	83.94
329.972	77.94
330.201	86.94
330.43	87.94
330.658	74.94
330.887	85.94
331.115	85.94
331.344	87.94
331.572	75.94
331.801	73.94
332.03	78.94
332.258	100.94
332.486	95.94
332.715	80.94
332.943	73.94
333.172	86.94
333.4	78.94
333.629	93.94
333.857	84.94
334.085	98.94
334.314	88.94
334.542	84.94
334.771	88.94
334.999	70.94
335.227	96.94
335.455	88.94
335.684	71.94
335.912	77.94
336.14	95.94
336.369	72.94
336.597	64.94
336.825	94.94
337.053	61.94
337.281	80.94
337.51	78.94
337.738	87.94
337.966	87.94
338.194	80.94
338.422	78.94
338.65	76.94
338.878	95.94
339.106	85.94
339.334	86.94
339.562	65.94
339.79	79.94
340.018	80.94
340.246	77.94
340.474	77.94
340.702	87.94
340.93	71.94
341.158	69.94
341.386	87.94
341.614	91.94
341.842	80.94
342.07	81.94
342.298	80.94
342.526	77.94
342.754	80.94
342.981	76.94
343.209	73.94
343.437	103.94
343.665	78.94
343.893	79.94
344.12	86.94
344.348	77.94
344.576	94.94
344.804	83.94
345.031	77.94
345.259	77.94
345.487	88.94
345.714	67.94
345.942	98.94
346.17	84.94
346.397	94.94
346.625	69.94
346.853	77.94
347.08	86.94
347.308	88.94
347.535	78.94
347.763	64.94
347.99	85.94
348.218	95.94
348.445	92.94
348.673	80.94
348.9	69.94
349.128	79.94
349.355	66.94
349.583	80.94
349.81	85.94
350.037	78.94
350.265	83.94
350.492	81.94
350.72	64.94
350.947	86.94
351.174	77.94
351.402	67.94
351.629	79.94
351.856	80.94
352.083	78.94
352.311	83.94
352.538	94.94
352.765	93.94
352.992	94.94
353.22	96.94
353.447	60.94
353.674	81.94
353.901	89.94
354.128	87.94
354.355	79.94
354.583	77.94
354.81	74.94
355.037	87.94
355.264	91.94
355.491	84.94
355.718	78.94
355.945	79.94
356.172	79.94
356.399	88.94
356.626	87.94
356.853	94.94
357.08	90.94
357.307	79.94
357.534	82.94
357.761	76.94
357.988	79.94
358.215	89.94
358.441	92.94
358.668	79.94
358.895	99.94
359.122	96.94
359.349	78.94
359.576	79.94
359.802	74.94
360.029	70.94
360.256	73.94
360.483	81.94
360.709	90.94
360.936	93.94
361.163	78.94
361.39	86.94
361.616	82.94
361.843	88.94
362.07	71.94
362.296	82.94
362.523	91.94
362.749	69.94
362.976	78.94
363.203	95.94
363.429	88.94
363.656	78.94
363.882	88.94
364.109	80.94
364.335	88.94
364.562	89.94
364.788	95.94
365.015	87.94
365.241	85.94
365.468	84.94
365.694	73.94
365.92	92.94
366.147	85.94
366.373	74.94
366.599	87.94
366.826	90.94
367.052	81.94
367.278	86.94
367.505	87.94
367.731	79.94
367.957	77.94
368.184	70.94
368.41	83.94
368.636	78.94
368.862	80.94
369.089	76.94
369.315	83.94
369.541	77.94
369.767	76.94
369.993	73.94
370.219	79.94
370.445	68.94
370.672	93.94
370.898	87.94
371.124	84.94
371.35	84.94
371.576	89.94
371.802	79.94
372.028	61.94
372.254	74.94
372.48	91.94
372.706	84.94
372.932	72.94
373.158	87.94
373.384	98.94
373.61	82.94
373.835	99.94
374.061	92.94
374.287	91.94
374.513	76.94
374.739	78.94
374.965	85.94
375.191	91.94
375.416	80.94
375.642	84.94
375.868	80.94
376.094	80.94
376.319	80.94
376.545	77.94
376.771	77.94
376.997	76.94
377.222	80.94
377.448	73.94
377.674	93.94
377.899	78.94
378.125	88.94
378.35	85.94
378.576	77.94
378.802	79.94
379.027	78.94
379.253	96.94
379.478	86.94
379.704	86.94
379.929	78.94
380.155	67.94
380.38	66.94
380.606	99.94
380.831	91.94
381.057	87.94
381.282	79.94
381.507	81.94
381.733	75.94
381.958	83.94
382.184	84.94
382.409	77.94
382.634	83.94
382.86	91.94
383.085	83.94
383.31	85.94
383.535	94.94
383.761	86.94
383.986	83.94
384.211	76.94
384.436	69.94
384.662	93.94
384.887	64.94
385.112	80.94
385.337	72.94
385.562	84.94
385.787	93.94
386.013	81.94
386.238	74.94
386.463	83.94
386.688	93.94
386.913	82.94
387.138	84.94
387.363	88.94
387.588	84.94
387.813	79.94
388.038	82.94
388.263	93.94
388.488	73.94
388.713	85.94
388.938	83.94
389.163	70.94
389.387	94.94
389.612	93.94
389.837	85.94
390.062	74.94
390.287	77.94
390.512	73.94
390.736	78.94
390.961	72.94
391.186	72.94
391.411	75.94
391.636	85.94
391.86	87.94
392.085	70.94
392.31	88.94
392.534	94.94
392.759	93.94
392.984	96.94
393.208	117.94
393.433	166.94
393.658	136.94
393.882	90.94
394.107	80.94
394.331	96.94
394.556	94.94
394.78	83.94
395.005	85.94
395.229	68.94
395.454	84.94
395.678	80.94
395.903	92.94
396.127	97.94
396.352	86.94
396.576	104.94
396.801	151.94
397.025	142.94
397.249	104.94
397.474	104.94
397.698	78.94
397.922	79.94
398.147	88.94
398.371	81.94
398.595	73.94
398.82	67.94
399.044	69.94
399.268	88.94
399.492	92.94
399.717	81.94
399.941	87.94
400.165	77.94
400.389	87.94
400.613	93.94
400.837	75.94
401.062	81.94
401.286	82.94
401.51	85.94
401.734	73.94
401.958	73.94
402.182	70.94
402.406	88.94
402.63	77.94
402.854	70.94
403.078	75.94
403.302	85.94
403.526	67.94
403.75	80.94
403.974	71.94
404.198	73.94
404.422	77.94
404.645	95.94
404.869	90.94
405.093	56.94
405.317	82.94
405.541	91.94
405.765	77.94
405.988	86.94
406.212	83.94
406.436	77.94
406.66	87.94
406.883	69.94
407.107	67.94
407.331	92.94
407.555	96.94
407.778	99.94
408.002	92.94
408.226	76.94
408.449	86.94
408.673	82.94
408.896	89.94
409.12	78.94
409.344	95.94
409.567	86.94
409.791	76.94
410.014	91.94
410.238	85.94
410.461	75.94
410.685	81.94
410.908	68.94
411.132	81.94
411.355	75.94
411.578	82.94
411.802	88.94
412.025	87.94
412.249	83.94
412.472	79.94
412.695	84.94
412.919	81.94
413.142	78.94
413.365	78.94
413.589	79.94
413.812	78.94
414.035	95.94
414.258	84.94
414.482	88.94
414.705	88.94
414.928	67.94
415.151	81.94
415.374	85.94
415.597	78.94
415.821	88.94
416.044	83.94
416.267	87.94
416.49	77.94
416.713	87.94
416.936	76.94
417.159	56.94
417.382	83.94
417.605	86.94
417.828	91.94
418.051	83.94
418.274	88.94
418.497	85.94
418.72	80.94
418.943	92.94
419.166	79.94
419.389	92.94
419.611	69.94
419.834	85.94
420.057	79.94
420.28	71.94
420.503	77.94
420.726	80.94
420.948	82.94
421.171	67.94
421.394	78.94
421.617	86.94
421.839	91.94
422.062	85.94
422.285	92.94
422.507	142.94
422.73	164.94
422.953	156.94
423.175	105.94
423.398	92.94
423.621	79.94
423.843	87.94
424.066	65.94
424.288	67.94
424.511	69.94
424.733	77.94
424.956	80.94
425.178	76.94
425.401	89.94
425.623	77.94
425.846	81.94
426.068	80.94
426.291	84.94
426.513	69.94
426.735	83.94
426.958	76.94
427.18	78.94
427.402	74.94
427.625	73.94
427.847	89.94
428.069	71.94
428.292	87.94
428.514	87.94
428.736	77.94
428.958	97.94
429.181	95.94
429.403	84.94
429.625	73.94
429.847	92.94
430.069	97.94
430.292	115.94
430.514	115.94
430.736	98.94
430.958	88.94
431.18	95.94
431.402	79.94
431.624	65.94
431.846	87.94
432.068	85.94
432.29	92.94
432.512	85.94
432.734	79.94
432.956	78.94
433.178	86.94
433.4	76.94
433.622	80.94
433.844	82.94
434.066	85.94
434.287	84.94
434.509	71.94
434.731	94.94
434.953	83.94
435.175	76.94
435.397	69.94
435.618	77.94
435.84	88.94
436.062	77.94
436.284	79.94
436.505	67.94
436.727	75.94
436.949	80.94
437.17	86.94
437.392	85.94
437.614	57.94
437.835	87.94
438.057	80.94
438.278	69.94
438.5	93.94
438.721	77.94
438.943	86.94
439.165	75.94
439.386	88.94
439.608	82.94
439.829	87.94
440.05	85.94
440.272	79.94
440.493	72.94
440.715	68.94
440.936	80.94
441.158	78.94
441.379	84.94
441.6	81.94
441.822	81.94
442.043	73.94
442.264	94.94
442.486	81.94
442.707	98.94
442.928	77.94
443.149	83.94
443.371	97.94
443.592	109.94
443.813	97.94
444.034	78.94
444.255	71.94
444.476	77.94
444.698	91.94
444.919	71.94
445.14	140.94
445.361	123.94
445.582	113.94
445.803	110.94
446.024	94.94
446.245	83.94
446.466	95.94
446.687	80.94
446.908	86.94
447.129	86.94
447.35	81.94
447.571	72.94
447.792	74.94
448.013	73.94
448.234	83.94
448.455	61.94
448.675	77.94
448.896	80.94
449.117	86.94
449.338	80.94
449.559	83.94
449.779	87.94
450	79.94
450.221	87.94
450.442	72.94
450.662	74.94
450.883	87.94
451.104	79.94
451.324	83.94
451.545	66.94
451.766	71.94
451.986	65.94
452.207	81.94
452.428	87.94
452.648	73.94
452.869	82.94
453.089	84.94
453.31	78.94
453.53	73.94
453.751	79.94
453.971	93.94
454.192	62.94
454.412	86.94
454.633	68.94
454.853	82.94
455.073	83.94
455.294	84.94
455.514	80.94
455.734	70.94
455.955	77.94
456.175	79.94
456.395	79.94
456.616	73.94
456.836	95.94
457.056	79.94
457.276	61.94
457.497	84.94
457.717	75.94
457.937	67.94
458.157	94.94
458.377	90.94
458.598	85.94
458.818	79.94
459.038	75.94
459.258	91.94
459.478	79.94
459.698	83.94
459.918	67.94
460.138	70.94
460.358	63.94
460.578	93.94
460.798	80.94
461.018	85.94
461.238	91.94
461.458	87.94
461.678	82.94
461.898	94.94
462.118	98.94
462.338	91.94
462.558	86.94
462.777	71.94
462.997	81.94
463.217	83.94
463.437	62.94
463.657	77.94
463.876	83.94
464.096	76.94
464.316	74.94
464.536	72.94
464.755	84.94
464.975	72.94
465.195	71.94
465.414	87.94
465.634	77.94
465.854	74.94
466.073	74.94
466.293	76.94
466.512	70.94
466.732	73.94
466.951	71.94
467.171	68.94
467.391	67.94
467.61	81.94
467.829	77.94
468.049	79.94
468.268	92.94
468.488	91.94
468.707	73.94
468.927	71.94
469.146	86.94
469.365	77.94
469.585	71.94
469.804	81.94
470.023	85.94
470.243	87.94
470.462	80.94
470.681	72.94
470.901	87.94
471.12	95.94
471.339	86.94
471.558	78.94
471.777	70.94
471.997	83.94
472.216	73.94
472.435	80.94
472.654	69.94
472.873	94.94
473.092	71.94
473.311	88.94
473.53	79.94
473.749	93.94
473.968	90.94
474.187	84.94
474.406	67.94
474.625	83.94
474.844	70.94
475.063	87.94
475.282	83.94
475.501	75.94
475.72	87.94
475.939	95.94
476.158	87.94
476.377	69.94
476.596	68.94
476.814	69.94
477.033	71.94
477.252	85.94
477.471	72.94
477.69	73.94
477.908	78.94
478.127	79.94
478.346	74.94
478.564	83.94
478.783	91.94
479.002	78.94
479.22	82.94
479.439	78.94
479.658	65.94
479.876	73.94
480.095	82.94
480.313	71.94
480.532	94.94
480.751	85.94
480.969	83.94
481.188	72.94
481.406	95.94
481.624	92.94
481.843	81.94
482.061	87.94
482.28	79.94
482.498	93.94
482.717	79.94
482.935	90.94
483.153	85.94
483.372	84.94
483.59	80.94
483.808	88.94
484.027	73.94
484.245	85.94
484.463	85.94
484.681	74.94
484.9	71.94
485.118	80.94
485.336	92.94
485.554	80.94
485.772	81.94
485.99	92.94
486.209	74.94
486.427	71.94
486.645	82.94
486.863	81.94
487.081	89.94
487.299	100.94
487.517	71.94
487.735	83.94
487.953	91.94
488.171	88.94
488.389	93.94
488.607	93.94
488.825	68.94
489.043	88.94
489.261	97.94
489.479	95.94
489.696	87.94
489.914	76.94
490.132	84.94
490.35	81.94
490.568	87.94
490.786	87.94
491.003	87.94
491.221	68.94
491.439	93.94
491.657	95.94
491.874	79.94
492.092	72.94
492.31	82.94
492.527	74.94
492.745	87.94
492.963	81.94
493.18	79.94
493.398	73.94
493.615	82.94
493.833	96.94
494.05	85.94
494.268	68.94
494.485	88.94
494.703	82.94
494.92	87.94
495.138	81.94
495.355	82.94
495.573	89.94
495.79	89.94
496.008	87.94
496.225	85.94
496.442	94.94
496.66	84.94
496.877	88.94
497.094	96.94
497.312	87.94
497.529	90.94
497.746	81.94
497.963	80.94
498.181	72.94
498.398	73.94
498.615	85.94
498.832	85.94
499.049	74.94
499.267	88.94
499.484	85.94
499.701	83.94
499.918	91.94
500.135	80.94
500.352	84.94
500.569	92.94
500.786	83.94
501.003	80.94
501.22	66.94
501.437	85.94
501.654	67.94
501.871	88.94
502.088	98.94
502.305	75.94
502.522	95.94
502.739	88.94
502.956	94.94
503.172	76.94
503.389	95.94
503.606	83.94
503.823	83.94
504.04	80.94
504.256	96.94
504.473	93.94
504.69	87.94
504.907	91.94
505.123	79.94
505.34	72.94
505.557	65.94
505.773	80.94
505.99	74.94
506.207	79.94
506.423	68.94
506.64	79.94
506.856	90.94
507.073	88.94
507.289	83.94
507.506	88.94
507.722	84.94
507.939	75.94
508.155	100.94
508.372	83.94
508.588	83.94
508.805	86.94
509.021	93.94
509.238	85.94
509.454	77.94
509.67	75.94
509.887	86.94
510.103	88.94
510.319	84.94
510.536	91.94
510.752	78.94
510.968	88.94
511.184	83.94
511.401	67.94
511.617	98.94
511.833	77.94
512.049	80.94
512.265	81.94
512.481	67.94
512.698	79.94
512.914	79.94
513.13	87.94
513.346	75.94
513.562	86.94
513.778	78.94
513.994	80.94
514.21	83.94
514.426	66.94
514.642	89.94
514.858	87.94
515.074	75.94
515.29	89.94
515.506	85.94
515.721	80.94
515.937	88.94
516.153	88.94
516.369	91.94
516.585	74.94
516.801	76.94
517.016	83.94
517.232	80.94
517.448	81.94
517.664	87.94
517.879	77.94
518.095	84.94
518.311	83.94
518.527	91.94
518.742	78.94
518.958	74.94
519.173	81.94
519.389	92.94
519.605	73.94
519.82	83.94
520.036	92.94
