Data from 17600_1_HRD10591_00004.txt Node
Date: Mon Jan 19 14:07:26 EST 2026
User: Yrep
Spectrometer: HR+D1059
Trigger mode: 1
Integration Time (sec): 1.000000E-1
Scans to average: 1
Electric dark correction enabled: true
Nonlinearity correction enabled: false
Boxcar width: 0
XAxis mode: Wavelengths
Number of Pixels in Spectrum: 2048
>>>>>Begin Spectral Data<<<<<
223.165	-15.44
223.4	-15.44
223.635	-15.44
223.869	-33.44
224.104	-18.44
224.338	-18.44
224.573	-17.44
224.808	-9.44
225.042	-2.44
225.277	-12.44
225.511	3.56
225.746	0.56
225.98	8.56
226.215	23.56
226.449	23.56
226.683	19.56
226.918	15.56
227.152	32.56
227.387	39.56
227.621	41.56
227.856	38.56
228.09	45.56
228.324	46.56
228.559	60.56
228.793	58.56
229.027	64.56
229.262	66.56
229.496	65.56
229.73	57.56
229.964	76.56
230.199	70.56
230.433	76.56
230.667	80.56
230.901	74.56
231.136	73.56
231.37	77.56
231.604	85.56
231.838	69.56
232.072	70.56
232.306	69.56
232.541	77.56
232.775	83.56
233.009	79.56
233.243	93.56
233.477	86.56
233.711	75.56
233.945	74.56
234.179	76.56
234.413	68.56
234.647	82.56
234.881	86.56
235.115	72.56
235.349	76.56
235.583	59.56
235.817	77.56
236.051	74.56
236.285	68.56
236.519	79.56
236.753	74.56
236.987	92.56
237.221	84.56
237.455	70.56
237.689	72.56
237.922	84.56
238.156	86.56
238.39	78.56
238.624	72.56
238.858	70.56
239.091	67.56
239.325	48.56
239.559	82.56
239.793	70.56
240.027	88.56
240.26	75.56
240.494	70.56
240.728	77.56
240.961	66.56
241.195	75.56
241.429	76.56
241.662	60.56
241.896	74.56
242.13	76.56
242.363	71.56
242.597	77.56
242.83	82.56
243.064	75.56
243.298	72.56
243.531	68.56
243.765	74.56
243.998	69.56
244.232	76.56
244.465	68.56
244.699	86.56
244.932	72.56
245.166	77.56
245.399	72.56
245.633	73.56
245.866	68.56
246.099	71.56
246.333	84.56
246.566	82.56
246.8	73.56
247.033	77.56
247.266	89.56
247.5	77.56
247.733	63.56
247.966	85.56
248.2	80.56
248.433	69.56
248.666	74.56
248.899	69.56
249.133	82.56
249.366	79.56
249.599	75.56
249.832	70.56
250.066	76.56
250.299	70.56
250.532	78.56
250.765	74.56
250.998	82.56
251.231	81.56
251.465	81.56
251.698	68.56
251.931	94.56
252.164	89.56
252.397	66.56
252.63	89.56
252.863	75.56
253.096	70.56
253.329	88.56
253.562	85.56
253.795	92.56
254.028	75.56
254.261	74.56
254.494	73.56
254.727	88.56
254.96	77.56
255.193	68.56
255.426	80.56
255.659	78.56
255.892	76.56
256.124	64.56
256.357	86.56
256.59	72.56
256.823	84.56
257.056	80.56
257.289	70.56
257.521	81.56
257.754	81.56
257.987	88.56
258.22	78.56
258.452	83.56
258.685	75.56
258.918	73.56
259.151	74.56
259.383	80.56
259.616	78.56
259.849	70.56
260.081	78.56
260.314	80.56
260.547	72.56
260.779	85.56
261.012	90.56
261.244	77.56
261.477	97.56
261.71	80.56
261.942	85.56
262.175	88.56
262.407	72.56
262.64	73.56
262.872	87.56
263.105	74.56
263.337	88.56
263.57	86.56
263.802	86.56
264.035	61.56
264.267	90.56
264.499	76.56
264.732	89.56
264.964	76.56
265.197	69.56
265.429	74.56
265.661	85.56
265.894	80.56
266.126	78.56
266.358	77.56
266.591	75.56
266.823	82.56
267.055	63.56
267.287	82.56
267.52	82.56
267.752	82.56
267.984	91.56
268.216	78.56
268.448	80.56
268.681	71.56
268.913	82.56
269.145	75.56
269.377	89.56
269.609	77.56
269.841	71.56
270.073	96.56
270.306	84.56
270.538	83.56
270.77	86.56
271.002	88.56
271.234	72.56
271.466	67.56
271.698	75.56
271.93	72.56
272.162	86.56
272.394	100.56
272.626	87.56
272.858	86.56
273.09	75.56
273.322	71.56
273.553	74.56
273.785	96.56
274.017	74.56
274.249	75.56
274.481	78.56
274.713	81.56
274.945	86.56
275.176	82.56
275.408	70.56
275.64	78.56
275.872	92.56
276.104	78.56
276.335	78.56
276.567	95.56
276.799	75.56
277.031	87.56
277.262	92.56
277.494	86.56
277.726	82.56
277.957	79.56
278.189	76.56
278.421	93.56
278.652	91.56
278.884	84.56
279.115	79.56
279.347	72.56
279.579	92.56
279.81	84.56
280.042	88.56
280.273	79.56
280.505	96.56
280.736	83.56
280.968	89.56
281.199	83.56
281.431	88.56
281.662	84.56
281.894	75.56
282.125	79.56
282.356	80.56
282.588	93.56
282.819	86.56
283.051	90.56
283.282	84.56
283.513	85.56
283.745	93.56
283.976	78.56
284.207	78.56
284.439	82.56
284.67	82.56
284.901	82.56
285.132	79.56
285.364	95.56
285.595	78.56
285.826	76.56
286.057	89.56
286.288	78.56
286.52	92.56
286.751	83.56
286.982	90.56
287.213	84.56
287.444	88.56
287.675	73.56
287.906	72.56
288.138	88.56
288.369	87.56
288.6	93.56
288.831	69.56
289.062	87.56
289.293	80.56
289.524	63.56
289.755	92.56
289.986	81.56
290.217	95.56
290.448	81.56
290.679	85.56
290.91	81.56
291.141	75.56
291.371	88.56
291.602	68.56
291.833	69.56
292.064	74.56
292.295	84.56
292.526	73.56
292.757	85.56
292.987	88.56
293.218	94.56
293.449	85.56
293.68	73.56
293.91	73.56
294.141	88.56
294.372	92.56
294.603	73.56
294.833	73.56
295.064	86.56
295.295	98.56
295.525	90.56
295.756	85.56
295.987	74.56
296.217	78.56
296.448	84.56
296.679	100.56
296.909	84.56
297.14	93.56
297.37	99.56
297.601	84.56
297.831	85.56
298.062	78.56
298.292	85.56
298.523	97.56
298.753	93.56
298.984	88.56
299.214	66.56
299.445	81.56
299.675	89.56
299.905	81.56
300.136	99.56
300.366	82.56
300.597	87.56
300.827	94.56
301.057	95.56
301.288	88.56
301.518	80.56
301.748	89.56
301.979	100.56
302.209	106.56
302.439	77.56
302.669	80.56
302.9	72.56
303.13	83.56
303.36	95.56
303.59	96.56
303.82	80.56
304.051	81.56
304.281	76.56
304.511	89.56
304.741	100.56
304.971	90.56
305.201	103.56
305.431	92.56
305.661	78.56
305.891	100.56
306.121	88.56
306.352	70.56
306.582	75.56
306.812	87.56
307.042	87.56
307.272	96.56
307.502	79.56
307.731	92.56
307.961	81.56
308.191	92.56
308.421	100.56
308.651	81.56
308.881	99.56
309.111	89.56
309.341	92.56
309.571	90.56
309.8	76.56
310.03	106.56
310.26	84.56
310.49	80.56
310.72	88.56
310.949	73.56
311.179	81.56
311.409	82.56
311.639	90.56
311.868	84.56
312.098	110.56
312.328	87.56
312.557	73.56
312.787	88.56
313.017	80.56
313.246	97.56
313.476	80.56
313.706	87.56
313.935	74.56
314.165	76.56
314.394	92.56
314.624	91.56
314.853	92.56
315.083	80.56
315.312	93.56
315.542	93.56
315.771	102.56
316.001	99.56
316.23	94.56
316.46	106.56
316.689	96.56
316.919	97.56
317.148	78.56
317.377	90.56
317.607	105.56
317.836	117.56
318.065	116.56
318.295	104.56
318.524	76.56
318.753	81.56
318.983	101.56
319.212	77.56
319.441	93.56
319.67	81.56
319.9	92.56
320.129	77.56
320.358	90.56
320.587	83.56
320.816	71.56
321.046	84.56
321.275	98.56
321.504	93.56
321.733	89.56
321.962	67.56
322.191	92.56
322.42	92.56
322.649	90.56
322.878	92.56
323.108	86.56
323.337	97.56
323.566	73.56
323.795	80.56
324.024	86.56
324.253	90.56
324.482	87.56
324.71	87.56
324.939	92.56
325.168	81.56
325.397	78.56
325.626	73.56
325.855	78.56
326.084	91.56
326.313	81.56
326.542	90.56
326.77	89.56
326.999	96.56
327.228	95.56
327.457	90.56
327.686	88.56
327.914	88.56
328.143	82.56
328.372	92.56
328.6	90.56
328.829	87.56
329.058	68.56
329.287	87.56
329.515	84.56
329.744	74.56
329.972	92.56
330.201	88.56
330.43	92.56
330.658	86.56
330.887	84.56
331.115	81.56
331.344	79.56
331.572	83.56
331.801	97.56
332.03	83.56
332.258	92.56
332.486	84.56
332.715	88.56
332.943	70.56
333.172	85.56
333.4	86.56
333.629	87.56
333.857	83.56
334.085	77.56
334.314	78.56
334.542	93.56
334.771	99.56
334.999	105.56
335.227	98.56
335.455	87.56
335.684	92.56
335.912	105.56
336.14	111.56
336.369	105.56
336.597	98.56
336.825	89.56
337.053	108.56
337.281	89.56
337.51	82.56
337.738	90.56
337.966	99.56
338.194	90.56
338.422	75.56
338.65	80.56
338.878	83.56
339.106	89.56
339.334	79.56
339.562	88.56
339.79	94.56
340.018	90.56
340.246	87.56
340.474	85.56
340.702	85.56
340.93	90.56
341.158	85.56
341.386	88.56
341.614	79.56
341.842	86.56
342.07	94.56
342.298	72.56
342.526	79.56
342.754	95.56
342.981	94.56
343.209	75.56
343.437	112.56
343.665	74.56
343.893	77.56
344.12	104.56
344.348	104.56
344.576	94.56
344.804	85.56
345.031	85.56
345.259	69.56
345.487	77.56
345.714	82.56
345.942	81.56
346.17	100.56
346.397	84.56
346.625	92.56
346.853	88.56
347.08	92.56
347.308	80.56
347.535	80.56
347.763	95.56
347.99	101.56
348.218	84.56
348.445	96.56
348.673	98.56
348.9	86.56
349.128	104.56
349.355	108.56
349.583	84.56
349.81	79.56
350.037	98.56
350.265	91.56
350.492	96.56
350.72	83.56
350.947	80.56
351.174	84.56
351.402	83.56
351.629	77.56
351.856	100.56
352.083	101.56
352.311	93.56
352.538	81.56
352.765	78.56
352.992	99.56
353.22	92.56
353.447	92.56
353.674	94.56
353.901	86.56
354.128	95.56
354.355	82.56
354.583	91.56
354.81	89.56
355.037	83.56
355.264	81.56
355.491	87.56
355.718	92.56
355.945	83.56
356.172	93.56
356.399	84.56
356.626	108.56
356.853	102.56
357.08	106.56
357.307	86.56
357.534	85.56
357.761	81.56
357.988	100.56
358.215	113.56
358.441	92.56
358.668	93.56
358.895	79.56
359.122	88.56
359.349	76.56
359.576	89.56
359.802	76.56
360.029	75.56
360.256	90.56
360.483	109.56
360.709	89.56
360.936	105.56
361.163	87.56
361.39	87.56
361.616	87.56
361.843	96.56
362.07	108.56
362.296	100.56
362.523	106.56
362.749	124.56
362.976	136.56
363.203	151.56
363.429	125.56
363.656	108.56
363.882	101.56
364.109	114.56
364.335	156.56
364.562	165.56
364.788	130.56
365.015	101.56
365.241	92.56
365.468	102.56
365.694	92.56
365.92	80.56
366.147	84.56
366.373	88.56
366.599	79.56
366.826	87.56
367.052	85.56
367.278	89.56
367.505	88.56
367.731	95.56
367.957	112.56
368.184	83.56
368.41	82.56
368.636	101.56
368.862	104.56
369.089	92.56
369.315	84.56
369.541	81.56
369.767	83.56
369.993	76.56
370.219	87.56
370.445	115.56
370.672	116.56
370.898	95.56
371.124	84.56
371.35	96.56
371.576	86.56
371.802	99.56
372.028	101.56
372.254	111.56
372.48	103.56
372.706	104.56
372.932	107.56
373.158	99.56
373.384	114.56
373.61	124.56
373.835	157.56
374.061	104.56
374.287	96.56
374.513	104.56
374.739	103.56
374.965	111.56
375.191	119.56
375.416	100.56
375.642	99.56
375.868	111.56
376.094	108.56
376.319	99.56
376.545	96.56
376.771	87.56
376.997	110.56
377.222	82.56
377.448	96.56
377.674	102.56
377.899	88.56
378.125	64.56
378.35	79.56
378.576	83.56
378.802	109.56
379.027	97.56
379.253	102.56
379.478	103.56
379.704	93.56
379.929	92.56
380.155	92.56
380.38	98.56
380.606	102.56
380.831	110.56
381.057	104.56
381.282	104.56
381.507	97.56
381.733	104.56
381.958	94.56
382.184	120.56
382.409	108.56
382.634	114.56
382.86	117.56
383.085	116.56
383.31	132.56
383.535	113.56
383.761	116.56
383.986	130.56
384.211	115.56
384.436	102.56
384.662	105.56
384.887	88.56
385.112	118.56
385.337	102.56
385.562	104.56
385.787	113.56
386.013	114.56
386.238	101.56
386.463	92.56
386.688	109.56
386.913	120.56
387.138	99.56
387.363	126.56
387.588	112.56
387.813	102.56
388.038	124.56
388.263	127.56
388.488	104.56
388.713	89.56
388.938	101.56
389.163	105.56
389.387	100.56
389.612	110.56
389.837	94.56
390.062	108.56
390.287	86.56
390.512	88.56
390.736	85.56
390.961	87.56
391.186	100.56
391.411	86.56
391.636	94.56
391.86	96.56
392.085	106.56
392.31	101.56
392.534	129.56
392.759	144.56
392.984	238.56
393.208	439.56
393.433	670.56
393.658	532.56
393.882	202.56
394.107	139.56
394.331	144.56
394.556	159.56
394.78	127.56
395.005	100.56
395.229	103.56
395.454	116.56
395.678	118.56
395.903	149.56
396.127	171.56
396.352	216.56
396.576	258.56
396.801	458.56
397.025	542.56
397.249	262.56
397.474	160.56
397.698	112.56
397.922	94.56
398.147	103.56
398.371	108.56
398.595	94.56
398.82	77.56
399.044	85.56
399.268	94.56
399.492	91.56
399.717	88.56
399.941	98.56
400.165	99.56
400.389	76.56
400.613	93.56
400.837	89.56
401.062	86.56
401.286	91.56
401.51	91.56
401.734	86.56
401.958	85.56
402.182	94.56
402.406	84.56
402.63	97.56
402.854	92.56
403.078	105.56
403.302	102.56
403.526	101.56
403.75	93.56
403.974	90.56
404.198	96.56
404.422	106.56
404.645	103.56
404.869	88.56
405.093	92.56
405.317	103.56
405.541	88.56
405.765	92.56
405.988	96.56
406.212	86.56
406.436	89.56
406.66	95.56
406.883	87.56
407.107	84.56
407.331	94.56
407.555	120.56
407.778	168.56
408.002	166.56
408.226	115.56
408.449	91.56
408.673	87.56
408.896	91.56
409.12	96.56
409.344	114.56
409.567	121.56
409.791	128.56
410.014	122.56
410.238	110.56
410.461	97.56
410.685	93.56
410.908	89.56
411.132	99.56
411.355	89.56
411.578	86.56
411.802	99.56
412.025	104.56
412.249	88.56
412.472	82.56
412.695	87.56
412.919	97.56
413.142	92.56
413.365	100.56
413.589	93.56
413.812	86.56
414.035	74.56
414.258	108.56
414.482	91.56
414.705	96.56
414.928	98.56
415.151	91.56
415.374	97.56
415.597	94.56
415.821	97.56
416.044	98.56
416.267	89.56
416.49	77.56
416.713	86.56
416.936	80.56
417.159	88.56
417.382	97.56
417.605	93.56
417.828	97.56
418.051	95.56
418.274	86.56
418.497	86.56
418.72	92.56
418.943	90.56
419.166	94.56
419.389	95.56
419.611	86.56
419.834	104.56
420.057	108.56
420.28	88.56
420.503	96.56
420.726	100.56
420.948	97.56
421.171	101.56
421.394	129.56
421.617	186.56
421.839	184.56
422.062	165.56
422.285	212.56
422.507	404.56
422.73	624.56
422.953	552.56
423.175	311.56
423.398	181.56
423.621	136.56
423.843	121.56
424.066	109.56
424.288	105.56
424.511	85.56
424.733	99.56
424.956	96.56
425.178	97.56
425.401	89.56
425.623	98.56
425.846	89.56
426.068	100.56
426.291	110.56
426.513	95.56
426.735	98.56
426.958	101.56
427.18	98.56
427.402	94.56
427.625	109.56
427.847	105.56
428.069	113.56
428.292	160.56
428.514	181.56
428.736	129.56
428.958	166.56
429.181	169.56
429.403	124.56
429.625	104.56
429.847	148.56
430.069	218.56
430.292	245.56
430.514	227.56
430.736	163.56
430.958	178.56
431.18	110.56
431.402	109.56
431.624	103.56
431.846	135.56
432.068	169.56
432.29	111.56
432.512	101.56
432.734	87.56
432.956	82.56
433.178	89.56
433.4	108.56
433.622	96.56
433.844	82.56
434.066	64.56
434.287	87.56
434.509	78.56
434.731	92.56
434.953	74.56
435.175	89.56
435.397	102.56
435.618	97.56
435.84	112.56
436.062	88.56
436.284	84.56
436.505	75.56
436.727	83.56
436.949	83.56
437.17	73.56
437.392	84.56
437.614	89.56
437.835	90.56
438.057	92.56
438.278	102.56
438.5	94.56
438.721	85.56
438.943	84.56
439.165	82.56
439.386	86.56
439.608	101.56
439.829	98.56
440.05	95.56
440.272	83.56
440.493	87.56
440.715	97.56
440.936	82.56
441.158	90.56
441.379	89.56
441.6	88.56
441.822	97.56
442.043	94.56
442.264	126.56
442.486	174.56
442.707	222.56
442.928	138.56
443.149	111.56
443.371	182.56
443.592	332.56
443.813	302.56
444.034	144.56
444.255	108.56
444.476	113.56
444.698	86.56
444.919	102.56
445.14	201.56
445.361	240.56
445.582	408.56
445.803	364.56
446.024	144.56
446.245	108.56
446.466	102.56
446.687	91.56
446.908	97.56
447.129	94.56
447.35	87.56
447.571	76.56
447.792	92.56
448.013	89.56
448.234	90.56
448.455	86.56
448.675	113.56
448.896	101.56
449.117	97.56
449.338	82.56
449.559	85.56
449.779	94.56
450	96.56
450.221	92.56
450.442	92.56
450.662	88.56
450.883	88.56
451.104	85.56
451.324	97.56
451.545	91.56
451.766	89.56
451.986	74.56
452.207	90.56
452.428	91.56
452.648	107.56
452.869	123.56
453.089	118.56
453.31	80.56
453.53	96.56
453.751	92.56
453.971	84.56
454.192	82.56
454.412	88.56
454.633	88.56
454.853	75.56
455.073	88.56
455.294	76.56
455.514	96.56
455.734	104.56
455.955	90.56
456.175	71.56
456.395	80.56
456.616	83.56
456.836	85.56
457.056	98.56
457.276	74.56
457.497	85.56
457.717	114.56
457.937	120.56
458.157	159.56
458.377	166.56
458.598	135.56
458.818	157.56
459.038	109.56
459.258	96.56
459.478	78.56
459.698	74.56
459.918	90.56
460.138	92.56
460.358	103.56
460.578	119.56
460.798	173.56
461.018	166.56
461.238	96.56
461.458	80.56
461.678	93.56
461.898	103.56
462.118	93.56
462.338	89.56
462.558	92.56
462.777	92.56
462.997	74.56
463.217	91.56
463.437	86.56
463.657	84.56
463.876	92.56
464.096	96.56
464.316	84.56
464.536	86.56
464.755	89.56
464.975	94.56
465.195	84.56
465.414	82.56
465.634	96.56
465.854	96.56
466.073	103.56
466.293	89.56
466.512	86.56
466.732	68.56
466.951	98.56
467.171	96.56
467.391	95.56
467.61	96.56
467.829	93.56
468.049	95.56
468.268	90.56
468.488	80.56
468.707	88.56
468.927	85.56
469.146	73.56
469.365	98.56
469.585	91.56
469.804	94.56
470.023	86.56
470.243	104.56
470.462	83.56
470.681	86.56
470.901	98.56
471.12	80.56
471.339	85.56
471.558	74.56
471.777	81.56
471.997	103.56
472.216	89.56
472.435	82.56
472.654	82.56
472.873	81.56
473.092	98.56
473.311	88.56
473.53	94.56
473.749	85.56
473.968	94.56
474.187	103.56
474.406	88.56
474.625	105.56
474.844	96.56
475.063	94.56
475.282	88.56
475.501	86.56
475.72	100.56
475.939	85.56
476.158	101.56
476.377	92.56
476.596	81.56
476.814	97.56
477.033	93.56
477.252	87.56
477.471	89.56
477.69	95.56
477.908	90.56
478.127	102.56
478.346	83.56
478.564	106.56
478.783	77.56
479.002	93.56
479.22	94.56
479.439	96.56
479.658	90.56
479.876	90.56
480.095	94.56
480.313	92.56
480.532	111.56
480.751	98.56
480.969	97.56
481.188	95.56
481.406	93.56
481.624	95.56
481.843	87.56
482.061	93.56
482.28	98.56
482.498	109.56
482.717	96.56
482.935	99.56
483.153	100.56
483.372	116.56
483.59	96.56
483.808	89.56
484.027	104.56
484.245	105.56
484.463	111.56
484.681	98.56
484.9	98.56
485.118	115.56
485.336	80.56
485.554	117.56
485.772	92.56
485.99	88.56
486.209	107.56
486.427	99.56
486.645	97.56
486.863	86.56
487.081	89.56
487.299	105.56
487.517	114.56
487.735	149.56
487.953	233.56
488.171	192.56
488.389	105.56
488.607	89.56
488.825	84.56
489.043	102.56
489.261	94.56
489.479	94.56
489.696	87.56
489.914	100.56
490.132	88.56
490.35	106.56
490.568	113.56
490.786	92.56
491.003	101.56
491.221	104.56
491.439	82.56
491.657	96.56
491.874	108.56
492.092	94.56
492.31	118.56
492.527	85.56
492.745	92.56
492.963	97.56
493.18	99.56
493.398	88.56
493.615	112.56
493.833	100.56
494.05	90.56
494.268	94.56
494.485	113.56
494.703	106.56
494.92	99.56
495.138	85.56
495.355	94.56
495.573	105.56
495.79	80.56
496.008	85.56
496.225	112.56
496.442	103.56
496.66	108.56
496.877	95.56
497.094	103.56
497.312	87.56
497.529	89.56
497.746	97.56
497.963	101.56
498.181	98.56
498.398	101.56
498.615	102.56
498.832	88.56
499.049	81.56
499.267	112.56
499.484	101.56
499.701	106.56
499.918	104.56
500.135	102.56
500.352	92.56
500.569	104.56
500.786	98.56
501.003	97.56
501.22	98.56
501.437	106.56
501.654	94.56
501.871	87.56
502.088	96.56
502.305	88.56
502.522	86.56
502.739	101.56
502.956	102.56
503.172	95.56
503.389	95.56
503.606	97.56
503.823	97.56
504.04	121.56
504.256	166.56
504.473	188.56
504.69	97.56
504.907	100.56
505.123	92.56
505.34	97.56
505.557	100.56
505.773	103.56
505.99	105.56
506.207	109.56
506.423	86.56
506.64	93.56
506.856	106.56
507.073	98.56
507.289	100.56
507.506	96.56
507.722	88.56
507.939	106.56
508.155	115.56
508.372	106.56
508.588	100.56
508.805	87.56
509.021	93.56
509.238	97.56
509.454	94.56
509.67	88.56
509.887	109.56
510.103	95.56
510.319	98.56
510.536	103.56
510.752	88.56
510.968	92.56
511.184	97.56
511.401	103.56
511.617	103.56
511.833	98.56
512.049	98.56
512.265	95.56
512.481	98.56
512.698	105.56
512.914	104.56
513.13	97.56
513.346	96.56
513.562	75.56
513.778	86.56
513.994	99.56
514.21	80.56
514.426	101.56
514.642	92.56
514.858	89.56
515.074	104.56
515.29	100.56
515.506	100.56
