Data from 17600_1_HRD10591_00030.txt Node
Date: Mon Jan 19 14:07:39 EST 2026
User: Yrep
Spectrometer: HR+D1059
Trigger mode: 1
Integration Time (sec): 1.000000E-1
Scans to average: 1
Electric dark correction enabled: true
Nonlinearity correction enabled: false
Boxcar width: 0
XAxis mode: Wavelengths
Number of Pixels in Spectrum: 2048
>>>>>Begin Spectral Data<<<<<
223.165	-21.62
223.4	-21.62
223.635	-21.62
223.869	-18.62
224.104	-13.62
224.338	-22.62
224.573	-20.62
224.808	-6.62
225.042	-12.62
225.277	-11.62
225.511	-0.62
225.746	9.38
225.98	17.38
226.215	6.38
226.449	19.38
226.683	17.38
226.918	26.38
227.152	32.38
227.387	50.38
227.621	27.38
227.856	49.38
228.09	50.38
228.324	62.38
228.559	59.38
228.793	47.38
229.027	64.38
229.262	71.38
229.496	74.38
229.73	71.38
229.964	66.38
230.199	77.38
230.433	59.38
230.667	68.38
230.901	78.38
231.136	74.38
231.37	77.38
231.604	92.38
231.838	80.38
232.072	80.38
232.306	82.38
232.541	85.38
232.775	77.38
233.009	93.38
233.243	65.38
233.477	87.38
233.711	72.38
233.945	76.38
234.179	80.38
234.413	86.38
234.647	79.38
234.881	78.38
235.115	91.38
235.349	83.38
235.583	77.38
235.817	88.38
236.051	92.38
236.285	60.38
236.519	97.38
236.753	78.38
236.987	74.38
237.221	75.38
237.455	74.38
237.689	87.38
237.922	68.38
238.156	68.38
238.39	77.38
238.624	82.38
238.858	87.38
239.091	78.38
239.325	84.38
239.559	73.38
239.793	77.38
240.027	87.38
240.26	80.38
240.494	75.38
240.728	80.38
240.961	76.38
241.195	87.38
241.429	83.38
241.662	78.38
241.896	77.38
242.13	68.38
242.363	89.38
242.597	59.38
242.83	67.38
243.064	79.38
243.298	91.38
243.531	95.38
243.765	92.38
243.998	68.38
244.232	79.38
244.465	75.38
244.699	73.38
244.932	71.38
245.166	77.38
245.399	85.38
245.633	88.38
245.866	71.38
246.099	91.38
246.333	67.38
246.566	69.38
246.8	94.38
247.033	86.38
247.266	56.38
247.5	95.38
247.733	77.38
247.966	82.38
248.2	64.38
248.433	78.38
248.666	72.38
248.899	85.38
249.133	83.38
249.366	73.38
249.599	82.38
249.832	84.38
250.066	81.38
250.299	89.38
250.532	88.38
250.765	82.38
250.998	70.38
251.231	69.38
251.465	71.38
251.698	81.38
251.931	74.38
252.164	92.38
252.397	85.38
252.63	82.38
252.863	87.38
253.096	82.38
253.329	84.38
253.562	77.38
253.795	81.38
254.028	75.38
254.261	73.38
254.494	83.38
254.727	87.38
254.96	83.38
255.193	75.38
255.426	77.38
255.659	75.38
255.892	79.38
256.124	92.38
256.357	94.38
256.59	78.38
256.823	88.38
257.056	59.38
257.289	72.38
257.521	75.38
257.754	93.38
257.987	86.38
258.22	72.38
258.452	85.38
258.685	89.38
258.918	61.38
259.151	80.38
259.383	67.38
259.616	81.38
259.849	75.38
260.081	99.38
260.314	100.38
260.547	79.38
260.779	83.38
261.012	78.38
261.244	82.38
261.477	91.38
261.71	75.38
261.942	81.38
262.175	81.38
262.407	87.38
262.64	66.38
262.872	79.38
263.105	82.38
263.337	82.38
263.57	71.38
263.802	84.38
264.035	103.38
264.267	85.38
264.499	84.38
264.732	82.38
264.964	76.38
265.197	86.38
265.429	79.38
265.661	78.38
265.894	86.38
266.126	88.38
266.358	67.38
266.591	77.38
266.823	83.38
267.055	91.38
267.287	89.38
267.52	78.38
267.752	84.38
267.984	65.38
268.216	81.38
268.448	83.38
268.681	85.38
268.913	80.38
269.145	87.38
269.377	93.38
269.609	85.38
269.841	93.38
270.073	73.38
270.306	91.38
270.538	83.38
270.77	80.38
271.002	89.38
271.234	96.38
271.466	85.38
271.698	97.38
271.93	92.38
272.162	88.38
272.394	88.38
272.626	81.38
272.858	76.38
273.09	81.38
273.322	70.38
273.553	79.38
273.785	88.38
274.017	90.38
274.249	79.38
274.481	89.38
274.713	87.38
274.945	83.38
275.176	72.38
275.408	71.38
275.64	98.38
275.872	91.38
276.104	67.38
276.335	74.38
276.567	82.38
276.799	86.38
277.031	97.38
277.262	85.38
277.494	97.38
277.726	91.38
277.957	83.38
278.189	85.38
278.421	78.38
278.652	75.38
278.884	74.38
279.115	89.38
279.347	104.38
279.579	95.38
279.81	82.38
280.042	91.38
280.273	89.38
280.505	70.38
280.736	89.38
280.968	82.38
281.199	81.38
281.431	79.38
281.662	85.38
281.894	87.38
282.125	95.38
282.356	91.38
282.588	81.38
282.819	88.38
283.051	85.38
283.282	79.38
283.513	88.38
283.745	83.38
283.976	81.38
284.207	83.38
284.439	91.38
284.67	100.38
284.901	97.38
285.132	87.38
285.364	104.38
285.595	83.38
285.826	103.38
286.057	89.38
286.288	103.38
286.52	91.38
286.751	84.38
286.982	70.38
287.213	90.38
287.444	99.38
287.675	94.38
287.906	101.38
288.138	103.38
288.369	101.38
288.6	101.38
288.831	85.38
289.062	97.38
289.293	82.38
289.524	97.38
289.755	99.38
289.986	86.38
290.217	86.38
290.448	83.38
290.679	83.38
290.91	77.38
291.141	80.38
291.371	86.38
291.602	77.38
291.833	90.38
292.064	80.38
292.295	78.38
292.526	92.38
292.757	77.38
292.987	81.38
293.218	91.38
293.449	86.38
293.68	91.38
293.91	91.38
294.141	86.38
294.372	86.38
294.603	106.38
294.833	85.38
295.064	87.38
295.295	89.38
295.525	87.38
295.756	77.38
295.987	81.38
296.217	81.38
296.448	91.38
296.679	89.38
296.909	89.38
297.14	90.38
297.37	92.38
297.601	78.38
297.831	93.38
298.062	92.38
298.292	85.38
298.523	86.38
298.753	82.38
298.984	86.38
299.214	84.38
299.445	85.38
299.675	81.38
299.905	89.38
300.136	82.38
300.366	90.38
300.597	87.38
300.827	83.38
301.057	90.38
301.288	102.38
301.518	87.38
301.748	86.38
301.979	97.38
302.209	85.38
302.439	80.38
302.669	82.38
302.9	92.38
303.13	83.38
303.36	83.38
303.59	86.38
303.82	83.38
304.051	85.38
304.281	93.38
304.511	98.38
304.741	81.38
304.971	92.38
305.201	85.38
305.431	93.38
305.661	87.38
305.891	86.38
306.121	86.38
306.352	83.38
306.582	97.38
306.812	84.38
307.042	83.38
307.272	93.38
307.502	102.38
307.731	101.38
307.961	88.38
308.191	96.38
308.421	92.38
308.651	96.38
308.881	93.38
309.111	92.38
309.341	85.38
309.571	91.38
309.8	95.38
310.03	83.38
310.26	80.38
310.49	90.38
310.72	87.38
310.949	93.38
311.179	95.38
311.409	96.38
311.639	89.38
311.868	82.38
312.098	95.38
312.328	80.38
312.557	95.38
312.787	87.38
313.017	87.38
313.246	93.38
313.476	84.38
313.706	92.38
313.935	85.38
314.165	87.38
314.394	83.38
314.624	73.38
314.853	71.38
315.083	96.38
315.312	72.38
315.542	76.38
315.771	90.38
316.001	78.38
316.23	93.38
316.46	71.38
316.689	85.38
316.919	88.38
317.148	96.38
317.377	89.38
317.607	89.38
317.836	99.38
318.065	92.38
318.295	85.38
318.524	99.38
318.753	88.38
318.983	96.38
319.212	83.38
319.441	90.38
319.67	85.38
319.9	103.38
320.129	89.38
320.358	83.38
320.587	86.38
320.816	85.38
321.046	87.38
321.275	93.38
321.504	96.38
321.733	86.38
321.962	79.38
322.191	76.38
322.42	97.38
322.649	93.38
322.878	92.38
323.108	86.38
323.337	87.38
323.566	99.38
323.795	98.38
324.024	103.38
324.253	71.38
324.482	76.38
324.71	84.38
324.939	93.38
325.168	77.38
325.397	79.38
325.626	84.38
325.855	97.38
326.084	84.38
326.313	95.38
326.542	87.38
326.77	68.38
326.999	100.38
327.228	92.38
327.457	75.38
327.686	87.38
327.914	81.38
328.143	95.38
328.372	83.38
328.6	88.38
328.829	90.38
329.058	81.38
329.287	96.38
329.515	88.38
329.744	98.38
329.972	79.38
330.201	80.38
330.43	93.38
330.658	82.38
330.887	97.38
331.115	89.38
331.344	89.38
331.572	80.38
331.801	91.38
332.03	89.38
332.258	87.38
332.486	80.38
332.715	93.38
332.943	98.38
333.172	97.38
333.4	86.38
333.629	87.38
333.857	92.38
334.085	89.38
334.314	80.38
334.542	75.38
334.771	87.38
334.999	87.38
335.227	75.38
335.455	89.38
335.684	94.38
335.912	80.38
336.14	99.38
336.369	95.38
336.597	77.38
336.825	75.38
337.053	90.38
337.281	89.38
337.51	84.38
337.738	84.38
337.966	88.38
338.194	88.38
338.422	99.38
338.65	100.38
338.878	89.38
339.106	100.38
339.334	74.38
339.562	83.38
339.79	70.38
340.018	81.38
340.246	87.38
340.474	70.38
340.702	82.38
340.93	77.38
341.158	89.38
341.386	94.38
341.614	83.38
341.842	91.38
342.07	83.38
342.298	77.38
342.526	97.38
342.754	73.38
342.981	94.38
343.209	79.38
343.437	92.38
343.665	87.38
343.893	89.38
344.12	93.38
344.348	71.38
344.576	92.38
344.804	86.38
345.031	101.38
345.259	91.38
345.487	91.38
345.714	89.38
345.942	96.38
346.17	96.38
346.397	72.38
346.625	81.38
346.853	82.38
347.08	89.38
347.308	89.38
347.535	77.38
347.763	70.38
347.99	76.38
348.218	91.38
348.445	85.38
348.673	87.38
348.9	97.38
349.128	96.38
349.355	83.38
349.583	85.38
349.81	85.38
350.037	94.38
350.265	87.38
350.492	89.38
350.72	83.38
350.947	84.38
351.174	87.38
351.402	83.38
351.629	86.38
351.856	86.38
352.083	82.38
352.311	84.38
352.538	87.38
352.765	80.38
352.992	102.38
353.22	89.38
353.447	87.38
353.674	78.38
353.901	92.38
354.128	87.38
354.355	93.38
354.583	70.38
354.81	85.38
355.037	90.38
355.264	95.38
355.491	72.38
355.718	63.38
355.945	72.38
356.172	86.38
356.399	84.38
356.626	93.38
356.853	100.38
357.08	86.38
357.307	85.38
357.534	83.38
357.761	100.38
357.988	79.38
358.215	93.38
358.441	76.38
358.668	95.38
358.895	95.38
359.122	90.38
359.349	93.38
359.576	82.38
359.802	92.38
360.029	92.38
360.256	89.38
360.483	84.38
360.709	88.38
360.936	92.38
361.163	95.38
361.39	84.38
361.616	86.38
361.843	78.38
362.07	84.38
362.296	90.38
362.523	94.38
362.749	84.38
362.976	89.38
363.203	95.38
363.429	89.38
363.656	91.38
363.882	82.38
364.109	96.38
364.335	91.38
364.562	95.38
364.788	97.38
365.015	76.38
365.241	87.38
365.468	84.38
365.694	89.38
365.92	81.38
366.147	89.38
366.373	70.38
366.599	89.38
366.826	81.38
367.052	71.38
367.278	79.38
367.505	84.38
367.731	91.38
367.957	83.38
368.184	81.38
368.41	83.38
368.636	83.38
368.862	86.38
369.089	75.38
369.315	80.38
369.541	96.38
369.767	88.38
369.993	89.38
370.219	93.38
370.445	96.38
370.672	93.38
370.898	85.38
371.124	88.38
371.35	95.38
371.576	92.38
371.802	87.38
372.028	83.38
372.254	81.38
372.48	93.38
372.706	79.38
372.932	85.38
373.158	91.38
373.384	78.38
373.61	103.38
373.835	97.38
374.061	87.38
374.287	84.38
374.513	88.38
374.739	97.38
374.965	91.38
375.191	88.38
375.416	104.38
375.642	93.38
375.868	101.38
376.094	82.38
376.319	76.38
376.545	97.38
376.771	80.38
376.997	87.38
377.222	88.38
377.448	98.38
377.674	78.38
377.899	101.38
378.125	83.38
378.35	84.38
378.576	79.38
378.802	84.38
379.027	83.38
379.253	84.38
379.478	86.38
379.704	85.38
379.929	90.38
380.155	83.38
380.38	94.38
380.606	87.38
380.831	88.38
381.057	97.38
381.282	113.38
381.507	83.38
381.733	97.38
381.958	83.38
382.184	86.38
382.409	103.38
382.634	71.38
382.86	95.38
383.085	96.38
383.31	89.38
383.535	89.38
383.761	86.38
383.986	84.38
384.211	88.38
384.436	92.38
384.662	87.38
384.887	73.38
385.112	89.38
385.337	97.38
385.562	77.38
385.787	88.38
386.013	87.38
386.238	77.38
386.463	82.38
386.688	106.38
386.913	94.38
387.138	77.38
387.363	90.38
387.588	91.38
387.813	101.38
388.038	97.38
388.263	103.38
388.488	91.38
388.713	87.38
388.938	65.38
389.163	84.38
389.387	86.38
389.612	88.38
389.837	108.38
390.062	85.38
390.287	80.38
390.512	82.38
390.736	71.38
390.961	85.38
391.186	86.38
391.411	81.38
391.636	82.38
391.86	93.38
392.085	88.38
392.31	76.38
392.534	84.38
392.759	89.38
392.984	125.38
393.208	181.38
393.433	261.38
393.658	204.38
393.882	115.38
394.107	109.38
394.331	101.38
394.556	104.38
394.78	87.38
395.005	93.38
395.229	92.38
395.454	91.38
395.678	86.38
395.903	103.38
396.127	107.38
396.352	128.38
396.576	142.38
396.801	181.38
397.025	197.38
397.249	129.38
397.474	95.38
397.698	86.38
397.922	84.38
398.147	85.38
398.371	75.38
398.595	75.38
398.82	73.38
399.044	85.38
399.268	71.38
399.492	91.38
399.717	90.38
399.941	96.38
400.165	79.38
400.389	87.38
400.613	80.38
400.837	74.38
401.062	78.38
401.286	99.38
401.51	94.38
401.734	84.38
401.958	88.38
402.182	83.38
402.406	82.38
402.63	77.38
402.854	76.38
403.078	80.38
403.302	89.38
403.526	84.38
403.75	78.38
403.974	80.38
404.198	74.38
404.422	65.38
404.645	77.38
404.869	85.38
405.093	85.38
405.317	76.38
405.541	106.38
405.765	81.38
405.988	90.38
406.212	85.38
406.436	89.38
406.66	95.38
406.883	82.38
407.107	83.38
407.331	95.38
407.555	107.38
407.778	113.38
408.002	91.38
408.226	84.38
408.449	90.38
408.673	87.38
408.896	83.38
409.12	98.38
409.344	81.38
409.567	87.38
409.791	87.38
410.014	90.38
410.238	83.38
410.461	94.38
410.685	76.38
410.908	72.38
411.132	81.38
411.355	77.38
411.578	81.38
411.802	96.38
412.025	91.38
412.249	85.38
412.472	91.38
412.695	84.38
412.919	96.38
413.142	89.38
413.365	77.38
413.589	82.38
413.812	75.38
414.035	95.38
414.258	97.38
414.482	91.38
414.705	84.38
414.928	87.38
415.151	85.38
415.374	73.38
415.597	81.38
415.821	73.38
416.044	87.38
416.267	79.38
416.49	88.38
416.713	97.38
416.936	95.38
417.159	101.38
417.382	82.38
417.605	87.38
417.828	83.38
418.051	83.38
418.274	92.38
418.497	77.38
418.72	85.38
418.943	90.38
419.166	80.38
419.389	87.38
419.611	86.38
419.834	84.38
420.057	86.38
420.28	80.38
420.503	77.38
420.726	86.38
420.948	91.38
421.171	80.38
421.394	87.38
421.617	92.38
421.839	91.38
422.062	111.38
422.285	110.38
422.507	136.38
422.73	200.38
422.953	179.38
423.175	104.38
423.398	89.38
423.621	82.38
423.843	75.38
424.066	65.38
424.288	84.38
424.511	78.38
424.733	71.38
424.956	81.38
425.178	89.38
425.401	80.38
425.623	83.38
425.846	82.38
426.068	95.38
426.291	93.38
426.513	76.38
426.735	86.38
426.958	84.38
427.18	89.38
427.402	83.38
427.625	86.38
427.847	98.38
428.069	98.38
428.292	96.38
428.514	104.38
428.736	96.38
428.958	95.38
429.181	101.38
429.403	83.38
429.625	97.38
429.847	96.38
430.069	107.38
430.292	126.38
430.514	115.38
430.736	103.38
430.958	109.38
431.18	77.38
431.402	76.38
431.624	76.38
431.846	96.38
432.068	107.38
432.29	85.38
432.512	85.38
432.734	75.38
432.956	89.38
433.178	89.38
433.4	83.38
433.622	83.38
433.844	79.38
434.066	85.38
434.287	71.38
434.509	77.38
434.731	79.38
434.953	85.38
435.175	82.38
435.397	83.38
435.618	85.38
435.84	86.38
436.062	80.38
436.284	81.38
436.505	86.38
436.727	80.38
436.949	87.38
437.17	77.38
437.392	91.38
437.614	71.38
437.835	72.38
438.057	86.38
438.278	89.38
438.5	71.38
438.721	81.38
438.943	89.38
439.165	86.38
439.386	78.38
439.608	86.38
439.829	70.38
440.05	72.38
440.272	90.38
440.493	73.38
440.715	74.38
440.936	79.38
441.158	90.38
441.379	81.38
441.6	86.38
441.822	85.38
442.043	85.38
442.264	96.38
442.486	86.38
442.707	106.38
442.928	98.38
443.149	83.38
443.371	94.38
443.592	121.38
443.813	107.38
444.034	94.38
444.255	76.38
444.476	95.38
444.698	85.38
444.919	91.38
445.14	162.38
445.361	128.38
445.582	142.38
445.803	113.38
446.024	85.38
446.245	77.38
446.466	91.38
446.687	92.38
446.908	87.38
447.129	96.38
447.35	92.38
447.571	80.38
447.792	89.38
448.013	77.38
448.234	84.38
448.455	84.38
448.675	76.38
448.896	90.38
449.117	79.38
449.338	81.38
449.559	80.38
449.779	89.38
450	81.38
450.221	82.38
450.442	71.38
450.662	97.38
450.883	99.38
451.104	85.38
451.324	86.38
451.545	89.38
451.766	73.38
451.986	73.38
452.207	85.38
452.428	91.38
452.648	86.38
452.869	86.38
453.089	76.38
453.31	84.38
453.53	83.38
453.751	91.38
453.971	85.38
454.192	79.38
454.412	93.38
454.633	89.38
454.853	84.38
455.073	79.38
455.294	83.38
455.514	97.38
455.734	76.38
455.955	88.38
456.175	83.38
456.395	84.38
456.616	92.38
456.836	104.38
457.056	87.38
457.276	93.38
457.497	84.38
457.717	85.38
457.937	97.38
458.157	89.38
458.377	77.38
458.598	97.38
458.818	97.38
459.038	97.38
459.258	99.38
459.478	82.38
459.698	67.38
459.918	89.38
460.138	75.38
460.358	87.38
460.578	98.38
460.798	101.38
461.018	96.38
461.238	87.38
461.458	87.38
461.678	78.38
461.898	84.38
462.118	87.38
462.338	83.38
462.558	89.38
462.777	96.38
462.997	92.38
463.217	84.38
463.437	80.38
463.657	77.38
463.876	87.38
464.096	90.38
464.316	82.38
464.536	71.38
464.755	83.38
464.975	80.38
465.195	95.38
465.414	74.38
465.634	70.38
465.854	83.38
466.073	85.38
466.293	93.38
466.512	93.38
466.732	93.38
466.951	91.38
467.171	78.38
467.391	63.38
467.61	76.38
467.829	87.38
468.049	81.38
468.268	87.38
468.488	91.38
468.707	84.38
468.927	82.38
469.146	86.38
469.365	87.38
469.585	86.38
469.804	78.38
470.023	92.38
470.243	85.38
470.462	78.38
470.681	83.38
470.901	88.38
471.12	85.38
471.339	69.38
471.558	86.38
471.777	96.38
471.997	71.38
472.216	79.38
472.435	79.38
472.654	66.38
472.873	89.38
473.092	75.38
473.311	77.38
473.53	85.38
473.749	93.38
473.968	91.38
474.187	93.38
474.406	75.38
474.625	73.38
474.844	88.38
475.063	75.38
475.282	77.38
475.501	72.38
475.72	105.38
475.939	75.38
476.158	70.38
476.377	91.38
476.596	93.38
476.814	91.38
477.033	80.38
477.252	92.38
477.471	84.38
477.69	90.38
477.908	85.38
478.127	87.38
478.346	91.38
478.564	88.38
478.783	84.38
479.002	78.38
479.22	88.38
479.439	94.38
479.658	89.38
479.876	76.38
480.095	92.38
480.313	95.38
480.532	91.38
480.751	85.38
480.969	86.38
481.188	96.38
481.406	95.38
481.624	91.38
481.843	95.38
482.061	76.38
482.28	83.38
482.498	81.38
482.717	85.38
482.935	94.38
483.153	83.38
483.372	82.38
483.59	78.38
483.808	84.38
484.027	81.38
484.245	85.38
484.463	72.38
484.681	89.38
484.9	92.38
485.118	85.38
485.336	84.38
485.554	82.38
485.772	81.38
485.99	100.38
486.209	89.38
486.427	71.38
486.645	77.38
486.863	88.38
487.081	98.38
487.299	89.38
487.517	77.38
487.735	83.38
487.953	114.38
488.171	92.38
488.389	95.38
488.607	88.38
488.825	89.38
489.043	99.38
489.261	85.38
489.479	89.38
489.696	86.38
489.914	84.38
490.132	83.38
490.35	90.38
490.568	80.38
490.786	80.38
491.003	77.38
491.221	91.38
491.439	83.38
491.657	86.38
491.874	95.38
492.092	81.38
492.31	78.38
492.527	81.38
492.745	83.38
492.963	87.38
493.18	83.38
493.398	86.38
493.615	74.38
493.833	86.38
494.05	95.38
494.268	81.38
494.485	87.38
494.703	75.38
494.92	75.38
495.138	83.38
495.355	111.38
495.573	85.38
495.79	93.38
496.008	85.38
496.225	85.38
496.442	93.38
496.66	88.38
496.877	87.38
497.094	89.38
497.312	69.38
497.529	69.38
497.746	87.38
497.963	83.38
498.181	89.38
498.398	92.38
498.615	84.38
498.832	82.38
499.049	64.38
499.267	79.38
499.484	75.38
499.701	80.38
499.918	78.38
500.135	85.38
500.352	98.38
500.569	75.38
500.786	95.38
501.003	98.38
501.22	64.38
501.437	69.38
501.654	90.38
501.871	81.38
502.088	85.38
502.305	88.38
502.522	78.38
502.739	92.38
502.956	74.38
503.172	77.38
503.389	79.38
503.606	84.38
503.823	93.38
504.04	89.38
504.256	95.38
504.473	97.38
504.69	83.38
504.907	82.38
505.123	83.38
505.34	85.38
505.557	80.38
505.773	81.38
505.99	81.38
506.207	76.38
506.423	83.38
506.64	81.38
506.856	95.38
507.073	78.38
507.289	81.38
507.506	90.38
507.722	87.38
507.939	87.38
508.155	90.38
508.372	92.38
508.588	93.38
508.805	96.38
509.021	87.38
509.238	81.38
509.454	99.38
509.67	81.38
509.887	79.38
510.103	94.38
510.319	88.38
510.536	73.38
510.752	98.38
510.968	97.38
511.184	81.38
511.401	77.38
511.617	83.38
511.833	88.38
512.049	91.38
512.265	84.38
512.481	74.38
512.698	91.38
512.914	83.38
513.13	82.38
513.346	84.38
513.562	80.38
513.778	86.38
513.994	97.38
514.21	88.38
514.426	84.38
514.642	88.38
514.858	85.38
515.074	82.38
515.29	97.38
515.506	84.38
515.721	78.38
515.937	79.38
516.153	97.38
516.369	86.38
516.585	88.38
516.801	86.38
517.016	86.38
517.232	74.38
517.448	74.38
517.664	102.38
517.879	89.38
518.095	88.38
518.311	91.38
518.527	77.38
518.742	91.38
518.958	92.38
519.173	106.38
