Data from 17600_1_HRD10591_00048.txt Node
Date: Mon Jan 19 14:07:48 EST 2026
User: Yrep
Spectrometer: HR+D1059
Trigger mode: 1
Integration Time (sec): 1.000000E-1
Scans to average: 1
Electric dark correction enabled: true
Nonlinearity correction enabled: false
Boxcar width: 0
XAxis mode: Wavelengths
Number of Pixels in Spectrum: 2048
>>>>>Begin Spectral Data<<<<<
223.165	-17.12
223.4	-17.12
223.635	-17.12
223.869	-23.12
224.104	-14.12
224.338	-10.12
224.573	-12.12
224.808	-13.12
225.042	-7.12
225.277	-11.12
225.511	2.88
225.746	7.88
225.98	-3.12
226.215	12.88
226.449	10.88
226.683	21.88
226.918	25.88
227.152	28.88
227.387	32.88
227.621	48.88
227.856	45.88
228.09	59.88
228.324	41.88
228.559	59.88
228.793	53.88
229.027	69.88
229.262	62.88
229.496	62.88
229.73	56.88
229.964	70.88
230.199	77.88
230.433	68.88
230.667	81.88
230.901	81.88
231.136	92.88
231.37	82.88
231.604	81.88
231.838	89.88
232.072	89.88
232.306	86.88
232.541	87.88
232.775	85.88
233.009	87.88
233.243	89.88
233.477	81.88
233.711	89.88
233.945	76.88
234.179	80.88
234.413	77.88
234.647	66.88
234.881	79.88
235.115	80.88
235.349	83.88
235.583	80.88
235.817	84.88
236.051	76.88
236.285	76.88
236.519	68.88
236.753	79.88
236.987	76.88
237.221	68.88
237.455	71.88
237.689	80.88
237.922	77.88
238.156	86.88
238.39	73.88
238.624	88.88
238.858	76.88
239.091	90.88
239.325	75.88
239.559	77.88
239.793	75.88
240.027	78.88
240.26	84.88
240.494	77.88
240.728	81.88
240.961	76.88
241.195	74.88
241.429	69.88
241.662	80.88
241.896	78.88
242.13	61.88
242.363	81.88
242.597	76.88
242.83	84.88
243.064	80.88
243.298	79.88
243.531	72.88
243.765	90.88
243.998	96.88
244.232	81.88
244.465	78.88
244.699	76.88
244.932	74.88
245.166	98.88
245.399	83.88
245.633	81.88
245.866	83.88
246.099	81.88
246.333	84.88
246.566	89.88
246.8	84.88
247.033	73.88
247.266	89.88
247.5	70.88
247.733	77.88
247.966	81.88
248.2	78.88
248.433	76.88
248.666	73.88
248.899	95.88
249.133	82.88
249.366	76.88
249.599	68.88
249.832	85.88
250.066	78.88
250.299	84.88
250.532	84.88
250.765	84.88
250.998	88.88
251.231	92.88
251.465	80.88
251.698	81.88
251.931	68.88
252.164	82.88
252.397	86.88
252.63	87.88
252.863	84.88
253.096	84.88
253.329	78.88
253.562	75.88
253.795	90.88
254.028	82.88
254.261	82.88
254.494	82.88
254.727	99.88
254.96	74.88
255.193	76.88
255.426	78.88
255.659	81.88
255.892	78.88
256.124	73.88
256.357	91.88
256.59	82.88
256.823	79.88
257.056	70.88
257.289	82.88
257.521	75.88
257.754	72.88
257.987	76.88
258.22	88.88
258.452	82.88
258.685	86.88
258.918	85.88
259.151	89.88
259.383	80.88
259.616	70.88
259.849	102.88
260.081	84.88
260.314	88.88
260.547	87.88
260.779	75.88
261.012	86.88
261.244	89.88
261.477	82.88
261.71	86.88
261.942	89.88
262.175	88.88
262.407	89.88
262.64	69.88
262.872	70.88
263.105	76.88
263.337	78.88
263.57	88.88
263.802	93.88
264.035	94.88
264.267	88.88
264.499	84.88
264.732	75.88
264.964	80.88
265.197	76.88
265.429	89.88
265.661	89.88
265.894	84.88
266.126	78.88
266.358	82.88
266.591	93.88
266.823	89.88
267.055	78.88
267.287	91.88
267.52	78.88
267.752	84.88
267.984	90.88
268.216	77.88
268.448	77.88
268.681	84.88
268.913	99.88
269.145	78.88
269.377	82.88
269.609	73.88
269.841	92.88
270.073	87.88
270.306	83.88
270.538	92.88
270.77	80.88
271.002	80.88
271.234	67.88
271.466	75.88
271.698	86.88
271.93	86.88
272.162	90.88
272.394	87.88
272.626	86.88
272.858	82.88
273.09	98.88
273.322	88.88
273.553	106.88
273.785	83.88
274.017	67.88
274.249	80.88
274.481	83.88
274.713	90.88
274.945	72.88
275.176	96.88
275.408	85.88
275.64	82.88
275.872	85.88
276.104	83.88
276.335	84.88
276.567	91.88
276.799	77.88
277.031	76.88
277.262	88.88
277.494	102.88
277.726	97.88
277.957	88.88
278.189	72.88
278.421	79.88
278.652	83.88
278.884	66.88
279.115	84.88
279.347	86.88
279.579	87.88
279.81	85.88
280.042	91.88
280.273	102.88
280.505	77.88
280.736	92.88
280.968	82.88
281.199	93.88
281.431	86.88
281.662	74.88
281.894	94.88
282.125	74.88
282.356	70.88
282.588	99.88
282.819	85.88
283.051	81.88
283.282	75.88
283.513	81.88
283.745	83.88
283.976	72.88
284.207	84.88
284.439	77.88
284.67	86.88
284.901	80.88
285.132	79.88
285.364	98.88
285.595	82.88
285.826	88.88
286.057	92.88
286.288	86.88
286.52	84.88
286.751	78.88
286.982	89.88
287.213	95.88
287.444	80.88
287.675	82.88
287.906	90.88
288.138	102.88
288.369	90.88
288.6	83.88
288.831	77.88
289.062	78.88
289.293	84.88
289.524	92.88
289.755	90.88
289.986	84.88
290.217	100.88
290.448	84.88
290.679	89.88
290.91	108.88
291.141	90.88
291.371	87.88
291.602	92.88
291.833	84.88
292.064	104.88
292.295	84.88
292.526	81.88
292.757	83.88
292.987	82.88
293.218	86.88
293.449	68.88
293.68	78.88
293.91	97.88
294.141	81.88
294.372	95.88
294.603	85.88
294.833	85.88
295.064	79.88
295.295	70.88
295.525	86.88
295.756	92.88
295.987	94.88
296.217	65.88
296.448	102.88
296.679	94.88
296.909	87.88
297.14	101.88
297.37	87.88
297.601	72.88
297.831	81.88
298.062	78.88
298.292	93.88
298.523	89.88
298.753	91.88
298.984	83.88
299.214	91.88
299.445	96.88
299.675	93.88
299.905	98.88
300.136	98.88
300.366	93.88
300.597	95.88
300.827	98.88
301.057	104.88
301.288	88.88
301.518	76.88
301.748	88.88
301.979	102.88
302.209	93.88
302.439	88.88
302.669	74.88
302.9	84.88
303.13	95.88
303.36	90.88
303.59	88.88
303.82	74.88
304.051	87.88
304.281	86.88
304.511	92.88
304.741	86.88
304.971	96.88
305.201	102.88
305.431	91.88
305.661	77.88
305.891	85.88
306.121	89.88
306.352	76.88
306.582	91.88
306.812	79.88
307.042	83.88
307.272	99.88
307.502	99.88
307.731	105.88
307.961	85.88
308.191	97.88
308.421	89.88
308.651	90.88
308.881	86.88
309.111	84.88
309.341	99.88
309.571	101.88
309.8	75.88
310.03	95.88
310.26	88.88
310.49	92.88
310.72	92.88
310.949	80.88
311.179	94.88
311.409	92.88
311.639	85.88
311.868	84.88
312.098	82.88
312.328	79.88
312.557	84.88
312.787	87.88
313.017	92.88
313.246	93.88
313.476	80.88
313.706	86.88
313.935	82.88
314.165	89.88
314.394	98.88
314.624	92.88
314.853	102.88
315.083	80.88
315.312	77.88
315.542	92.88
315.771	101.88
316.001	92.88
316.23	105.88
316.46	96.88
316.689	90.88
316.919	94.88
317.148	101.88
317.377	102.88
317.607	96.88
317.836	105.88
318.065	93.88
318.295	104.88
318.524	88.88
318.753	86.88
318.983	97.88
319.212	93.88
319.441	82.88
319.67	79.88
319.9	90.88
320.129	86.88
320.358	90.88
320.587	83.88
320.816	85.88
321.046	93.88
321.275	84.88
321.504	100.88
321.733	94.88
321.962	108.88
322.191	87.88
322.42	87.88
322.649	89.88
322.878	95.88
323.108	92.88
323.337	76.88
323.566	93.88
323.795	95.88
324.024	88.88
324.253	88.88
324.482	70.88
324.71	74.88
324.939	96.88
325.168	82.88
325.397	79.88
325.626	89.88
325.855	80.88
326.084	86.88
326.313	94.88
326.542	85.88
326.77	97.88
326.999	93.88
327.228	96.88
327.457	87.88
327.686	85.88
327.914	95.88
328.143	88.88
328.372	79.88
328.6	80.88
328.829	93.88
329.058	83.88
329.287	85.88
329.515	99.88
329.744	92.88
329.972	91.88
330.201	92.88
330.43	96.88
330.658	92.88
330.887	89.88
331.115	78.88
331.344	83.88
331.572	101.88
331.801	91.88
332.03	97.88
332.258	93.88
332.486	90.88
332.715	75.88
332.943	84.88
333.172	74.88
333.4	72.88
333.629	80.88
333.857	88.88
334.085	116.88
334.314	88.88
334.542	84.88
334.771	85.88
334.999	88.88
335.227	74.88
335.455	98.88
335.684	96.88
335.912	94.88
336.14	91.88
336.369	75.88
336.597	78.88
336.825	86.88
337.053	75.88
337.281	85.88
337.51	69.88
337.738	93.88
337.966	87.88
338.194	90.88
338.422	91.88
338.65	87.88
338.878	90.88
339.106	94.88
339.334	100.88
339.562	83.88
339.79	90.88
340.018	94.88
340.246	86.88
340.474	83.88
340.702	96.88
340.93	80.88
341.158	78.88
341.386	86.88
341.614	74.88
341.842	82.88
342.07	96.88
342.298	100.88
342.526	92.88
342.754	89.88
342.981	81.88
343.209	94.88
343.437	94.88
343.665	91.88
343.893	85.88
344.12	104.88
344.348	90.88
344.576	88.88
344.804	89.88
345.031	92.88
345.259	94.88
345.487	94.88
345.714	86.88
345.942	83.88
346.17	97.88
346.397	80.88
346.625	82.88
346.853	103.88
347.08	92.88
347.308	90.88
347.535	77.88
347.763	96.88
347.99	100.88
348.218	104.88
348.445	88.88
348.673	87.88
348.9	92.88
349.128	88.88
349.355	93.88
349.583	95.88
349.81	84.88
350.037	90.88
350.265	98.88
350.492	82.88
350.72	76.88
350.947	88.88
351.174	78.88
351.402	84.88
351.629	92.88
351.856	89.88
352.083	95.88
352.311	92.88
352.538	78.88
352.765	86.88
352.992	78.88
353.22	72.88
353.447	82.88
353.674	91.88
353.901	75.88
354.128	88.88
354.355	69.88
354.583	84.88
354.81	76.88
355.037	100.88
355.264	86.88
355.491	89.88
355.718	91.88
355.945	87.88
356.172	77.88
356.399	86.88
356.626	84.88
356.853	99.88
357.08	98.88
357.307	99.88
357.534	93.88
357.761	86.88
357.988	84.88
358.215	94.88
358.441	91.88
358.668	93.88
358.895	87.88
359.122	84.88
359.349	78.88
359.576	88.88
359.802	89.88
360.029	90.88
360.256	90.88
360.483	83.88
360.709	83.88
360.936	97.88
361.163	93.88
361.39	73.88
361.616	92.88
361.843	86.88
362.07	86.88
362.296	88.88
362.523	87.88
362.749	87.88
362.976	104.88
363.203	107.88
363.429	95.88
363.656	89.88
363.882	94.88
364.109	88.88
364.335	97.88
364.562	112.88
364.788	96.88
365.015	94.88
365.241	89.88
365.468	88.88
365.694	100.88
365.92	79.88
366.147	81.88
366.373	84.88
366.599	84.88
366.826	84.88
367.052	86.88
367.278	92.88
367.505	78.88
367.731	91.88
367.957	78.88
368.184	78.88
368.41	81.88
368.636	82.88
368.862	88.88
369.089	95.88
369.315	85.88
369.541	86.88
369.767	99.88
369.993	93.88
370.219	82.88
370.445	71.88
370.672	91.88
370.898	93.88
371.124	89.88
371.35	82.88
371.576	82.88
371.802	91.88
372.028	89.88
372.254	76.88
372.48	84.88
372.706	94.88
372.932	77.88
373.158	81.88
373.384	84.88
373.61	109.88
373.835	116.88
374.061	94.88
374.287	99.88
374.513	88.88
374.739	101.88
374.965	90.88
375.191	84.88
375.416	94.88
375.642	90.88
375.868	93.88
376.094	67.88
376.319	78.88
376.545	78.88
376.771	85.88
376.997	80.88
377.222	88.88
377.448	88.88
377.674	84.88
377.899	101.88
378.125	79.88
378.35	92.88
378.576	75.88
378.802	84.88
379.027	94.88
379.253	99.88
379.478	86.88
379.704	80.88
379.929	85.88
380.155	73.88
380.38	70.88
380.606	79.88
380.831	92.88
381.057	85.88
381.282	84.88
381.507	81.88
381.733	75.88
381.958	89.88
382.184	100.88
382.409	84.88
382.634	109.88
382.86	87.88
383.085	92.88
383.31	92.88
383.535	97.88
383.761	85.88
383.986	99.88
384.211	94.88
384.436	103.88
384.662	86.88
384.887	84.88
385.112	86.88
385.337	92.88
385.562	100.88
385.787	85.88
386.013	94.88
386.238	84.88
386.463	93.88
386.688	100.88
386.913	94.88
387.138	89.88
387.363	93.88
387.588	93.88
387.813	106.88
388.038	89.88
388.263	88.88
388.488	99.88
388.713	93.88
388.938	76.88
389.163	80.88
389.387	80.88
389.612	90.88
389.837	89.88
390.062	87.88
390.287	88.88
390.512	96.88
390.736	80.88
390.961	84.88
391.186	66.88
391.411	80.88
391.636	89.88
391.86	84.88
392.085	89.88
392.31	108.88
392.534	100.88
392.759	108.88
392.984	144.88
393.208	258.88
393.433	329.88
393.658	263.88
393.882	122.88
394.107	116.88
394.331	124.88
394.556	114.88
394.78	112.88
395.005	93.88
395.229	84.88
395.454	97.88
395.678	104.88
395.903	116.88
396.127	124.88
396.352	138.88
396.576	168.88
396.801	244.88
397.025	285.88
397.249	148.88
397.474	118.88
397.698	89.88
397.922	78.88
398.147	99.88
398.371	90.88
398.595	83.88
398.82	88.88
399.044	82.88
399.268	87.88
399.492	87.88
399.717	86.88
399.941	101.88
400.165	97.88
400.389	78.88
400.613	81.88
400.837	87.88
401.062	85.88
401.286	82.88
401.51	88.88
401.734	70.88
401.958	86.88
402.182	71.88
402.406	84.88
402.63	76.88
402.854	94.88
403.078	71.88
403.302	88.88
403.526	81.88
403.75	92.88
403.974	78.88
404.198	106.88
404.422	114.88
404.645	126.88
404.869	122.88
405.093	100.88
405.317	92.88
405.541	92.88
405.765	70.88
405.988	87.88
406.212	92.88
406.436	95.88
406.66	93.88
406.883	82.88
407.107	90.88
407.331	99.88
407.555	93.88
407.778	107.88
408.002	107.88
408.226	85.88
408.449	92.88
408.673	82.88
408.896	90.88
409.12	97.88
409.344	96.88
409.567	86.88
409.791	92.88
410.014	112.88
410.238	88.88
410.461	99.88
410.685	102.88
410.908	93.88
411.132	91.88
411.355	88.88
411.578	84.88
411.802	71.88
412.025	96.88
412.249	93.88
412.472	97.88
412.695	92.88
412.919	86.88
413.142	82.88
413.365	82.88
413.589	80.88
413.812	69.88
414.035	84.88
414.258	81.88
414.482	88.88
414.705	82.88
414.928	86.88
415.151	77.88
415.374	80.88
415.597	84.88
415.821	87.88
416.044	94.88
416.267	87.88
416.49	88.88
416.713	89.88
416.936	84.88
417.159	79.88
417.382	93.88
417.605	80.88
417.828	82.88
418.051	101.88
418.274	76.88
418.497	96.88
418.72	88.88
418.943	70.88
419.166	84.88
419.389	92.88
419.611	77.88
419.834	83.88
420.057	80.88
420.28	93.88
420.503	90.88
420.726	81.88
420.948	104.88
421.171	91.88
421.394	98.88
421.617	109.88
421.839	108.88
422.062	114.88
422.285	124.88
422.507	210.88
422.73	356.88
422.953	298.88
423.175	142.88
423.398	116.88
423.621	102.88
423.843	91.88
424.066	97.88
424.288	89.88
424.511	84.88
424.733	75.88
424.956	102.88
425.178	80.88
425.401	84.88
425.623	75.88
425.846	87.88
426.068	78.88
426.291	76.88
426.513	93.88
426.735	94.88
426.958	78.88
427.18	92.88
427.402	81.88
427.625	99.88
427.847	85.88
428.069	125.88
428.292	113.88
428.514	141.88
428.736	116.88
428.958	123.88
429.181	116.88
429.403	88.88
429.625	101.88
429.847	112.88
430.069	128.88
430.292	164.88
430.514	151.88
430.736	126.88
430.958	120.88
431.18	97.88
431.402	86.88
431.624	80.88
431.846	109.88
432.068	116.88
432.29	109.88
432.512	100.88
432.734	84.88
432.956	97.88
433.178	89.88
433.4	92.88
433.622	88.88
433.844	88.88
434.066	89.88
434.287	78.88
434.509	94.88
434.731	81.88
434.953	85.88
435.175	85.88
435.397	99.88
435.618	84.88
435.84	80.88
436.062	87.88
436.284	72.88
436.505	84.88
436.727	82.88
436.949	87.88
437.17	91.88
437.392	99.88
437.614	84.88
437.835	70.88
438.057	87.88
438.278	88.88
438.5	85.88
438.721	87.88
438.943	86.88
439.165	71.88
439.386	71.88
439.608	88.88
439.829	84.88
440.05	73.88
440.272	84.88
440.493	95.88
440.715	92.88
440.936	90.88
441.158	82.88
441.379	89.88
441.6	85.88
441.822	77.88
442.043	75.88
442.264	95.88
442.486	133.88
442.707	147.88
442.928	104.88
443.149	109.88
443.371	144.88
443.592	192.88
443.813	183.88
444.034	104.88
444.255	80.88
444.476	94.88
444.698	93.88
444.919	100.88
445.14	192.88
445.361	192.88
445.582	241.88
445.803	196.88
446.024	107.88
446.245	92.88
446.466	88.88
446.687	90.88
446.908	85.88
447.129	94.88
447.35	82.88
447.571	91.88
447.792	69.88
448.013	95.88
448.234	91.88
448.455	81.88
448.675	80.88
448.896	93.88
449.117	97.88
449.338	72.88
449.559	93.88
449.779	82.88
450	84.88
450.221	76.88
450.442	84.88
450.662	67.88
450.883	82.88
451.104	94.88
451.324	92.88
451.545	82.88
451.766	89.88
451.986	71.88
452.207	73.88
452.428	72.88
452.648	96.88
452.869	102.88
453.089	88.88
453.31	70.88
453.53	91.88
453.751	93.88
453.971	100.88
454.192	85.88
454.412	100.88
454.633	79.88
454.853	89.88
455.073	91.88
455.294	69.88
455.514	86.88
455.734	83.88
455.955	83.88
456.175	94.88
456.395	72.88
456.616	87.88
456.836	89.88
457.056	83.88
457.276	78.88
457.497	78.88
457.717	85.88
457.937	109.88
458.157	108.88
458.377	114.88
458.598	105.88
458.818	105.88
459.038	88.88
459.258	85.88
459.478	81.88
459.698	85.88
459.918	83.88
460.138	86.88
460.358	100.88
460.578	97.88
460.798	115.88
461.018	114.88
461.238	81.88
461.458	86.88
461.678	78.88
461.898	82.88
462.118	90.88
462.338	90.88
462.558	71.88
462.777	64.88
462.997	93.88
463.217	95.88
463.437	73.88
463.657	74.88
463.876	78.88
464.096	96.88
464.316	73.88
464.536	95.88
464.755	92.88
464.975	100.88
465.195	97.88
465.414	100.88
465.634	89.88
465.854	93.88
466.073	89.88
466.293	85.88
466.512	91.88
466.732	100.88
466.951	79.88
467.171	76.88
467.391	80.88
467.61	75.88
467.829	75.88
468.049	85.88
468.268	93.88
468.488	75.88
468.707	88.88
468.927	77.88
469.146	68.88
469.365	99.88
469.585	99.88
469.804	73.88
470.023	80.88
470.243	84.88
470.462	85.88
470.681	96.88
470.901	92.88
471.12	85.88
471.339	99.88
471.558	76.88
471.777	75.88
471.997	87.88
472.216	80.88
472.435	86.88
472.654	79.88
472.873	93.88
473.092	87.88
473.311	89.88
473.53	71.88
473.749	90.88
473.968	82.88
474.187	85.88
474.406	87.88
474.625	83.88
474.844	93.88
475.063	99.88
475.282	100.88
475.501	90.88
475.72	86.88
475.939	88.88
476.158	81.88
476.377	80.88
476.596	79.88
476.814	88.88
477.033	78.88
477.252	85.88
477.471	84.88
477.69	82.88
477.908	87.88
478.127	86.88
478.346	94.88
478.564	78.88
478.783	88.88
479.002	93.88
479.22	87.88
479.439	88.88
479.658	92.88
479.876	89.88
480.095	91.88
480.313	92.88
480.532	93.88
480.751	73.88
480.969	83.88
481.188	87.88
481.406	82.88
481.624	82.88
481.843	85.88
482.061	65.88
482.28	75.88
482.498	74.88
482.717	90.88
482.935	95.88
483.153	89.88
483.372	76.88
483.59	88.88
483.808	88.88
484.027	85.88
484.245	85.88
484.463	87.88
484.681	98.88
484.9	87.88
485.118	78.88
485.336	88.88
485.554	92.88
485.772	89.88
485.99	68.88
486.209	91.88
486.427	80.88
486.645	64.88
486.863	86.88
487.081	85.88
487.299	78.88
487.517	96.88
487.735	107.88
487.953	115.88
488.171	118.88
488.389	88.88
488.607	91.88
488.825	92.88
489.043	98.88
489.261	80.88
489.479	76.88
489.696	88.88
489.914	80.88
490.132	87.88
490.35	77.88
490.568	112.88
490.786	100.88
491.003	86.88
491.221	79.88
491.439	81.88
491.657	89.88
491.874	90.88
492.092	82.88
492.31	87.88
492.527	87.88
492.745	73.88
492.963	78.88
493.18	79.88
493.398	88.88
493.615	81.88
493.833	85.88
494.05	82.88
494.268	87.88
494.485	84.88
494.703	90.88
494.92	88.88
495.138	75.88
495.355	91.88
495.573	71.88
495.79	84.88
496.008	96.88
496.225	87.88
496.442	77.88
496.66	90.88
496.877	74.88
497.094	78.88
497.312	91.88
497.529	92.88
497.746	83.88
497.963	95.88
498.181	84.88
498.398	97.88
498.615	93.88
498.832	87.88
499.049	87.88
499.267	99.88
499.484	89.88
499.701	78.88
499.918	91.88
500.135	72.88
500.352	74.88
500.569	84.88
500.786	87.88
501.003	102.88
501.22	92.88
501.437	85.88
501.654	95.88
501.871	84.88
502.088	73.88
502.305	93.88
502.522	84.88
502.739	88.88
502.956	80.88
503.172	89.88
503.389	86.88
503.606	90.88
503.823	87.88
504.04	93.88
504.256	113.88
504.473	98.88
504.69	90.88
504.907	97.88
505.123	81.88
505.34	87.88
505.557	83.88
505.773	94.88
505.99	84.88
506.207	85.88
506.423	92.88
506.64	94.88
506.856	95.88
507.073	100.88
507.289	91.88
507.506	84.88
507.722	78.88
507.939	66.88
508.155	84.88
508.372	90.88
508.588	77.88
508.805	92.88
509.021	92.88
509.238	86.88
509.454	86.88
509.67	96.88
509.887	74.88
510.103	96.88
510.319	89.88
510.536	98.88
510.752	85.88
510.968	83.88
511.184	82.88
511.401	89.88
511.617	97.88
511.833	84.88
512.049	92.88
512.265	98.88
512.481	93.88
512.698	89.88
512.914	87.88
513.13	69.88
513.346	86.88
513.562	97.88
513.778	79.88
513.994	71.88
514.21	82.88
514.426	94.88
514.642	87.88
514.858	85.88
515.074	82.88
515.29	81.88
515.506	79.88
515.721	96.88
515.937	88.88
516.153	96.88
516.369	88.88
516.585	93.88
516.801	90.88
517.016	95.88
517.232	99.88
517.448	98.88
517.664	83.88
517.879	92.88
518.095	82.88
