Data from 17600_1_HRD10591_00049.txt Node
Date: Mon Jan 19 14:07:48 EST 2026
User: Yrep
Spectrometer: HR+D1059
Trigger mode: 1
Integration Time (sec): 1.000000E-1
Scans to average: 1
Electric dark correction enabled: true
Nonlinearity correction enabled: false
Boxcar width: 0
XAxis mode: Wavelengths
Number of Pixels in Spectrum: 2048
>>>>>Begin Spectral Data<<<<<
223.165	-12.56
223.4	-12.56
223.635	-12.56
223.869	-20.56
224.104	-16.56
224.338	-8.56
224.573	-10.56
224.808	-7.56
225.042	-24.56
225.277	-9.56
225.511	-0.56
225.746	-0.56
225.98	11.44
226.215	1.44
226.449	17.44
226.683	18.44
226.918	32.44
227.152	30.44
227.387	42.44
227.621	43.44
227.856	37.44
228.09	39.44
228.324	54.44
228.559	43.44
228.793	49.44
229.027	49.44
229.262	54.44
229.496	57.44
229.73	62.44
229.964	75.44
230.199	67.44
230.433	73.44
230.667	72.44
230.901	64.44
231.136	85.44
231.37	73.44
231.604	74.44
231.838	90.44
232.072	71.44
232.306	80.44
232.541	101.44
232.775	82.44
233.009	73.44
233.243	89.44
233.477	80.44
233.711	83.44
233.945	78.44
234.179	85.44
234.413	79.44
234.647	85.44
234.881	81.44
235.115	66.44
235.349	75.44
235.583	85.44
235.817	87.44
236.051	88.44
236.285	81.44
236.519	73.44
236.753	66.44
236.987	64.44
237.221	71.44
237.455	69.44
237.689	62.44
237.922	65.44
238.156	79.44
238.39	84.44
238.624	77.44
238.858	75.44
239.091	81.44
239.325	74.44
239.559	68.44
239.793	80.44
240.027	79.44
240.26	88.44
240.494	65.44
240.728	67.44
240.961	79.44
241.195	81.44
241.429	76.44
241.662	75.44
241.896	71.44
242.13	62.44
242.363	69.44
242.597	83.44
242.83	90.44
243.064	71.44
243.298	74.44
243.531	84.44
243.765	76.44
243.998	65.44
244.232	80.44
244.465	89.44
244.699	74.44
244.932	79.44
245.166	72.44
245.399	72.44
245.633	66.44
245.866	72.44
246.099	77.44
246.333	70.44
246.566	67.44
246.8	76.44
247.033	86.44
247.266	89.44
247.5	74.44
247.733	85.44
247.966	77.44
248.2	63.44
248.433	73.44
248.666	83.44
248.899	85.44
249.133	70.44
249.366	66.44
249.599	74.44
249.832	69.44
250.066	80.44
250.299	67.44
250.532	79.44
250.765	85.44
250.998	82.44
251.231	75.44
251.465	76.44
251.698	69.44
251.931	82.44
252.164	89.44
252.397	58.44
252.63	85.44
252.863	69.44
253.096	68.44
253.329	67.44
253.562	88.44
253.795	81.44
254.028	87.44
254.261	72.44
254.494	65.44
254.727	72.44
254.96	80.44
255.193	90.44
255.426	71.44
255.659	83.44
255.892	75.44
256.124	85.44
256.357	91.44
256.59	87.44
256.823	77.44
257.056	81.44
257.289	87.44
257.521	85.44
257.754	81.44
257.987	78.44
258.22	70.44
258.452	72.44
258.685	67.44
258.918	78.44
259.151	82.44
259.383	88.44
259.616	83.44
259.849	78.44
260.081	83.44
260.314	85.44
260.547	85.44
260.779	72.44
261.012	92.44
261.244	77.44
261.477	71.44
261.71	70.44
261.942	84.44
262.175	79.44
262.407	66.44
262.64	77.44
262.872	74.44
263.105	88.44
263.337	74.44
263.57	67.44
263.802	82.44
264.035	81.44
264.267	79.44
264.499	72.44
264.732	91.44
264.964	83.44
265.197	86.44
265.429	93.44
265.661	72.44
265.894	90.44
266.126	82.44
266.358	83.44
266.591	80.44
266.823	90.44
267.055	68.44
267.287	82.44
267.52	62.44
267.752	88.44
267.984	94.44
268.216	79.44
268.448	100.44
268.681	91.44
268.913	74.44
269.145	92.44
269.377	76.44
269.609	74.44
269.841	76.44
270.073	87.44
270.306	86.44
270.538	83.44
270.77	73.44
271.002	77.44
271.234	95.44
271.466	89.44
271.698	78.44
271.93	73.44
272.162	85.44
272.394	89.44
272.626	93.44
272.858	83.44
273.09	97.44
273.322	74.44
273.553	77.44
273.785	83.44
274.017	90.44
274.249	91.44
274.481	80.44
274.713	88.44
274.945	95.44
275.176	73.44
275.408	72.44
275.64	81.44
275.872	75.44
276.104	90.44
276.335	85.44
276.567	67.44
276.799	79.44
277.031	73.44
277.262	91.44
277.494	83.44
277.726	74.44
277.957	76.44
278.189	76.44
278.421	72.44
278.652	98.44
278.884	96.44
279.115	97.44
279.347	86.44
279.579	79.44
279.81	90.44
280.042	82.44
280.273	82.44
280.505	94.44
280.736	77.44
280.968	63.44
281.199	78.44
281.431	83.44
281.662	70.44
281.894	74.44
282.125	86.44
282.356	87.44
282.588	67.44
282.819	76.44
283.051	84.44
283.282	81.44
283.513	88.44
283.745	86.44
283.976	85.44
284.207	81.44
284.439	85.44
284.67	82.44
284.901	85.44
285.132	78.44
285.364	82.44
285.595	98.44
285.826	76.44
286.057	85.44
286.288	89.44
286.52	94.44
286.751	89.44
286.982	82.44
287.213	79.44
287.444	75.44
287.675	69.44
287.906	83.44
288.138	87.44
288.369	93.44
288.6	83.44
288.831	73.44
289.062	86.44
289.293	69.44
289.524	83.44
289.755	79.44
289.986	71.44
290.217	93.44
290.448	86.44
290.679	96.44
290.91	86.44
291.141	82.44
291.371	82.44
291.602	88.44
291.833	85.44
292.064	83.44
292.295	84.44
292.526	72.44
292.757	89.44
292.987	82.44
293.218	85.44
293.449	85.44
293.68	78.44
293.91	80.44
294.141	71.44
294.372	87.44
294.603	89.44
294.833	80.44
295.064	75.44
295.295	87.44
295.525	89.44
295.756	84.44
295.987	87.44
296.217	85.44
296.448	79.44
296.679	81.44
296.909	80.44
297.14	89.44
297.37	84.44
297.601	72.44
297.831	78.44
298.062	83.44
298.292	82.44
298.523	89.44
298.753	85.44
298.984	84.44
299.214	71.44
299.445	75.44
299.675	101.44
299.905	89.44
300.136	68.44
300.366	73.44
300.597	86.44
300.827	88.44
301.057	83.44
301.288	84.44
301.518	89.44
301.748	90.44
301.979	91.44
302.209	87.44
302.439	80.44
302.669	100.44
302.9	86.44
303.13	73.44
303.36	76.44
303.59	71.44
303.82	92.44
304.051	77.44
304.281	84.44
304.511	78.44
304.741	84.44
304.971	69.44
305.201	92.44
305.431	77.44
305.661	75.44
305.891	86.44
306.121	101.44
306.352	89.44
306.582	86.44
306.812	77.44
307.042	84.44
307.272	95.44
307.502	94.44
307.731	77.44
307.961	81.44
308.191	88.44
308.421	78.44
308.651	93.44
308.881	87.44
309.111	65.44
309.341	86.44
309.571	93.44
309.8	82.44
310.03	88.44
310.26	85.44
310.49	82.44
310.72	85.44
310.949	82.44
311.179	86.44
311.409	88.44
311.639	77.44
311.868	87.44
312.098	73.44
312.328	88.44
312.557	93.44
312.787	81.44
313.017	81.44
313.246	93.44
313.476	92.44
313.706	97.44
313.935	80.44
314.165	81.44
314.394	73.44
314.624	96.44
314.853	85.44
315.083	85.44
315.312	74.44
315.542	82.44
315.771	78.44
316.001	87.44
316.23	86.44
316.46	95.44
316.689	78.44
316.919	90.44
317.148	90.44
317.377	86.44
317.607	92.44
317.836	83.44
318.065	83.44
318.295	82.44
318.524	75.44
318.753	87.44
318.983	88.44
319.212	93.44
319.441	65.44
319.67	82.44
319.9	78.44
320.129	74.44
320.358	79.44
320.587	70.44
320.816	91.44
321.046	92.44
321.275	87.44
321.504	87.44
321.733	83.44
321.962	88.44
322.191	88.44
322.42	68.44
322.649	79.44
322.878	93.44
323.108	79.44
323.337	95.44
323.566	93.44
323.795	91.44
324.024	86.44
324.253	76.44
324.482	88.44
324.71	83.44
324.939	92.44
325.168	73.44
325.397	91.44
325.626	77.44
325.855	75.44
326.084	83.44
326.313	89.44
326.542	85.44
326.77	83.44
326.999	86.44
327.228	91.44
327.457	86.44
327.686	81.44
327.914	83.44
328.143	80.44
328.372	88.44
328.6	77.44
328.829	81.44
329.058	78.44
329.287	89.44
329.515	83.44
329.744	74.44
329.972	79.44
330.201	78.44
330.43	69.44
330.658	83.44
330.887	70.44
331.115	82.44
331.344	85.44
331.572	83.44
331.801	74.44
332.03	84.44
332.258	74.44
332.486	77.44
332.715	78.44
332.943	80.44
333.172	84.44
333.4	87.44
333.629	93.44
333.857	97.44
334.085	85.44
334.314	69.44
334.542	75.44
334.771	87.44
334.999	87.44
335.227	75.44
335.455	90.44
335.684	88.44
335.912	91.44
336.14	70.44
336.369	79.44
336.597	87.44
336.825	90.44
337.053	86.44
337.281	74.44
337.51	88.44
337.738	93.44
337.966	86.44
338.194	98.44
338.422	89.44
338.65	87.44
338.878	92.44
339.106	75.44
339.334	89.44
339.562	101.44
339.79	78.44
340.018	67.44
340.246	84.44
340.474	99.44
340.702	95.44
340.93	86.44
341.158	89.44
341.386	76.44
341.614	87.44
341.842	74.44
342.07	78.44
342.298	73.44
342.526	87.44
342.754	89.44
342.981	75.44
343.209	81.44
343.437	95.44
343.665	81.44
343.893	86.44
344.12	82.44
344.348	90.44
344.576	93.44
344.804	81.44
345.031	69.44
345.259	76.44
345.487	82.44
345.714	75.44
345.942	82.44
346.17	77.44
346.397	79.44
346.625	81.44
346.853	81.44
347.08	85.44
347.308	75.44
347.535	84.44
347.763	84.44
347.99	87.44
348.218	90.44
348.445	82.44
348.673	88.44
348.9	85.44
349.128	89.44
349.355	90.44
349.583	84.44
349.81	77.44
350.037	75.44
350.265	73.44
350.492	75.44
350.72	80.44
350.947	73.44
351.174	79.44
351.402	84.44
351.629	85.44
351.856	82.44
352.083	94.44
352.311	94.44
352.538	83.44
352.765	76.44
352.992	89.44
353.22	67.44
353.447	83.44
353.674	80.44
353.901	76.44
354.128	82.44
354.355	74.44
354.583	87.44
354.81	83.44
355.037	79.44
355.264	83.44
355.491	94.44
355.718	79.44
355.945	89.44
356.172	83.44
356.399	76.44
356.626	77.44
356.853	81.44
357.08	72.44
357.307	73.44
357.534	85.44
357.761	76.44
357.988	83.44
358.215	93.44
358.441	98.44
358.668	78.44
358.895	79.44
359.122	86.44
359.349	82.44
359.576	82.44
359.802	69.44
360.029	75.44
360.256	79.44
360.483	87.44
360.709	77.44
360.936	91.44
361.163	82.44
361.39	81.44
361.616	85.44
361.843	74.44
362.07	86.44
362.296	94.44
362.523	103.44
362.749	97.44
362.976	93.44
363.203	100.44
363.429	82.44
363.656	84.44
363.882	96.44
364.109	87.44
364.335	85.44
364.562	90.44
364.788	96.44
365.015	91.44
365.241	79.44
365.468	77.44
365.694	75.44
365.92	82.44
366.147	78.44
366.373	68.44
366.599	84.44
366.826	84.44
367.052	79.44
367.278	88.44
367.505	87.44
367.731	73.44
367.957	81.44
368.184	75.44
368.41	77.44
368.636	96.44
368.862	82.44
369.089	84.44
369.315	79.44
369.541	81.44
369.767	79.44
369.993	80.44
370.219	81.44
370.445	88.44
370.672	90.44
370.898	63.44
371.124	72.44
371.35	79.44
371.576	83.44
371.802	83.44
372.028	78.44
372.254	86.44
372.48	79.44
372.706	87.44
372.932	69.44
373.158	77.44
373.384	85.44
373.61	79.44
373.835	84.44
374.061	89.44
374.287	83.44
374.513	77.44
374.739	81.44
374.965	84.44
375.191	88.44
375.416	85.44
375.642	66.44
375.868	89.44
376.094	69.44
376.319	70.44
376.545	79.44
376.771	88.44
376.997	87.44
377.222	73.44
377.448	81.44
377.674	71.44
377.899	91.44
378.125	82.44
378.35	85.44
378.576	96.44
378.802	81.44
379.027	85.44
379.253	84.44
379.478	79.44
379.704	74.44
379.929	78.44
380.155	81.44
380.38	83.44
380.606	82.44
380.831	87.44
381.057	86.44
381.282	80.44
381.507	93.44
381.733	79.44
381.958	90.44
382.184	84.44
382.409	74.44
382.634	93.44
382.86	93.44
383.085	81.44
383.31	109.44
383.535	84.44
383.761	90.44
383.986	103.44
384.211	89.44
384.436	74.44
384.662	89.44
384.887	86.44
385.112	88.44
385.337	85.44
385.562	96.44
385.787	91.44
386.013	70.44
386.238	79.44
386.463	81.44
386.688	95.44
386.913	99.44
387.138	93.44
387.363	69.44
387.588	88.44
387.813	97.44
388.038	93.44
388.263	86.44
388.488	76.44
388.713	79.44
388.938	86.44
389.163	71.44
389.387	83.44
389.612	91.44
389.837	94.44
390.062	93.44
390.287	78.44
390.512	87.44
390.736	88.44
390.961	72.44
391.186	75.44
391.411	78.44
391.636	90.44
391.86	75.44
392.085	86.44
392.31	94.44
392.534	94.44
392.759	97.44
392.984	136.44
393.208	194.44
393.433	280.44
393.658	215.44
393.882	104.44
394.107	87.44
394.331	105.44
394.556	106.44
394.78	88.44
395.005	82.44
395.229	84.44
395.454	77.44
395.678	93.44
395.903	95.44
396.127	101.44
396.352	115.44
396.576	145.44
396.801	204.44
397.025	232.44
397.249	137.44
397.474	101.44
397.698	99.44
397.922	95.44
398.147	75.44
398.371	76.44
398.595	84.44
398.82	89.44
399.044	83.44
399.268	81.44
399.492	87.44
399.717	81.44
399.941	89.44
400.165	78.44
400.389	79.44
400.613	81.44
400.837	86.44
401.062	85.44
401.286	85.44
401.51	84.44
401.734	79.44
401.958	82.44
402.182	90.44
402.406	71.44
402.63	77.44
402.854	81.44
403.078	80.44
403.302	81.44
403.526	83.44
403.75	84.44
403.974	75.44
404.198	64.44
404.422	81.44
404.645	101.44
404.869	107.44
405.093	91.44
405.317	73.44
405.541	96.44
405.765	77.44
405.988	75.44
406.212	77.44
406.436	86.44
406.66	94.44
406.883	79.44
407.107	85.44
407.331	102.44
407.555	106.44
407.778	107.44
408.002	107.44
408.226	71.44
408.449	86.44
408.673	88.44
408.896	76.44
409.12	89.44
409.344	87.44
409.567	86.44
409.791	72.44
410.014	86.44
410.238	90.44
410.461	86.44
410.685	90.44
410.908	80.44
411.132	75.44
411.355	90.44
411.578	88.44
411.802	81.44
412.025	90.44
412.249	85.44
412.472	67.44
412.695	73.44
412.919	85.44
413.142	82.44
413.365	88.44
413.589	68.44
413.812	80.44
414.035	86.44
414.258	77.44
414.482	90.44
414.705	89.44
414.928	82.44
415.151	91.44
415.374	73.44
415.597	80.44
415.821	69.44
416.044	69.44
416.267	90.44
416.49	71.44
416.713	68.44
416.936	74.44
417.159	86.44
417.382	72.44
417.605	70.44
417.828	74.44
418.051	88.44
418.274	87.44
418.497	79.44
418.72	86.44
418.943	84.44
419.166	71.44
419.389	76.44
419.611	61.44
419.834	77.44
420.057	91.44
420.28	79.44
420.503	78.44
420.726	80.44
420.948	93.44
421.171	87.44
421.394	102.44
421.617	100.44
421.839	97.44
422.062	98.44
422.285	112.44
422.507	187.44
422.73	277.44
422.953	258.44
423.175	124.44
423.398	82.44
423.621	95.44
423.843	81.44
424.066	84.44
424.288	85.44
424.511	85.44
424.733	75.44
424.956	82.44
425.178	75.44
425.401	86.44
425.623	86.44
425.846	82.44
426.068	86.44
426.291	75.44
426.513	80.44
426.735	86.44
426.958	68.44
427.18	82.44
427.402	78.44
427.625	87.44
427.847	73.44
428.069	84.44
428.292	90.44
428.514	100.44
428.736	97.44
428.958	105.44
429.181	94.44
429.403	93.44
429.625	86.44
429.847	98.44
430.069	111.44
430.292	128.44
430.514	138.44
430.736	113.44
430.958	118.44
431.18	93.44
431.402	93.44
431.624	95.44
431.846	94.44
432.068	110.44
432.29	87.44
432.512	71.44
432.734	76.44
432.956	81.44
433.178	86.44
433.4	81.44
433.622	80.44
433.844	84.44
434.066	81.44
434.287	79.44
434.509	70.44
434.731	87.44
434.953	76.44
435.175	83.44
435.397	76.44
435.618	76.44
435.84	82.44
436.062	69.44
436.284	85.44
436.505	88.44
436.727	81.44
436.949	76.44
437.17	79.44
437.392	62.44
437.614	86.44
437.835	71.44
438.057	74.44
438.278	75.44
438.5	83.44
438.721	68.44
438.943	64.44
439.165	81.44
439.386	75.44
439.608	83.44
439.829	89.44
440.05	76.44
440.272	81.44
440.493	80.44
440.715	94.44
440.936	75.44
441.158	73.44
441.379	70.44
441.6	70.44
441.822	69.44
442.043	74.44
442.264	75.44
442.486	103.44
442.707	111.44
442.928	94.44
443.149	89.44
443.371	119.44
443.592	153.44
443.813	156.44
444.034	87.44
444.255	81.44
444.476	77.44
444.698	93.44
444.919	87.44
445.14	179.44
445.361	165.44
445.582	185.44
445.803	157.44
446.024	101.44
446.245	92.44
446.466	83.44
446.687	75.44
446.908	86.44
447.129	86.44
447.35	85.44
447.571	78.44
447.792	81.44
448.013	72.44
448.234	92.44
448.455	88.44
448.675	69.44
448.896	71.44
449.117	83.44
449.338	90.44
449.559	95.44
449.779	72.44
450	72.44
450.221	79.44
450.442	98.44
450.662	93.44
450.883	74.44
451.104	73.44
451.324	65.44
451.545	66.44
451.766	74.44
451.986	67.44
452.207	76.44
452.428	75.44
452.648	83.44
452.869	84.44
453.089	91.44
453.31	93.44
453.53	83.44
453.751	89.44
453.971	98.44
454.192	80.44
454.412	77.44
454.633	85.44
454.853	86.44
455.073	79.44
455.294	78.44
455.514	88.44
455.734	79.44
455.955	90.44
456.175	79.44
456.395	98.44
456.616	87.44
456.836	78.44
457.056	85.44
457.276	75.44
457.497	89.44
457.717	66.44
457.937	97.44
458.157	79.44
458.377	94.44
458.598	90.44
458.818	81.44
459.038	92.44
459.258	66.44
459.478	72.44
459.698	76.44
459.918	87.44
460.138	81.44
460.358	96.44
460.578	83.44
460.798	106.44
461.018	89.44
461.238	79.44
461.458	86.44
461.678	81.44
461.898	92.44
462.118	86.44
462.338	87.44
462.558	75.44
462.777	85.44
462.997	90.44
463.217	84.44
463.437	88.44
463.657	84.44
463.876	79.44
464.096	93.44
464.316	83.44
464.536	93.44
464.755	84.44
464.975	89.44
465.195	78.44
465.414	85.44
465.634	68.44
465.854	78.44
466.073	82.44
466.293	83.44
466.512	74.44
466.732	77.44
466.951	81.44
467.171	81.44
467.391	89.44
467.61	90.44
467.829	87.44
468.049	57.44
468.268	89.44
468.488	75.44
468.707	84.44
468.927	70.44
469.146	67.44
469.365	66.44
469.585	92.44
469.804	69.44
470.023	83.44
470.243	93.44
470.462	71.44
470.681	96.44
470.901	87.44
471.12	79.44
471.339	74.44
471.558	91.44
471.777	81.44
471.997	99.44
472.216	75.44
472.435	83.44
472.654	75.44
472.873	88.44
473.092	96.44
473.311	83.44
473.53	78.44
473.749	63.44
473.968	98.44
474.187	85.44
474.406	82.44
474.625	85.44
474.844	73.44
475.063	79.44
475.282	68.44
475.501	82.44
475.72	99.44
475.939	90.44
476.158	67.44
476.377	83.44
476.596	83.44
476.814	80.44
477.033	82.44
477.252	82.44
477.471	75.44
477.69	91.44
477.908	94.44
478.127	77.44
478.346	81.44
478.564	87.44
478.783	79.44
479.002	68.44
479.22	72.44
479.439	82.44
479.658	75.44
479.876	76.44
480.095	82.44
480.313	93.44
480.532	86.44
480.751	92.44
480.969	85.44
481.188	65.44
481.406	97.44
481.624	73.44
481.843	93.44
482.061	88.44
482.28	76.44
482.498	78.44
482.717	71.44
482.935	93.44
483.153	65.44
483.372	82.44
483.59	87.44
483.808	75.44
484.027	90.44
484.245	91.44
484.463	97.44
484.681	81.44
484.9	85.44
485.118	85.44
485.336	86.44
485.554	75.44
485.772	84.44
485.99	89.44
486.209	82.44
486.427	85.44
486.645	83.44
486.863	82.44
487.081	90.44
487.299	91.44
487.517	87.44
487.735	94.44
487.953	112.44
488.171	106.44
488.389	89.44
488.607	82.44
488.825	82.44
489.043	87.44
489.261	70.44
489.479	90.44
489.696	86.44
489.914	75.44
490.132	79.44
490.35	73.44
490.568	80.44
490.786	85.44
491.003	83.44
491.221	86.44
491.439	84.44
491.657	88.44
491.874	81.44
492.092	74.44
492.31	84.44
492.527	87.44
492.745	73.44
492.963	90.44
493.18	89.44
493.398	82.44
493.615	85.44
493.833	88.44
494.05	80.44
494.268	91.44
494.485	84.44
494.703	80.44
494.92	85.44
495.138	69.44
495.355	70.44
495.573	76.44
495.79	83.44
496.008	94.44
496.225	69.44
496.442	85.44
496.66	91.44
496.877	86.44
497.094	89.44
497.312	74.44
497.529	79.44
497.746	93.44
497.963	74.44
498.181	79.44
498.398	80.44
498.615	87.44
498.832	70.44
499.049	69.44
499.267	84.44
499.484	87.44
499.701	82.44
499.918	73.44
500.135	75.44
500.352	75.44
500.569	72.44
500.786	70.44
501.003	90.44
501.22	83.44
501.437	80.44
501.654	76.44
501.871	96.44
502.088	80.44
502.305	79.44
502.522	89.44
502.739	81.44
502.956	80.44
503.172	75.44
503.389	80.44
503.606	79.44
503.823	81.44
504.04	91.44
504.256	104.44
504.473	97.44
504.69	86.44
504.907	77.44
505.123	70.44
505.34	87.44
505.557	77.44
505.773	97.44
505.99	80.44
506.207	98.44
506.423	84.44
506.64	75.44
506.856	78.44
507.073	79.44
507.289	73.44
507.506	79.44
507.722	83.44
507.939	87.44
508.155	90.44
508.372	91.44
508.588	89.44
508.805	86.44
509.021	83.44
509.238	79.44
509.454	86.44
509.67	88.44
509.887	85.44
510.103	79.44
510.319	76.44
510.536	106.44
510.752	84.44
510.968	84.44
511.184	76.44
511.401	86.44
511.617	86.44
511.833	86.44
512.049	80.44
512.265	71.44
512.481	77.44
512.698	98.44
512.914	95.44
513.13	79.44
513.346	88.44
513.562	90.44
513.778	82.44
513.994	76.44
514.21	90.44
514.426	71.44
514.642	71.44
514.858	85.44
515.074	85.44
515.29	89.44
515.506	87.44
515.721	71.44
515.937	88.44
516.153	69.44
516.369	75.44
516.585	98.44
516.801	85.44
517.016	79.44
517.232	82.44
517.448	75.44
517.664	87.44
517.879	89.44
518.095	76.44
518.311	75.44
518.527	83.44
518.742	94.44
518.958	103.44
519.173	105.44
519.389	79.44
