Data from 17600_1_HRD10591_00023.txt Node
Date: Mon Jan 19 14:07:35 EST 2026
User: Yrep
Spectrometer: HR+D1059
Trigger mode: 1
Integration Time (sec): 1.000000E-1
Scans to average: 1
Electric dark correction enabled: true
Nonlinearity correction enabled: false
Boxcar width: 0
XAxis mode: Wavelengths
Number of Pixels in Spectrum: 2048
>>>>>Begin Spectral Data<<<<<
223.165	-17.75
223.4	-17.75
223.635	-17.75
223.869	-15.75
224.104	-13.75
224.338	-18.75
224.573	-12.75
224.808	-19.75
225.042	-9.75
225.277	0.25
225.511	-2.75
225.746	0.25
225.98	7.25
226.215	18.25
226.449	27.25
226.683	17.25
226.918	12.25
227.152	28.25
227.387	41.25
227.621	48.25
227.856	64.25
228.09	49.25
228.324	56.25
228.559	64.25
228.793	70.25
229.027	54.25
229.262	59.25
229.496	76.25
229.73	79.25
229.964	68.25
230.199	101.25
230.433	83.25
230.667	74.25
230.901	75.25
231.136	74.25
231.37	71.25
231.604	90.25
231.838	70.25
232.072	94.25
232.306	81.25
232.541	66.25
232.775	86.25
233.009	95.25
233.243	88.25
233.477	86.25
233.711	87.25
233.945	85.25
234.179	77.25
234.413	84.25
234.647	83.25
234.881	73.25
235.115	71.25
235.349	87.25
235.583	73.25
235.817	77.25
236.051	87.25
236.285	68.25
236.519	76.25
236.753	77.25
236.987	70.25
237.221	77.25
237.455	65.25
237.689	87.25
237.922	78.25
238.156	82.25
238.39	67.25
238.624	88.25
238.858	84.25
239.091	79.25
239.325	90.25
239.559	64.25
239.793	82.25
240.027	91.25
240.26	94.25
240.494	86.25
240.728	66.25
240.961	71.25
241.195	83.25
241.429	79.25
241.662	63.25
241.896	80.25
242.13	76.25
242.363	64.25
242.597	72.25
242.83	80.25
243.064	79.25
243.298	60.25
243.531	73.25
243.765	83.25
243.998	76.25
244.232	80.25
244.465	74.25
244.699	75.25
244.932	66.25
245.166	81.25
245.399	81.25
245.633	69.25
245.866	63.25
246.099	84.25
246.333	75.25
246.566	74.25
246.8	82.25
247.033	79.25
247.266	91.25
247.5	80.25
247.733	63.25
247.966	84.25
248.2	73.25
248.433	82.25
248.666	80.25
248.899	72.25
249.133	91.25
249.366	91.25
249.599	89.25
249.832	78.25
250.066	96.25
250.299	79.25
250.532	75.25
250.765	82.25
250.998	75.25
251.231	86.25
251.465	80.25
251.698	76.25
251.931	85.25
252.164	71.25
252.397	71.25
252.63	72.25
252.863	78.25
253.096	72.25
253.329	82.25
253.562	72.25
253.795	84.25
254.028	76.25
254.261	88.25
254.494	71.25
254.727	77.25
254.96	69.25
255.193	82.25
255.426	82.25
255.659	73.25
255.892	84.25
256.124	86.25
256.357	70.25
256.59	91.25
256.823	72.25
257.056	88.25
257.289	86.25
257.521	82.25
257.754	73.25
257.987	86.25
258.22	73.25
258.452	77.25
258.685	78.25
258.918	80.25
259.151	92.25
259.383	85.25
259.616	84.25
259.849	88.25
260.081	82.25
260.314	74.25
260.547	84.25
260.779	86.25
261.012	77.25
261.244	96.25
261.477	108.25
261.71	82.25
261.942	75.25
262.175	76.25
262.407	83.25
262.64	88.25
262.872	81.25
263.105	86.25
263.337	77.25
263.57	88.25
263.802	70.25
264.035	97.25
264.267	81.25
264.499	91.25
264.732	82.25
264.964	81.25
265.197	78.25
265.429	105.25
265.661	94.25
265.894	91.25
266.126	90.25
266.358	80.25
266.591	92.25
266.823	79.25
267.055	80.25
267.287	79.25
267.52	89.25
267.752	89.25
267.984	92.25
268.216	73.25
268.448	95.25
268.681	82.25
268.913	88.25
269.145	84.25
269.377	68.25
269.609	69.25
269.841	74.25
270.073	79.25
270.306	92.25
270.538	91.25
270.77	76.25
271.002	94.25
271.234	84.25
271.466	90.25
271.698	79.25
271.93	94.25
272.162	64.25
272.394	92.25
272.626	87.25
272.858	82.25
273.09	79.25
273.322	75.25
273.553	85.25
273.785	75.25
274.017	87.25
274.249	83.25
274.481	84.25
274.713	85.25
274.945	86.25
275.176	81.25
275.408	77.25
275.64	83.25
275.872	93.25
276.104	95.25
276.335	84.25
276.567	76.25
276.799	70.25
277.031	66.25
277.262	75.25
277.494	80.25
277.726	78.25
277.957	83.25
278.189	80.25
278.421	80.25
278.652	79.25
278.884	79.25
279.115	70.25
279.347	83.25
279.579	97.25
279.81	83.25
280.042	87.25
280.273	89.25
280.505	86.25
280.736	92.25
280.968	73.25
281.199	78.25
281.431	72.25
281.662	80.25
281.894	94.25
282.125	80.25
282.356	95.25
282.588	90.25
282.819	76.25
283.051	85.25
283.282	80.25
283.513	92.25
283.745	74.25
283.976	76.25
284.207	74.25
284.439	87.25
284.67	94.25
284.901	80.25
285.132	96.25
285.364	96.25
285.595	85.25
285.826	86.25
286.057	88.25
286.288	82.25
286.52	76.25
286.751	90.25
286.982	81.25
287.213	76.25
287.444	88.25
287.675	83.25
287.906	93.25
288.138	84.25
288.369	88.25
288.6	85.25
288.831	91.25
289.062	86.25
289.293	90.25
289.524	79.25
289.755	88.25
289.986	85.25
290.217	81.25
290.448	90.25
290.679	75.25
290.91	81.25
291.141	90.25
291.371	86.25
291.602	83.25
291.833	80.25
292.064	96.25
292.295	71.25
292.526	90.25
292.757	82.25
292.987	85.25
293.218	83.25
293.449	79.25
293.68	82.25
293.91	90.25
294.141	98.25
294.372	72.25
294.603	99.25
294.833	72.25
295.064	80.25
295.295	84.25
295.525	81.25
295.756	90.25
295.987	88.25
296.217	79.25
296.448	76.25
296.679	73.25
296.909	86.25
297.14	82.25
297.37	84.25
297.601	76.25
297.831	80.25
298.062	78.25
298.292	80.25
298.523	83.25
298.753	63.25
298.984	80.25
299.214	89.25
299.445	92.25
299.675	94.25
299.905	94.25
300.136	85.25
300.366	86.25
300.597	79.25
300.827	90.25
301.057	95.25
301.288	75.25
301.518	81.25
301.748	66.25
301.979	91.25
302.209	84.25
302.439	84.25
302.669	85.25
302.9	90.25
303.13	91.25
303.36	79.25
303.59	67.25
303.82	79.25
304.051	78.25
304.281	77.25
304.511	90.25
304.741	71.25
304.971	71.25
305.201	96.25
305.431	86.25
305.661	85.25
305.891	92.25
306.121	92.25
306.352	87.25
306.582	94.25
306.812	82.25
307.042	81.25
307.272	94.25
307.502	75.25
307.731	92.25
307.961	82.25
308.191	83.25
308.421	96.25
308.651	67.25
308.881	81.25
309.111	87.25
309.341	84.25
309.571	95.25
309.8	82.25
310.03	100.25
310.26	83.25
310.49	92.25
310.72	84.25
310.949	78.25
311.179	81.25
311.409	96.25
311.639	76.25
311.868	92.25
312.098	86.25
312.328	87.25
312.557	79.25
312.787	86.25
313.017	85.25
313.246	89.25
313.476	79.25
313.706	96.25
313.935	87.25
314.165	99.25
314.394	74.25
314.624	84.25
314.853	82.25
315.083	86.25
315.312	82.25
315.542	88.25
315.771	99.25
316.001	91.25
316.23	89.25
316.46	99.25
316.689	81.25
316.919	92.25
317.148	92.25
317.377	90.25
317.607	90.25
317.836	108.25
318.065	110.25
318.295	104.25
318.524	96.25
318.753	86.25
318.983	82.25
319.212	95.25
319.441	105.25
319.67	78.25
319.9	84.25
320.129	81.25
320.358	87.25
320.587	87.25
320.816	84.25
321.046	91.25
321.275	83.25
321.504	76.25
321.733	92.25
321.962	81.25
322.191	85.25
322.42	92.25
322.649	83.25
322.878	88.25
323.108	82.25
323.337	82.25
323.566	90.25
323.795	81.25
324.024	79.25
324.253	94.25
324.482	87.25
324.71	84.25
324.939	86.25
325.168	86.25
325.397	92.25
325.626	86.25
325.855	84.25
326.084	80.25
326.313	86.25
326.542	91.25
326.77	84.25
326.999	87.25
327.228	88.25
327.457	76.25
327.686	71.25
327.914	71.25
328.143	81.25
328.372	80.25
328.6	88.25
328.829	85.25
329.058	86.25
329.287	82.25
329.515	80.25
329.744	86.25
329.972	75.25
330.201	94.25
330.43	106.25
330.658	75.25
330.887	90.25
331.115	86.25
331.344	81.25
331.572	98.25
331.801	86.25
332.03	73.25
332.258	98.25
332.486	86.25
332.715	86.25
332.943	84.25
333.172	88.25
333.4	72.25
333.629	88.25
333.857	90.25
334.085	87.25
334.314	88.25
334.542	76.25
334.771	83.25
334.999	90.25
335.227	80.25
335.455	95.25
335.684	77.25
335.912	99.25
336.14	84.25
336.369	78.25
336.597	83.25
336.825	91.25
337.053	77.25
337.281	99.25
337.51	80.25
337.738	83.25
337.966	76.25
338.194	90.25
338.422	82.25
338.65	88.25
338.878	84.25
339.106	85.25
339.334	89.25
339.562	88.25
339.79	85.25
340.018	77.25
340.246	74.25
340.474	81.25
340.702	80.25
340.93	89.25
341.158	82.25
341.386	77.25
341.614	75.25
341.842	80.25
342.07	89.25
342.298	78.25
342.526	83.25
342.754	92.25
342.981	80.25
343.209	82.25
343.437	98.25
343.665	91.25
343.893	80.25
344.12	74.25
344.348	97.25
344.576	83.25
344.804	68.25
345.031	61.25
345.259	91.25
345.487	85.25
345.714	87.25
345.942	89.25
346.17	94.25
346.397	74.25
346.625	86.25
346.853	93.25
347.08	97.25
347.308	92.25
347.535	80.25
347.763	88.25
347.99	88.25
348.218	91.25
348.445	88.25
348.673	79.25
348.9	84.25
349.128	82.25
349.355	85.25
349.583	69.25
349.81	88.25
350.037	72.25
350.265	71.25
350.492	84.25
350.72	89.25
350.947	74.25
351.174	78.25
351.402	82.25
351.629	72.25
351.856	97.25
352.083	74.25
352.311	94.25
352.538	85.25
352.765	84.25
352.992	105.25
353.22	82.25
353.447	70.25
353.674	87.25
353.901	87.25
354.128	94.25
354.355	70.25
354.583	86.25
354.81	90.25
355.037	74.25
355.264	91.25
355.491	90.25
355.718	83.25
355.945	83.25
356.172	87.25
356.399	70.25
356.626	75.25
356.853	89.25
357.08	85.25
357.307	98.25
357.534	78.25
357.761	95.25
357.988	91.25
358.215	90.25
358.441	81.25
358.668	102.25
358.895	75.25
359.122	97.25
359.349	90.25
359.576	77.25
359.802	84.25
360.029	90.25
360.256	67.25
360.483	85.25
360.709	83.25
360.936	101.25
361.163	87.25
361.39	76.25
361.616	98.25
361.843	90.25
362.07	84.25
362.296	87.25
362.523	68.25
362.749	90.25
362.976	94.25
363.203	82.25
363.429	91.25
363.656	86.25
363.882	89.25
364.109	104.25
364.335	84.25
364.562	88.25
364.788	98.25
365.015	87.25
365.241	104.25
365.468	90.25
365.694	76.25
365.92	82.25
366.147	78.25
366.373	76.25
366.599	84.25
366.826	82.25
367.052	87.25
367.278	70.25
367.505	91.25
367.731	76.25
367.957	91.25
368.184	84.25
368.41	78.25
368.636	83.25
368.862	91.25
369.089	90.25
369.315	86.25
369.541	75.25
369.767	84.25
369.993	83.25
370.219	86.25
370.445	93.25
370.672	86.25
370.898	86.25
371.124	78.25
371.35	95.25
371.576	90.25
371.802	94.25
372.028	76.25
372.254	92.25
372.48	91.25
372.706	86.25
372.932	95.25
373.158	98.25
373.384	95.25
373.61	126.25
373.835	123.25
374.061	95.25
374.287	94.25
374.513	88.25
374.739	74.25
374.965	85.25
375.191	86.25
375.416	95.25
375.642	94.25
375.868	99.25
376.094	80.25
376.319	89.25
376.545	79.25
376.771	88.25
376.997	72.25
377.222	79.25
377.448	89.25
377.674	69.25
377.899	72.25
378.125	71.25
378.35	80.25
378.576	98.25
378.802	77.25
379.027	92.25
379.253	89.25
379.478	91.25
379.704	95.25
379.929	79.25
380.155	82.25
380.38	82.25
380.606	98.25
380.831	76.25
381.057	98.25
381.282	81.25
381.507	96.25
381.733	95.25
381.958	100.25
382.184	99.25
382.409	87.25
382.634	110.25
382.86	88.25
383.085	94.25
383.31	93.25
383.535	97.25
383.761	83.25
383.986	75.25
384.211	84.25
384.436	77.25
384.662	83.25
384.887	88.25
385.112	95.25
385.337	92.25
385.562	84.25
385.787	95.25
386.013	94.25
386.238	81.25
386.463	89.25
386.688	94.25
386.913	88.25
387.138	89.25
387.363	86.25
387.588	98.25
387.813	87.25
388.038	84.25
388.263	103.25
388.488	94.25
388.713	92.25
388.938	78.25
389.163	96.25
389.387	81.25
389.612	96.25
389.837	80.25
390.062	83.25
390.287	89.25
390.512	86.25
390.736	79.25
390.961	102.25
391.186	93.25
391.411	91.25
391.636	74.25
391.86	83.25
392.085	78.25
392.31	93.25
392.534	105.25
392.759	108.25
392.984	181.25
393.208	360.25
393.433	554.25
393.658	389.25
393.882	155.25
394.107	109.25
394.331	114.25
394.556	121.25
394.78	98.25
395.005	86.25
395.229	82.25
395.454	84.25
395.678	91.25
395.903	115.25
396.127	132.25
396.352	145.25
396.576	197.25
396.801	342.25
397.025	426.25
397.249	202.25
397.474	114.25
397.698	103.25
397.922	86.25
398.147	77.25
398.371	84.25
398.595	91.25
398.82	86.25
399.044	70.25
399.268	80.25
399.492	74.25
399.717	80.25
399.941	82.25
400.165	88.25
400.389	76.25
400.613	78.25
400.837	78.25
401.062	90.25
401.286	87.25
401.51	92.25
401.734	97.25
401.958	79.25
402.182	80.25
402.406	75.25
402.63	76.25
402.854	80.25
403.078	95.25
403.302	84.25
403.526	88.25
403.75	88.25
403.974	83.25
404.198	96.25
404.422	100.25
404.645	110.25
404.869	87.25
405.093	76.25
405.317	82.25
405.541	94.25
405.765	96.25
405.988	93.25
406.212	78.25
406.436	84.25
406.66	74.25
406.883	82.25
407.107	87.25
407.331	86.25
407.555	94.25
407.778	144.25
408.002	137.25
408.226	94.25
408.449	75.25
408.673	98.25
408.896	92.25
409.12	82.25
409.344	91.25
409.567	80.25
409.791	77.25
410.014	83.25
410.238	77.25
410.461	84.25
410.685	65.25
410.908	96.25
411.132	90.25
411.355	96.25
411.578	89.25
411.802	86.25
412.025	88.25
412.249	79.25
412.472	65.25
412.695	87.25
412.919	94.25
413.142	88.25
413.365	82.25
413.589	93.25
413.812	90.25
414.035	91.25
414.258	79.25
414.482	82.25
414.705	88.25
414.928	92.25
415.151	94.25
415.374	80.25
415.597	82.25
415.821	76.25
416.044	80.25
416.267	74.25
416.49	74.25
416.713	67.25
416.936	93.25
417.159	77.25
417.382	92.25
417.605	79.25
417.828	99.25
418.051	83.25
418.274	81.25
418.497	66.25
418.72	96.25
418.943	90.25
419.166	80.25
419.389	75.25
419.611	75.25
419.834	90.25
420.057	84.25
420.28	81.25
420.503	70.25
420.726	76.25
420.948	90.25
421.171	82.25
421.394	111.25
421.617	124.25
421.839	123.25
422.062	107.25
422.285	122.25
422.507	208.25
422.73	370.25
422.953	300.25
423.175	143.25
423.398	106.25
423.621	96.25
423.843	90.25
424.066	101.25
424.288	74.25
424.511	85.25
424.733	82.25
424.956	100.25
425.178	88.25
425.401	76.25
425.623	84.25
425.846	84.25
426.068	72.25
426.291	87.25
426.513	87.25
426.735	76.25
426.958	74.25
427.18	95.25
427.402	84.25
427.625	82.25
427.847	95.25
428.069	107.25
428.292	117.25
428.514	135.25
428.736	94.25
428.958	108.25
429.181	116.25
429.403	95.25
429.625	98.25
429.847	100.25
430.069	136.25
430.292	149.25
430.514	146.25
430.736	116.25
430.958	130.25
431.18	90.25
431.402	98.25
431.624	111.25
431.846	111.25
432.068	127.25
432.29	96.25
432.512	87.25
432.734	68.25
432.956	90.25
433.178	88.25
433.4	85.25
433.622	67.25
433.844	80.25
434.066	88.25
434.287	79.25
434.509	74.25
434.731	90.25
434.953	96.25
435.175	94.25
435.397	89.25
435.618	91.25
435.84	83.25
436.062	91.25
436.284	91.25
436.505	65.25
436.727	66.25
436.949	79.25
437.17	72.25
437.392	84.25
437.614	80.25
437.835	74.25
438.057	94.25
438.278	101.25
438.5	86.25
438.721	77.25
438.943	79.25
439.165	95.25
439.386	81.25
439.608	82.25
439.829	82.25
440.05	89.25
440.272	77.25
440.493	71.25
440.715	81.25
440.936	94.25
441.158	75.25
441.379	81.25
441.6	71.25
441.822	76.25
442.043	86.25
442.264	86.25
442.486	117.25
442.707	123.25
442.928	97.25
443.149	89.25
443.371	107.25
443.592	170.25
443.813	158.25
444.034	96.25
444.255	83.25
444.476	90.25
444.698	82.25
444.919	91.25
445.14	162.25
445.361	151.25
445.582	215.25
445.803	202.25
446.024	102.25
446.245	105.25
446.466	80.25
446.687	77.25
446.908	80.25
447.129	97.25
447.35	91.25
447.571	94.25
447.792	74.25
448.013	87.25
448.234	86.25
448.455	71.25
448.675	83.25
448.896	74.25
449.117	77.25
449.338	84.25
449.559	81.25
449.779	91.25
450	80.25
450.221	71.25
450.442	87.25
450.662	90.25
450.883	91.25
451.104	88.25
451.324	91.25
451.545	92.25
451.766	72.25
451.986	91.25
452.207	100.25
452.428	92.25
452.648	81.25
452.869	82.25
453.089	94.25
453.31	77.25
453.53	82.25
453.751	81.25
453.971	86.25
454.192	86.25
454.412	69.25
454.633	83.25
454.853	80.25
455.073	82.25
455.294	87.25
455.514	80.25
455.734	90.25
455.955	85.25
456.175	74.25
456.395	82.25
456.616	84.25
456.836	94.25
457.056	90.25
457.276	81.25
457.497	74.25
457.717	77.25
457.937	92.25
458.157	94.25
458.377	100.25
458.598	99.25
458.818	94.25
459.038	90.25
459.258	86.25
459.478	87.25
459.698	93.25
459.918	87.25
460.138	82.25
460.358	90.25
460.578	93.25
460.798	108.25
461.018	121.25
461.238	94.25
461.458	88.25
461.678	90.25
461.898	97.25
462.118	86.25
462.338	94.25
462.558	92.25
462.777	77.25
462.997	73.25
463.217	75.25
463.437	89.25
463.657	86.25
463.876	87.25
464.096	79.25
464.316	89.25
464.536	86.25
464.755	87.25
464.975	76.25
465.195	90.25
465.414	84.25
465.634	84.25
465.854	82.25
466.073	86.25
466.293	86.25
466.512	89.25
466.732	74.25
466.951	76.25
467.171	90.25
467.391	82.25
467.61	79.25
467.829	80.25
468.049	76.25
468.268	78.25
468.488	83.25
468.707	102.25
468.927	86.25
469.146	93.25
469.365	87.25
469.585	84.25
469.804	82.25
470.023	68.25
470.243	91.25
470.462	80.25
470.681	78.25
470.901	77.25
471.12	86.25
471.339	86.25
471.558	79.25
471.777	83.25
471.997	90.25
472.216	85.25
472.435	92.25
472.654	81.25
472.873	92.25
473.092	82.25
473.311	87.25
473.53	85.25
473.749	85.25
473.968	96.25
474.187	84.25
474.406	80.25
474.625	86.25
474.844	82.25
475.063	96.25
475.282	81.25
475.501	83.25
475.72	102.25
475.939	75.25
476.158	84.25
476.377	84.25
476.596	87.25
476.814	89.25
477.033	79.25
477.252	93.25
477.471	74.25
477.69	76.25
477.908	81.25
478.127	82.25
478.346	98.25
478.564	78.25
478.783	90.25
479.002	82.25
479.22	76.25
479.439	91.25
479.658	97.25
479.876	82.25
480.095	64.25
480.313	105.25
480.532	89.25
480.751	85.25
480.969	87.25
481.188	76.25
481.406	77.25
481.624	70.25
481.843	64.25
482.061	79.25
482.28	75.25
482.498	86.25
482.717	88.25
482.935	88.25
483.153	86.25
483.372	89.25
483.59	89.25
483.808	85.25
484.027	88.25
484.245	91.25
484.463	82.25
484.681	88.25
484.9	89.25
485.118	85.25
485.336	78.25
485.554	75.25
485.772	73.25
485.99	94.25
486.209	86.25
486.427	99.25
486.645	84.25
486.863	83.25
487.081	87.25
487.299	81.25
487.517	86.25
487.735	104.25
487.953	123.25
488.171	102.25
488.389	98.25
488.607	91.25
488.825	90.25
489.043	72.25
489.261	73.25
489.479	85.25
489.696	102.25
489.914	79.25
490.132	72.25
490.35	99.25
490.568	89.25
490.786	84.25
491.003	77.25
491.221	88.25
491.439	90.25
491.657	76.25
491.874	84.25
492.092	97.25
492.31	86.25
492.527	91.25
492.745	76.25
492.963	66.25
493.18	88.25
493.398	88.25
493.615	88.25
493.833	88.25
494.05	76.25
494.268	85.25
494.485	86.25
494.703	87.25
494.92	104.25
495.138	97.25
495.355	102.25
495.573	99.25
495.79	101.25
496.008	96.25
496.225	73.25
496.442	80.25
496.66	92.25
496.877	81.25
497.094	98.25
497.312	95.25
497.529	86.25
497.746	88.25
497.963	89.25
498.181	86.25
498.398	78.25
498.615	77.25
498.832	94.25
499.049	86.25
499.267	98.25
499.484	87.25
499.701	102.25
499.918	76.25
500.135	79.25
500.352	86.25
500.569	94.25
500.786	76.25
501.003	98.25
501.22	94.25
501.437	95.25
501.654	89.25
501.871	75.25
502.088	92.25
502.305	99.25
502.522	104.25
502.739	86.25
502.956	90.25
503.172	92.25
503.389	94.25
503.606	98.25
503.823	89.25
504.04	106.25
504.256	111.25
504.473	108.25
504.69	88.25
504.907	97.25
505.123	74.25
505.34	94.25
505.557	100.25
505.773	99.25
505.99	90.25
506.207	95.25
506.423	90.25
506.64	89.25
506.856	91.25
507.073	83.25
507.289	91.25
507.506	94.25
507.722	76.25
507.939	82.25
508.155	74.25
508.372	80.25
508.588	88.25
508.805	82.25
509.021	87.25
509.238	81.25
509.454	91.25
509.67	90.25
509.887	78.25
510.103	69.25
510.319	88.25
510.536	90.25
510.752	85.25
510.968	81.25
511.184	85.25
511.401	96.25
511.617	92.25
511.833	93.25
512.049	82.25
512.265	88.25
512.481	80.25
512.698	75.25
512.914	83.25
513.13	96.25
513.346	102.25
513.562	81.25
513.778	89.25
513.994	85.25
514.21	96.25
514.426	88.25
514.642	88.25
514.858	77.25
515.074	76.25
515.29	86.25
515.506	90.25
515.721	98.25
515.937	106.25
516.153	77.25
516.369	85.25
516.585	73.25
516.801	75.25
517.016	92.25
517.232	69.25
517.448	82.25
517.664	79.25
517.879	92.25
518.095	72.25
518.311	88.25
518.527	91.25
518.742	86.25
