Data from 17600_1_HRD10591_00032.txt Node
Date: Mon Jan 19 14:07:40 EST 2026
User: Yrep
Spectrometer: HR+D1059
Trigger mode: 1
Integration Time (sec): 1.000000E-1
Scans to average: 1
Electric dark correction enabled: true
Nonlinearity correction enabled: false
Boxcar width: 0
XAxis mode: Wavelengths
Number of Pixels in Spectrum: 2048
>>>>>Begin Spectral Data<<<<<
223.165	-16.31
223.4	-16.31
223.635	-16.31
223.869	-4.31
224.104	-27.31
224.338	-17.31
224.573	-14.31
224.808	-8.31
225.042	-12.31
225.277	-12.31
225.511	-3.31
225.746	4.69
225.98	19.69
226.215	15.69
226.449	6.69
226.683	15.69
226.918	18.69
227.152	34.69
227.387	42.69
227.621	47.69
227.856	31.69
228.09	51.69
228.324	49.69
228.559	48.69
228.793	63.69
229.027	63.69
229.262	63.69
229.496	88.69
229.73	65.69
229.964	69.69
230.199	84.69
230.433	83.69
230.667	90.69
230.901	80.69
231.136	64.69
231.37	74.69
231.604	79.69
231.838	84.69
232.072	81.69
232.306	100.69
232.541	89.69
232.775	81.69
233.009	83.69
233.243	77.69
233.477	71.69
233.711	88.69
233.945	92.69
234.179	89.69
234.413	76.69
234.647	86.69
234.881	75.69
235.115	73.69
235.349	82.69
235.583	76.69
235.817	70.69
236.051	79.69
236.285	71.69
236.519	92.69
236.753	71.69
236.987	84.69
237.221	84.69
237.455	71.69
237.689	71.69
237.922	69.69
238.156	64.69
238.39	76.69
238.624	76.69
238.858	71.69
239.091	83.69
239.325	74.69
239.559	68.69
239.793	78.69
240.027	84.69
240.26	71.69
240.494	75.69
240.728	76.69
240.961	80.69
241.195	83.69
241.429	90.69
241.662	66.69
241.896	82.69
242.13	67.69
242.363	81.69
242.597	59.69
242.83	75.69
243.064	86.69
243.298	75.69
243.531	73.69
243.765	73.69
243.998	72.69
244.232	76.69
244.465	74.69
244.699	81.69
244.932	79.69
245.166	67.69
245.399	80.69
245.633	86.69
245.866	84.69
246.099	73.69
246.333	83.69
246.566	81.69
246.8	86.69
247.033	86.69
247.266	80.69
247.5	76.69
247.733	81.69
247.966	92.69
248.2	79.69
248.433	74.69
248.666	81.69
248.899	74.69
249.133	66.69
249.366	59.69
249.599	88.69
249.832	96.69
250.066	91.69
250.299	89.69
250.532	81.69
250.765	73.69
250.998	87.69
251.231	90.69
251.465	72.69
251.698	77.69
251.931	78.69
252.164	75.69
252.397	87.69
252.63	63.69
252.863	77.69
253.096	85.69
253.329	76.69
253.562	87.69
253.795	81.69
254.028	72.69
254.261	84.69
254.494	71.69
254.727	74.69
254.96	82.69
255.193	83.69
255.426	83.69
255.659	76.69
255.892	87.69
256.124	77.69
256.357	66.69
256.59	82.69
256.823	84.69
257.056	83.69
257.289	65.69
257.521	95.69
257.754	79.69
257.987	79.69
258.22	89.69
258.452	96.69
258.685	88.69
258.918	96.69
259.151	76.69
259.383	77.69
259.616	74.69
259.849	69.69
260.081	69.69
260.314	67.69
260.547	72.69
260.779	75.69
261.012	93.69
261.244	80.69
261.477	97.69
261.71	82.69
261.942	77.69
262.175	89.69
262.407	79.69
262.64	94.69
262.872	74.69
263.105	95.69
263.337	78.69
263.57	79.69
263.802	74.69
264.035	75.69
264.267	72.69
264.499	77.69
264.732	70.69
264.964	92.69
265.197	80.69
265.429	77.69
265.661	81.69
265.894	79.69
266.126	82.69
266.358	97.69
266.591	79.69
266.823	74.69
267.055	67.69
267.287	74.69
267.52	75.69
267.752	81.69
267.984	85.69
268.216	89.69
268.448	95.69
268.681	90.69
268.913	83.69
269.145	73.69
269.377	85.69
269.609	67.69
269.841	63.69
270.073	75.69
270.306	68.69
270.538	76.69
270.77	68.69
271.002	90.69
271.234	79.69
271.466	81.69
271.698	90.69
271.93	83.69
272.162	84.69
272.394	83.69
272.626	95.69
272.858	83.69
273.09	80.69
273.322	80.69
273.553	82.69
273.785	83.69
274.017	77.69
274.249	91.69
274.481	74.69
274.713	79.69
274.945	93.69
275.176	88.69
275.408	87.69
275.64	81.69
275.872	85.69
276.104	80.69
276.335	81.69
276.567	88.69
276.799	77.69
277.031	66.69
277.262	80.69
277.494	95.69
277.726	88.69
277.957	97.69
278.189	104.69
278.421	83.69
278.652	92.69
278.884	87.69
279.115	88.69
279.347	87.69
279.579	88.69
279.81	85.69
280.042	81.69
280.273	88.69
280.505	94.69
280.736	89.69
280.968	78.69
281.199	75.69
281.431	89.69
281.662	66.69
281.894	95.69
282.125	83.69
282.356	95.69
282.588	97.69
282.819	70.69
283.051	90.69
283.282	76.69
283.513	95.69
283.745	93.69
283.976	71.69
284.207	83.69
284.439	97.69
284.67	86.69
284.901	68.69
285.132	81.69
285.364	89.69
285.595	91.69
285.826	91.69
286.057	92.69
286.288	77.69
286.52	82.69
286.751	85.69
286.982	92.69
287.213	83.69
287.444	94.69
287.675	72.69
287.906	92.69
288.138	97.69
288.369	81.69
288.6	96.69
288.831	94.69
289.062	90.69
289.293	90.69
289.524	78.69
289.755	87.69
289.986	103.69
290.217	85.69
290.448	82.69
290.679	81.69
290.91	65.69
291.141	84.69
291.371	87.69
291.602	75.69
291.833	87.69
292.064	77.69
292.295	87.69
292.526	105.69
292.757	79.69
292.987	96.69
293.218	95.69
293.449	79.69
293.68	88.69
293.91	96.69
294.141	81.69
294.372	83.69
294.603	81.69
294.833	82.69
295.064	84.69
295.295	71.69
295.525	77.69
295.756	78.69
295.987	85.69
296.217	80.69
296.448	84.69
296.679	81.69
296.909	105.69
297.14	84.69
297.37	84.69
297.601	83.69
297.831	80.69
298.062	98.69
298.292	78.69
298.523	83.69
298.753	86.69
298.984	75.69
299.214	85.69
299.445	87.69
299.675	87.69
299.905	88.69
300.136	88.69
300.366	92.69
300.597	90.69
300.827	84.69
301.057	85.69
301.288	87.69
301.518	87.69
301.748	73.69
301.979	104.69
302.209	96.69
302.439	101.69
302.669	82.69
302.9	91.69
303.13	74.69
303.36	77.69
303.59	83.69
303.82	99.69
304.051	87.69
304.281	95.69
304.511	88.69
304.741	93.69
304.971	81.69
305.201	66.69
305.431	85.69
305.661	85.69
305.891	74.69
306.121	84.69
306.352	91.69
306.582	85.69
306.812	84.69
307.042	78.69
307.272	79.69
307.502	97.69
307.731	92.69
307.961	83.69
308.191	82.69
308.421	98.69
308.651	83.69
308.881	77.69
309.111	79.69
309.341	91.69
309.571	84.69
309.8	86.69
310.03	76.69
310.26	94.69
310.49	86.69
310.72	77.69
310.949	82.69
311.179	97.69
311.409	80.69
311.639	82.69
311.868	75.69
312.098	73.69
312.328	82.69
312.557	81.69
312.787	88.69
313.017	84.69
313.246	78.69
313.476	94.69
313.706	97.69
313.935	86.69
314.165	88.69
314.394	90.69
314.624	79.69
314.853	87.69
315.083	90.69
315.312	73.69
315.542	84.69
315.771	75.69
316.001	84.69
316.23	97.69
316.46	95.69
316.689	67.69
316.919	91.69
317.148	85.69
317.377	71.69
317.607	97.69
317.836	89.69
318.065	92.69
318.295	96.69
318.524	95.69
318.753	85.69
318.983	81.69
319.212	81.69
319.441	85.69
319.67	80.69
319.9	75.69
320.129	92.69
320.358	88.69
320.587	87.69
320.816	73.69
321.046	89.69
321.275	71.69
321.504	72.69
321.733	91.69
321.962	99.69
322.191	84.69
322.42	65.69
322.649	88.69
322.878	87.69
323.108	87.69
323.337	80.69
323.566	91.69
323.795	85.69
324.024	86.69
324.253	82.69
324.482	98.69
324.71	82.69
324.939	89.69
325.168	88.69
325.397	91.69
325.626	80.69
325.855	87.69
326.084	92.69
326.313	83.69
326.542	84.69
326.77	90.69
326.999	73.69
327.228	83.69
327.457	89.69
327.686	84.69
327.914	92.69
328.143	88.69
328.372	95.69
328.6	77.69
328.829	92.69
329.058	83.69
329.287	93.69
329.515	82.69
329.744	93.69
329.972	92.69
330.201	89.69
330.43	91.69
330.658	78.69
330.887	83.69
331.115	68.69
331.344	83.69
331.572	85.69
331.801	83.69
332.03	97.69
332.258	89.69
332.486	76.69
332.715	95.69
332.943	95.69
333.172	87.69
333.4	92.69
333.629	81.69
333.857	95.69
334.085	92.69
334.314	85.69
334.542	71.69
334.771	90.69
334.999	95.69
335.227	90.69
335.455	69.69
335.684	84.69
335.912	95.69
336.14	69.69
336.369	87.69
336.597	86.69
336.825	70.69
337.053	97.69
337.281	91.69
337.51	84.69
337.738	96.69
337.966	74.69
338.194	85.69
338.422	91.69
338.65	71.69
338.878	87.69
339.106	84.69
339.334	94.69
339.562	82.69
339.79	86.69
340.018	95.69
340.246	81.69
340.474	84.69
340.702	83.69
340.93	85.69
341.158	75.69
341.386	83.69
341.614	81.69
341.842	85.69
342.07	92.69
342.298	95.69
342.526	98.69
342.754	79.69
342.981	78.69
343.209	69.69
343.437	96.69
343.665	87.69
343.893	91.69
344.12	100.69
344.348	102.69
344.576	76.69
344.804	82.69
345.031	80.69
345.259	78.69
345.487	101.69
345.714	92.69
345.942	81.69
346.17	81.69
346.397	85.69
346.625	79.69
346.853	75.69
347.08	73.69
347.308	76.69
347.535	98.69
347.763	78.69
347.99	84.69
348.218	88.69
348.445	88.69
348.673	83.69
348.9	95.69
349.128	82.69
349.355	85.69
349.583	90.69
349.81	94.69
350.037	71.69
350.265	81.69
350.492	86.69
350.72	88.69
350.947	90.69
351.174	101.69
351.402	93.69
351.629	78.69
351.856	77.69
352.083	84.69
352.311	82.69
352.538	84.69
352.765	93.69
352.992	102.69
353.22	84.69
353.447	84.69
353.674	84.69
353.901	76.69
354.128	77.69
354.355	74.69
354.583	86.69
354.81	87.69
355.037	95.69
355.264	90.69
355.491	88.69
355.718	82.69
355.945	88.69
356.172	98.69
356.399	89.69
356.626	90.69
356.853	86.69
357.08	89.69
357.307	83.69
357.534	76.69
357.761	73.69
357.988	84.69
358.215	82.69
358.441	81.69
358.668	93.69
358.895	98.69
359.122	83.69
359.349	93.69
359.576	77.69
359.802	82.69
360.029	88.69
360.256	77.69
360.483	81.69
360.709	87.69
360.936	94.69
361.163	96.69
361.39	83.69
361.616	83.69
361.843	88.69
362.07	103.69
362.296	77.69
362.523	79.69
362.749	79.69
362.976	106.69
363.203	90.69
363.429	99.69
363.656	88.69
363.882	79.69
364.109	89.69
364.335	100.69
364.562	83.69
364.788	92.69
365.015	83.69
365.241	98.69
365.468	87.69
365.694	86.69
365.92	79.69
366.147	65.69
366.373	77.69
366.599	68.69
366.826	83.69
367.052	78.69
367.278	84.69
367.505	87.69
367.731	89.69
367.957	98.69
368.184	84.69
368.41	83.69
368.636	75.69
368.862	89.69
369.089	81.69
369.315	77.69
369.541	87.69
369.767	92.69
369.993	92.69
370.219	86.69
370.445	93.69
370.672	94.69
370.898	76.69
371.124	94.69
371.35	76.69
371.576	91.69
371.802	79.69
372.028	103.69
372.254	99.69
372.48	98.69
372.706	75.69
372.932	89.69
373.158	93.69
373.384	101.69
373.61	107.69
373.835	87.69
374.061	81.69
374.287	86.69
374.513	87.69
374.739	88.69
374.965	115.69
375.191	87.69
375.416	87.69
375.642	93.69
375.868	94.69
376.094	94.69
376.319	84.69
376.545	76.69
376.771	84.69
376.997	86.69
377.222	88.69
377.448	97.69
377.674	82.69
377.899	75.69
378.125	55.69
378.35	76.69
378.576	87.69
378.802	84.69
379.027	95.69
379.253	86.69
379.478	74.69
379.704	84.69
379.929	88.69
380.155	76.69
380.38	74.69
380.606	83.69
380.831	88.69
381.057	78.69
381.282	90.69
381.507	98.69
381.733	97.69
381.958	92.69
382.184	86.69
382.409	91.69
382.634	79.69
382.86	83.69
383.085	84.69
383.31	91.69
383.535	81.69
383.761	91.69
383.986	83.69
384.211	73.69
384.436	88.69
384.662	77.69
384.887	80.69
385.112	82.69
385.337	83.69
385.562	75.69
385.787	87.69
386.013	91.69
386.238	74.69
386.463	94.69
386.688	95.69
386.913	77.69
387.138	90.69
387.363	88.69
387.588	84.69
387.813	99.69
388.038	87.69
388.263	94.69
388.488	96.69
388.713	80.69
388.938	73.69
389.163	83.69
389.387	75.69
389.612	65.69
389.837	88.69
390.062	81.69
390.287	96.69
390.512	75.69
390.736	87.69
390.961	89.69
391.186	79.69
391.411	83.69
391.636	86.69
391.86	75.69
392.085	100.69
392.31	93.69
392.534	81.69
392.759	91.69
392.984	103.69
393.208	165.69
393.433	230.69
393.658	197.69
393.882	97.69
394.107	94.69
394.331	103.69
394.556	88.69
394.78	79.69
395.005	80.69
395.229	82.69
395.454	90.69
395.678	93.69
395.903	96.69
396.127	97.69
396.352	100.69
396.576	124.69
396.801	165.69
397.025	188.69
397.249	117.69
397.474	104.69
397.698	87.69
397.922	90.69
398.147	80.69
398.371	91.69
398.595	92.69
398.82	77.69
399.044	88.69
399.268	79.69
399.492	80.69
399.717	75.69
399.941	80.69
400.165	98.69
400.389	97.69
400.613	81.69
400.837	86.69
401.062	82.69
401.286	90.69
401.51	80.69
401.734	81.69
401.958	81.69
402.182	103.69
402.406	88.69
402.63	84.69
402.854	82.69
403.078	74.69
403.302	89.69
403.526	81.69
403.75	90.69
403.974	85.69
404.198	88.69
404.422	101.69
404.645	91.69
404.869	96.69
405.093	83.69
405.317	78.69
405.541	84.69
405.765	81.69
405.988	82.69
406.212	87.69
406.436	69.69
406.66	99.69
406.883	76.69
407.107	93.69
407.331	86.69
407.555	94.69
407.778	106.69
408.002	96.69
408.226	85.69
408.449	77.69
408.673	85.69
408.896	91.69
409.12	82.69
409.344	77.69
409.567	75.69
409.791	90.69
410.014	82.69
410.238	80.69
410.461	72.69
410.685	77.69
410.908	83.69
411.132	72.69
411.355	72.69
411.578	89.69
411.802	86.69
412.025	100.69
412.249	89.69
412.472	84.69
412.695	83.69
412.919	87.69
413.142	83.69
413.365	71.69
413.589	90.69
413.812	88.69
414.035	76.69
414.258	92.69
414.482	82.69
414.705	90.69
414.928	77.69
415.151	85.69
415.374	81.69
415.597	89.69
415.821	80.69
416.044	78.69
416.267	77.69
416.49	84.69
416.713	85.69
416.936	108.69
417.159	101.69
417.382	77.69
417.605	88.69
417.828	75.69
418.051	73.69
418.274	71.69
418.497	97.69
418.72	78.69
418.943	78.69
419.166	74.69
419.389	56.69
419.611	75.69
419.834	87.69
420.057	88.69
420.28	77.69
420.503	88.69
420.726	77.69
420.948	92.69
421.171	85.69
421.394	89.69
421.617	93.69
421.839	101.69
422.062	94.69
422.285	106.69
422.507	151.69
422.73	227.69
422.953	197.69
423.175	111.69
423.398	94.69
423.621	92.69
423.843	83.69
424.066	83.69
424.288	95.69
424.511	89.69
424.733	85.69
424.956	72.69
425.178	78.69
425.401	83.69
425.623	81.69
425.846	83.69
426.068	67.69
426.291	85.69
426.513	83.69
426.735	92.69
426.958	83.69
427.18	74.69
427.402	79.69
427.625	87.69
427.847	96.69
428.069	105.69
428.292	102.69
428.514	89.69
428.736	101.69
428.958	85.69
429.181	91.69
429.403	103.69
429.625	82.69
429.847	96.69
430.069	106.69
430.292	118.69
430.514	107.69
430.736	108.69
430.958	95.69
431.18	82.69
431.402	67.69
431.624	88.69
431.846	97.69
432.068	101.69
432.29	88.69
432.512	81.69
432.734	77.69
432.956	87.69
433.178	85.69
433.4	89.69
433.622	91.69
433.844	90.69
434.066	93.69
434.287	88.69
434.509	73.69
434.731	82.69
434.953	87.69
435.175	78.69
435.397	71.69
435.618	81.69
435.84	81.69
436.062	100.69
436.284	95.69
436.505	82.69
436.727	87.69
436.949	92.69
437.17	76.69
437.392	82.69
437.614	92.69
437.835	78.69
438.057	81.69
438.278	87.69
438.5	87.69
438.721	75.69
438.943	83.69
439.165	79.69
439.386	87.69
439.608	86.69
439.829	88.69
440.05	93.69
440.272	87.69
440.493	88.69
440.715	73.69
440.936	85.69
441.158	68.69
441.379	71.69
441.6	75.69
441.822	88.69
442.043	83.69
442.264	92.69
442.486	91.69
442.707	113.69
442.928	104.69
443.149	90.69
443.371	117.69
443.592	130.69
443.813	117.69
444.034	88.69
444.255	99.69
444.476	95.69
444.698	72.69
444.919	92.69
445.14	145.69
445.361	131.69
445.582	154.69
445.803	130.69
446.024	92.69
446.245	95.69
446.466	81.69
446.687	77.69
446.908	101.69
447.129	82.69
447.35	83.69
447.571	78.69
447.792	85.69
448.013	77.69
448.234	90.69
448.455	78.69
448.675	75.69
448.896	67.69
449.117	67.69
449.338	70.69
449.559	70.69
449.779	82.69
450	82.69
450.221	72.69
450.442	95.69
450.662	84.69
450.883	89.69
451.104	79.69
451.324	76.69
451.545	65.69
451.766	92.69
451.986	93.69
452.207	76.69
452.428	76.69
452.648	75.69
452.869	80.69
453.089	89.69
453.31	75.69
453.53	69.69
453.751	82.69
453.971	89.69
454.192	86.69
454.412	76.69
454.633	76.69
454.853	75.69
455.073	78.69
455.294	85.69
455.514	93.69
455.734	86.69
455.955	74.69
456.175	74.69
456.395	83.69
456.616	77.69
456.836	78.69
457.056	82.69
457.276	84.69
457.497	97.69
457.717	81.69
457.937	102.69
458.157	79.69
458.377	81.69
458.598	91.69
458.818	85.69
459.038	91.69
459.258	101.69
459.478	83.69
459.698	72.69
459.918	81.69
460.138	71.69
460.358	69.69
460.578	88.69
460.798	96.69
461.018	89.69
461.238	78.69
461.458	88.69
461.678	82.69
461.898	81.69
462.118	82.69
462.338	82.69
462.558	101.69
462.777	78.69
462.997	80.69
463.217	85.69
463.437	75.69
463.657	75.69
463.876	78.69
464.096	88.69
464.316	80.69
464.536	72.69
464.755	97.69
464.975	77.69
465.195	85.69
465.414	76.69
465.634	78.69
465.854	78.69
466.073	72.69
466.293	78.69
466.512	85.69
466.732	101.69
466.951	77.69
467.171	75.69
467.391	82.69
467.61	84.69
467.829	85.69
468.049	75.69
468.268	92.69
468.488	99.69
468.707	78.69
468.927	88.69
469.146	75.69
469.365	77.69
469.585	92.69
469.804	93.69
470.023	83.69
470.243	86.69
470.462	81.69
470.681	96.69
470.901	84.69
471.12	88.69
471.339	82.69
471.558	78.69
471.777	82.69
471.997	78.69
472.216	83.69
472.435	94.69
472.654	94.69
472.873	94.69
473.092	87.69
473.311	88.69
473.53	83.69
473.749	77.69
473.968	73.69
474.187	92.69
474.406	91.69
474.625	83.69
474.844	84.69
475.063	83.69
475.282	79.69
475.501	88.69
475.72	81.69
475.939	88.69
476.158	92.69
476.377	84.69
476.596	87.69
476.814	90.69
477.033	92.69
477.252	70.69
477.471	75.69
477.69	76.69
477.908	69.69
478.127	83.69
478.346	83.69
478.564	84.69
478.783	89.69
479.002	82.69
479.22	86.69
479.439	76.69
479.658	70.69
479.876	85.69
480.095	71.69
480.313	87.69
480.532	71.69
480.751	92.69
480.969	81.69
481.188	86.69
481.406	84.69
481.624	79.69
481.843	67.69
482.061	84.69
482.28	90.69
482.498	72.69
482.717	78.69
482.935	87.69
483.153	76.69
483.372	85.69
483.59	73.69
483.808	75.69
484.027	102.69
484.245	84.69
484.463	87.69
484.681	93.69
484.9	82.69
485.118	77.69
485.336	80.69
485.554	73.69
485.772	87.69
485.99	102.69
486.209	95.69
486.427	83.69
486.645	82.69
486.863	70.69
487.081	72.69
487.299	80.69
487.517	93.69
487.735	76.69
487.953	93.69
488.171	94.69
488.389	92.69
488.607	84.69
488.825	69.69
489.043	89.69
489.261	83.69
489.479	96.69
489.696	93.69
489.914	86.69
490.132	83.69
490.35	88.69
490.568	79.69
490.786	75.69
491.003	88.69
491.221	84.69
491.439	82.69
491.657	84.69
491.874	80.69
492.092	92.69
492.31	92.69
492.527	76.69
492.745	75.69
492.963	77.69
493.18	96.69
493.398	98.69
493.615	86.69
493.833	89.69
494.05	75.69
494.268	93.69
494.485	102.69
494.703	85.69
494.92	87.69
495.138	71.69
495.355	85.69
495.573	86.69
495.79	83.69
496.008	81.69
496.225	92.69
496.442	87.69
496.66	83.69
496.877	81.69
497.094	89.69
497.312	80.69
497.529	88.69
497.746	81.69
497.963	85.69
498.181	97.69
498.398	93.69
498.615	81.69
498.832	82.69
499.049	91.69
499.267	85.69
499.484	80.69
499.701	86.69
499.918	85.69
500.135	100.69
500.352	82.69
500.569	84.69
500.786	84.69
501.003	71.69
501.22	89.69
501.437	78.69
501.654	85.69
501.871	75.69
502.088	84.69
502.305	104.69
502.522	95.69
502.739	94.69
502.956	85.69
503.172	84.69
503.389	91.69
503.606	102.69
503.823	76.69
504.04	85.69
504.256	97.69
504.473	94.69
504.69	87.69
504.907	89.69
505.123	87.69
505.34	82.69
505.557	85.69
505.773	92.69
505.99	75.69
506.207	78.69
506.423	87.69
506.64	78.69
506.856	79.69
507.073	85.69
507.289	76.69
507.506	95.69
507.722	87.69
507.939	72.69
508.155	103.69
508.372	85.69
508.588	89.69
508.805	77.69
509.021	84.69
509.238	75.69
509.454	87.69
509.67	102.69
509.887	81.69
510.103	96.69
510.319	102.69
510.536	97.69
510.752	93.69
510.968	87.69
511.184	77.69
511.401	87.69
511.617	84.69
511.833	96.69
512.049	88.69
512.265	104.69
512.481	82.69
512.698	82.69
512.914	89.69
513.13	92.69
513.346	87.69
513.562	86.69
513.778	107.69
513.994	88.69
514.21	82.69
514.426	75.69
514.642	89.69
514.858	83.69
515.074	80.69
515.29	83.69
515.506	85.69
515.721	80.69
515.937	80.69
516.153	86.69
516.369	81.69
516.585	83.69
516.801	89.69
517.016	91.69
517.232	79.69
517.448	93.69
517.664	82.69
517.879	76.69
518.095	74.69
518.311	85.69
518.527	89.69
518.742	94.69
518.958	90.69
519.173	115.69
