Data from 17600_1_HRD10591_00018.txt Node
Date: Mon Jan 19 14:07:33 EST 2026
User: Yrep
Spectrometer: HR+D1059
Trigger mode: 1
Integration Time (sec): 1.000000E-1
Scans to average: 1
Electric dark correction enabled: true
Nonlinearity correction enabled: false
Boxcar width: 0
XAxis mode: Wavelengths
Number of Pixels in Spectrum: 2048
>>>>>Begin Spectral Data<<<<<
223.165	-12.06
223.4	-12.06
223.635	-12.06
223.869	-18.06
224.104	-15.06
224.338	-25.06
224.573	-6.06
224.808	-12.06
225.042	-15.06
225.277	-10.06
225.511	12.94
225.746	1.94
225.98	15.94
226.215	1.94
226.449	-4.06
226.683	13.94
226.918	45.94
227.152	24.94
227.387	38.94
227.621	58.94
227.856	55.94
228.09	46.94
228.324	55.94
228.559	59.94
228.793	44.94
229.027	63.94
229.262	45.94
229.496	59.94
229.73	65.94
229.964	75.94
230.199	93.94
230.433	67.94
230.667	72.94
230.901	73.94
231.136	80.94
231.37	77.94
231.604	85.94
231.838	74.94
232.072	84.94
232.306	89.94
232.541	91.94
232.775	80.94
233.009	76.94
233.243	100.94
233.477	57.94
233.711	81.94
233.945	76.94
234.179	71.94
234.413	92.94
234.647	88.94
234.881	63.94
235.115	74.94
235.349	83.94
235.583	72.94
235.817	77.94
236.051	77.94
236.285	84.94
236.519	65.94
236.753	69.94
236.987	67.94
237.221	68.94
237.455	77.94
237.689	55.94
237.922	75.94
238.156	77.94
238.39	76.94
238.624	77.94
238.858	70.94
239.091	67.94
239.325	84.94
239.559	75.94
239.793	83.94
240.027	75.94
240.26	74.94
240.494	76.94
240.728	78.94
240.961	75.94
241.195	79.94
241.429	82.94
241.662	67.94
241.896	59.94
242.13	68.94
242.363	59.94
242.597	70.94
242.83	82.94
243.064	77.94
243.298	83.94
243.531	65.94
243.765	79.94
243.998	75.94
244.232	91.94
244.465	67.94
244.699	77.94
244.932	83.94
245.166	78.94
245.399	77.94
245.633	71.94
245.866	83.94
246.099	74.94
246.333	78.94
246.566	69.94
246.8	76.94
247.033	83.94
247.266	78.94
247.5	72.94
247.733	85.94
247.966	69.94
248.2	80.94
248.433	75.94
248.666	68.94
248.899	69.94
249.133	79.94
249.366	84.94
249.599	99.94
249.832	79.94
250.066	90.94
250.299	75.94
250.532	80.94
250.765	72.94
250.998	91.94
251.231	81.94
251.465	69.94
251.698	81.94
251.931	88.94
252.164	81.94
252.397	74.94
252.63	79.94
252.863	83.94
253.096	72.94
253.329	82.94
253.562	96.94
253.795	91.94
254.028	72.94
254.261	64.94
254.494	69.94
254.727	78.94
254.96	83.94
255.193	82.94
255.426	91.94
255.659	65.94
255.892	81.94
256.124	85.94
256.357	76.94
256.59	91.94
256.823	85.94
257.056	83.94
257.289	73.94
257.521	80.94
257.754	93.94
257.987	89.94
258.22	86.94
258.452	80.94
258.685	85.94
258.918	74.94
259.151	81.94
259.383	68.94
259.616	72.94
259.849	56.94
260.081	84.94
260.314	65.94
260.547	87.94
260.779	83.94
261.012	84.94
261.244	73.94
261.477	76.94
261.71	78.94
261.942	70.94
262.175	70.94
262.407	75.94
262.64	86.94
262.872	81.94
263.105	75.94
263.337	79.94
263.57	94.94
263.802	77.94
264.035	96.94
264.267	88.94
264.499	86.94
264.732	82.94
264.964	88.94
265.197	70.94
265.429	82.94
265.661	71.94
265.894	75.94
266.126	83.94
266.358	80.94
266.591	97.94
266.823	91.94
267.055	92.94
267.287	75.94
267.52	82.94
267.752	77.94
267.984	87.94
268.216	70.94
268.448	98.94
268.681	71.94
268.913	75.94
269.145	79.94
269.377	94.94
269.609	82.94
269.841	85.94
270.073	85.94
270.306	75.94
270.538	78.94
270.77	80.94
271.002	83.94
271.234	63.94
271.466	95.94
271.698	65.94
271.93	83.94
272.162	80.94
272.394	85.94
272.626	77.94
272.858	79.94
273.09	90.94
273.322	91.94
273.553	85.94
273.785	72.94
274.017	83.94
274.249	81.94
274.481	80.94
274.713	72.94
274.945	79.94
275.176	67.94
275.408	71.94
275.64	74.94
275.872	81.94
276.104	96.94
276.335	83.94
276.567	83.94
276.799	84.94
277.031	81.94
277.262	89.94
277.494	86.94
277.726	83.94
277.957	76.94
278.189	83.94
278.421	81.94
278.652	85.94
278.884	81.94
279.115	76.94
279.347	81.94
279.579	79.94
279.81	81.94
280.042	95.94
280.273	74.94
280.505	75.94
280.736	80.94
280.968	85.94
281.199	74.94
281.431	85.94
281.662	85.94
281.894	87.94
282.125	77.94
282.356	75.94
282.588	89.94
282.819	90.94
283.051	86.94
283.282	79.94
283.513	87.94
283.745	79.94
283.976	86.94
284.207	77.94
284.439	87.94
284.67	74.94
284.901	73.94
285.132	86.94
285.364	85.94
285.595	103.94
285.826	91.94
286.057	79.94
286.288	88.94
286.52	82.94
286.751	85.94
286.982	93.94
287.213	68.94
287.444	88.94
287.675	77.94
287.906	90.94
288.138	83.94
288.369	90.94
288.6	74.94
288.831	74.94
289.062	72.94
289.293	91.94
289.524	83.94
289.755	95.94
289.986	83.94
290.217	69.94
290.448	71.94
290.679	64.94
290.91	86.94
291.141	76.94
291.371	109.94
291.602	80.94
291.833	88.94
292.064	79.94
292.295	79.94
292.526	77.94
292.757	85.94
292.987	70.94
293.218	75.94
293.449	66.94
293.68	83.94
293.91	79.94
294.141	85.94
294.372	81.94
294.603	93.94
294.833	84.94
295.064	70.94
295.295	86.94
295.525	83.94
295.756	86.94
295.987	85.94
296.217	83.94
296.448	89.94
296.679	82.94
296.909	80.94
297.14	79.94
297.37	79.94
297.601	80.94
297.831	79.94
298.062	85.94
298.292	76.94
298.523	80.94
298.753	78.94
298.984	82.94
299.214	83.94
299.445	78.94
299.675	72.94
299.905	76.94
300.136	80.94
300.366	84.94
300.597	68.94
300.827	67.94
301.057	70.94
301.288	69.94
301.518	77.94
301.748	91.94
301.979	80.94
302.209	84.94
302.439	86.94
302.669	81.94
302.9	80.94
303.13	76.94
303.36	69.94
303.59	91.94
303.82	96.94
304.051	75.94
304.281	92.94
304.511	89.94
304.741	79.94
304.971	68.94
305.201	83.94
305.431	59.94
305.661	91.94
305.891	79.94
306.121	87.94
306.352	79.94
306.582	90.94
306.812	82.94
307.042	69.94
307.272	83.94
307.502	81.94
307.731	77.94
307.961	86.94
308.191	95.94
308.421	95.94
308.651	95.94
308.881	80.94
309.111	88.94
309.341	95.94
309.571	79.94
309.8	95.94
310.03	69.94
310.26	91.94
310.49	80.94
310.72	84.94
310.949	88.94
311.179	87.94
311.409	77.94
311.639	79.94
311.868	76.94
312.098	86.94
312.328	86.94
312.557	86.94
312.787	88.94
313.017	85.94
313.246	98.94
313.476	85.94
313.706	77.94
313.935	88.94
314.165	79.94
314.394	81.94
314.624	88.94
314.853	79.94
315.083	93.94
315.312	93.94
315.542	82.94
315.771	81.94
316.001	85.94
316.23	86.94
316.46	82.94
316.689	88.94
316.919	87.94
317.148	98.94
317.377	101.94
317.607	91.94
317.836	88.94
318.065	103.94
318.295	71.94
318.524	77.94
318.753	80.94
318.983	81.94
319.212	74.94
319.441	85.94
319.67	91.94
319.9	82.94
320.129	89.94
320.358	87.94
320.587	100.94
320.816	75.94
321.046	78.94
321.275	90.94
321.504	87.94
321.733	87.94
321.962	89.94
322.191	75.94
322.42	82.94
322.649	92.94
322.878	82.94
323.108	92.94
323.337	86.94
323.566	89.94
323.795	64.94
324.024	81.94
324.253	79.94
324.482	82.94
324.71	79.94
324.939	72.94
325.168	83.94
325.397	87.94
325.626	79.94
325.855	71.94
326.084	73.94
326.313	100.94
326.542	79.94
326.77	78.94
326.999	76.94
327.228	87.94
327.457	77.94
327.686	87.94
327.914	85.94
328.143	87.94
328.372	78.94
328.6	75.94
328.829	88.94
329.058	89.94
329.287	86.94
329.515	95.94
329.744	103.94
329.972	87.94
330.201	97.94
330.43	84.94
330.658	82.94
330.887	85.94
331.115	82.94
331.344	90.94
331.572	85.94
331.801	89.94
332.03	92.94
332.258	79.94
332.486	81.94
332.715	83.94
332.943	83.94
333.172	75.94
333.4	79.94
333.629	82.94
333.857	70.94
334.085	85.94
334.314	75.94
334.542	72.94
334.771	81.94
334.999	75.94
335.227	95.94
335.455	79.94
335.684	87.94
335.912	78.94
336.14	82.94
336.369	93.94
336.597	83.94
336.825	77.94
337.053	80.94
337.281	70.94
337.51	83.94
337.738	83.94
337.966	98.94
338.194	69.94
338.422	100.94
338.65	89.94
338.878	72.94
339.106	95.94
339.334	96.94
339.562	79.94
339.79	87.94
340.018	88.94
340.246	77.94
340.474	80.94
340.702	96.94
340.93	77.94
341.158	72.94
341.386	91.94
341.614	75.94
341.842	85.94
342.07	84.94
342.298	79.94
342.526	65.94
342.754	74.94
342.981	86.94
343.209	91.94
343.437	98.94
343.665	87.94
343.893	68.94
344.12	84.94
344.348	83.94
344.576	85.94
344.804	84.94
345.031	69.94
345.259	89.94
345.487	87.94
345.714	77.94
345.942	69.94
346.17	71.94
346.397	79.94
346.625	86.94
346.853	79.94
347.08	80.94
347.308	83.94
347.535	82.94
347.763	78.94
347.99	99.94
348.218	82.94
348.445	87.94
348.673	77.94
348.9	84.94
349.128	87.94
349.355	82.94
349.583	71.94
349.81	80.94
350.037	77.94
350.265	85.94
350.492	79.94
350.72	75.94
350.947	81.94
351.174	84.94
351.402	82.94
351.629	83.94
351.856	85.94
352.083	79.94
352.311	87.94
352.538	75.94
352.765	82.94
352.992	92.94
353.22	75.94
353.447	83.94
353.674	79.94
353.901	98.94
354.128	77.94
354.355	72.94
354.583	77.94
354.81	100.94
355.037	91.94
355.264	73.94
355.491	87.94
355.718	79.94
355.945	88.94
356.172	70.94
356.399	89.94
356.626	86.94
356.853	91.94
357.08	94.94
357.307	95.94
357.534	81.94
357.761	95.94
357.988	71.94
358.215	84.94
358.441	85.94
358.668	81.94
358.895	92.94
359.122	80.94
359.349	79.94
359.576	88.94
359.802	73.94
360.029	95.94
360.256	89.94
360.483	67.94
360.709	90.94
360.936	85.94
361.163	96.94
361.39	91.94
361.616	77.94
361.843	81.94
362.07	80.94
362.296	88.94
362.523	76.94
362.749	86.94
362.976	87.94
363.203	96.94
363.429	92.94
363.656	86.94
363.882	87.94
364.109	87.94
364.335	88.94
364.562	87.94
364.788	93.94
365.015	78.94
365.241	85.94
365.468	89.94
365.694	85.94
365.92	86.94
366.147	73.94
366.373	77.94
366.599	79.94
366.826	71.94
367.052	83.94
367.278	79.94
367.505	71.94
367.731	88.94
367.957	92.94
368.184	71.94
368.41	74.94
368.636	93.94
368.862	81.94
369.089	79.94
369.315	71.94
369.541	75.94
369.767	84.94
369.993	70.94
370.219	88.94
370.445	87.94
370.672	84.94
370.898	94.94
371.124	87.94
371.35	92.94
371.576	93.94
371.802	89.94
372.028	89.94
372.254	84.94
372.48	77.94
372.706	88.94
372.932	79.94
373.158	82.94
373.384	91.94
373.61	91.94
373.835	88.94
374.061	81.94
374.287	82.94
374.513	86.94
374.739	91.94
374.965	68.94
375.191	73.94
375.416	84.94
375.642	78.94
375.868	85.94
376.094	88.94
376.319	87.94
376.545	81.94
376.771	79.94
376.997	83.94
377.222	69.94
377.448	74.94
377.674	83.94
377.899	81.94
378.125	88.94
378.35	84.94
378.576	79.94
378.802	73.94
379.027	85.94
379.253	79.94
379.478	87.94
379.704	100.94
379.929	87.94
380.155	62.94
380.38	92.94
380.606	82.94
380.831	89.94
381.057	85.94
381.282	66.94
381.507	71.94
381.733	98.94
381.958	88.94
382.184	93.94
382.409	83.94
382.634	81.94
382.86	71.94
383.085	94.94
383.31	87.94
383.535	81.94
383.761	85.94
383.986	73.94
384.211	77.94
384.436	71.94
384.662	75.94
384.887	87.94
385.112	76.94
385.337	80.94
385.562	76.94
385.787	84.94
386.013	79.94
386.238	79.94
386.463	83.94
386.688	95.94
386.913	84.94
387.138	85.94
387.363	73.94
387.588	87.94
387.813	81.94
388.038	92.94
388.263	79.94
388.488	86.94
388.713	77.94
388.938	59.94
389.163	82.94
389.387	81.94
389.612	68.94
389.837	78.94
390.062	91.94
390.287	74.94
390.512	76.94
390.736	75.94
390.961	69.94
391.186	82.94
391.411	74.94
391.636	91.94
391.86	84.94
392.085	86.94
392.31	78.94
392.534	85.94
392.759	85.94
392.984	103.94
393.208	152.94
393.433	197.94
393.658	164.94
393.882	95.94
394.107	95.94
394.331	85.94
394.556	88.94
394.78	83.94
395.005	72.94
395.229	79.94
395.454	82.94
395.678	93.94
395.903	91.94
396.127	96.94
396.352	89.94
396.576	102.94
396.801	135.94
397.025	175.94
397.249	106.94
397.474	94.94
397.698	75.94
397.922	73.94
398.147	78.94
398.371	69.94
398.595	87.94
398.82	77.94
399.044	63.94
399.268	78.94
399.492	73.94
399.717	81.94
399.941	87.94
400.165	73.94
400.389	88.94
400.613	75.94
400.837	72.94
401.062	91.94
401.286	71.94
401.51	84.94
401.734	81.94
401.958	71.94
402.182	79.94
402.406	72.94
402.63	83.94
402.854	92.94
403.078	79.94
403.302	79.94
403.526	81.94
403.75	84.94
403.974	88.94
404.198	79.94
404.422	89.94
404.645	77.94
404.869	87.94
405.093	88.94
405.317	87.94
405.541	72.94
405.765	67.94
405.988	77.94
406.212	77.94
406.436	83.94
406.66	87.94
406.883	67.94
407.107	69.94
407.331	82.94
407.555	77.94
407.778	112.94
408.002	93.94
408.226	83.94
408.449	83.94
408.673	72.94
408.896	79.94
409.12	92.94
409.344	87.94
409.567	85.94
409.791	83.94
410.014	71.94
410.238	78.94
410.461	71.94
410.685	81.94
410.908	72.94
411.132	74.94
411.355	67.94
411.578	76.94
411.802	79.94
412.025	71.94
412.249	93.94
412.472	64.94
412.695	67.94
412.919	71.94
413.142	83.94
413.365	83.94
413.589	76.94
413.812	71.94
414.035	81.94
414.258	82.94
414.482	78.94
414.705	90.94
414.928	71.94
415.151	73.94
415.374	81.94
415.597	72.94
415.821	75.94
416.044	79.94
416.267	68.94
416.49	83.94
416.713	90.94
416.936	91.94
417.159	80.94
417.382	69.94
417.605	75.94
417.828	79.94
418.051	76.94
418.274	80.94
418.497	91.94
418.72	77.94
418.943	79.94
419.166	85.94
419.389	85.94
419.611	82.94
419.834	90.94
420.057	93.94
420.28	83.94
420.503	93.94
420.726	73.94
420.948	75.94
421.171	93.94
421.394	81.94
421.617	75.94
421.839	97.94
422.062	91.94
422.285	97.94
422.507	130.94
422.73	166.94
422.953	145.94
423.175	96.94
423.398	81.94
423.621	85.94
423.843	97.94
424.066	84.94
424.288	86.94
424.511	96.94
424.733	67.94
424.956	70.94
425.178	72.94
425.401	78.94
425.623	82.94
425.846	76.94
426.068	69.94
426.291	75.94
426.513	77.94
426.735	89.94
426.958	88.94
427.18	92.94
427.402	79.94
427.625	83.94
427.847	72.94
428.069	88.94
428.292	83.94
428.514	95.94
428.736	91.94
428.958	96.94
429.181	83.94
429.403	85.94
429.625	80.94
429.847	96.94
430.069	104.94
430.292	105.94
430.514	100.94
430.736	81.94
430.958	83.94
431.18	96.94
431.402	85.94
431.624	78.94
431.846	91.94
432.068	81.94
432.29	63.94
432.512	102.94
432.734	73.94
432.956	86.94
433.178	95.94
433.4	87.94
433.622	75.94
433.844	99.94
434.066	80.94
434.287	78.94
434.509	82.94
434.731	79.94
434.953	85.94
435.175	76.94
435.397	83.94
435.618	86.94
435.84	84.94
436.062	72.94
436.284	79.94
436.505	70.94
436.727	77.94
436.949	69.94
437.17	93.94
437.392	77.94
437.614	82.94
437.835	74.94
438.057	96.94
438.278	81.94
438.5	87.94
438.721	68.94
438.943	84.94
439.165	67.94
439.386	72.94
439.608	76.94
439.829	78.94
440.05	83.94
440.272	63.94
440.493	90.94
440.715	81.94
440.936	86.94
441.158	81.94
441.379	82.94
441.6	80.94
441.822	81.94
442.043	78.94
442.264	73.94
442.486	85.94
442.707	88.94
442.928	80.94
443.149	77.94
443.371	89.94
443.592	110.94
443.813	103.94
444.034	86.94
444.255	82.94
444.476	83.94
444.698	76.94
444.919	73.94
445.14	163.94
445.361	125.94
445.582	113.94
445.803	122.94
446.024	92.94
446.245	79.94
446.466	76.94
446.687	77.94
446.908	73.94
447.129	92.94
447.35	86.94
447.571	92.94
447.792	72.94
448.013	75.94
448.234	81.94
448.455	83.94
448.675	85.94
448.896	91.94
449.117	73.94
449.338	63.94
449.559	87.94
449.779	80.94
450	93.94
450.221	83.94
450.442	80.94
450.662	81.94
450.883	92.94
451.104	88.94
451.324	82.94
451.545	68.94
451.766	70.94
451.986	77.94
452.207	83.94
452.428	84.94
452.648	91.94
452.869	97.94
453.089	85.94
453.31	61.94
453.53	71.94
453.751	73.94
453.971	71.94
454.192	82.94
454.412	67.94
454.633	78.94
454.853	74.94
455.073	87.94
455.294	77.94
455.514	86.94
455.734	77.94
455.955	83.94
456.175	97.94
456.395	73.94
456.616	60.94
456.836	98.94
457.056	87.94
457.276	74.94
457.497	85.94
457.717	89.94
457.937	89.94
458.157	86.94
458.377	92.94
458.598	89.94
458.818	86.94
459.038	71.94
459.258	73.94
459.478	76.94
459.698	96.94
459.918	81.94
460.138	80.94
460.358	68.94
460.578	88.94
460.798	91.94
461.018	77.94
461.238	83.94
461.458	83.94
461.678	84.94
461.898	77.94
462.118	88.94
462.338	84.94
462.558	84.94
462.777	93.94
462.997	80.94
463.217	81.94
463.437	82.94
463.657	73.94
463.876	67.94
464.096	72.94
464.316	72.94
464.536	74.94
464.755	71.94
464.975	81.94
465.195	86.94
465.414	86.94
465.634	71.94
465.854	72.94
466.073	77.94
466.293	83.94
466.512	71.94
466.732	70.94
466.951	71.94
467.171	72.94
467.391	74.94
467.61	73.94
467.829	79.94
468.049	75.94
468.268	75.94
468.488	92.94
468.707	89.94
468.927	73.94
469.146	65.94
469.365	84.94
469.585	83.94
469.804	74.94
470.023	83.94
470.243	65.94
470.462	74.94
470.681	85.94
470.901	79.94
471.12	75.94
471.339	73.94
471.558	76.94
471.777	79.94
471.997	81.94
472.216	68.94
472.435	71.94
472.654	87.94
472.873	91.94
473.092	79.94
473.311	85.94
473.53	79.94
473.749	91.94
473.968	70.94
474.187	77.94
474.406	85.94
474.625	82.94
474.844	80.94
475.063	64.94
475.282	69.94
475.501	83.94
475.72	68.94
475.939	84.94
476.158	75.94
476.377	86.94
476.596	78.94
476.814	83.94
477.033	77.94
477.252	83.94
477.471	63.94
477.69	78.94
477.908	80.94
478.127	85.94
478.346	75.94
478.564	84.94
478.783	70.94
479.002	73.94
479.22	77.94
479.439	84.94
479.658	83.94
479.876	88.94
480.095	80.94
480.313	64.94
480.532	88.94
480.751	91.94
480.969	66.94
481.188	85.94
481.406	72.94
481.624	71.94
481.843	68.94
482.061	85.94
482.28	73.94
482.498	91.94
482.717	82.94
482.935	75.94
483.153	87.94
483.372	87.94
483.59	72.94
483.808	82.94
484.027	92.94
484.245	89.94
484.463	78.94
484.681	100.94
484.9	79.94
485.118	79.94
485.336	80.94
485.554	81.94
485.772	78.94
485.99	87.94
486.209	87.94
486.427	69.94
486.645	65.94
486.863	69.94
487.081	88.94
487.299	86.94
487.517	86.94
487.735	89.94
487.953	98.94
488.171	86.94
488.389	89.94
488.607	80.94
488.825	84.94
489.043	85.94
489.261	78.94
489.479	74.94
489.696	87.94
489.914	82.94
490.132	80.94
490.35	77.94
490.568	83.94
490.786	83.94
491.003	75.94
491.221	62.94
491.439	81.94
491.657	81.94
491.874	89.94
492.092	72.94
492.31	74.94
492.527	73.94
492.745	80.94
492.963	82.94
493.18	68.94
493.398	83.94
493.615	67.94
493.833	77.94
494.05	75.94
494.268	63.94
494.485	81.94
494.703	86.94
494.92	80.94
495.138	85.94
495.355	85.94
495.573	77.94
495.79	78.94
496.008	91.94
496.225	81.94
496.442	82.94
496.66	85.94
496.877	85.94
497.094	77.94
497.312	80.94
497.529	85.94
497.746	81.94
497.963	80.94
498.181	88.94
498.398	95.94
498.615	83.94
498.832	89.94
499.049	81.94
499.267	89.94
499.484	73.94
499.701	75.94
499.918	76.94
500.135	74.94
500.352	80.94
500.569	94.94
500.786	79.94
501.003	88.94
501.22	87.94
501.437	92.94
501.654	73.94
501.871	73.94
502.088	100.94
502.305	80.94
502.522	74.94
502.739	86.94
502.956	74.94
503.172	80.94
503.389	75.94
503.606	69.94
503.823	55.94
504.04	78.94
504.256	87.94
504.473	88.94
504.69	102.94
504.907	83.94
505.123	82.94
505.34	79.94
505.557	73.94
505.773	83.94
505.99	81.94
506.207	88.94
506.423	79.94
506.64	83.94
506.856	79.94
507.073	80.94
507.289	84.94
507.506	86.94
507.722	81.94
507.939	73.94
508.155	63.94
508.372	75.94
508.588	86.94
508.805	87.94
509.021	77.94
509.238	72.94
509.454	88.94
509.67	86.94
509.887	80.94
510.103	79.94
510.319	92.94
510.536	83.94
510.752	72.94
510.968	86.94
511.184	73.94
511.401	82.94
511.617	87.94
511.833	87.94
512.049	86.94
512.265	90.94
512.481	79.94
512.698	77.94
512.914	80.94
513.13	82.94
513.346	81.94
513.562	79.94
513.778	80.94
513.994	94.94
514.21	87.94
514.426	83.94
514.642	88.94
514.858	94.94
515.074	75.94
515.29	82.94
515.506	74.94
515.721	81.94
515.937	88.94
516.153	81.94
516.369	69.94
516.585	69.94
516.801	79.94
517.016	73.94
517.232	74.94
517.448	83.94
517.664	83.94
517.879	77.94
518.095	89.94
518.311	77.94
518.527	87.94
518.742	88.94
518.958	83.94
519.173	96.94
519.389	87.94
519.605	91.94
519.82	79.94
