Data from 17600_1_HRD10591_00050.txt Node
Date: Mon Jan 19 14:07:49 EST 2026
User: Yrep
Spectrometer: HR+D1059
Trigger mode: 1
Integration Time (sec): 1.000000E-1
Scans to average: 1
Electric dark correction enabled: true
Nonlinearity correction enabled: false
Boxcar width: 0
XAxis mode: Wavelengths
Number of Pixels in Spectrum: 2048
>>>>>Begin Spectral Data<<<<<
223.165	-18.62
223.4	-18.62
223.635	-18.62
223.869	-32.62
224.104	-21.62
224.338	-23.62
224.573	-3.62
224.808	-14.62
225.042	1.38
225.277	0.38
225.511	-13.62
225.746	1.38
225.98	23.38
226.215	2.38
226.449	13.38
226.683	19.38
226.918	29.38
227.152	37.38
227.387	40.38
227.621	31.38
227.856	30.38
228.09	31.38
228.324	46.38
228.559	45.38
228.793	56.38
229.027	57.38
229.262	73.38
229.496	74.38
229.73	64.38
229.964	67.38
230.199	62.38
230.433	75.38
230.667	69.38
230.901	90.38
231.136	75.38
231.37	82.38
231.604	86.38
231.838	83.38
232.072	74.38
232.306	85.38
232.541	78.38
232.775	78.38
233.009	78.38
233.243	72.38
233.477	64.38
233.711	81.38
233.945	84.38
234.179	64.38
234.413	73.38
234.647	67.38
234.881	74.38
235.115	68.38
235.349	73.38
235.583	80.38
235.817	53.38
236.051	74.38
236.285	78.38
236.519	64.38
236.753	68.38
236.987	70.38
237.221	74.38
237.455	63.38
237.689	74.38
237.922	68.38
238.156	72.38
238.39	68.38
238.624	77.38
238.858	66.38
239.091	80.38
239.325	70.38
239.559	77.38
239.793	73.38
240.027	75.38
240.26	69.38
240.494	87.38
240.728	74.38
240.961	75.38
241.195	75.38
241.429	67.38
241.662	66.38
241.896	77.38
242.13	78.38
242.363	63.38
242.597	68.38
242.83	63.38
243.064	65.38
243.298	81.38
243.531	80.38
243.765	74.38
243.998	80.38
244.232	76.38
244.465	77.38
244.699	80.38
244.932	74.38
245.166	80.38
245.399	72.38
245.633	70.38
245.866	70.38
246.099	72.38
246.333	78.38
246.566	74.38
246.8	62.38
247.033	78.38
247.266	74.38
247.5	77.38
247.733	84.38
247.966	82.38
248.2	58.38
248.433	83.38
248.666	69.38
248.899	80.38
249.133	75.38
249.366	73.38
249.599	88.38
249.832	74.38
250.066	76.38
250.299	94.38
250.532	75.38
250.765	62.38
250.998	84.38
251.231	70.38
251.465	83.38
251.698	70.38
251.931	82.38
252.164	78.38
252.397	76.38
252.63	78.38
252.863	72.38
253.096	93.38
253.329	52.38
253.562	84.38
253.795	72.38
254.028	89.38
254.261	75.38
254.494	66.38
254.727	64.38
254.96	74.38
255.193	78.38
255.426	75.38
255.659	72.38
255.892	63.38
256.124	80.38
256.357	88.38
256.59	80.38
256.823	54.38
257.056	73.38
257.289	74.38
257.521	62.38
257.754	86.38
257.987	80.38
258.22	69.38
258.452	70.38
258.685	69.38
258.918	81.38
259.151	70.38
259.383	92.38
259.616	74.38
259.849	76.38
260.081	86.38
260.314	75.38
260.547	74.38
260.779	73.38
261.012	83.38
261.244	89.38
261.477	85.38
261.71	89.38
261.942	80.38
262.175	82.38
262.407	84.38
262.64	79.38
262.872	76.38
263.105	81.38
263.337	89.38
263.57	80.38
263.802	81.38
264.035	79.38
264.267	83.38
264.499	77.38
264.732	91.38
264.964	70.38
265.197	77.38
265.429	92.38
265.661	83.38
265.894	81.38
266.126	73.38
266.358	75.38
266.591	78.38
266.823	72.38
267.055	86.38
267.287	68.38
267.52	77.38
267.752	92.38
267.984	65.38
268.216	80.38
268.448	79.38
268.681	76.38
268.913	89.38
269.145	91.38
269.377	71.38
269.609	73.38
269.841	74.38
270.073	80.38
270.306	81.38
270.538	78.38
270.77	80.38
271.002	85.38
271.234	81.38
271.466	69.38
271.698	77.38
271.93	85.38
272.162	77.38
272.394	79.38
272.626	73.38
272.858	65.38
273.09	87.38
273.322	92.38
273.553	80.38
273.785	72.38
274.017	72.38
274.249	78.38
274.481	80.38
274.713	87.38
274.945	75.38
275.176	91.38
275.408	83.38
275.64	82.38
275.872	71.38
276.104	73.38
276.335	101.38
276.567	79.38
276.799	69.38
277.031	84.38
277.262	88.38
277.494	78.38
277.726	82.38
277.957	88.38
278.189	84.38
278.421	80.38
278.652	94.38
278.884	89.38
279.115	94.38
279.347	78.38
279.579	90.38
279.81	81.38
280.042	72.38
280.273	72.38
280.505	71.38
280.736	64.38
280.968	70.38
281.199	79.38
281.431	79.38
281.662	71.38
281.894	87.38
282.125	80.38
282.356	77.38
282.588	84.38
282.819	86.38
283.051	81.38
283.282	70.38
283.513	93.38
283.745	88.38
283.976	77.38
284.207	64.38
284.439	96.38
284.67	60.38
284.901	72.38
285.132	72.38
285.364	92.38
285.595	81.38
285.826	82.38
286.057	91.38
286.288	72.38
286.52	78.38
286.751	85.38
286.982	72.38
287.213	76.38
287.444	59.38
287.675	65.38
287.906	95.38
288.138	78.38
288.369	81.38
288.6	80.38
288.831	85.38
289.062	73.38
289.293	82.38
289.524	95.38
289.755	81.38
289.986	64.38
290.217	71.38
290.448	74.38
290.679	68.38
290.91	94.38
291.141	79.38
291.371	81.38
291.602	81.38
291.833	89.38
292.064	80.38
292.295	93.38
292.526	85.38
292.757	57.38
292.987	74.38
293.218	69.38
293.449	79.38
293.68	86.38
293.91	98.38
294.141	79.38
294.372	82.38
294.603	89.38
294.833	80.38
295.064	75.38
295.295	72.38
295.525	85.38
295.756	92.38
295.987	80.38
296.217	80.38
296.448	82.38
296.679	78.38
296.909	80.38
297.14	82.38
297.37	103.38
297.601	85.38
297.831	68.38
298.062	68.38
298.292	81.38
298.523	81.38
298.753	70.38
298.984	73.38
299.214	89.38
299.445	80.38
299.675	74.38
299.905	88.38
300.136	80.38
300.366	69.38
300.597	82.38
300.827	81.38
301.057	69.38
301.288	84.38
301.518	75.38
301.748	78.38
301.979	82.38
302.209	73.38
302.439	64.38
302.669	78.38
302.9	77.38
303.13	85.38
303.36	75.38
303.59	80.38
303.82	82.38
304.051	89.38
304.281	82.38
304.511	91.38
304.741	87.38
304.971	80.38
305.201	83.38
305.431	87.38
305.661	85.38
305.891	79.38
306.121	89.38
306.352	81.38
306.582	81.38
306.812	95.38
307.042	88.38
307.272	76.38
307.502	80.38
307.731	86.38
307.961	81.38
308.191	89.38
308.421	79.38
308.651	84.38
308.881	84.38
309.111	86.38
309.341	78.38
309.571	68.38
309.8	81.38
310.03	74.38
310.26	80.38
310.49	76.38
310.72	88.38
310.949	81.38
311.179	77.38
311.409	82.38
311.639	88.38
311.868	74.38
312.098	70.38
312.328	82.38
312.557	92.38
312.787	80.38
313.017	69.38
313.246	77.38
313.476	76.38
313.706	93.38
313.935	67.38
314.165	82.38
314.394	96.38
314.624	87.38
314.853	84.38
315.083	95.38
315.312	84.38
315.542	76.38
315.771	72.38
316.001	86.38
316.23	88.38
316.46	72.38
316.689	74.38
316.919	89.38
317.148	97.38
317.377	73.38
317.607	71.38
317.836	80.38
318.065	77.38
318.295	80.38
318.524	80.38
318.753	77.38
318.983	75.38
319.212	85.38
319.441	89.38
319.67	82.38
319.9	88.38
320.129	84.38
320.358	84.38
320.587	84.38
320.816	86.38
321.046	100.38
321.275	82.38
321.504	76.38
321.733	75.38
321.962	75.38
322.191	68.38
322.42	77.38
322.649	93.38
322.878	91.38
323.108	73.38
323.337	78.38
323.566	79.38
323.795	80.38
324.024	85.38
324.253	84.38
324.482	66.38
324.71	78.38
324.939	85.38
325.168	71.38
325.397	83.38
325.626	74.38
325.855	83.38
326.084	82.38
326.313	84.38
326.542	74.38
326.77	88.38
326.999	69.38
327.228	76.38
327.457	89.38
327.686	89.38
327.914	81.38
328.143	82.38
328.372	72.38
328.6	67.38
328.829	88.38
329.058	74.38
329.287	82.38
329.515	86.38
329.744	73.38
329.972	92.38
330.201	90.38
330.43	72.38
330.658	82.38
330.887	78.38
331.115	79.38
331.344	80.38
331.572	88.38
331.801	85.38
332.03	100.38
332.258	84.38
332.486	71.38
332.715	69.38
332.943	86.38
333.172	84.38
333.4	73.38
333.629	89.38
333.857	87.38
334.085	82.38
334.314	94.38
334.542	72.38
334.771	84.38
334.999	73.38
335.227	80.38
335.455	77.38
335.684	81.38
335.912	83.38
336.14	86.38
336.369	84.38
336.597	74.38
336.825	88.38
337.053	80.38
337.281	83.38
337.51	80.38
337.738	79.38
337.966	86.38
338.194	80.38
338.422	91.38
338.65	87.38
338.878	80.38
339.106	77.38
339.334	94.38
339.562	88.38
339.79	89.38
340.018	84.38
340.246	98.38
340.474	79.38
340.702	81.38
340.93	90.38
341.158	75.38
341.386	69.38
341.614	82.38
341.842	73.38
342.07	72.38
342.298	83.38
342.526	81.38
342.754	75.38
342.981	81.38
343.209	81.38
343.437	75.38
343.665	63.38
343.893	84.38
344.12	88.38
344.348	96.38
344.576	67.38
344.804	72.38
345.031	89.38
345.259	78.38
345.487	73.38
345.714	92.38
345.942	72.38
346.17	80.38
346.397	81.38
346.625	86.38
346.853	79.38
347.08	73.38
347.308	90.38
347.535	87.38
347.763	80.38
347.99	78.38
348.218	71.38
348.445	96.38
348.673	87.38
348.9	74.38
349.128	81.38
349.355	81.38
349.583	81.38
349.81	89.38
350.037	84.38
350.265	80.38
350.492	81.38
350.72	85.38
350.947	80.38
351.174	71.38
351.402	81.38
351.629	75.38
351.856	74.38
352.083	82.38
352.311	74.38
352.538	89.38
352.765	84.38
352.992	95.38
353.22	88.38
353.447	78.38
353.674	72.38
353.901	80.38
354.128	79.38
354.355	95.38
354.583	82.38
354.81	66.38
355.037	81.38
355.264	74.38
355.491	94.38
355.718	73.38
355.945	72.38
356.172	95.38
356.399	62.38
356.626	83.38
356.853	72.38
357.08	80.38
357.307	86.38
357.534	90.38
357.761	83.38
357.988	74.38
358.215	84.38
358.441	88.38
358.668	88.38
358.895	84.38
359.122	91.38
359.349	82.38
359.576	89.38
359.802	80.38
360.029	78.38
360.256	90.38
360.483	90.38
360.709	71.38
360.936	73.38
361.163	95.38
361.39	74.38
361.616	77.38
361.843	84.38
362.07	86.38
362.296	93.38
362.523	76.38
362.749	86.38
362.976	80.38
363.203	105.38
363.429	81.38
363.656	68.38
363.882	84.38
364.109	86.38
364.335	104.38
364.562	78.38
364.788	81.38
365.015	86.38
365.241	87.38
365.468	83.38
365.694	87.38
365.92	84.38
366.147	87.38
366.373	76.38
366.599	84.38
366.826	83.38
367.052	80.38
367.278	90.38
367.505	82.38
367.731	80.38
367.957	83.38
368.184	85.38
368.41	77.38
368.636	85.38
368.862	93.38
369.089	72.38
369.315	82.38
369.541	92.38
369.767	83.38
369.993	84.38
370.219	80.38
370.445	74.38
370.672	77.38
370.898	84.38
371.124	75.38
371.35	80.38
371.576	73.38
371.802	79.38
372.028	73.38
372.254	80.38
372.48	92.38
372.706	87.38
372.932	89.38
373.158	81.38
373.384	79.38
373.61	72.38
373.835	94.38
374.061	92.38
374.287	80.38
374.513	99.38
374.739	77.38
374.965	74.38
375.191	82.38
375.416	84.38
375.642	82.38
375.868	89.38
376.094	79.38
376.319	74.38
376.545	84.38
376.771	78.38
376.997	76.38
377.222	81.38
377.448	84.38
377.674	87.38
377.899	83.38
378.125	101.38
378.35	85.38
378.576	82.38
378.802	86.38
379.027	70.38
379.253	70.38
379.478	75.38
379.704	78.38
379.929	73.38
380.155	80.38
380.38	77.38
380.606	81.38
380.831	78.38
381.057	77.38
381.282	64.38
381.507	84.38
381.733	68.38
381.958	88.38
382.184	64.38
382.409	86.38
382.634	76.38
382.86	71.38
383.085	84.38
383.31	88.38
383.535	87.38
383.761	92.38
383.986	76.38
384.211	64.38
384.436	71.38
384.662	76.38
384.887	64.38
385.112	64.38
385.337	70.38
385.562	84.38
385.787	88.38
386.013	89.38
386.238	90.38
386.463	71.38
386.688	80.38
386.913	75.38
387.138	90.38
387.363	86.38
387.588	88.38
387.813	90.38
388.038	77.38
388.263	71.38
388.488	74.38
388.713	76.38
388.938	80.38
389.163	81.38
389.387	82.38
389.612	71.38
389.837	88.38
390.062	85.38
390.287	88.38
390.512	51.38
390.736	79.38
390.961	73.38
391.186	83.38
391.411	82.38
391.636	72.38
391.86	80.38
392.085	93.38
392.31	87.38
392.534	80.38
392.759	87.38
392.984	100.38
393.208	101.38
393.433	125.38
393.658	121.38
393.882	76.38
394.107	79.38
394.331	75.38
394.556	73.38
394.78	94.38
395.005	84.38
395.229	81.38
395.454	86.38
395.678	75.38
395.903	71.38
396.127	84.38
396.352	89.38
396.576	99.38
396.801	106.38
397.025	115.38
397.249	101.38
397.474	90.38
397.698	86.38
397.922	94.38
398.147	96.38
398.371	95.38
398.595	76.38
398.82	94.38
399.044	68.38
399.268	87.38
399.492	76.38
399.717	85.38
399.941	91.38
400.165	82.38
400.389	66.38
400.613	70.38
400.837	72.38
401.062	84.38
401.286	77.38
401.51	76.38
401.734	84.38
401.958	72.38
402.182	79.38
402.406	80.38
402.63	81.38
402.854	69.38
403.078	78.38
403.302	68.38
403.526	78.38
403.75	89.38
403.974	79.38
404.198	94.38
404.422	84.38
404.645	96.38
404.869	89.38
405.093	80.38
405.317	78.38
405.541	86.38
405.765	83.38
405.988	84.38
406.212	86.38
406.436	85.38
406.66	76.38
406.883	82.38
407.107	80.38
407.331	77.38
407.555	85.38
407.778	78.38
408.002	72.38
408.226	75.38
408.449	74.38
408.673	91.38
408.896	85.38
409.12	80.38
409.344	76.38
409.567	83.38
409.791	79.38
410.014	89.38
410.238	89.38
410.461	84.38
410.685	71.38
410.908	71.38
411.132	75.38
411.355	74.38
411.578	81.38
411.802	74.38
412.025	66.38
412.249	94.38
412.472	89.38
412.695	84.38
412.919	73.38
413.142	68.38
413.365	79.38
413.589	82.38
413.812	71.38
414.035	71.38
414.258	78.38
414.482	72.38
414.705	86.38
414.928	67.38
415.151	69.38
415.374	85.38
415.597	80.38
415.821	72.38
416.044	83.38
416.267	82.38
416.49	75.38
416.713	90.38
416.936	93.38
417.159	76.38
417.382	67.38
417.605	86.38
417.828	72.38
418.051	68.38
418.274	67.38
418.497	61.38
418.72	79.38
418.943	84.38
419.166	79.38
419.389	82.38
419.611	88.38
419.834	72.38
420.057	82.38
420.28	92.38
420.503	91.38
420.726	81.38
420.948	74.38
421.171	80.38
421.394	73.38
421.617	80.38
421.839	80.38
422.062	87.38
422.285	85.38
422.507	96.38
422.73	108.38
422.953	106.38
423.175	82.38
423.398	83.38
423.621	86.38
423.843	88.38
424.066	66.38
424.288	99.38
424.511	81.38
424.733	81.38
424.956	74.38
425.178	84.38
425.401	95.38
425.623	77.38
425.846	88.38
426.068	92.38
426.291	89.38
426.513	78.38
426.735	74.38
426.958	70.38
427.18	82.38
427.402	78.38
427.625	73.38
427.847	70.38
428.069	80.38
428.292	72.38
428.514	85.38
428.736	82.38
428.958	83.38
429.181	68.38
429.403	72.38
429.625	76.38
429.847	84.38
430.069	96.38
430.292	87.38
430.514	78.38
430.736	88.38
430.958	91.38
431.18	91.38
431.402	86.38
431.624	78.38
431.846	87.38
432.068	105.38
432.29	75.38
432.512	78.38
432.734	77.38
432.956	78.38
433.178	70.38
433.4	74.38
433.622	68.38
433.844	80.38
434.066	85.38
434.287	77.38
434.509	81.38
434.731	74.38
434.953	73.38
435.175	79.38
435.397	81.38
435.618	92.38
435.84	80.38
436.062	87.38
436.284	78.38
436.505	72.38
436.727	81.38
436.949	86.38
437.17	72.38
437.392	86.38
437.614	86.38
437.835	83.38
438.057	86.38
438.278	82.38
438.5	92.38
438.721	89.38
438.943	89.38
439.165	80.38
439.386	69.38
439.608	81.38
439.829	64.38
440.05	70.38
440.272	80.38
440.493	79.38
440.715	79.38
440.936	82.38
441.158	80.38
441.379	78.38
441.6	65.38
441.822	81.38
442.043	69.38
442.264	77.38
442.486	79.38
442.707	85.38
442.928	81.38
443.149	90.38
443.371	85.38
443.592	86.38
443.813	90.38
444.034	80.38
444.255	87.38
444.476	89.38
444.698	79.38
444.919	84.38
445.14	165.38
445.361	130.38
445.582	96.38
445.803	88.38
446.024	83.38
446.245	85.38
446.466	77.38
446.687	72.38
446.908	78.38
447.129	77.38
447.35	89.38
447.571	72.38
447.792	72.38
448.013	80.38
448.234	75.38
448.455	81.38
448.675	93.38
448.896	97.38
449.117	77.38
449.338	90.38
449.559	73.38
449.779	79.38
450	84.38
450.221	70.38
450.442	88.38
450.662	84.38
450.883	86.38
451.104	62.38
451.324	77.38
451.545	86.38
451.766	82.38
451.986	81.38
452.207	82.38
452.428	78.38
452.648	92.38
452.869	79.38
453.089	96.38
453.31	78.38
453.53	66.38
453.751	84.38
453.971	80.38
454.192	72.38
454.412	80.38
454.633	93.38
454.853	87.38
455.073	78.38
455.294	74.38
455.514	75.38
455.734	86.38
455.955	71.38
456.175	78.38
456.395	83.38
456.616	76.38
456.836	76.38
457.056	85.38
457.276	73.38
457.497	84.38
457.717	84.38
457.937	90.38
458.157	62.38
458.377	70.38
458.598	87.38
458.818	72.38
459.038	84.38
459.258	80.38
459.478	68.38
459.698	73.38
459.918	72.38
460.138	74.38
460.358	74.38
460.578	67.38
460.798	87.38
461.018	78.38
461.238	87.38
461.458	78.38
461.678	93.38
461.898	82.38
462.118	77.38
462.338	79.38
462.558	72.38
462.777	82.38
462.997	76.38
463.217	77.38
463.437	82.38
463.657	73.38
463.876	77.38
464.096	62.38
464.316	90.38
464.536	71.38
464.755	95.38
464.975	87.38
465.195	84.38
465.414	86.38
465.634	84.38
465.854	83.38
466.073	80.38
466.293	77.38
466.512	77.38
466.732	98.38
466.951	99.38
467.171	82.38
467.391	66.38
467.61	62.38
467.829	76.38
468.049	94.38
468.268	72.38
468.488	78.38
468.707	69.38
468.927	70.38
469.146	73.38
469.365	81.38
469.585	83.38
469.804	78.38
470.023	70.38
470.243	72.38
470.462	93.38
470.681	84.38
470.901	75.38
471.12	86.38
471.339	62.38
471.558	68.38
471.777	70.38
471.997	84.38
472.216	94.38
472.435	66.38
472.654	95.38
472.873	73.38
473.092	85.38
473.311	77.38
473.53	77.38
473.749	97.38
473.968	85.38
474.187	89.38
474.406	93.38
474.625	86.38
474.844	88.38
475.063	77.38
475.282	61.38
475.501	99.38
475.72	83.38
475.939	89.38
476.158	79.38
476.377	74.38
476.596	86.38
476.814	87.38
477.033	73.38
477.252	69.38
477.471	73.38
477.69	83.38
477.908	98.38
478.127	82.38
478.346	92.38
478.564	93.38
478.783	89.38
479.002	63.38
479.22	71.38
479.439	82.38
479.658	79.38
479.876	71.38
480.095	73.38
480.313	90.38
480.532	74.38
480.751	75.38
480.969	77.38
481.188	72.38
481.406	78.38
481.624	82.38
481.843	82.38
482.061	69.38
482.28	78.38
482.498	73.38
482.717	84.38
482.935	80.38
483.153	78.38
483.372	72.38
483.59	75.38
483.808	80.38
484.027	69.38
484.245	84.38
484.463	71.38
484.681	90.38
484.9	91.38
485.118	93.38
485.336	75.38
485.554	75.38
485.772	90.38
485.99	76.38
486.209	93.38
486.427	69.38
486.645	70.38
486.863	74.38
487.081	71.38
487.299	88.38
487.517	80.38
487.735	73.38
487.953	74.38
488.171	81.38
488.389	88.38
488.607	87.38
488.825	87.38
489.043	83.38
489.261	88.38
489.479	70.38
489.696	76.38
489.914	82.38
490.132	87.38
490.35	84.38
490.568	78.38
490.786	74.38
491.003	80.38
491.221	69.38
491.439	85.38
491.657	82.38
491.874	78.38
492.092	88.38
492.31	84.38
492.527	81.38
492.745	86.38
492.963	95.38
493.18	76.38
493.398	74.38
493.615	69.38
493.833	91.38
494.05	67.38
494.268	80.38
494.485	67.38
494.703	79.38
494.92	85.38
495.138	98.38
495.355	80.38
495.573	81.38
495.79	74.38
496.008	94.38
496.225	81.38
496.442	84.38
496.66	88.38
496.877	90.38
497.094	94.38
497.312	60.38
497.529	73.38
497.746	86.38
497.963	66.38
498.181	86.38
498.398	89.38
498.615	80.38
498.832	84.38
499.049	87.38
499.267	78.38
499.484	71.38
499.701	78.38
499.918	76.38
500.135	97.38
500.352	82.38
500.569	84.38
500.786	87.38
501.003	83.38
501.22	77.38
501.437	80.38
501.654	73.38
501.871	84.38
502.088	78.38
502.305	90.38
502.522	73.38
502.739	91.38
502.956	68.38
503.172	86.38
503.389	87.38
503.606	96.38
503.823	76.38
504.04	92.38
504.256	93.38
504.473	69.38
504.69	74.38
504.907	82.38
505.123	80.38
505.34	87.38
505.557	84.38
505.773	70.38
505.99	86.38
506.207	91.38
506.423	82.38
506.64	79.38
506.856	80.38
507.073	86.38
507.289	103.38
507.506	73.38
507.722	82.38
507.939	77.38
508.155	81.38
508.372	83.38
508.588	77.38
508.805	79.38
509.021	69.38
509.238	82.38
509.454	77.38
509.67	95.38
509.887	90.38
510.103	92.38
510.319	80.38
510.536	90.38
510.752	69.38
510.968	88.38
511.184	76.38
511.401	75.38
511.617	90.38
511.833	69.38
512.049	80.38
512.265	69.38
512.481	84.38
512.698	82.38
512.914	93.38
513.13	80.38
513.346	84.38
513.562	70.38
513.778	71.38
513.994	66.38
514.21	87.38
514.426	78.38
514.642	84.38
514.858	60.38
515.074	85.38
515.29	84.38
515.506	96.38
515.721	96.38
515.937	86.38
516.153	82.38
516.369	81.38
516.585	81.38
516.801	86.38
517.016	67.38
517.232	72.38
517.448	90.38
517.664	78.38
517.879	95.38
518.095	77.38
518.311	93.38
518.527	86.38
518.742	79.38
518.958	71.38
519.173	75.38
519.389	79.38
519.605	70.38
519.82	86.38
520.036	83.38
