Data from 17600_1_HRD10591_00015.txt Node
Date: Mon Jan 19 14:07:31 EST 2026
User: Yrep
Spectrometer: HR+D1059
Trigger mode: 1
Integration Time (sec): 1.000000E-1
Scans to average: 1
Electric dark correction enabled: true
Nonlinearity correction enabled: false
Boxcar width: 0
XAxis mode: Wavelengths
Number of Pixels in Spectrum: 2048
>>>>>Begin Spectral Data<<<<<
223.165	-24.75
223.4	-24.75
223.635	-24.75
223.869	-8.75
224.104	-13.75
224.338	-20.75
224.573	-6.75
224.808	-14.75
225.042	-6.75
225.277	13.25
225.511	-3.75
225.746	9.25
225.98	5.25
226.215	2.25
226.449	9.25
226.683	9.25
226.918	21.25
227.152	30.25
227.387	33.25
227.621	38.25
227.856	38.25
228.09	47.25
228.324	54.25
228.559	58.25
228.793	76.25
229.027	60.25
229.262	52.25
229.496	49.25
229.73	68.25
229.964	65.25
230.199	78.25
230.433	71.25
230.667	73.25
230.901	93.25
231.136	96.25
231.37	76.25
231.604	79.25
231.838	79.25
232.072	85.25
232.306	86.25
232.541	67.25
232.775	72.25
233.009	83.25
233.243	65.25
233.477	83.25
233.711	70.25
233.945	63.25
234.179	75.25
234.413	92.25
234.647	86.25
234.881	87.25
235.115	68.25
235.349	83.25
235.583	72.25
235.817	74.25
236.051	76.25
236.285	78.25
236.519	71.25
236.753	76.25
236.987	81.25
237.221	82.25
237.455	72.25
237.689	73.25
237.922	64.25
238.156	74.25
238.39	67.25
238.624	70.25
238.858	79.25
239.091	72.25
239.325	77.25
239.559	74.25
239.793	77.25
240.027	73.25
240.26	73.25
240.494	87.25
240.728	68.25
240.961	71.25
241.195	77.25
241.429	73.25
241.662	79.25
241.896	90.25
242.13	75.25
242.363	64.25
242.597	84.25
242.83	72.25
243.064	52.25
243.298	74.25
243.531	65.25
243.765	71.25
243.998	86.25
244.232	69.25
244.465	79.25
244.699	75.25
244.932	77.25
245.166	67.25
245.399	71.25
245.633	78.25
245.866	75.25
246.099	58.25
246.333	79.25
246.566	77.25
246.8	69.25
247.033	72.25
247.266	87.25
247.5	95.25
247.733	68.25
247.966	77.25
248.2	77.25
248.433	86.25
248.666	77.25
248.899	72.25
249.133	77.25
249.366	70.25
249.599	70.25
249.832	70.25
250.066	80.25
250.299	75.25
250.532	97.25
250.765	74.25
250.998	76.25
251.231	80.25
251.465	84.25
251.698	79.25
251.931	77.25
252.164	71.25
252.397	89.25
252.63	74.25
252.863	79.25
253.096	67.25
253.329	83.25
253.562	80.25
253.795	79.25
254.028	87.25
254.261	76.25
254.494	74.25
254.727	73.25
254.96	89.25
255.193	78.25
255.426	71.25
255.659	89.25
255.892	78.25
256.124	86.25
256.357	71.25
256.59	81.25
256.823	73.25
257.056	78.25
257.289	73.25
257.521	75.25
257.754	74.25
257.987	72.25
258.22	67.25
258.452	54.25
258.685	71.25
258.918	76.25
259.151	73.25
259.383	82.25
259.616	73.25
259.849	67.25
260.081	79.25
260.314	73.25
260.547	76.25
260.779	81.25
261.012	83.25
261.244	77.25
261.477	94.25
261.71	83.25
261.942	79.25
262.175	89.25
262.407	76.25
262.64	83.25
262.872	90.25
263.105	73.25
263.337	79.25
263.57	91.25
263.802	98.25
264.035	87.25
264.267	68.25
264.499	67.25
264.732	89.25
264.964	75.25
265.197	70.25
265.429	94.25
265.661	83.25
265.894	85.25
266.126	72.25
266.358	78.25
266.591	87.25
266.823	74.25
267.055	85.25
267.287	85.25
267.52	96.25
267.752	90.25
267.984	74.25
268.216	85.25
268.448	75.25
268.681	81.25
268.913	87.25
269.145	78.25
269.377	79.25
269.609	74.25
269.841	76.25
270.073	76.25
270.306	81.25
270.538	68.25
270.77	74.25
271.002	101.25
271.234	81.25
271.466	87.25
271.698	71.25
271.93	82.25
272.162	68.25
272.394	80.25
272.626	74.25
272.858	83.25
273.09	90.25
273.322	85.25
273.553	67.25
273.785	83.25
274.017	79.25
274.249	85.25
274.481	64.25
274.713	81.25
274.945	76.25
275.176	78.25
275.408	81.25
275.64	93.25
275.872	73.25
276.104	81.25
276.335	68.25
276.567	91.25
276.799	83.25
277.031	91.25
277.262	91.25
277.494	74.25
277.726	79.25
277.957	89.25
278.189	75.25
278.421	83.25
278.652	70.25
278.884	71.25
279.115	71.25
279.347	65.25
279.579	80.25
279.81	87.25
280.042	83.25
280.273	84.25
280.505	84.25
280.736	84.25
280.968	82.25
281.199	74.25
281.431	79.25
281.662	95.25
281.894	89.25
282.125	71.25
282.356	68.25
282.588	85.25
282.819	73.25
283.051	84.25
283.282	90.25
283.513	93.25
283.745	88.25
283.976	90.25
284.207	79.25
284.439	81.25
284.67	72.25
284.901	83.25
285.132	75.25
285.364	80.25
285.595	91.25
285.826	79.25
286.057	75.25
286.288	69.25
286.52	94.25
286.751	80.25
286.982	78.25
287.213	88.25
287.444	96.25
287.675	77.25
287.906	71.25
288.138	69.25
288.369	92.25
288.6	70.25
288.831	68.25
289.062	83.25
289.293	89.25
289.524	76.25
289.755	80.25
289.986	69.25
290.217	71.25
290.448	77.25
290.679	89.25
290.91	78.25
291.141	78.25
291.371	90.25
291.602	83.25
291.833	76.25
292.064	90.25
292.295	85.25
292.526	96.25
292.757	86.25
292.987	86.25
293.218	98.25
293.449	74.25
293.68	68.25
293.91	81.25
294.141	80.25
294.372	84.25
294.603	86.25
294.833	68.25
295.064	75.25
295.295	78.25
295.525	73.25
295.756	72.25
295.987	78.25
296.217	63.25
296.448	81.25
296.679	88.25
296.909	79.25
297.14	80.25
297.37	94.25
297.601	88.25
297.831	83.25
298.062	80.25
298.292	87.25
298.523	79.25
298.753	90.25
298.984	88.25
299.214	95.25
299.445	84.25
299.675	91.25
299.905	80.25
300.136	95.25
300.366	74.25
300.597	83.25
300.827	84.25
301.057	84.25
301.288	82.25
301.518	92.25
301.748	83.25
301.979	79.25
302.209	68.25
302.439	73.25
302.669	84.25
302.9	79.25
303.13	80.25
303.36	89.25
303.59	72.25
303.82	83.25
304.051	79.25
304.281	85.25
304.511	82.25
304.741	83.25
304.971	92.25
305.201	78.25
305.431	76.25
305.661	87.25
305.891	84.25
306.121	79.25
306.352	76.25
306.582	89.25
306.812	90.25
307.042	91.25
307.272	87.25
307.502	88.25
307.731	83.25
307.961	84.25
308.191	79.25
308.421	93.25
308.651	86.25
308.881	93.25
309.111	87.25
309.341	81.25
309.571	86.25
309.8	88.25
310.03	88.25
310.26	81.25
310.49	92.25
310.72	81.25
310.949	67.25
311.179	85.25
311.409	79.25
311.639	80.25
311.868	90.25
312.098	98.25
312.328	82.25
312.557	86.25
312.787	82.25
313.017	80.25
313.246	70.25
313.476	79.25
313.706	76.25
313.935	91.25
314.165	89.25
314.394	89.25
314.624	89.25
314.853	78.25
315.083	96.25
315.312	76.25
315.542	81.25
315.771	93.25
316.001	97.25
316.23	82.25
316.46	83.25
316.689	90.25
316.919	72.25
317.148	88.25
317.377	86.25
317.607	91.25
317.836	95.25
318.065	104.25
318.295	92.25
318.524	96.25
318.753	84.25
318.983	77.25
319.212	79.25
319.441	67.25
319.67	84.25
319.9	91.25
320.129	93.25
320.358	87.25
320.587	89.25
320.816	67.25
321.046	85.25
321.275	69.25
321.504	88.25
321.733	86.25
321.962	88.25
322.191	78.25
322.42	72.25
322.649	85.25
322.878	71.25
323.108	84.25
323.337	87.25
323.566	78.25
323.795	83.25
324.024	91.25
324.253	90.25
324.482	84.25
324.71	87.25
324.939	88.25
325.168	82.25
325.397	92.25
325.626	80.25
325.855	84.25
326.084	83.25
326.313	86.25
326.542	86.25
326.77	84.25
326.999	83.25
327.228	71.25
327.457	75.25
327.686	76.25
327.914	88.25
328.143	83.25
328.372	81.25
328.6	82.25
328.829	77.25
329.058	69.25
329.287	89.25
329.515	84.25
329.744	87.25
329.972	79.25
330.201	90.25
330.43	97.25
330.658	102.25
330.887	99.25
331.115	83.25
331.344	94.25
331.572	84.25
331.801	74.25
332.03	76.25
332.258	76.25
332.486	85.25
332.715	86.25
332.943	91.25
333.172	83.25
333.4	81.25
333.629	95.25
333.857	65.25
334.085	78.25
334.314	89.25
334.542	79.25
334.771	91.25
334.999	97.25
335.227	93.25
335.455	93.25
335.684	87.25
335.912	76.25
336.14	83.25
336.369	100.25
336.597	100.25
336.825	83.25
337.053	81.25
337.281	70.25
337.51	83.25
337.738	102.25
337.966	90.25
338.194	83.25
338.422	74.25
338.65	92.25
338.878	83.25
339.106	81.25
339.334	86.25
339.562	81.25
339.79	80.25
340.018	88.25
340.246	80.25
340.474	85.25
340.702	87.25
340.93	84.25
341.158	77.25
341.386	79.25
341.614	81.25
341.842	79.25
342.07	65.25
342.298	79.25
342.526	80.25
342.754	79.25
342.981	81.25
343.209	83.25
343.437	101.25
343.665	96.25
343.893	77.25
344.12	81.25
344.348	89.25
344.576	85.25
344.804	95.25
345.031	79.25
345.259	89.25
345.487	92.25
345.714	69.25
345.942	82.25
346.17	64.25
346.397	67.25
346.625	90.25
346.853	84.25
347.08	71.25
347.308	83.25
347.535	81.25
347.763	89.25
347.99	88.25
348.218	81.25
348.445	87.25
348.673	71.25
348.9	80.25
349.128	88.25
349.355	62.25
349.583	88.25
349.81	86.25
350.037	72.25
350.265	85.25
350.492	77.25
350.72	87.25
350.947	81.25
351.174	85.25
351.402	79.25
351.629	83.25
351.856	61.25
352.083	74.25
352.311	79.25
352.538	88.25
352.765	86.25
352.992	87.25
353.22	78.25
353.447	95.25
353.674	74.25
353.901	79.25
354.128	82.25
354.355	71.25
354.583	81.25
354.81	78.25
355.037	87.25
355.264	88.25
355.491	85.25
355.718	81.25
355.945	104.25
356.172	85.25
356.399	71.25
356.626	86.25
356.853	84.25
357.08	98.25
357.307	84.25
357.534	82.25
357.761	101.25
357.988	89.25
358.215	81.25
358.441	84.25
358.668	84.25
358.895	73.25
359.122	69.25
359.349	77.25
359.576	76.25
359.802	76.25
360.029	70.25
360.256	75.25
360.483	75.25
360.709	81.25
360.936	99.25
361.163	83.25
361.39	80.25
361.616	97.25
361.843	79.25
362.07	79.25
362.296	72.25
362.523	93.25
362.749	87.25
362.976	92.25
363.203	105.25
363.429	91.25
363.656	92.25
363.882	64.25
364.109	95.25
364.335	86.25
364.562	98.25
364.788	97.25
365.015	100.25
365.241	70.25
365.468	89.25
365.694	89.25
365.92	77.25
366.147	91.25
366.373	80.25
366.599	96.25
366.826	92.25
367.052	72.25
367.278	81.25
367.505	93.25
367.731	91.25
367.957	87.25
368.184	88.25
368.41	74.25
368.636	90.25
368.862	80.25
369.089	72.25
369.315	89.25
369.541	73.25
369.767	78.25
369.993	91.25
370.219	79.25
370.445	78.25
370.672	96.25
370.898	91.25
371.124	77.25
371.35	79.25
371.576	82.25
371.802	82.25
372.028	107.25
372.254	87.25
372.48	84.25
372.706	79.25
372.932	81.25
373.158	75.25
373.384	99.25
373.61	102.25
373.835	102.25
374.061	94.25
374.287	93.25
374.513	87.25
374.739	91.25
374.965	90.25
375.191	84.25
375.416	79.25
375.642	85.25
375.868	83.25
376.094	79.25
376.319	73.25
376.545	89.25
376.771	82.25
376.997	85.25
377.222	77.25
377.448	94.25
377.674	91.25
377.899	88.25
378.125	83.25
378.35	80.25
378.576	81.25
378.802	95.25
379.027	80.25
379.253	80.25
379.478	82.25
379.704	89.25
379.929	86.25
380.155	87.25
380.38	84.25
380.606	72.25
380.831	86.25
381.057	81.25
381.282	71.25
381.507	100.25
381.733	97.25
381.958	88.25
382.184	86.25
382.409	85.25
382.634	94.25
382.86	104.25
383.085	91.25
383.31	100.25
383.535	99.25
383.761	87.25
383.986	86.25
384.211	97.25
384.436	90.25
384.662	104.25
384.887	75.25
385.112	89.25
385.337	80.25
385.562	74.25
385.787	76.25
386.013	96.25
386.238	95.25
386.463	92.25
386.688	96.25
386.913	95.25
387.138	89.25
387.363	88.25
387.588	89.25
387.813	100.25
388.038	87.25
388.263	100.25
388.488	93.25
388.713	103.25
388.938	93.25
389.163	95.25
389.387	81.25
389.612	89.25
389.837	84.25
390.062	81.25
390.287	79.25
390.512	81.25
390.736	81.25
390.961	88.25
391.186	72.25
391.411	69.25
391.636	87.25
391.86	86.25
392.085	92.25
392.31	107.25
392.534	96.25
392.759	123.25
392.984	174.25
393.208	304.25
393.433	471.25
393.658	359.25
393.882	152.25
394.107	102.25
394.331	95.25
394.556	103.25
394.78	98.25
395.005	79.25
395.229	84.25
395.454	93.25
395.678	102.25
395.903	107.25
396.127	128.25
396.352	156.25
396.576	191.25
396.801	322.25
397.025	383.25
397.249	195.25
397.474	115.25
397.698	88.25
397.922	80.25
398.147	81.25
398.371	87.25
398.595	82.25
398.82	75.25
399.044	74.25
399.268	87.25
399.492	91.25
399.717	85.25
399.941	80.25
400.165	92.25
400.389	77.25
400.613	75.25
400.837	86.25
401.062	83.25
401.286	80.25
401.51	76.25
401.734	72.25
401.958	73.25
402.182	81.25
402.406	101.25
402.63	86.25
402.854	72.25
403.078	81.25
403.302	77.25
403.526	67.25
403.75	79.25
403.974	85.25
404.198	70.25
404.422	69.25
404.645	82.25
404.869	84.25
405.093	83.25
405.317	75.25
405.541	79.25
405.765	86.25
405.988	77.25
406.212	81.25
406.436	81.25
406.66	93.25
406.883	77.25
407.107	72.25
407.331	83.25
407.555	95.25
407.778	135.25
408.002	120.25
408.226	95.25
408.449	89.25
408.673	77.25
408.896	85.25
409.12	74.25
409.344	81.25
409.567	88.25
409.791	92.25
410.014	73.25
410.238	62.25
410.461	80.25
410.685	84.25
410.908	79.25
411.132	77.25
411.355	75.25
411.578	79.25
411.802	84.25
412.025	68.25
412.249	58.25
412.472	76.25
412.695	85.25
412.919	74.25
413.142	86.25
413.365	96.25
413.589	92.25
413.812	71.25
414.035	74.25
414.258	80.25
414.482	86.25
414.705	71.25
414.928	83.25
415.151	81.25
415.374	89.25
415.597	85.25
415.821	95.25
416.044	68.25
416.267	81.25
416.49	84.25
416.713	79.25
416.936	93.25
417.159	81.25
417.382	79.25
417.605	83.25
417.828	94.25
418.051	79.25
418.274	74.25
418.497	85.25
418.72	81.25
418.943	86.25
419.166	78.25
419.389	78.25
419.611	76.25
419.834	77.25
420.057	84.25
420.28	80.25
420.503	68.25
420.726	77.25
420.948	77.25
421.171	109.25
421.394	100.25
421.617	110.25
421.839	113.25
422.062	106.25
422.285	131.25
422.507	206.25
422.73	346.25
422.953	291.25
423.175	135.25
423.398	83.25
423.621	88.25
423.843	80.25
424.066	91.25
424.288	88.25
424.511	82.25
424.733	89.25
424.956	90.25
425.178	87.25
425.401	88.25
425.623	72.25
425.846	77.25
426.068	75.25
426.291	71.25
426.513	81.25
426.735	95.25
426.958	80.25
427.18	77.25
427.402	85.25
427.625	91.25
427.847	79.25
428.069	84.25
428.292	102.25
428.514	99.25
428.736	93.25
428.958	127.25
429.181	115.25
429.403	101.25
429.625	91.25
429.847	110.25
430.069	120.25
430.292	158.25
430.514	131.25
430.736	108.25
430.958	116.25
431.18	90.25
431.402	83.25
431.624	80.25
431.846	107.25
432.068	107.25
432.29	78.25
432.512	91.25
432.734	79.25
432.956	83.25
433.178	84.25
433.4	78.25
433.622	76.25
433.844	92.25
434.066	83.25
434.287	71.25
434.509	87.25
434.731	83.25
434.953	72.25
435.175	83.25
435.397	83.25
435.618	74.25
435.84	80.25
436.062	85.25
436.284	87.25
436.505	85.25
436.727	64.25
436.949	63.25
437.17	91.25
437.392	89.25
437.614	83.25
437.835	85.25
438.057	71.25
438.278	74.25
438.5	78.25
438.721	95.25
438.943	79.25
439.165	81.25
439.386	82.25
439.608	78.25
439.829	77.25
440.05	74.25
440.272	82.25
440.493	87.25
440.715	91.25
440.936	89.25
441.158	77.25
441.379	77.25
441.6	75.25
441.822	77.25
442.043	106.25
442.264	85.25
442.486	99.25
442.707	125.25
442.928	107.25
443.149	79.25
443.371	116.25
443.592	169.25
443.813	150.25
444.034	100.25
444.255	78.25
444.476	93.25
444.698	95.25
444.919	75.25
445.14	162.25
445.361	160.25
445.582	202.25
445.803	182.25
446.024	87.25
446.245	76.25
446.466	79.25
446.687	84.25
446.908	61.25
447.129	85.25
447.35	76.25
447.571	72.25
447.792	93.25
448.013	88.25
448.234	90.25
448.455	92.25
448.675	78.25
448.896	83.25
449.117	78.25
449.338	91.25
449.559	70.25
449.779	87.25
450	79.25
450.221	68.25
450.442	81.25
450.662	80.25
450.883	70.25
451.104	93.25
451.324	78.25
451.545	80.25
451.766	72.25
451.986	87.25
452.207	85.25
452.428	78.25
452.648	75.25
452.869	89.25
453.089	79.25
453.31	77.25
453.53	79.25
453.751	84.25
453.971	85.25
454.192	81.25
454.412	82.25
454.633	87.25
454.853	77.25
455.073	75.25
455.294	69.25
455.514	79.25
455.734	74.25
455.955	84.25
456.175	80.25
456.395	81.25
456.616	71.25
456.836	83.25
457.056	71.25
457.276	88.25
457.497	83.25
457.717	87.25
457.937	87.25
458.157	102.25
458.377	94.25
458.598	95.25
458.818	109.25
459.038	87.25
459.258	81.25
459.478	78.25
459.698	88.25
459.918	100.25
460.138	89.25
460.358	85.25
460.578	82.25
460.798	115.25
461.018	101.25
461.238	95.25
461.458	93.25
461.678	100.25
461.898	89.25
462.118	85.25
462.338	91.25
462.558	79.25
462.777	72.25
462.997	78.25
463.217	102.25
463.437	86.25
463.657	74.25
463.876	78.25
464.096	78.25
464.316	86.25
464.536	72.25
464.755	75.25
464.975	75.25
465.195	86.25
465.414	77.25
465.634	79.25
465.854	82.25
466.073	84.25
466.293	75.25
466.512	88.25
466.732	81.25
466.951	75.25
467.171	86.25
467.391	80.25
467.61	84.25
467.829	90.25
468.049	72.25
468.268	77.25
468.488	79.25
468.707	77.25
468.927	81.25
469.146	80.25
469.365	74.25
469.585	88.25
469.804	78.25
470.023	76.25
470.243	83.25
470.462	89.25
470.681	91.25
470.901	77.25
471.12	80.25
471.339	73.25
471.558	73.25
471.777	78.25
471.997	83.25
472.216	88.25
472.435	80.25
472.654	96.25
472.873	87.25
473.092	69.25
473.311	92.25
473.53	72.25
473.749	89.25
473.968	83.25
474.187	73.25
474.406	78.25
474.625	83.25
474.844	71.25
475.063	84.25
475.282	75.25
475.501	88.25
475.72	89.25
475.939	79.25
476.158	79.25
476.377	84.25
476.596	73.25
476.814	73.25
477.033	91.25
477.252	79.25
477.471	78.25
477.69	89.25
477.908	83.25
478.127	77.25
478.346	81.25
478.564	83.25
478.783	83.25
479.002	76.25
479.22	71.25
479.439	81.25
479.658	88.25
479.876	70.25
480.095	68.25
480.313	82.25
480.532	70.25
480.751	64.25
480.969	84.25
481.188	100.25
481.406	83.25
481.624	87.25
481.843	89.25
482.061	68.25
482.28	85.25
482.498	71.25
482.717	76.25
482.935	86.25
483.153	76.25
483.372	85.25
483.59	70.25
483.808	76.25
484.027	87.25
484.245	86.25
484.463	77.25
484.681	81.25
484.9	81.25
485.118	68.25
485.336	79.25
485.554	94.25
485.772	85.25
485.99	77.25
486.209	74.25
486.427	60.25
486.645	79.25
486.863	93.25
487.081	70.25
487.299	65.25
487.517	99.25
487.735	89.25
487.953	135.25
488.171	116.25
488.389	93.25
488.607	83.25
488.825	82.25
489.043	76.25
489.261	86.25
489.479	73.25
489.696	81.25
489.914	69.25
490.132	81.25
490.35	89.25
490.568	73.25
490.786	90.25
491.003	62.25
491.221	81.25
491.439	91.25
491.657	75.25
491.874	84.25
492.092	81.25
492.31	83.25
492.527	73.25
492.745	75.25
492.963	87.25
493.18	91.25
493.398	85.25
493.615	77.25
493.833	89.25
494.05	87.25
494.268	79.25
494.485	82.25
494.703	87.25
494.92	85.25
495.138	84.25
495.355	75.25
495.573	82.25
495.79	76.25
496.008	65.25
496.225	87.25
496.442	78.25
496.66	98.25
496.877	71.25
497.094	91.25
497.312	75.25
497.529	72.25
497.746	91.25
497.963	97.25
498.181	87.25
498.398	88.25
498.615	84.25
498.832	86.25
499.049	89.25
499.267	96.25
499.484	83.25
499.701	92.25
499.918	71.25
500.135	85.25
500.352	85.25
500.569	70.25
500.786	79.25
501.003	79.25
501.22	93.25
501.437	74.25
501.654	70.25
501.871	86.25
502.088	91.25
502.305	84.25
502.522	81.25
502.739	79.25
502.956	84.25
503.172	76.25
503.389	94.25
503.606	79.25
503.823	84.25
504.04	90.25
504.256	100.25
504.473	107.25
504.69	85.25
504.907	91.25
505.123	92.25
505.34	81.25
505.557	80.25
505.773	84.25
505.99	83.25
506.207	85.25
506.423	85.25
506.64	91.25
506.856	87.25
507.073	83.25
507.289	100.25
507.506	94.25
507.722	77.25
507.939	81.25
508.155	79.25
508.372	77.25
508.588	86.25
508.805	86.25
509.021	82.25
509.238	78.25
509.454	80.25
509.67	87.25
509.887	78.25
510.103	80.25
510.319	74.25
510.536	83.25
510.752	76.25
510.968	91.25
511.184	82.25
511.401	79.25
511.617	75.25
511.833	89.25
512.049	79.25
512.265	73.25
512.481	79.25
512.698	91.25
512.914	84.25
513.13	85.25
513.346	84.25
513.562	87.25
513.778	94.25
513.994	84.25
514.21	85.25
514.426	91.25
514.642	83.25
514.858	80.25
515.074	87.25
515.29	78.25
515.506	85.25
515.721	77.25
515.937	80.25
516.153	79.25
516.369	83.25
516.585	85.25
516.801	83.25
517.016	88.25
517.232	86.25
517.448	85.25
517.664	88.25
517.879	80.25
518.095	89.25
518.311	86.25
518.527	90.25
518.742	106.25
518.958	89.25
519.173	113.25
