Data from 17600_1_HRD10591_00022.txt Node
Date: Mon Jan 19 14:07:35 EST 2026
User: Yrep
Spectrometer: HR+D1059
Trigger mode: 1
Integration Time (sec): 1.000000E-1
Scans to average: 1
Electric dark correction enabled: true
Nonlinearity correction enabled: false
Boxcar width: 0
XAxis mode: Wavelengths
Number of Pixels in Spectrum: 2048
>>>>>Begin Spectral Data<<<<<
223.165	-15.19
223.4	-15.19
223.635	-15.19
223.869	-12.19
224.104	-27.19
224.338	-18.19
224.573	-17.19
224.808	-23.19
225.042	2.81
225.277	-0.19
225.511	6.81
225.746	8.81
225.98	0.81
226.215	6.81
226.449	2.81
226.683	31.81
226.918	22.81
227.152	29.81
227.387	17.81
227.621	26.81
227.856	56.81
228.09	41.81
228.324	37.81
228.559	62.81
228.793	72.81
229.027	59.81
229.262	74.81
229.496	70.81
229.73	71.81
229.964	86.81
230.199	65.81
230.433	73.81
230.667	77.81
230.901	81.81
231.136	86.81
231.37	74.81
231.604	70.81
231.838	80.81
232.072	76.81
232.306	76.81
232.541	84.81
232.775	73.81
233.009	83.81
233.243	68.81
233.477	74.81
233.711	81.81
233.945	87.81
234.179	87.81
234.413	80.81
234.647	100.81
234.881	79.81
235.115	97.81
235.349	87.81
235.583	80.81
235.817	76.81
236.051	71.81
236.285	82.81
236.519	78.81
236.753	71.81
236.987	70.81
237.221	74.81
237.455	73.81
237.689	64.81
237.922	68.81
238.156	82.81
238.39	84.81
238.624	75.81
238.858	85.81
239.091	102.81
239.325	93.81
239.559	74.81
239.793	75.81
240.027	87.81
240.26	69.81
240.494	89.81
240.728	66.81
240.961	74.81
241.195	66.81
241.429	76.81
241.662	81.81
241.896	77.81
242.13	70.81
242.363	78.81
242.597	60.81
242.83	80.81
243.064	73.81
243.298	64.81
243.531	84.81
243.765	77.81
243.998	79.81
244.232	66.81
244.465	72.81
244.699	88.81
244.932	67.81
245.166	82.81
245.399	83.81
245.633	81.81
245.866	79.81
246.099	99.81
246.333	79.81
246.566	94.81
246.8	70.81
247.033	82.81
247.266	80.81
247.5	81.81
247.733	80.81
247.966	81.81
248.2	74.81
248.433	89.81
248.666	70.81
248.899	65.81
249.133	83.81
249.366	87.81
249.599	76.81
249.832	78.81
250.066	74.81
250.299	76.81
250.532	83.81
250.765	87.81
250.998	76.81
251.231	74.81
251.465	84.81
251.698	87.81
251.931	78.81
252.164	73.81
252.397	80.81
252.63	80.81
252.863	73.81
253.096	67.81
253.329	80.81
253.562	90.81
253.795	67.81
254.028	89.81
254.261	73.81
254.494	79.81
254.727	75.81
254.96	82.81
255.193	76.81
255.426	74.81
255.659	79.81
255.892	82.81
256.124	82.81
256.357	70.81
256.59	92.81
256.823	86.81
257.056	83.81
257.289	80.81
257.521	89.81
257.754	73.81
257.987	82.81
258.22	84.81
258.452	88.81
258.685	85.81
258.918	73.81
259.151	68.81
259.383	72.81
259.616	87.81
259.849	91.81
260.081	89.81
260.314	73.81
260.547	87.81
260.779	76.81
261.012	88.81
261.244	77.81
261.477	82.81
261.71	73.81
261.942	86.81
262.175	85.81
262.407	86.81
262.64	70.81
262.872	83.81
263.105	82.81
263.337	79.81
263.57	70.81
263.802	82.81
264.035	84.81
264.267	76.81
264.499	87.81
264.732	84.81
264.964	76.81
265.197	100.81
265.429	79.81
265.661	85.81
265.894	69.81
266.126	93.81
266.358	80.81
266.591	81.81
266.823	75.81
267.055	94.81
267.287	80.81
267.52	77.81
267.752	65.81
267.984	62.81
268.216	77.81
268.448	77.81
268.681	84.81
268.913	85.81
269.145	83.81
269.377	83.81
269.609	71.81
269.841	82.81
270.073	80.81
270.306	89.81
270.538	75.81
270.77	96.81
271.002	76.81
271.234	82.81
271.466	74.81
271.698	79.81
271.93	94.81
272.162	90.81
272.394	88.81
272.626	74.81
272.858	87.81
273.09	71.81
273.322	71.81
273.553	89.81
273.785	87.81
274.017	91.81
274.249	86.81
274.481	87.81
274.713	83.81
274.945	79.81
275.176	90.81
275.408	92.81
275.64	86.81
275.872	83.81
276.104	93.81
276.335	86.81
276.567	74.81
276.799	80.81
277.031	86.81
277.262	86.81
277.494	71.81
277.726	85.81
277.957	80.81
278.189	84.81
278.421	89.81
278.652	87.81
278.884	85.81
279.115	86.81
279.347	76.81
279.579	79.81
279.81	82.81
280.042	86.81
280.273	87.81
280.505	81.81
280.736	81.81
280.968	78.81
281.199	74.81
281.431	88.81
281.662	70.81
281.894	92.81
282.125	84.81
282.356	74.81
282.588	78.81
282.819	70.81
283.051	80.81
283.282	75.81
283.513	98.81
283.745	85.81
283.976	87.81
284.207	83.81
284.439	87.81
284.67	88.81
284.901	86.81
285.132	82.81
285.364	95.81
285.595	79.81
285.826	72.81
286.057	86.81
286.288	84.81
286.52	94.81
286.751	88.81
286.982	87.81
287.213	66.81
287.444	76.81
287.675	88.81
287.906	94.81
288.138	88.81
288.369	80.81
288.6	81.81
288.831	88.81
289.062	87.81
289.293	85.81
289.524	89.81
289.755	84.81
289.986	70.81
290.217	80.81
290.448	84.81
290.679	82.81
290.91	86.81
291.141	69.81
291.371	76.81
291.602	88.81
291.833	85.81
292.064	68.81
292.295	90.81
292.526	86.81
292.757	82.81
292.987	89.81
293.218	89.81
293.449	77.81
293.68	89.81
293.91	88.81
294.141	86.81
294.372	91.81
294.603	91.81
294.833	67.81
295.064	102.81
295.295	78.81
295.525	72.81
295.756	92.81
295.987	90.81
296.217	82.81
296.448	95.81
296.679	87.81
296.909	96.81
297.14	90.81
297.37	85.81
297.601	85.81
297.831	81.81
298.062	93.81
298.292	72.81
298.523	89.81
298.753	83.81
298.984	89.81
299.214	81.81
299.445	84.81
299.675	80.81
299.905	102.81
300.136	98.81
300.366	75.81
300.597	82.81
300.827	88.81
301.057	97.81
301.288	94.81
301.518	79.81
301.748	81.81
301.979	102.81
302.209	88.81
302.439	87.81
302.669	96.81
302.9	81.81
303.13	90.81
303.36	92.81
303.59	67.81
303.82	77.81
304.051	87.81
304.281	84.81
304.511	80.81
304.741	75.81
304.971	68.81
305.201	92.81
305.431	89.81
305.661	83.81
305.891	75.81
306.121	88.81
306.352	81.81
306.582	81.81
306.812	76.81
307.042	71.81
307.272	84.81
307.502	84.81
307.731	98.81
307.961	80.81
308.191	86.81
308.421	90.81
308.651	82.81
308.881	83.81
309.111	86.81
309.341	84.81
309.571	93.81
309.8	79.81
310.03	91.81
310.26	70.81
310.49	87.81
310.72	75.81
310.949	96.81
311.179	94.81
311.409	90.81
311.639	99.81
311.868	89.81
312.098	82.81
312.328	92.81
312.557	82.81
312.787	83.81
313.017	81.81
313.246	78.81
313.476	85.81
313.706	71.81
313.935	98.81
314.165	95.81
314.394	85.81
314.624	66.81
314.853	81.81
315.083	73.81
315.312	88.81
315.542	92.81
315.771	94.81
316.001	73.81
316.23	85.81
316.46	76.81
316.689	100.81
316.919	94.81
317.148	86.81
317.377	75.81
317.607	97.81
317.836	83.81
318.065	86.81
318.295	97.81
318.524	93.81
318.753	82.81
318.983	77.81
319.212	86.81
319.441	86.81
319.67	96.81
319.9	83.81
320.129	95.81
320.358	77.81
320.587	81.81
320.816	97.81
321.046	97.81
321.275	90.81
321.504	88.81
321.733	84.81
321.962	77.81
322.191	84.81
322.42	91.81
322.649	73.81
322.878	84.81
323.108	84.81
323.337	79.81
323.566	87.81
323.795	93.81
324.024	84.81
324.253	81.81
324.482	82.81
324.71	91.81
324.939	98.81
325.168	70.81
325.397	85.81
325.626	82.81
325.855	78.81
326.084	87.81
326.313	96.81
326.542	85.81
326.77	83.81
326.999	82.81
327.228	76.81
327.457	96.81
327.686	85.81
327.914	98.81
328.143	90.81
328.372	98.81
328.6	85.81
328.829	80.81
329.058	92.81
329.287	92.81
329.515	85.81
329.744	82.81
329.972	85.81
330.201	82.81
330.43	82.81
330.658	65.81
330.887	72.81
331.115	82.81
331.344	77.81
331.572	92.81
331.801	81.81
332.03	75.81
332.258	94.81
332.486	96.81
332.715	80.81
332.943	100.81
333.172	98.81
333.4	77.81
333.629	75.81
333.857	80.81
334.085	99.81
334.314	80.81
334.542	88.81
334.771	84.81
334.999	76.81
335.227	80.81
335.455	90.81
335.684	77.81
335.912	84.81
336.14	75.81
336.369	88.81
336.597	76.81
336.825	86.81
337.053	71.81
337.281	84.81
337.51	99.81
337.738	85.81
337.966	92.81
338.194	81.81
338.422	71.81
338.65	85.81
338.878	90.81
339.106	87.81
339.334	82.81
339.562	82.81
339.79	88.81
340.018	70.81
340.246	77.81
340.474	76.81
340.702	95.81
340.93	80.81
341.158	82.81
341.386	74.81
341.614	96.81
341.842	80.81
342.07	83.81
342.298	88.81
342.526	89.81
342.754	81.81
342.981	79.81
343.209	80.81
343.437	116.81
343.665	73.81
343.893	92.81
344.12	82.81
344.348	86.81
344.576	89.81
344.804	93.81
345.031	83.81
345.259	96.81
345.487	88.81
345.714	76.81
345.942	90.81
346.17	80.81
346.397	89.81
346.625	99.81
346.853	90.81
347.08	69.81
347.308	75.81
347.535	94.81
347.763	72.81
347.99	86.81
348.218	94.81
348.445	102.81
348.673	75.81
348.9	90.81
349.128	87.81
349.355	96.81
349.583	76.81
349.81	94.81
350.037	92.81
350.265	84.81
350.492	77.81
350.72	88.81
350.947	85.81
351.174	84.81
351.402	77.81
351.629	90.81
351.856	86.81
352.083	84.81
352.311	91.81
352.538	76.81
352.765	81.81
352.992	86.81
353.22	90.81
353.447	67.81
353.674	84.81
353.901	68.81
354.128	94.81
354.355	89.81
354.583	74.81
354.81	85.81
355.037	95.81
355.264	86.81
355.491	82.81
355.718	87.81
355.945	91.81
356.172	97.81
356.399	99.81
356.626	77.81
356.853	81.81
357.08	83.81
357.307	74.81
357.534	75.81
357.761	83.81
357.988	96.81
358.215	84.81
358.441	96.81
358.668	87.81
358.895	86.81
359.122	80.81
359.349	99.81
359.576	91.81
359.802	84.81
360.029	95.81
360.256	87.81
360.483	71.81
360.709	76.81
360.936	94.81
361.163	77.81
361.39	88.81
361.616	66.81
361.843	82.81
362.07	80.81
362.296	85.81
362.523	81.81
362.749	91.81
362.976	87.81
363.203	66.81
363.429	82.81
363.656	83.81
363.882	76.81
364.109	90.81
364.335	86.81
364.562	90.81
364.788	87.81
365.015	100.81
365.241	72.81
365.468	92.81
365.694	73.81
365.92	80.81
366.147	74.81
366.373	84.81
366.599	88.81
366.826	83.81
367.052	77.81
367.278	79.81
367.505	72.81
367.731	94.81
367.957	73.81
368.184	70.81
368.41	84.81
368.636	89.81
368.862	62.81
369.089	92.81
369.315	80.81
369.541	76.81
369.767	82.81
369.993	88.81
370.219	82.81
370.445	85.81
370.672	101.81
370.898	84.81
371.124	83.81
371.35	89.81
371.576	76.81
371.802	82.81
372.028	90.81
372.254	87.81
372.48	86.81
372.706	71.81
372.932	68.81
373.158	83.81
373.384	84.81
373.61	98.81
373.835	95.81
374.061	76.81
374.287	82.81
374.513	92.81
374.739	66.81
374.965	80.81
375.191	91.81
375.416	86.81
375.642	80.81
375.868	95.81
376.094	86.81
376.319	77.81
376.545	82.81
376.771	91.81
376.997	91.81
377.222	84.81
377.448	80.81
377.674	84.81
377.899	82.81
378.125	82.81
378.35	94.81
378.576	85.81
378.802	93.81
379.027	73.81
379.253	84.81
379.478	84.81
379.704	77.81
379.929	86.81
380.155	81.81
380.38	96.81
380.606	94.81
380.831	87.81
381.057	78.81
381.282	81.81
381.507	85.81
381.733	83.81
381.958	85.81
382.184	82.81
382.409	70.81
382.634	85.81
382.86	81.81
383.085	88.81
383.31	86.81
383.535	90.81
383.761	83.81
383.986	82.81
384.211	77.81
384.436	93.81
384.662	89.81
384.887	70.81
385.112	87.81
385.337	87.81
385.562	93.81
385.787	86.81
386.013	79.81
386.238	71.81
386.463	71.81
386.688	100.81
386.913	94.81
387.138	94.81
387.363	83.81
387.588	101.81
387.813	92.81
388.038	86.81
388.263	89.81
388.488	84.81
388.713	83.81
388.938	82.81
389.163	71.81
389.387	77.81
389.612	82.81
389.837	73.81
390.062	88.81
390.287	92.81
390.512	88.81
390.736	73.81
390.961	80.81
391.186	74.81
391.411	66.81
391.636	82.81
391.86	86.81
392.085	80.81
392.31	88.81
392.534	78.81
392.759	81.81
392.984	79.81
393.208	134.81
393.433	179.81
393.658	139.81
393.882	85.81
394.107	101.81
394.331	79.81
394.556	82.81
394.78	76.81
395.005	88.81
395.229	93.81
395.454	86.81
395.678	83.81
395.903	86.81
396.127	90.81
396.352	91.81
396.576	99.81
396.801	125.81
397.025	138.81
397.249	96.81
397.474	92.81
397.698	85.81
397.922	97.81
398.147	82.81
398.371	86.81
398.595	89.81
398.82	88.81
399.044	79.81
399.268	72.81
399.492	88.81
399.717	72.81
399.941	65.81
400.165	79.81
400.389	96.81
400.613	65.81
400.837	89.81
401.062	69.81
401.286	75.81
401.51	75.81
401.734	70.81
401.958	80.81
402.182	76.81
402.406	85.81
402.63	83.81
402.854	84.81
403.078	66.81
403.302	105.81
403.526	80.81
403.75	84.81
403.974	83.81
404.198	83.81
404.422	99.81
404.645	93.81
404.869	74.81
405.093	80.81
405.317	72.81
405.541	75.81
405.765	74.81
405.988	88.81
406.212	80.81
406.436	80.81
406.66	90.81
406.883	76.81
407.107	79.81
407.331	70.81
407.555	76.81
407.778	82.81
408.002	112.81
408.226	85.81
408.449	82.81
408.673	88.81
408.896	78.81
409.12	79.81
409.344	83.81
409.567	94.81
409.791	75.81
410.014	72.81
410.238	78.81
410.461	84.81
410.685	74.81
410.908	80.81
411.132	75.81
411.355	94.81
411.578	88.81
411.802	101.81
412.025	74.81
412.249	74.81
412.472	76.81
412.695	90.81
412.919	81.81
413.142	65.81
413.365	66.81
413.589	85.81
413.812	81.81
414.035	91.81
414.258	92.81
414.482	84.81
414.705	93.81
414.928	82.81
415.151	69.81
415.374	82.81
415.597	72.81
415.821	86.81
416.044	77.81
416.267	81.81
416.49	80.81
416.713	80.81
416.936	79.81
417.159	79.81
417.382	77.81
417.605	84.81
417.828	99.81
418.051	83.81
418.274	69.81
418.497	73.81
418.72	67.81
418.943	71.81
419.166	72.81
419.389	67.81
419.611	80.81
419.834	88.81
420.057	76.81
420.28	83.81
420.503	88.81
420.726	86.81
420.948	83.81
421.171	69.81
421.394	83.81
421.617	95.81
421.839	82.81
422.062	84.81
422.285	87.81
422.507	114.81
422.73	136.81
422.953	137.81
423.175	94.81
423.398	99.81
423.621	83.81
423.843	89.81
424.066	72.81
424.288	75.81
424.511	80.81
424.733	88.81
424.956	68.81
425.178	83.81
425.401	75.81
425.623	75.81
425.846	91.81
426.068	96.81
426.291	83.81
426.513	89.81
426.735	87.81
426.958	75.81
427.18	87.81
427.402	86.81
427.625	59.81
427.847	77.81
428.069	88.81
428.292	77.81
428.514	96.81
428.736	82.81
428.958	81.81
429.181	94.81
429.403	80.81
429.625	83.81
429.847	90.81
430.069	94.81
430.292	104.81
430.514	99.81
430.736	101.81
430.958	106.81
431.18	83.81
431.402	83.81
431.624	72.81
431.846	84.81
432.068	78.81
432.29	88.81
432.512	98.81
432.734	82.81
432.956	72.81
433.178	80.81
433.4	95.81
433.622	86.81
433.844	81.81
434.066	93.81
434.287	76.81
434.509	77.81
434.731	88.81
434.953	93.81
435.175	85.81
435.397	85.81
435.618	90.81
435.84	88.81
436.062	83.81
436.284	85.81
436.505	99.81
436.727	86.81
436.949	82.81
437.17	80.81
437.392	87.81
437.614	101.81
437.835	87.81
438.057	76.81
438.278	71.81
438.5	74.81
438.721	75.81
438.943	87.81
439.165	74.81
439.386	74.81
439.608	82.81
439.829	58.81
440.05	67.81
440.272	90.81
440.493	90.81
440.715	74.81
440.936	80.81
441.158	88.81
441.379	71.81
441.6	93.81
441.822	91.81
442.043	95.81
442.264	75.81
442.486	86.81
442.707	91.81
442.928	74.81
443.149	84.81
443.371	90.81
443.592	103.81
443.813	100.81
444.034	80.81
444.255	94.81
444.476	77.81
444.698	78.81
444.919	83.81
445.14	154.81
445.361	110.81
445.582	97.81
445.803	107.81
446.024	96.81
446.245	86.81
446.466	78.81
446.687	71.81
446.908	84.81
447.129	74.81
447.35	90.81
447.571	70.81
447.792	74.81
448.013	82.81
448.234	82.81
448.455	85.81
448.675	83.81
448.896	68.81
449.117	95.81
449.338	75.81
449.559	87.81
449.779	72.81
450	90.81
450.221	84.81
450.442	62.81
450.662	72.81
450.883	81.81
451.104	86.81
451.324	71.81
451.545	74.81
451.766	82.81
451.986	86.81
452.207	85.81
452.428	82.81
452.648	72.81
452.869	74.81
453.089	89.81
453.31	88.81
453.53	82.81
453.751	80.81
453.971	86.81
454.192	77.81
454.412	75.81
454.633	84.81
454.853	83.81
455.073	85.81
455.294	91.81
455.514	76.81
455.734	94.81
455.955	74.81
456.175	74.81
456.395	81.81
456.616	77.81
456.836	81.81
457.056	81.81
457.276	89.81
457.497	81.81
457.717	82.81
457.937	89.81
458.157	76.81
458.377	63.81
458.598	69.81
458.818	94.81
459.038	84.81
459.258	82.81
459.478	79.81
459.698	87.81
459.918	85.81
460.138	95.81
460.358	81.81
460.578	79.81
460.798	80.81
461.018	84.81
461.238	74.81
461.458	94.81
461.678	85.81
461.898	91.81
462.118	85.81
462.338	91.81
462.558	93.81
462.777	92.81
462.997	80.81
463.217	85.81
463.437	94.81
463.657	64.81
463.876	71.81
464.096	79.81
464.316	77.81
464.536	77.81
464.755	73.81
464.975	73.81
465.195	79.81
465.414	73.81
465.634	79.81
465.854	72.81
466.073	82.81
466.293	74.81
466.512	72.81
466.732	71.81
466.951	79.81
467.171	75.81
467.391	79.81
467.61	95.81
467.829	95.81
468.049	90.81
468.268	92.81
468.488	84.81
468.707	81.81
468.927	74.81
469.146	74.81
469.365	85.81
469.585	89.81
469.804	72.81
470.023	90.81
470.243	82.81
470.462	91.81
470.681	75.81
470.901	76.81
471.12	73.81
471.339	74.81
471.558	76.81
471.777	82.81
471.997	85.81
472.216	92.81
472.435	67.81
472.654	77.81
472.873	88.81
473.092	81.81
473.311	67.81
473.53	91.81
473.749	77.81
473.968	82.81
474.187	84.81
474.406	84.81
474.625	79.81
474.844	90.81
475.063	76.81
475.282	88.81
475.501	96.81
475.72	86.81
475.939	87.81
476.158	74.81
476.377	87.81
476.596	82.81
476.814	85.81
477.033	75.81
477.252	101.81
477.471	89.81
477.69	82.81
477.908	91.81
478.127	68.81
478.346	80.81
478.564	70.81
478.783	87.81
479.002	74.81
479.22	87.81
479.439	78.81
479.658	79.81
479.876	77.81
480.095	82.81
480.313	86.81
480.532	79.81
480.751	65.81
480.969	81.81
481.188	83.81
481.406	82.81
481.624	84.81
481.843	99.81
482.061	83.81
482.28	83.81
482.498	78.81
482.717	81.81
482.935	70.81
483.153	86.81
483.372	94.81
483.59	72.81
483.808	80.81
484.027	84.81
484.245	70.81
484.463	79.81
484.681	90.81
484.9	98.81
485.118	84.81
485.336	90.81
485.554	84.81
485.772	80.81
485.99	89.81
486.209	75.81
486.427	86.81
486.645	84.81
486.863	71.81
487.081	84.81
487.299	92.81
487.517	98.81
487.735	88.81
487.953	95.81
488.171	89.81
488.389	97.81
488.607	95.81
488.825	75.81
489.043	77.81
489.261	80.81
489.479	91.81
489.696	88.81
489.914	77.81
490.132	86.81
490.35	85.81
490.568	80.81
490.786	74.81
491.003	77.81
491.221	84.81
491.439	80.81
491.657	83.81
491.874	80.81
492.092	86.81
492.31	84.81
492.527	88.81
492.745	79.81
492.963	74.81
493.18	75.81
493.398	86.81
493.615	90.81
493.833	68.81
494.05	77.81
494.268	80.81
494.485	88.81
494.703	88.81
494.92	101.81
495.138	80.81
495.355	81.81
495.573	98.81
495.79	86.81
496.008	79.81
496.225	82.81
496.442	88.81
496.66	97.81
496.877	96.81
497.094	88.81
497.312	88.81
497.529	74.81
497.746	72.81
497.963	88.81
498.181	83.81
498.398	71.81
498.615	88.81
498.832	74.81
499.049	81.81
499.267	78.81
499.484	82.81
499.701	72.81
499.918	82.81
500.135	89.81
500.352	78.81
500.569	70.81
500.786	96.81
501.003	92.81
501.22	77.81
501.437	91.81
501.654	95.81
501.871	83.81
502.088	91.81
502.305	82.81
502.522	93.81
502.739	86.81
502.956	80.81
503.172	88.81
503.389	81.81
503.606	88.81
503.823	84.81
504.04	81.81
504.256	105.81
504.473	87.81
504.69	87.81
504.907	92.81
505.123	95.81
505.34	83.81
505.557	87.81
505.773	84.81
505.99	77.81
506.207	87.81
506.423	87.81
506.64	95.81
506.856	95.81
507.073	95.81
507.289	94.81
507.506	90.81
507.722	70.81
507.939	86.81
508.155	81.81
508.372	88.81
508.588	88.81
508.805	72.81
509.021	89.81
509.238	90.81
509.454	71.81
509.67	85.81
509.887	82.81
510.103	91.81
510.319	85.81
510.536	76.81
510.752	84.81
510.968	82.81
511.184	77.81
511.401	90.81
511.617	95.81
511.833	85.81
512.049	100.81
512.265	83.81
512.481	89.81
512.698	95.81
512.914	83.81
513.13	72.81
513.346	72.81
513.562	85.81
513.778	83.81
513.994	84.81
514.21	76.81
514.426	93.81
514.642	104.81
514.858	95.81
515.074	92.81
515.29	83.81
515.506	87.81
515.721	72.81
515.937	91.81
516.153	84.81
516.369	89.81
516.585	70.81
516.801	85.81
517.016	91.81
517.232	97.81
517.448	85.81
517.664	90.81
517.879	84.81
518.095	98.81
518.311	86.81
518.527	84.81
518.742	79.81
518.958	71.81
519.173	90.81
519.389	84.81
519.605	91.81
519.82	84.81
