Data from 17600_1_HRD10591_00021.txt Node
Date: Mon Jan 19 14:07:34 EST 2026
User: Yrep
Spectrometer: HR+D1059
Trigger mode: 1
Integration Time (sec): 1.000000E-1
Scans to average: 1
Electric dark correction enabled: true
Nonlinearity correction enabled: false
Boxcar width: 0
XAxis mode: Wavelengths
Number of Pixels in Spectrum: 2048
>>>>>Begin Spectral Data<<<<<
223.165	-22.38
223.4	-22.38
223.635	-22.38
223.869	-20.38
224.104	-19.38
224.338	-23.38
224.573	-11.38
224.808	1.62
225.042	-6.38
225.277	-3.38
225.511	-0.38
225.746	4.62
225.98	14.62
226.215	8.62
226.449	12.62
226.683	19.62
226.918	20.62
227.152	24.62
227.387	18.62
227.621	35.62
227.856	47.62
228.09	39.62
228.324	52.62
228.559	65.62
228.793	59.62
229.027	73.62
229.262	75.62
229.496	72.62
229.73	76.62
229.964	78.62
230.199	72.62
230.433	76.62
230.667	57.62
230.901	55.62
231.136	84.62
231.37	66.62
231.604	80.62
231.838	80.62
232.072	85.62
232.306	68.62
232.541	87.62
232.775	87.62
233.009	89.62
233.243	94.62
233.477	76.62
233.711	78.62
233.945	98.62
234.179	83.62
234.413	90.62
234.647	82.62
234.881	99.62
235.115	100.62
235.349	74.62
235.583	70.62
235.817	86.62
236.051	87.62
236.285	79.62
236.519	80.62
236.753	76.62
236.987	76.62
237.221	79.62
237.455	85.62
237.689	60.62
237.922	65.62
238.156	70.62
238.39	74.62
238.624	71.62
238.858	74.62
239.091	66.62
239.325	67.62
239.559	82.62
239.793	89.62
240.027	85.62
240.26	77.62
240.494	62.62
240.728	71.62
240.961	84.62
241.195	61.62
241.429	88.62
241.662	77.62
241.896	81.62
242.13	81.62
242.363	73.62
242.597	79.62
242.83	80.62
243.064	86.62
243.298	62.62
243.531	78.62
243.765	85.62
243.998	74.62
244.232	76.62
244.465	89.62
244.699	59.62
244.932	82.62
245.166	83.62
245.399	82.62
245.633	74.62
245.866	74.62
246.099	75.62
246.333	87.62
246.566	69.62
246.8	83.62
247.033	74.62
247.266	74.62
247.5	87.62
247.733	78.62
247.966	75.62
248.2	75.62
248.433	77.62
248.666	86.62
248.899	72.62
249.133	69.62
249.366	73.62
249.599	92.62
249.832	90.62
250.066	93.62
250.299	82.62
250.532	78.62
250.765	93.62
250.998	88.62
251.231	80.62
251.465	85.62
251.698	74.62
251.931	79.62
252.164	74.62
252.397	86.62
252.63	84.62
252.863	73.62
253.096	70.62
253.329	103.62
253.562	85.62
253.795	74.62
254.028	85.62
254.261	75.62
254.494	71.62
254.727	79.62
254.96	78.62
255.193	80.62
255.426	72.62
255.659	75.62
255.892	80.62
256.124	86.62
256.357	91.62
256.59	73.62
256.823	96.62
257.056	73.62
257.289	89.62
257.521	78.62
257.754	86.62
257.987	77.62
258.22	84.62
258.452	72.62
258.685	71.62
258.918	74.62
259.151	57.62
259.383	70.62
259.616	81.62
259.849	74.62
260.081	68.62
260.314	76.62
260.547	89.62
260.779	78.62
261.012	72.62
261.244	68.62
261.477	81.62
261.71	78.62
261.942	83.62
262.175	86.62
262.407	86.62
262.64	71.62
262.872	90.62
263.105	88.62
263.337	77.62
263.57	94.62
263.802	87.62
264.035	82.62
264.267	93.62
264.499	85.62
264.732	82.62
264.964	71.62
265.197	90.62
265.429	79.62
265.661	74.62
265.894	84.62
266.126	80.62
266.358	90.62
266.591	93.62
266.823	90.62
267.055	94.62
267.287	87.62
267.52	78.62
267.752	81.62
267.984	103.62
268.216	82.62
268.448	81.62
268.681	70.62
268.913	76.62
269.145	86.62
269.377	90.62
269.609	89.62
269.841	90.62
270.073	75.62
270.306	79.62
270.538	94.62
270.77	85.62
271.002	85.62
271.234	88.62
271.466	77.62
271.698	82.62
271.93	82.62
272.162	84.62
272.394	89.62
272.626	84.62
272.858	75.62
273.09	76.62
273.322	72.62
273.553	69.62
273.785	90.62
274.017	82.62
274.249	76.62
274.481	88.62
274.713	73.62
274.945	84.62
275.176	86.62
275.408	91.62
275.64	81.62
275.872	83.62
276.104	88.62
276.335	74.62
276.567	76.62
276.799	84.62
277.031	93.62
277.262	85.62
277.494	94.62
277.726	87.62
277.957	87.62
278.189	90.62
278.421	83.62
278.652	89.62
278.884	87.62
279.115	82.62
279.347	80.62
279.579	80.62
279.81	72.62
280.042	73.62
280.273	74.62
280.505	85.62
280.736	90.62
280.968	78.62
281.199	80.62
281.431	68.62
281.662	90.62
281.894	84.62
282.125	82.62
282.356	84.62
282.588	75.62
282.819	82.62
283.051	90.62
283.282	86.62
283.513	73.62
283.745	98.62
283.976	91.62
284.207	91.62
284.439	81.62
284.67	89.62
284.901	86.62
285.132	78.62
285.364	75.62
285.595	83.62
285.826	76.62
286.057	88.62
286.288	74.62
286.52	91.62
286.751	67.62
286.982	76.62
287.213	72.62
287.444	82.62
287.675	88.62
287.906	74.62
288.138	74.62
288.369	79.62
288.6	82.62
288.831	100.62
289.062	89.62
289.293	88.62
289.524	76.62
289.755	72.62
289.986	91.62
290.217	86.62
290.448	68.62
290.679	89.62
290.91	87.62
291.141	57.62
291.371	83.62
291.602	82.62
291.833	82.62
292.064	84.62
292.295	78.62
292.526	82.62
292.757	86.62
292.987	86.62
293.218	83.62
293.449	90.62
293.68	91.62
293.91	85.62
294.141	80.62
294.372	84.62
294.603	79.62
294.833	76.62
295.064	89.62
295.295	82.62
295.525	86.62
295.756	88.62
295.987	82.62
296.217	94.62
296.448	77.62
296.679	98.62
296.909	91.62
297.14	92.62
297.37	90.62
297.601	83.62
297.831	90.62
298.062	93.62
298.292	94.62
298.523	77.62
298.753	79.62
298.984	78.62
299.214	84.62
299.445	86.62
299.675	93.62
299.905	82.62
300.136	80.62
300.366	91.62
300.597	80.62
300.827	81.62
301.057	87.62
301.288	91.62
301.518	73.62
301.748	91.62
301.979	111.62
302.209	94.62
302.439	92.62
302.669	82.62
302.9	94.62
303.13	83.62
303.36	82.62
303.59	81.62
303.82	81.62
304.051	81.62
304.281	75.62
304.511	94.62
304.741	88.62
304.971	92.62
305.201	70.62
305.431	87.62
305.661	85.62
305.891	88.62
306.121	92.62
306.352	83.62
306.582	76.62
306.812	82.62
307.042	89.62
307.272	86.62
307.502	90.62
307.731	71.62
307.961	91.62
308.191	80.62
308.421	70.62
308.651	86.62
308.881	97.62
309.111	83.62
309.341	82.62
309.571	82.62
309.8	76.62
310.03	86.62
310.26	85.62
310.49	80.62
310.72	90.62
310.949	83.62
311.179	72.62
311.409	82.62
311.639	70.62
311.868	82.62
312.098	86.62
312.328	81.62
312.557	79.62
312.787	67.62
313.017	97.62
313.246	86.62
313.476	89.62
313.706	89.62
313.935	86.62
314.165	84.62
314.394	95.62
314.624	86.62
314.853	92.62
315.083	87.62
315.312	73.62
315.542	64.62
315.771	91.62
316.001	104.62
316.23	87.62
316.46	76.62
316.689	78.62
316.919	79.62
317.148	87.62
317.377	90.62
317.607	93.62
317.836	88.62
318.065	99.62
318.295	88.62
318.524	84.62
318.753	85.62
318.983	89.62
319.212	90.62
319.441	98.62
319.67	94.62
319.9	83.62
320.129	92.62
320.358	84.62
320.587	83.62
320.816	83.62
321.046	91.62
321.275	95.62
321.504	68.62
321.733	94.62
321.962	84.62
322.191	77.62
322.42	87.62
322.649	92.62
322.878	77.62
323.108	90.62
323.337	83.62
323.566	92.62
323.795	82.62
324.024	76.62
324.253	77.62
324.482	86.62
324.71	74.62
324.939	84.62
325.168	89.62
325.397	72.62
325.626	80.62
325.855	87.62
326.084	62.62
326.313	86.62
326.542	83.62
326.77	82.62
326.999	84.62
327.228	84.62
327.457	71.62
327.686	70.62
327.914	83.62
328.143	92.62
328.372	80.62
328.6	88.62
328.829	82.62
329.058	84.62
329.287	78.62
329.515	86.62
329.744	89.62
329.972	80.62
330.201	82.62
330.43	83.62
330.658	89.62
330.887	87.62
331.115	78.62
331.344	89.62
331.572	80.62
331.801	93.62
332.03	77.62
332.258	75.62
332.486	92.62
332.715	88.62
332.943	83.62
333.172	82.62
333.4	85.62
333.629	82.62
333.857	77.62
334.085	78.62
334.314	87.62
334.542	91.62
334.771	77.62
334.999	98.62
335.227	89.62
335.455	92.62
335.684	80.62
335.912	92.62
336.14	89.62
336.369	83.62
336.597	77.62
336.825	66.62
337.053	80.62
337.281	98.62
337.51	79.62
337.738	77.62
337.966	78.62
338.194	77.62
338.422	78.62
338.65	82.62
338.878	76.62
339.106	78.62
339.334	78.62
339.562	85.62
339.79	91.62
340.018	85.62
340.246	74.62
340.474	75.62
340.702	80.62
340.93	80.62
341.158	85.62
341.386	86.62
341.614	80.62
341.842	75.62
342.07	82.62
342.298	77.62
342.526	95.62
342.754	88.62
342.981	93.62
343.209	82.62
343.437	97.62
343.665	76.62
343.893	67.62
344.12	92.62
344.348	97.62
344.576	94.62
344.804	87.62
345.031	86.62
345.259	94.62
345.487	80.62
345.714	83.62
345.942	89.62
346.17	91.62
346.397	84.62
346.625	67.62
346.853	74.62
347.08	81.62
347.308	90.62
347.535	83.62
347.763	81.62
347.99	86.62
348.218	93.62
348.445	80.62
348.673	82.62
348.9	96.62
349.128	87.62
349.355	72.62
349.583	81.62
349.81	73.62
350.037	67.62
350.265	88.62
350.492	74.62
350.72	86.62
350.947	90.62
351.174	85.62
351.402	91.62
351.629	84.62
351.856	66.62
352.083	82.62
352.311	80.62
352.538	82.62
352.765	86.62
352.992	82.62
353.22	81.62
353.447	85.62
353.674	101.62
353.901	101.62
354.128	82.62
354.355	90.62
354.583	73.62
354.81	70.62
355.037	75.62
355.264	89.62
355.491	94.62
355.718	74.62
355.945	84.62
356.172	78.62
356.399	77.62
356.626	83.62
356.853	81.62
357.08	86.62
357.307	75.62
357.534	88.62
357.761	86.62
357.988	92.62
358.215	89.62
358.441	95.62
358.668	82.62
358.895	74.62
359.122	85.62
359.349	85.62
359.576	72.62
359.802	69.62
360.029	81.62
360.256	90.62
360.483	82.62
360.709	80.62
360.936	83.62
361.163	69.62
361.39	76.62
361.616	106.62
361.843	80.62
362.07	90.62
362.296	79.62
362.523	90.62
362.749	91.62
362.976	90.62
363.203	85.62
363.429	76.62
363.656	96.62
363.882	90.62
364.109	74.62
364.335	89.62
364.562	91.62
364.788	76.62
365.015	105.62
365.241	90.62
365.468	87.62
365.694	85.62
365.92	84.62
366.147	67.62
366.373	74.62
366.599	84.62
366.826	87.62
367.052	71.62
367.278	69.62
367.505	76.62
367.731	83.62
367.957	87.62
368.184	91.62
368.41	81.62
368.636	88.62
368.862	91.62
369.089	74.62
369.315	80.62
369.541	93.62
369.767	85.62
369.993	85.62
370.219	81.62
370.445	75.62
370.672	65.62
370.898	85.62
371.124	86.62
371.35	79.62
371.576	90.62
371.802	77.62
372.028	86.62
372.254	82.62
372.48	94.62
372.706	95.62
372.932	89.62
373.158	94.62
373.384	87.62
373.61	90.62
373.835	83.62
374.061	94.62
374.287	81.62
374.513	84.62
374.739	74.62
374.965	90.62
375.191	81.62
375.416	92.62
375.642	81.62
375.868	84.62
376.094	76.62
376.319	97.62
376.545	70.62
376.771	90.62
376.997	91.62
377.222	82.62
377.448	79.62
377.674	79.62
377.899	80.62
378.125	81.62
378.35	79.62
378.576	74.62
378.802	89.62
379.027	84.62
379.253	94.62
379.478	99.62
379.704	81.62
379.929	87.62
380.155	83.62
380.38	66.62
380.606	73.62
380.831	76.62
381.057	107.62
381.282	96.62
381.507	76.62
381.733	86.62
381.958	94.62
382.184	72.62
382.409	79.62
382.634	91.62
382.86	92.62
383.085	80.62
383.31	77.62
383.535	84.62
383.761	101.62
383.986	85.62
384.211	78.62
384.436	75.62
384.662	74.62
384.887	80.62
385.112	82.62
385.337	68.62
385.562	78.62
385.787	90.62
386.013	81.62
386.238	92.62
386.463	85.62
386.688	90.62
386.913	91.62
387.138	93.62
387.363	84.62
387.588	97.62
387.813	87.62
388.038	98.62
388.263	84.62
388.488	86.62
388.713	76.62
388.938	75.62
389.163	84.62
389.387	87.62
389.612	80.62
389.837	80.62
390.062	80.62
390.287	76.62
390.512	82.62
390.736	91.62
390.961	75.62
391.186	85.62
391.411	69.62
391.636	96.62
391.86	87.62
392.085	81.62
392.31	68.62
392.534	96.62
392.759	107.62
392.984	114.62
393.208	170.62
393.433	252.62
393.658	187.62
393.882	97.62
394.107	87.62
394.331	86.62
394.556	75.62
394.78	88.62
395.005	96.62
395.229	100.62
395.454	81.62
395.678	77.62
395.903	85.62
396.127	95.62
396.352	99.62
396.576	115.62
396.801	164.62
397.025	195.62
397.249	128.62
397.474	91.62
397.698	84.62
397.922	79.62
398.147	82.62
398.371	76.62
398.595	79.62
398.82	87.62
399.044	80.62
399.268	98.62
399.492	83.62
399.717	71.62
399.941	90.62
400.165	66.62
400.389	74.62
400.613	80.62
400.837	80.62
401.062	92.62
401.286	89.62
401.51	65.62
401.734	89.62
401.958	82.62
402.182	82.62
402.406	77.62
402.63	89.62
402.854	79.62
403.078	84.62
403.302	78.62
403.526	87.62
403.75	86.62
403.974	70.62
404.198	83.62
404.422	88.62
404.645	75.62
404.869	82.62
405.093	80.62
405.317	81.62
405.541	80.62
405.765	83.62
405.988	90.62
406.212	87.62
406.436	82.62
406.66	86.62
406.883	83.62
407.107	88.62
407.331	89.62
407.555	96.62
407.778	103.62
408.002	115.62
408.226	80.62
408.449	78.62
408.673	70.62
408.896	72.62
409.12	70.62
409.344	93.62
409.567	84.62
409.791	83.62
410.014	91.62
410.238	95.62
410.461	76.62
410.685	78.62
410.908	87.62
411.132	75.62
411.355	88.62
411.578	82.62
411.802	66.62
412.025	98.62
412.249	107.62
412.472	86.62
412.695	89.62
412.919	85.62
413.142	80.62
413.365	85.62
413.589	88.62
413.812	77.62
414.035	88.62
414.258	86.62
414.482	71.62
414.705	90.62
414.928	92.62
415.151	78.62
415.374	80.62
415.597	71.62
415.821	83.62
416.044	98.62
416.267	71.62
416.49	86.62
416.713	101.62
416.936	83.62
417.159	81.62
417.382	83.62
417.605	77.62
417.828	74.62
418.051	68.62
418.274	92.62
418.497	84.62
418.72	83.62
418.943	91.62
419.166	77.62
419.389	90.62
419.611	93.62
419.834	97.62
420.057	91.62
420.28	79.62
420.503	86.62
420.726	88.62
420.948	85.62
421.171	89.62
421.394	94.62
421.617	90.62
421.839	92.62
422.062	93.62
422.285	118.62
422.507	128.62
422.73	184.62
422.953	151.62
423.175	88.62
423.398	84.62
423.621	80.62
423.843	74.62
424.066	96.62
424.288	76.62
424.511	88.62
424.733	83.62
424.956	71.62
425.178	75.62
425.401	88.62
425.623	77.62
425.846	90.62
426.068	82.62
426.291	82.62
426.513	79.62
426.735	65.62
426.958	69.62
427.18	71.62
427.402	81.62
427.625	94.62
427.847	74.62
428.069	69.62
428.292	87.62
428.514	92.62
428.736	103.62
428.958	97.62
429.181	102.62
429.403	74.62
429.625	82.62
429.847	93.62
430.069	97.62
430.292	107.62
430.514	109.62
430.736	86.62
430.958	102.62
431.18	94.62
431.402	69.62
431.624	95.62
431.846	80.62
432.068	102.62
432.29	87.62
432.512	82.62
432.734	89.62
432.956	97.62
433.178	86.62
433.4	80.62
433.622	80.62
433.844	81.62
434.066	76.62
434.287	80.62
434.509	80.62
434.731	87.62
434.953	87.62
435.175	88.62
435.397	82.62
435.618	82.62
435.84	81.62
436.062	80.62
436.284	67.62
436.505	90.62
436.727	81.62
436.949	74.62
437.17	85.62
437.392	55.62
437.614	88.62
437.835	69.62
438.057	64.62
438.278	85.62
438.5	76.62
438.721	76.62
438.943	85.62
439.165	76.62
439.386	78.62
439.608	94.62
439.829	76.62
440.05	87.62
440.272	76.62
440.493	78.62
440.715	72.62
440.936	80.62
441.158	81.62
441.379	82.62
441.6	82.62
441.822	82.62
442.043	93.62
442.264	80.62
442.486	84.62
442.707	103.62
442.928	76.62
443.149	68.62
443.371	110.62
443.592	115.62
443.813	101.62
444.034	98.62
444.255	83.62
444.476	83.62
444.698	79.62
444.919	94.62
445.14	146.62
445.361	124.62
445.582	135.62
445.803	125.62
446.024	81.62
446.245	83.62
446.466	92.62
446.687	74.62
446.908	90.62
447.129	76.62
447.35	89.62
447.571	65.62
447.792	77.62
448.013	82.62
448.234	77.62
448.455	78.62
448.675	82.62
448.896	76.62
449.117	98.62
449.338	78.62
449.559	74.62
449.779	87.62
450	80.62
450.221	63.62
450.442	104.62
450.662	75.62
450.883	63.62
451.104	83.62
451.324	81.62
451.545	86.62
451.766	78.62
451.986	82.62
452.207	77.62
452.428	87.62
452.648	77.62
452.869	80.62
453.089	76.62
453.31	67.62
453.53	61.62
453.751	88.62
453.971	82.62
454.192	89.62
454.412	67.62
454.633	91.62
454.853	83.62
455.073	80.62
455.294	79.62
455.514	83.62
455.734	86.62
455.955	80.62
456.175	83.62
456.395	91.62
456.616	76.62
456.836	88.62
457.056	89.62
457.276	72.62
457.497	95.62
457.717	80.62
457.937	89.62
458.157	75.62
458.377	90.62
458.598	77.62
458.818	77.62
459.038	79.62
459.258	80.62
459.478	86.62
459.698	76.62
459.918	72.62
460.138	76.62
460.358	91.62
460.578	96.62
460.798	111.62
461.018	89.62
461.238	75.62
461.458	93.62
461.678	78.62
461.898	80.62
462.118	90.62
462.338	85.62
462.558	83.62
462.777	85.62
462.997	76.62
463.217	80.62
463.437	78.62
463.657	89.62
463.876	82.62
464.096	87.62
464.316	84.62
464.536	78.62
464.755	85.62
464.975	75.62
465.195	84.62
465.414	82.62
465.634	86.62
465.854	91.62
466.073	74.62
466.293	100.62
466.512	84.62
466.732	92.62
466.951	87.62
467.171	85.62
467.391	82.62
467.61	67.62
467.829	87.62
468.049	84.62
468.268	70.62
468.488	80.62
468.707	96.62
468.927	74.62
469.146	71.62
469.365	86.62
469.585	83.62
469.804	86.62
470.023	73.62
470.243	74.62
470.462	87.62
470.681	84.62
470.901	72.62
471.12	74.62
471.339	82.62
471.558	92.62
471.777	82.62
471.997	81.62
472.216	94.62
472.435	96.62
472.654	95.62
472.873	80.62
473.092	82.62
473.311	88.62
473.53	87.62
473.749	83.62
473.968	92.62
474.187	75.62
474.406	79.62
474.625	94.62
474.844	90.62
475.063	80.62
475.282	85.62
475.501	72.62
475.72	76.62
475.939	89.62
476.158	84.62
476.377	82.62
476.596	89.62
476.814	87.62
477.033	88.62
477.252	76.62
477.471	80.62
477.69	81.62
477.908	81.62
478.127	89.62
478.346	85.62
478.564	76.62
478.783	82.62
479.002	74.62
479.22	85.62
479.439	92.62
479.658	103.62
479.876	83.62
480.095	91.62
480.313	79.62
480.532	88.62
480.751	77.62
480.969	79.62
481.188	83.62
481.406	76.62
481.624	72.62
481.843	85.62
482.061	80.62
482.28	79.62
482.498	84.62
482.717	78.62
482.935	98.62
483.153	82.62
483.372	73.62
483.59	88.62
483.808	75.62
484.027	88.62
484.245	83.62
484.463	81.62
484.681	76.62
484.9	75.62
485.118	94.62
485.336	82.62
485.554	74.62
485.772	93.62
485.99	79.62
486.209	88.62
486.427	79.62
486.645	87.62
486.863	80.62
487.081	82.62
487.299	75.62
487.517	89.62
487.735	86.62
487.953	78.62
488.171	94.62
488.389	69.62
488.607	76.62
488.825	98.62
489.043	84.62
489.261	86.62
489.479	95.62
489.696	84.62
489.914	78.62
490.132	70.62
490.35	84.62
490.568	85.62
490.786	86.62
491.003	84.62
491.221	82.62
491.439	78.62
491.657	75.62
491.874	89.62
492.092	84.62
492.31	89.62
492.527	73.62
492.745	87.62
492.963	85.62
493.18	75.62
493.398	93.62
493.615	72.62
493.833	86.62
494.05	85.62
494.268	93.62
494.485	82.62
494.703	95.62
494.92	72.62
495.138	69.62
495.355	88.62
495.573	94.62
495.79	70.62
496.008	75.62
496.225	86.62
496.442	94.62
496.66	87.62
496.877	86.62
497.094	95.62
497.312	79.62
497.529	63.62
497.746	68.62
497.963	83.62
498.181	76.62
498.398	88.62
498.615	85.62
498.832	82.62
499.049	79.62
499.267	84.62
499.484	84.62
499.701	91.62
499.918	88.62
500.135	83.62
500.352	80.62
500.569	80.62
500.786	76.62
501.003	84.62
501.22	84.62
501.437	83.62
501.654	79.62
501.871	83.62
502.088	88.62
502.305	88.62
502.522	74.62
502.739	93.62
502.956	73.62
503.172	77.62
503.389	77.62
503.606	79.62
503.823	81.62
504.04	83.62
504.256	101.62
504.473	102.62
504.69	81.62
504.907	94.62
505.123	74.62
505.34	90.62
505.557	66.62
505.773	80.62
505.99	82.62
506.207	82.62
506.423	98.62
506.64	85.62
506.856	63.62
507.073	81.62
507.289	94.62
507.506	78.62
507.722	87.62
507.939	85.62
508.155	79.62
508.372	79.62
508.588	83.62
508.805	80.62
509.021	99.62
509.238	93.62
509.454	78.62
509.67	81.62
509.887	68.62
510.103	81.62
510.319	85.62
510.536	88.62
510.752	81.62
510.968	76.62
511.184	73.62
511.401	86.62
511.617	105.62
511.833	84.62
512.049	72.62
512.265	82.62
512.481	94.62
512.698	82.62
512.914	72.62
513.13	95.62
513.346	70.62
513.562	86.62
513.778	82.62
513.994	89.62
514.21	91.62
514.426	75.62
514.642	96.62
514.858	88.62
515.074	80.62
515.29	82.62
515.506	86.62
515.721	89.62
515.937	88.62
516.153	102.62
516.369	95.62
516.585	84.62
516.801	94.62
517.016	79.62
517.232	92.62
517.448	84.62
517.664	71.62
517.879	74.62
518.095	90.62
518.311	91.62
518.527	97.62
518.742	82.62
518.958	91.62
519.173	86.62
519.389	79.62
519.605	79.62
