Data from 17600_1_HRD10591_00046.txt Node
Date: Mon Jan 19 14:07:47 EST 2026
User: Yrep
Spectrometer: HR+D1059
Trigger mode: 1
Integration Time (sec): 1.000000E-1
Scans to average: 1
Electric dark correction enabled: true
Nonlinearity correction enabled: false
Boxcar width: 0
XAxis mode: Wavelengths
Number of Pixels in Spectrum: 2048
>>>>>Begin Spectral Data<<<<<
223.165	-19.31
223.4	-19.31
223.635	-19.31
223.869	-15.31
224.104	-17.31
224.338	-9.31
224.573	-17.31
224.808	-17.31
225.042	-19.31
225.277	-9.31
225.511	0.69
225.746	0.69
225.98	15.69
226.215	9.69
226.449	30.69
226.683	16.69
226.918	22.69
227.152	27.69
227.387	30.69
227.621	51.69
227.856	50.69
228.09	51.69
228.324	44.69
228.559	46.69
228.793	72.69
229.027	73.69
229.262	57.69
229.496	70.69
229.73	62.69
229.964	70.69
230.199	69.69
230.433	86.69
230.667	75.69
230.901	83.69
231.136	82.69
231.37	103.69
231.604	88.69
231.838	92.69
232.072	86.69
232.306	73.69
232.541	83.69
232.775	86.69
233.009	82.69
233.243	98.69
233.477	74.69
233.711	87.69
233.945	80.69
234.179	79.69
234.413	89.69
234.647	91.69
234.881	87.69
235.115	74.69
235.349	80.69
235.583	86.69
235.817	76.69
236.051	75.69
236.285	75.69
236.519	83.69
236.753	82.69
236.987	72.69
237.221	74.69
237.455	63.69
237.689	70.69
237.922	75.69
238.156	70.69
238.39	71.69
238.624	71.69
238.858	72.69
239.091	84.69
239.325	70.69
239.559	96.69
239.793	80.69
240.027	63.69
240.26	71.69
240.494	59.69
240.728	76.69
240.961	74.69
241.195	82.69
241.429	87.69
241.662	71.69
241.896	79.69
242.13	62.69
242.363	73.69
242.597	82.69
242.83	76.69
243.064	78.69
243.298	62.69
243.531	69.69
243.765	80.69
243.998	88.69
244.232	87.69
244.465	86.69
244.699	71.69
244.932	75.69
245.166	71.69
245.399	87.69
245.633	72.69
245.866	78.69
246.099	72.69
246.333	70.69
246.566	82.69
246.8	76.69
247.033	82.69
247.266	73.69
247.5	74.69
247.733	86.69
247.966	74.69
248.2	70.69
248.433	79.69
248.666	64.69
248.899	71.69
249.133	84.69
249.366	74.69
249.599	81.69
249.832	70.69
250.066	97.69
250.299	89.69
250.532	79.69
250.765	76.69
250.998	77.69
251.231	80.69
251.465	81.69
251.698	75.69
251.931	95.69
252.164	82.69
252.397	84.69
252.63	75.69
252.863	71.69
253.096	72.69
253.329	93.69
253.562	82.69
253.795	73.69
254.028	79.69
254.261	74.69
254.494	73.69
254.727	88.69
254.96	77.69
255.193	82.69
255.426	85.69
255.659	72.69
255.892	73.69
256.124	80.69
256.357	74.69
256.59	95.69
256.823	86.69
257.056	86.69
257.289	73.69
257.521	68.69
257.754	88.69
257.987	71.69
258.22	87.69
258.452	83.69
258.685	73.69
258.918	72.69
259.151	83.69
259.383	81.69
259.616	86.69
259.849	77.69
260.081	86.69
260.314	84.69
260.547	85.69
260.779	77.69
261.012	76.69
261.244	84.69
261.477	82.69
261.71	79.69
261.942	66.69
262.175	104.69
262.407	67.69
262.64	82.69
262.872	89.69
263.105	84.69
263.337	90.69
263.57	82.69
263.802	84.69
264.035	81.69
264.267	76.69
264.499	90.69
264.732	81.69
264.964	87.69
265.197	78.69
265.429	96.69
265.661	91.69
265.894	80.69
266.126	81.69
266.358	82.69
266.591	77.69
266.823	78.69
267.055	59.69
267.287	87.69
267.52	83.69
267.752	87.69
267.984	82.69
268.216	88.69
268.448	95.69
268.681	98.69
268.913	84.69
269.145	85.69
269.377	87.69
269.609	82.69
269.841	85.69
270.073	79.69
270.306	81.69
270.538	92.69
270.77	80.69
271.002	79.69
271.234	82.69
271.466	94.69
271.698	74.69
271.93	71.69
272.162	79.69
272.394	86.69
272.626	60.69
272.858	68.69
273.09	84.69
273.322	82.69
273.553	84.69
273.785	84.69
274.017	93.69
274.249	95.69
274.481	81.69
274.713	90.69
274.945	94.69
275.176	83.69
275.408	65.69
275.64	74.69
275.872	96.69
276.104	91.69
276.335	88.69
276.567	75.69
276.799	75.69
277.031	88.69
277.262	88.69
277.494	99.69
277.726	92.69
277.957	82.69
278.189	75.69
278.421	84.69
278.652	76.69
278.884	88.69
279.115	88.69
279.347	85.69
279.579	86.69
279.81	99.69
280.042	84.69
280.273	94.69
280.505	84.69
280.736	84.69
280.968	80.69
281.199	80.69
281.431	77.69
281.662	84.69
281.894	82.69
282.125	85.69
282.356	83.69
282.588	72.69
282.819	78.69
283.051	94.69
283.282	92.69
283.513	94.69
283.745	78.69
283.976	83.69
284.207	86.69
284.439	92.69
284.67	77.69
284.901	74.69
285.132	98.69
285.364	91.69
285.595	76.69
285.826	78.69
286.057	82.69
286.288	94.69
286.52	94.69
286.751	86.69
286.982	85.69
287.213	79.69
287.444	95.69
287.675	82.69
287.906	80.69
288.138	71.69
288.369	89.69
288.6	76.69
288.831	90.69
289.062	71.69
289.293	84.69
289.524	74.69
289.755	77.69
289.986	74.69
290.217	89.69
290.448	74.69
290.679	92.69
290.91	76.69
291.141	86.69
291.371	86.69
291.602	87.69
291.833	73.69
292.064	88.69
292.295	87.69
292.526	91.69
292.757	85.69
292.987	84.69
293.218	80.69
293.449	90.69
293.68	90.69
293.91	88.69
294.141	99.69
294.372	82.69
294.603	98.69
294.833	88.69
295.064	77.69
295.295	72.69
295.525	88.69
295.756	91.69
295.987	85.69
296.217	76.69
296.448	82.69
296.679	91.69
296.909	89.69
297.14	66.69
297.37	95.69
297.601	88.69
297.831	73.69
298.062	87.69
298.292	83.69
298.523	90.69
298.753	91.69
298.984	81.69
299.214	75.69
299.445	65.69
299.675	85.69
299.905	76.69
300.136	86.69
300.366	96.69
300.597	84.69
300.827	84.69
301.057	98.69
301.288	85.69
301.518	83.69
301.748	82.69
301.979	103.69
302.209	101.69
302.439	88.69
302.669	97.69
302.9	86.69
303.13	96.69
303.36	71.69
303.59	96.69
303.82	88.69
304.051	77.69
304.281	91.69
304.511	95.69
304.741	78.69
304.971	70.69
305.201	82.69
305.431	86.69
305.661	79.69
305.891	93.69
306.121	81.69
306.352	91.69
306.582	93.69
306.812	80.69
307.042	74.69
307.272	82.69
307.502	102.69
307.731	98.69
307.961	84.69
308.191	81.69
308.421	89.69
308.651	83.69
308.881	85.69
309.111	96.69
309.341	87.69
309.571	99.69
309.8	77.69
310.03	100.69
310.26	81.69
310.49	76.69
310.72	82.69
310.949	82.69
311.179	89.69
311.409	82.69
311.639	89.69
311.868	86.69
312.098	80.69
312.328	74.69
312.557	86.69
312.787	75.69
313.017	99.69
313.246	94.69
313.476	95.69
313.706	82.69
313.935	86.69
314.165	83.69
314.394	95.69
314.624	80.69
314.853	71.69
315.083	82.69
315.312	90.69
315.542	82.69
315.771	96.69
316.001	73.69
316.23	90.69
316.46	80.69
316.689	82.69
316.919	86.69
317.148	91.69
317.377	98.69
317.607	85.69
317.836	84.69
318.065	84.69
318.295	84.69
318.524	92.69
318.753	90.69
318.983	83.69
319.212	97.69
319.441	101.69
319.67	91.69
319.9	95.69
320.129	84.69
320.358	90.69
320.587	81.69
320.816	90.69
321.046	78.69
321.275	99.69
321.504	88.69
321.733	100.69
321.962	82.69
322.191	69.69
322.42	98.69
322.649	76.69
322.878	87.69
323.108	87.69
323.337	66.69
323.566	85.69
323.795	87.69
324.024	97.69
324.253	60.69
324.482	75.69
324.71	84.69
324.939	84.69
325.168	70.69
325.397	80.69
325.626	91.69
325.855	79.69
326.084	80.69
326.313	67.69
326.542	86.69
326.77	84.69
326.999	82.69
327.228	90.69
327.457	94.69
327.686	91.69
327.914	85.69
328.143	83.69
328.372	81.69
328.6	82.69
328.829	92.69
329.058	94.69
329.287	99.69
329.515	88.69
329.744	94.69
329.972	86.69
330.201	80.69
330.43	82.69
330.658	83.69
330.887	90.69
331.115	76.69
331.344	94.69
331.572	84.69
331.801	82.69
332.03	90.69
332.258	95.69
332.486	80.69
332.715	89.69
332.943	81.69
333.172	80.69
333.4	89.69
333.629	76.69
333.857	80.69
334.085	87.69
334.314	76.69
334.542	79.69
334.771	88.69
334.999	81.69
335.227	77.69
335.455	77.69
335.684	92.69
335.912	87.69
336.14	90.69
336.369	80.69
336.597	84.69
336.825	82.69
337.053	90.69
337.281	84.69
337.51	94.69
337.738	88.69
337.966	96.69
338.194	87.69
338.422	75.69
338.65	90.69
338.878	98.69
339.106	93.69
339.334	96.69
339.562	76.69
339.79	81.69
340.018	87.69
340.246	88.69
340.474	81.69
340.702	87.69
340.93	82.69
341.158	87.69
341.386	88.69
341.614	82.69
341.842	84.69
342.07	95.69
342.298	88.69
342.526	103.69
342.754	76.69
342.981	84.69
343.209	90.69
343.437	92.69
343.665	83.69
343.893	91.69
344.12	87.69
344.348	84.69
344.576	102.69
344.804	82.69
345.031	81.69
345.259	84.69
345.487	88.69
345.714	88.69
345.942	84.69
346.17	80.69
346.397	86.69
346.625	94.69
346.853	91.69
347.08	89.69
347.308	91.69
347.535	100.69
347.763	70.69
347.99	88.69
348.218	84.69
348.445	81.69
348.673	76.69
348.9	88.69
349.128	85.69
349.355	94.69
349.583	80.69
349.81	87.69
350.037	91.69
350.265	85.69
350.492	81.69
350.72	68.69
350.947	78.69
351.174	82.69
351.402	92.69
351.629	91.69
351.856	87.69
352.083	77.69
352.311	77.69
352.538	89.69
352.765	85.69
352.992	85.69
353.22	89.69
353.447	91.69
353.674	93.69
353.901	94.69
354.128	90.69
354.355	98.69
354.583	70.69
354.81	90.69
355.037	75.69
355.264	91.69
355.491	104.69
355.718	90.69
355.945	81.69
356.172	94.69
356.399	79.69
356.626	75.69
356.853	89.69
357.08	99.69
357.307	73.69
357.534	94.69
357.761	94.69
357.988	88.69
358.215	86.69
358.441	95.69
358.668	79.69
358.895	94.69
359.122	101.69
359.349	73.69
359.576	91.69
359.802	95.69
360.029	83.69
360.256	82.69
360.483	91.69
360.709	82.69
360.936	91.69
361.163	96.69
361.39	80.69
361.616	91.69
361.843	83.69
362.07	98.69
362.296	95.69
362.523	91.69
362.749	92.69
362.976	105.69
363.203	103.69
363.429	95.69
363.656	102.69
363.882	74.69
364.109	97.69
364.335	106.69
364.562	117.69
364.788	96.69
365.015	84.69
365.241	86.69
365.468	102.69
365.694	88.69
365.92	80.69
366.147	85.69
366.373	89.69
366.599	78.69
366.826	80.69
367.052	84.69
367.278	99.69
367.505	74.69
367.731	85.69
367.957	74.69
368.184	85.69
368.41	90.69
368.636	87.69
368.862	74.69
369.089	74.69
369.315	77.69
369.541	105.69
369.767	79.69
369.993	69.69
370.219	72.69
370.445	89.69
370.672	75.69
370.898	74.69
371.124	85.69
371.35	78.69
371.576	82.69
371.802	94.69
372.028	88.69
372.254	90.69
372.48	89.69
372.706	75.69
372.932	92.69
373.158	102.69
373.384	106.69
373.61	92.69
373.835	101.69
374.061	88.69
374.287	86.69
374.513	85.69
374.739	92.69
374.965	99.69
375.191	88.69
375.416	74.69
375.642	95.69
375.868	112.69
376.094	84.69
376.319	85.69
376.545	88.69
376.771	69.69
376.997	78.69
377.222	95.69
377.448	96.69
377.674	82.69
377.899	95.69
378.125	95.69
378.35	94.69
378.576	97.69
378.802	76.69
379.027	86.69
379.253	81.69
379.478	83.69
379.704	94.69
379.929	94.69
380.155	74.69
380.38	72.69
380.606	93.69
380.831	76.69
381.057	82.69
381.282	85.69
381.507	92.69
381.733	85.69
381.958	89.69
382.184	98.69
382.409	97.69
382.634	87.69
382.86	81.69
383.085	80.69
383.31	88.69
383.535	97.69
383.761	103.69
383.986	76.69
384.211	85.69
384.436	80.69
384.662	100.69
384.887	83.69
385.112	90.69
385.337	70.69
385.562	88.69
385.787	92.69
386.013	92.69
386.238	81.69
386.463	94.69
386.688	104.69
386.913	85.69
387.138	90.69
387.363	82.69
387.588	105.69
387.813	90.69
388.038	80.69
388.263	97.69
388.488	91.69
388.713	89.69
388.938	94.69
389.163	79.69
389.387	88.69
389.612	86.69
389.837	90.69
390.062	81.69
390.287	81.69
390.512	90.69
390.736	83.69
390.961	82.69
391.186	81.69
391.411	78.69
391.636	74.69
391.86	97.69
392.085	95.69
392.31	82.69
392.534	96.69
392.759	118.69
392.984	127.69
393.208	224.69
393.433	296.69
393.658	228.69
393.882	130.69
394.107	112.69
394.331	127.69
394.556	121.69
394.78	92.69
395.005	91.69
395.229	76.69
395.454	96.69
395.678	98.69
395.903	107.69
396.127	127.69
396.352	130.69
396.576	148.69
396.801	207.69
397.025	235.69
397.249	135.69
397.474	109.69
397.698	98.69
397.922	84.69
398.147	96.69
398.371	89.69
398.595	91.69
398.82	81.69
399.044	99.69
399.268	85.69
399.492	87.69
399.717	74.69
399.941	71.69
400.165	99.69
400.389	89.69
400.613	85.69
400.837	77.69
401.062	76.69
401.286	88.69
401.51	59.69
401.734	86.69
401.958	70.69
402.182	81.69
402.406	88.69
402.63	86.69
402.854	76.69
403.078	85.69
403.302	90.69
403.526	74.69
403.75	98.69
403.974	97.69
404.198	103.69
404.422	124.69
404.645	122.69
404.869	114.69
405.093	100.69
405.317	95.69
405.541	99.69
405.765	80.69
405.988	87.69
406.212	94.69
406.436	90.69
406.66	81.69
406.883	87.69
407.107	84.69
407.331	83.69
407.555	97.69
407.778	108.69
408.002	104.69
408.226	85.69
408.449	74.69
408.673	98.69
408.896	71.69
409.12	85.69
409.344	91.69
409.567	94.69
409.791	91.69
410.014	82.69
410.238	93.69
410.461	95.69
410.685	76.69
410.908	76.69
411.132	84.69
411.355	79.69
411.578	86.69
411.802	75.69
412.025	88.69
412.249	99.69
412.472	86.69
412.695	90.69
412.919	90.69
413.142	90.69
413.365	94.69
413.589	83.69
413.812	83.69
414.035	83.69
414.258	84.69
414.482	88.69
414.705	97.69
414.928	68.69
415.151	91.69
415.374	77.69
415.597	79.69
415.821	81.69
416.044	87.69
416.267	91.69
416.49	86.69
416.713	81.69
416.936	86.69
417.159	76.69
417.382	86.69
417.605	78.69
417.828	81.69
418.051	83.69
418.274	82.69
418.497	111.69
418.72	89.69
418.943	81.69
419.166	87.69
419.389	87.69
419.611	77.69
419.834	97.69
420.057	97.69
420.28	90.69
420.503	85.69
420.726	65.69
420.948	75.69
421.171	95.69
421.394	106.69
421.617	102.69
421.839	111.69
422.062	114.69
422.285	136.69
422.507	226.69
422.73	338.69
422.953	314.69
423.175	145.69
423.398	108.69
423.621	91.69
423.843	99.69
424.066	86.69
424.288	94.69
424.511	88.69
424.733	89.69
424.956	87.69
425.178	85.69
425.401	101.69
425.623	81.69
425.846	83.69
426.068	97.69
426.291	77.69
426.513	80.69
426.735	78.69
426.958	76.69
427.18	89.69
427.402	104.69
427.625	97.69
427.847	103.69
428.069	105.69
428.292	115.69
428.514	129.69
428.736	114.69
428.958	130.69
429.181	118.69
429.403	89.69
429.625	88.69
429.847	111.69
430.069	136.69
430.292	155.69
430.514	150.69
430.736	123.69
430.958	142.69
431.18	105.69
431.402	94.69
431.624	85.69
431.846	125.69
432.068	128.69
432.29	90.69
432.512	79.69
432.734	75.69
432.956	86.69
433.178	90.69
433.4	82.69
433.622	80.69
433.844	92.69
434.066	91.69
434.287	77.69
434.509	82.69
434.731	76.69
434.953	66.69
435.175	87.69
435.397	83.69
435.618	98.69
435.84	78.69
436.062	80.69
436.284	83.69
436.505	81.69
436.727	90.69
436.949	74.69
437.17	78.69
437.392	79.69
437.614	96.69
437.835	84.69
438.057	82.69
438.278	87.69
438.5	88.69
438.721	90.69
438.943	74.69
439.165	90.69
439.386	80.69
439.608	84.69
439.829	87.69
440.05	82.69
440.272	83.69
440.493	99.69
440.715	75.69
440.936	75.69
441.158	73.69
441.379	80.69
441.6	98.69
441.822	86.69
442.043	86.69
442.264	100.69
442.486	122.69
442.707	145.69
442.928	107.69
443.149	107.69
443.371	135.69
443.592	219.69
443.813	187.69
444.034	94.69
444.255	94.69
444.476	75.69
444.698	86.69
444.919	94.69
445.14	198.69
445.361	194.69
445.582	270.69
445.803	221.69
446.024	98.69
446.245	99.69
446.466	86.69
446.687	80.69
446.908	69.69
447.129	89.69
447.35	92.69
447.571	85.69
447.792	80.69
448.013	79.69
448.234	100.69
448.455	92.69
448.675	74.69
448.896	88.69
449.117	81.69
449.338	64.69
449.559	80.69
449.779	82.69
450	86.69
450.221	89.69
450.442	88.69
450.662	85.69
450.883	88.69
451.104	68.69
451.324	80.69
451.545	90.69
451.766	54.69
451.986	80.69
452.207	86.69
452.428	87.69
452.648	89.69
452.869	89.69
453.089	76.69
453.31	94.69
453.53	91.69
453.751	98.69
453.971	100.69
454.192	92.69
454.412	85.69
454.633	86.69
454.853	83.69
455.073	81.69
455.294	82.69
455.514	71.69
455.734	78.69
455.955	73.69
456.175	89.69
456.395	71.69
456.616	81.69
456.836	87.69
457.056	95.69
457.276	80.69
457.497	91.69
457.717	94.69
457.937	87.69
458.157	97.69
458.377	110.69
458.598	106.69
458.818	105.69
459.038	80.69
459.258	90.69
459.478	90.69
459.698	84.69
459.918	81.69
460.138	73.69
460.358	67.69
460.578	94.69
460.798	120.69
461.018	111.69
461.238	92.69
461.458	87.69
461.678	89.69
461.898	93.69
462.118	80.69
462.338	80.69
462.558	75.69
462.777	82.69
462.997	83.69
463.217	92.69
463.437	84.69
463.657	90.69
463.876	72.69
464.096	86.69
464.316	86.69
464.536	85.69
464.755	81.69
464.975	95.69
465.195	87.69
465.414	87.69
465.634	79.69
465.854	88.69
466.073	79.69
466.293	77.69
466.512	91.69
466.732	81.69
466.951	73.69
467.171	71.69
467.391	83.69
467.61	82.69
467.829	86.69
468.049	86.69
468.268	102.69
468.488	89.69
468.707	74.69
468.927	87.69
469.146	102.69
469.365	80.69
469.585	88.69
469.804	74.69
470.023	68.69
470.243	81.69
470.462	86.69
470.681	71.69
470.901	84.69
471.12	83.69
471.339	73.69
471.558	90.69
471.777	79.69
471.997	90.69
472.216	76.69
472.435	90.69
472.654	86.69
472.873	90.69
473.092	83.69
473.311	96.69
473.53	95.69
473.749	86.69
473.968	83.69
474.187	74.69
474.406	90.69
474.625	91.69
474.844	68.69
475.063	96.69
475.282	82.69
475.501	93.69
475.72	97.69
475.939	89.69
476.158	71.69
476.377	82.69
476.596	80.69
476.814	94.69
477.033	89.69
477.252	88.69
477.471	74.69
477.69	77.69
477.908	83.69
478.127	82.69
478.346	75.69
478.564	82.69
478.783	76.69
479.002	86.69
479.22	70.69
479.439	85.69
479.658	89.69
479.876	97.69
480.095	88.69
480.313	66.69
480.532	73.69
480.751	76.69
480.969	83.69
481.188	86.69
481.406	80.69
481.624	82.69
481.843	76.69
482.061	74.69
482.28	94.69
482.498	95.69
482.717	75.69
482.935	85.69
483.153	76.69
483.372	82.69
483.59	76.69
483.808	82.69
484.027	83.69
484.245	94.69
484.463	80.69
484.681	81.69
484.9	90.69
485.118	83.69
485.336	90.69
485.554	102.69
485.772	76.69
485.99	71.69
486.209	75.69
486.427	87.69
486.645	79.69
486.863	85.69
487.081	88.69
487.299	96.69
487.517	94.69
487.735	94.69
487.953	131.69
488.171	123.69
488.389	105.69
488.607	81.69
488.825	92.69
489.043	89.69
489.261	94.69
489.479	98.69
489.696	88.69
489.914	77.69
490.132	86.69
490.35	84.69
490.568	90.69
490.786	82.69
491.003	90.69
491.221	80.69
491.439	88.69
491.657	89.69
491.874	91.69
492.092	90.69
492.31	83.69
492.527	81.69
492.745	82.69
492.963	98.69
493.18	72.69
493.398	93.69
493.615	82.69
493.833	79.69
494.05	69.69
494.268	69.69
494.485	74.69
494.703	86.69
494.92	90.69
495.138	81.69
495.355	82.69
495.573	81.69
495.79	81.69
496.008	77.69
496.225	76.69
496.442	80.69
496.66	82.69
496.877	82.69
497.094	87.69
497.312	93.69
497.529	82.69
497.746	70.69
497.963	79.69
498.181	90.69
498.398	91.69
498.615	86.69
498.832	76.69
499.049	88.69
499.267	88.69
499.484	76.69
499.701	89.69
499.918	86.69
500.135	81.69
500.352	82.69
500.569	91.69
500.786	84.69
501.003	67.69
501.22	83.69
501.437	89.69
501.654	92.69
501.871	95.69
502.088	85.69
502.305	90.69
502.522	87.69
502.739	76.69
502.956	83.69
503.172	82.69
503.389	95.69
503.606	80.69
503.823	83.69
504.04	96.69
504.256	110.69
504.473	113.69
504.69	99.69
504.907	98.69
505.123	99.69
505.34	79.69
505.557	75.69
505.773	83.69
505.99	80.69
506.207	78.69
506.423	82.69
506.64	78.69
506.856	95.69
507.073	87.69
507.289	89.69
507.506	86.69
507.722	70.69
507.939	68.69
508.155	75.69
508.372	82.69
508.588	95.69
508.805	74.69
509.021	87.69
509.238	75.69
509.454	81.69
509.67	73.69
509.887	82.69
510.103	70.69
510.319	88.69
510.536	89.69
510.752	80.69
510.968	93.69
511.184	84.69
511.401	84.69
511.617	84.69
511.833	95.69
512.049	92.69
512.265	81.69
512.481	79.69
512.698	91.69
512.914	94.69
513.13	87.69
513.346	71.69
513.562	88.69
513.778	67.69
513.994	99.69
514.21	85.69
514.426	76.69
514.642	89.69
514.858	83.69
515.074	79.69
515.29	88.69
515.506	79.69
515.721	82.69
515.937	96.69
516.153	85.69
516.369	84.69
516.585	79.69
516.801	83.69
517.016	90.69
517.232	95.69
517.448	96.69
517.664	91.69
517.879	89.69
518.095	75.69
518.311	79.69
518.527	98.69
518.742	101.69
