Data from 17600_1_HRD10591_00037.txt Node
Date: Mon Jan 19 14:07:42 EST 2026
User: Yrep
Spectrometer: HR+D1059
Trigger mode: 1
Integration Time (sec): 1.000000E-1
Scans to average: 1
Electric dark correction enabled: true
Nonlinearity correction enabled: false
Boxcar width: 0
XAxis mode: Wavelengths
Number of Pixels in Spectrum: 2048
>>>>>Begin Spectral Data<<<<<
223.165	-18.44
223.4	-18.44
223.635	-18.44
223.869	-16.44
224.104	-22.44
224.338	-21.44
224.573	-13.44
224.808	7.56
225.042	-7.44
225.277	-11.44
225.511	5.56
225.746	-1.44
225.98	2.56
226.215	8.56
226.449	13.56
226.683	21.56
226.918	35.56
227.152	17.56
227.387	21.56
227.621	39.56
227.856	38.56
228.09	45.56
228.324	61.56
228.559	50.56
228.793	57.56
229.027	64.56
229.262	62.56
229.496	68.56
229.73	65.56
229.964	75.56
230.199	69.56
230.433	53.56
230.667	60.56
230.901	66.56
231.136	79.56
231.37	69.56
231.604	64.56
231.838	85.56
232.072	71.56
232.306	65.56
232.541	80.56
232.775	83.56
233.009	71.56
233.243	79.56
233.477	70.56
233.711	77.56
233.945	90.56
234.179	77.56
234.413	76.56
234.647	74.56
234.881	76.56
235.115	80.56
235.349	79.56
235.583	71.56
235.817	74.56
236.051	77.56
236.285	77.56
236.519	78.56
236.753	72.56
236.987	78.56
237.221	77.56
237.455	66.56
237.689	71.56
237.922	62.56
238.156	65.56
238.39	85.56
238.624	63.56
238.858	76.56
239.091	66.56
239.325	63.56
239.559	66.56
239.793	79.56
240.027	77.56
240.26	57.56
240.494	88.56
240.728	69.56
240.961	63.56
241.195	75.56
241.429	68.56
241.662	73.56
241.896	63.56
242.13	78.56
242.363	61.56
242.597	76.56
242.83	69.56
243.064	68.56
243.298	71.56
243.531	77.56
243.765	85.56
243.998	87.56
244.232	78.56
244.465	68.56
244.699	56.56
244.932	73.56
245.166	83.56
245.399	70.56
245.633	88.56
245.866	79.56
246.099	70.56
246.333	52.56
246.566	53.56
246.8	65.56
247.033	69.56
247.266	82.56
247.5	61.56
247.733	76.56
247.966	62.56
248.2	62.56
248.433	62.56
248.666	78.56
248.899	71.56
249.133	68.56
249.366	88.56
249.599	67.56
249.832	83.56
250.066	95.56
250.299	66.56
250.532	79.56
250.765	75.56
250.998	78.56
251.231	73.56
251.465	71.56
251.698	66.56
251.931	67.56
252.164	87.56
252.397	79.56
252.63	82.56
252.863	53.56
253.096	77.56
253.329	83.56
253.562	70.56
253.795	68.56
254.028	66.56
254.261	81.56
254.494	59.56
254.727	83.56
254.96	77.56
255.193	77.56
255.426	72.56
255.659	57.56
255.892	89.56
256.124	73.56
256.357	73.56
256.59	94.56
256.823	67.56
257.056	80.56
257.289	72.56
257.521	65.56
257.754	95.56
257.987	77.56
258.22	56.56
258.452	72.56
258.685	65.56
258.918	79.56
259.151	87.56
259.383	78.56
259.616	67.56
259.849	73.56
260.081	65.56
260.314	77.56
260.547	79.56
260.779	75.56
261.012	92.56
261.244	76.56
261.477	79.56
261.71	79.56
261.942	77.56
262.175	82.56
262.407	86.56
262.64	75.56
262.872	68.56
263.105	81.56
263.337	96.56
263.57	70.56
263.802	87.56
264.035	65.56
264.267	67.56
264.499	53.56
264.732	79.56
264.964	60.56
265.197	70.56
265.429	62.56
265.661	77.56
265.894	72.56
266.126	76.56
266.358	80.56
266.591	77.56
266.823	69.56
267.055	91.56
267.287	81.56
267.52	69.56
267.752	70.56
267.984	77.56
268.216	75.56
268.448	70.56
268.681	60.56
268.913	66.56
269.145	84.56
269.377	71.56
269.609	68.56
269.841	71.56
270.073	75.56
270.306	76.56
270.538	77.56
270.77	75.56
271.002	74.56
271.234	85.56
271.466	82.56
271.698	80.56
271.93	78.56
272.162	83.56
272.394	61.56
272.626	70.56
272.858	80.56
273.09	75.56
273.322	90.56
273.553	86.56
273.785	66.56
274.017	84.56
274.249	76.56
274.481	72.56
274.713	82.56
274.945	87.56
275.176	65.56
275.408	83.56
275.64	73.56
275.872	67.56
276.104	87.56
276.335	75.56
276.567	69.56
276.799	83.56
277.031	81.56
277.262	80.56
277.494	94.56
277.726	81.56
277.957	70.56
278.189	79.56
278.421	76.56
278.652	82.56
278.884	97.56
279.115	77.56
279.347	74.56
279.579	79.56
279.81	81.56
280.042	79.56
280.273	78.56
280.505	82.56
280.736	59.56
280.968	73.56
281.199	91.56
281.431	73.56
281.662	71.56
281.894	79.56
282.125	82.56
282.356	81.56
282.588	69.56
282.819	76.56
283.051	97.56
283.282	95.56
283.513	78.56
283.745	81.56
283.976	75.56
284.207	82.56
284.439	95.56
284.67	64.56
284.901	80.56
285.132	66.56
285.364	81.56
285.595	76.56
285.826	83.56
286.057	94.56
286.288	69.56
286.52	73.56
286.751	91.56
286.982	83.56
287.213	91.56
287.444	78.56
287.675	80.56
287.906	79.56
288.138	75.56
288.369	75.56
288.6	80.56
288.831	66.56
289.062	71.56
289.293	74.56
289.524	75.56
289.755	75.56
289.986	64.56
290.217	75.56
290.448	70.56
290.679	77.56
290.91	93.56
291.141	80.56
291.371	90.56
291.602	77.56
291.833	81.56
292.064	71.56
292.295	91.56
292.526	90.56
292.757	87.56
292.987	76.56
293.218	79.56
293.449	78.56
293.68	76.56
293.91	78.56
294.141	85.56
294.372	88.56
294.603	79.56
294.833	80.56
295.064	79.56
295.295	85.56
295.525	83.56
295.756	90.56
295.987	89.56
296.217	67.56
296.448	70.56
296.679	70.56
296.909	80.56
297.14	76.56
297.37	81.56
297.601	68.56
297.831	77.56
298.062	77.56
298.292	79.56
298.523	78.56
298.753	74.56
298.984	69.56
299.214	69.56
299.445	82.56
299.675	91.56
299.905	71.56
300.136	79.56
300.366	85.56
300.597	90.56
300.827	77.56
301.057	76.56
301.288	81.56
301.518	85.56
301.748	82.56
301.979	72.56
302.209	85.56
302.439	79.56
302.669	78.56
302.9	89.56
303.13	78.56
303.36	102.56
303.59	91.56
303.82	86.56
304.051	81.56
304.281	78.56
304.511	79.56
304.741	94.56
304.971	76.56
305.201	78.56
305.431	77.56
305.661	78.56
305.891	67.56
306.121	77.56
306.352	88.56
306.582	80.56
306.812	98.56
307.042	85.56
307.272	71.56
307.502	84.56
307.731	81.56
307.961	89.56
308.191	66.56
308.421	75.56
308.651	79.56
308.881	85.56
309.111	79.56
309.341	82.56
309.571	86.56
309.8	90.56
310.03	64.56
310.26	76.56
310.49	83.56
310.72	67.56
310.949	79.56
311.179	77.56
311.409	70.56
311.639	84.56
311.868	89.56
312.098	79.56
312.328	75.56
312.557	94.56
312.787	77.56
313.017	73.56
313.246	78.56
313.476	86.56
313.706	74.56
313.935	79.56
314.165	91.56
314.394	81.56
314.624	89.56
314.853	85.56
315.083	65.56
315.312	92.56
315.542	55.56
315.771	89.56
316.001	79.56
316.23	77.56
316.46	75.56
316.689	90.56
316.919	78.56
317.148	82.56
317.377	70.56
317.607	70.56
317.836	79.56
318.065	91.56
318.295	92.56
318.524	86.56
318.753	93.56
318.983	93.56
319.212	80.56
319.441	83.56
319.67	78.56
319.9	77.56
320.129	65.56
320.358	70.56
320.587	76.56
320.816	70.56
321.046	69.56
321.275	84.56
321.504	79.56
321.733	78.56
321.962	63.56
322.191	87.56
322.42	76.56
322.649	81.56
322.878	83.56
323.108	92.56
323.337	69.56
323.566	76.56
323.795	82.56
324.024	90.56
324.253	75.56
324.482	87.56
324.71	93.56
324.939	83.56
325.168	84.56
325.397	87.56
325.626	83.56
325.855	78.56
326.084	93.56
326.313	76.56
326.542	75.56
326.77	84.56
326.999	72.56
327.228	76.56
327.457	68.56
327.686	83.56
327.914	81.56
328.143	90.56
328.372	74.56
328.6	64.56
328.829	79.56
329.058	71.56
329.287	84.56
329.515	87.56
329.744	91.56
329.972	97.56
330.201	86.56
330.43	89.56
330.658	89.56
330.887	89.56
331.115	77.56
331.344	81.56
331.572	85.56
331.801	78.56
332.03	91.56
332.258	87.56
332.486	81.56
332.715	65.56
332.943	90.56
333.172	75.56
333.4	71.56
333.629	83.56
333.857	75.56
334.085	84.56
334.314	93.56
334.542	74.56
334.771	89.56
334.999	78.56
335.227	92.56
335.455	62.56
335.684	70.56
335.912	74.56
336.14	84.56
336.369	91.56
336.597	85.56
336.825	90.56
337.053	91.56
337.281	79.56
337.51	101.56
337.738	100.56
337.966	84.56
338.194	79.56
338.422	76.56
338.65	81.56
338.878	83.56
339.106	78.56
339.334	85.56
339.562	90.56
339.79	89.56
340.018	75.56
340.246	81.56
340.474	86.56
340.702	82.56
340.93	85.56
341.158	77.56
341.386	75.56
341.614	94.56
341.842	77.56
342.07	86.56
342.298	73.56
342.526	88.56
342.754	88.56
342.981	67.56
343.209	84.56
343.437	86.56
343.665	70.56
343.893	84.56
344.12	70.56
344.348	71.56
344.576	79.56
344.804	91.56
345.031	85.56
345.259	75.56
345.487	86.56
345.714	77.56
345.942	83.56
346.17	92.56
346.397	62.56
346.625	86.56
346.853	83.56
347.08	74.56
347.308	84.56
347.535	74.56
347.763	72.56
347.99	93.56
348.218	76.56
348.445	65.56
348.673	79.56
348.9	77.56
349.128	70.56
349.355	83.56
349.583	65.56
349.81	77.56
350.037	77.56
350.265	85.56
350.492	91.56
350.72	80.56
350.947	72.56
351.174	85.56
351.402	91.56
351.629	66.56
351.856	79.56
352.083	77.56
352.311	77.56
352.538	82.56
352.765	69.56
352.992	81.56
353.22	77.56
353.447	79.56
353.674	75.56
353.901	86.56
354.128	85.56
354.355	68.56
354.583	83.56
354.81	79.56
355.037	71.56
355.264	86.56
355.491	85.56
355.718	73.56
355.945	72.56
356.172	89.56
356.399	67.56
356.626	87.56
356.853	78.56
357.08	85.56
357.307	80.56
357.534	81.56
357.761	95.56
357.988	81.56
358.215	91.56
358.441	72.56
358.668	72.56
358.895	77.56
359.122	76.56
359.349	83.56
359.576	89.56
359.802	77.56
360.029	89.56
360.256	80.56
360.483	74.56
360.709	73.56
360.936	85.56
361.163	81.56
361.39	76.56
361.616	82.56
361.843	81.56
362.07	77.56
362.296	81.56
362.523	65.56
362.749	76.56
362.976	75.56
363.203	102.56
363.429	100.56
363.656	76.56
363.882	83.56
364.109	97.56
364.335	84.56
364.562	80.56
364.788	71.56
365.015	78.56
365.241	86.56
365.468	85.56
365.694	70.56
365.92	83.56
366.147	81.56
366.373	79.56
366.599	78.56
366.826	92.56
367.052	84.56
367.278	82.56
367.505	85.56
367.731	87.56
367.957	64.56
368.184	79.56
368.41	68.56
368.636	74.56
368.862	67.56
369.089	75.56
369.315	68.56
369.541	73.56
369.767	83.56
369.993	75.56
370.219	91.56
370.445	71.56
370.672	67.56
370.898	78.56
371.124	57.56
371.35	65.56
371.576	90.56
371.802	81.56
372.028	82.56
372.254	86.56
372.48	79.56
372.706	64.56
372.932	69.56
373.158	79.56
373.384	79.56
373.61	87.56
373.835	98.56
374.061	73.56
374.287	71.56
374.513	81.56
374.739	62.56
374.965	78.56
375.191	84.56
375.416	82.56
375.642	79.56
375.868	89.56
376.094	80.56
376.319	85.56
376.545	87.56
376.771	85.56
376.997	84.56
377.222	76.56
377.448	75.56
377.674	85.56
377.899	91.56
378.125	91.56
378.35	94.56
378.576	64.56
378.802	78.56
379.027	70.56
379.253	83.56
379.478	84.56
379.704	80.56
379.929	79.56
380.155	83.56
380.38	80.56
380.606	86.56
380.831	82.56
381.057	77.56
381.282	73.56
381.507	67.56
381.733	89.56
381.958	81.56
382.184	87.56
382.409	69.56
382.634	82.56
382.86	79.56
383.085	81.56
383.31	71.56
383.535	84.56
383.761	79.56
383.986	91.56
384.211	85.56
384.436	70.56
384.662	91.56
384.887	79.56
385.112	69.56
385.337	71.56
385.562	84.56
385.787	88.56
386.013	84.56
386.238	73.56
386.463	72.56
386.688	90.56
386.913	81.56
387.138	70.56
387.363	72.56
387.588	81.56
387.813	72.56
388.038	71.56
388.263	85.56
388.488	84.56
388.713	71.56
388.938	89.56
389.163	57.56
389.387	86.56
389.612	73.56
389.837	75.56
390.062	86.56
390.287	69.56
390.512	82.56
390.736	77.56
390.961	80.56
391.186	87.56
391.411	62.56
391.636	80.56
391.86	89.56
392.085	82.56
392.31	70.56
392.534	79.56
392.759	67.56
392.984	93.56
393.208	137.56
393.433	163.56
393.658	139.56
393.882	85.56
394.107	79.56
394.331	81.56
394.556	76.56
394.78	84.56
395.005	76.56
395.229	69.56
395.454	67.56
395.678	73.56
395.903	82.56
396.127	77.56
396.352	106.56
396.576	96.56
396.801	144.56
397.025	149.56
397.249	114.56
397.474	77.56
397.698	82.56
397.922	72.56
398.147	80.56
398.371	83.56
398.595	73.56
398.82	76.56
399.044	75.56
399.268	75.56
399.492	94.56
399.717	76.56
399.941	82.56
400.165	81.56
400.389	72.56
400.613	87.56
400.837	74.56
401.062	79.56
401.286	75.56
401.51	58.56
401.734	70.56
401.958	74.56
402.182	69.56
402.406	70.56
402.63	77.56
402.854	74.56
403.078	82.56
403.302	70.56
403.526	73.56
403.75	89.56
403.974	62.56
404.198	65.56
404.422	98.56
404.645	86.56
404.869	82.56
405.093	77.56
405.317	73.56
405.541	79.56
405.765	74.56
405.988	66.56
406.212	78.56
406.436	74.56
406.66	83.56
406.883	85.56
407.107	69.56
407.331	75.56
407.555	69.56
407.778	87.56
408.002	77.56
408.226	68.56
408.449	71.56
408.673	70.56
408.896	83.56
409.12	85.56
409.344	92.56
409.567	76.56
409.791	68.56
410.014	73.56
410.238	75.56
410.461	82.56
410.685	86.56
410.908	74.56
411.132	81.56
411.355	78.56
411.578	100.56
411.802	84.56
412.025	77.56
412.249	70.56
412.472	81.56
412.695	74.56
412.919	78.56
413.142	74.56
413.365	83.56
413.589	81.56
413.812	71.56
414.035	80.56
414.258	77.56
414.482	84.56
414.705	77.56
414.928	79.56
415.151	85.56
415.374	72.56
415.597	81.56
415.821	89.56
416.044	83.56
416.267	84.56
416.49	63.56
416.713	78.56
416.936	90.56
417.159	94.56
417.382	69.56
417.605	77.56
417.828	68.56
418.051	72.56
418.274	76.56
418.497	83.56
418.72	75.56
418.943	71.56
419.166	79.56
419.389	74.56
419.611	72.56
419.834	92.56
420.057	85.56
420.28	74.56
420.503	73.56
420.726	64.56
420.948	71.56
421.171	92.56
421.394	87.56
421.617	75.56
421.839	74.56
422.062	77.56
422.285	95.56
422.507	110.56
422.73	154.56
422.953	133.56
423.175	85.56
423.398	71.56
423.621	77.56
423.843	71.56
424.066	77.56
424.288	77.56
424.511	92.56
424.733	85.56
424.956	68.56
425.178	75.56
425.401	82.56
425.623	82.56
425.846	81.56
426.068	75.56
426.291	81.56
426.513	81.56
426.735	71.56
426.958	78.56
427.18	78.56
427.402	82.56
427.625	66.56
427.847	82.56
428.069	77.56
428.292	82.56
428.514	94.56
428.736	85.56
428.958	79.56
429.181	74.56
429.403	73.56
429.625	73.56
429.847	86.56
430.069	99.56
430.292	105.56
430.514	92.56
430.736	85.56
430.958	89.56
431.18	73.56
431.402	77.56
431.624	90.56
431.846	80.56
432.068	85.56
432.29	89.56
432.512	69.56
432.734	66.56
432.956	82.56
433.178	95.56
433.4	70.56
433.622	75.56
433.844	69.56
434.066	73.56
434.287	77.56
434.509	74.56
434.731	77.56
434.953	63.56
435.175	69.56
435.397	83.56
435.618	88.56
435.84	76.56
436.062	84.56
436.284	67.56
436.505	82.56
436.727	79.56
436.949	71.56
437.17	70.56
437.392	56.56
437.614	71.56
437.835	69.56
438.057	58.56
438.278	77.56
438.5	77.56
438.721	91.56
438.943	79.56
439.165	81.56
439.386	73.56
439.608	70.56
439.829	70.56
440.05	67.56
440.272	89.56
440.493	77.56
440.715	87.56
440.936	84.56
441.158	75.56
441.379	70.56
441.6	75.56
441.822	71.56
442.043	75.56
442.264	82.56
442.486	78.56
442.707	87.56
442.928	86.56
443.149	84.56
443.371	79.56
443.592	93.56
443.813	82.56
444.034	85.56
444.255	84.56
444.476	81.56
444.698	77.56
444.919	80.56
445.14	134.56
445.361	109.56
445.582	110.56
445.803	101.56
446.024	76.56
446.245	79.56
446.466	73.56
446.687	83.56
446.908	79.56
447.129	80.56
447.35	72.56
447.571	80.56
447.792	76.56
448.013	79.56
448.234	86.56
448.455	86.56
448.675	79.56
448.896	75.56
449.117	66.56
449.338	71.56
449.559	95.56
449.779	77.56
450	76.56
450.221	77.56
450.442	85.56
450.662	75.56
450.883	80.56
451.104	68.56
451.324	72.56
451.545	94.56
451.766	67.56
451.986	72.56
452.207	58.56
452.428	81.56
452.648	81.56
452.869	70.56
453.089	76.56
453.31	83.56
453.53	81.56
453.751	76.56
453.971	78.56
454.192	78.56
454.412	73.56
454.633	86.56
454.853	77.56
455.073	61.56
455.294	77.56
455.514	77.56
455.734	75.56
455.955	66.56
456.175	78.56
456.395	81.56
456.616	85.56
456.836	84.56
457.056	69.56
457.276	79.56
457.497	74.56
457.717	80.56
457.937	78.56
458.157	82.56
458.377	64.56
458.598	75.56
458.818	70.56
459.038	81.56
459.258	73.56
459.478	90.56
459.698	78.56
459.918	80.56
460.138	83.56
460.358	82.56
460.578	83.56
460.798	95.56
461.018	82.56
461.238	79.56
461.458	89.56
461.678	90.56
461.898	88.56
462.118	98.56
462.338	71.56
462.558	88.56
462.777	71.56
462.997	75.56
463.217	86.56
463.437	72.56
463.657	76.56
463.876	76.56
464.096	93.56
464.316	77.56
464.536	77.56
464.755	84.56
464.975	70.56
465.195	91.56
465.414	75.56
465.634	78.56
465.854	85.56
466.073	85.56
466.293	75.56
466.512	87.56
466.732	75.56
466.951	75.56
467.171	83.56
467.391	86.56
467.61	76.56
467.829	76.56
468.049	78.56
468.268	94.56
468.488	63.56
468.707	73.56
468.927	85.56
469.146	79.56
469.365	91.56
469.585	85.56
469.804	87.56
470.023	81.56
470.243	81.56
470.462	79.56
470.681	85.56
470.901	89.56
471.12	64.56
471.339	74.56
471.558	75.56
471.777	64.56
471.997	82.56
472.216	77.56
472.435	90.56
472.654	71.56
472.873	71.56
473.092	82.56
473.311	82.56
473.53	73.56
473.749	77.56
473.968	74.56
474.187	74.56
474.406	71.56
474.625	67.56
474.844	82.56
475.063	77.56
475.282	83.56
475.501	71.56
475.72	71.56
475.939	78.56
476.158	77.56
476.377	82.56
476.596	83.56
476.814	74.56
477.033	82.56
477.252	79.56
477.471	85.56
477.69	73.56
477.908	70.56
478.127	61.56
478.346	71.56
478.564	83.56
478.783	85.56
479.002	84.56
479.22	78.56
479.439	78.56
479.658	64.56
479.876	69.56
480.095	89.56
480.313	82.56
480.532	99.56
480.751	77.56
480.969	84.56
481.188	78.56
481.406	70.56
481.624	83.56
481.843	64.56
482.061	67.56
482.28	74.56
482.498	74.56
482.717	97.56
482.935	78.56
483.153	70.56
483.372	72.56
483.59	81.56
483.808	80.56
484.027	68.56
484.245	76.56
484.463	86.56
484.681	76.56
484.9	75.56
485.118	84.56
485.336	74.56
485.554	71.56
485.772	75.56
485.99	75.56
486.209	81.56
486.427	79.56
486.645	87.56
486.863	93.56
487.081	67.56
487.299	69.56
487.517	90.56
487.735	87.56
487.953	73.56
488.171	87.56
488.389	77.56
488.607	76.56
488.825	73.56
489.043	68.56
489.261	79.56
489.479	87.56
489.696	82.56
489.914	63.56
490.132	81.56
490.35	93.56
490.568	85.56
490.786	79.56
491.003	80.56
491.221	72.56
491.439	90.56
491.657	71.56
491.874	82.56
492.092	73.56
492.31	80.56
492.527	82.56
492.745	82.56
492.963	84.56
493.18	86.56
493.398	78.56
493.615	74.56
493.833	67.56
494.05	79.56
494.268	78.56
494.485	64.56
494.703	76.56
494.92	78.56
495.138	90.56
495.355	95.56
495.573	85.56
495.79	76.56
496.008	65.56
496.225	54.56
496.442	88.56
496.66	78.56
496.877	83.56
497.094	83.56
497.312	76.56
497.529	81.56
497.746	84.56
497.963	73.56
498.181	64.56
498.398	74.56
498.615	69.56
498.832	82.56
499.049	77.56
499.267	94.56
499.484	82.56
499.701	89.56
499.918	70.56
500.135	79.56
500.352	69.56
500.569	89.56
500.786	85.56
501.003	71.56
501.22	83.56
501.437	88.56
501.654	85.56
501.871	77.56
502.088	70.56
502.305	78.56
502.522	84.56
502.739	85.56
502.956	82.56
503.172	70.56
503.389	68.56
503.606	81.56
503.823	69.56
504.04	69.56
504.256	99.56
504.473	88.56
504.69	75.56
504.907	73.56
505.123	69.56
505.34	93.56
505.557	68.56
505.773	83.56
505.99	74.56
506.207	74.56
506.423	80.56
506.64	72.56
506.856	76.56
507.073	79.56
507.289	82.56
507.506	81.56
507.722	75.56
507.939	63.56
508.155	77.56
508.372	77.56
508.588	84.56
508.805	88.56
509.021	82.56
509.238	85.56
509.454	80.56
509.67	69.56
509.887	78.56
510.103	70.56
510.319	88.56
510.536	69.56
510.752	74.56
510.968	89.56
511.184	75.56
511.401	83.56
511.617	93.56
511.833	73.56
512.049	90.56
512.265	73.56
512.481	71.56
512.698	83.56
512.914	76.56
513.13	77.56
513.346	73.56
513.562	87.56
513.778	83.56
513.994	76.56
514.21	62.56
514.426	65.56
514.642	80.56
514.858	89.56
515.074	81.56
515.29	77.56
515.506	82.56
515.721	71.56
515.937	76.56
516.153	84.56
516.369	67.56
516.585	93.56
516.801	76.56
517.016	80.56
517.232	83.56
517.448	87.56
517.664	86.56
517.879	75.56
518.095	80.56
518.311	89.56
518.527	92.56
518.742	89.56
518.958	92.56
519.173	76.56
519.389	84.56
519.605	89.56
519.82	82.56
520.036	80.56
