Data from 17600_1_HRD10591_00011.txt Node
Date: Mon Jan 19 14:07:29 EST 2026
User: Yrep
Spectrometer: HR+D1059
Trigger mode: 1
Integration Time (sec): 1.000000E-1
Scans to average: 1
Electric dark correction enabled: true
Nonlinearity correction enabled: false
Boxcar width: 0
XAxis mode: Wavelengths
Number of Pixels in Spectrum: 2048
>>>>>Begin Spectral Data<<<<<
223.165	-11.62
223.4	-11.62
223.635	-11.62
223.869	-28.62
224.104	-12.62
224.338	-9.62
224.573	-20.62
224.808	-12.62
225.042	-13.62
225.277	-4.62
225.511	-4.62
225.746	7.38
225.98	5.38
226.215	18.38
226.449	25.38
226.683	14.38
226.918	25.38
227.152	22.38
227.387	41.38
227.621	40.38
227.856	45.38
228.09	45.38
228.324	49.38
228.559	56.38
228.793	63.38
229.027	54.38
229.262	50.38
229.496	69.38
229.73	67.38
229.964	72.38
230.199	63.38
230.433	60.38
230.667	82.38
230.901	71.38
231.136	78.38
231.37	72.38
231.604	86.38
231.838	86.38
232.072	78.38
232.306	76.38
232.541	85.38
232.775	70.38
233.009	81.38
233.243	81.38
233.477	91.38
233.711	83.38
233.945	77.38
234.179	88.38
234.413	77.38
234.647	75.38
234.881	91.38
235.115	83.38
235.349	87.38
235.583	76.38
235.817	82.38
236.051	78.38
236.285	74.38
236.519	89.38
236.753	85.38
236.987	83.38
237.221	75.38
237.455	80.38
237.689	77.38
237.922	68.38
238.156	64.38
238.39	84.38
238.624	79.38
238.858	67.38
239.091	83.38
239.325	80.38
239.559	81.38
239.793	74.38
240.027	80.38
240.26	76.38
240.494	73.38
240.728	77.38
240.961	72.38
241.195	74.38
241.429	81.38
241.662	76.38
241.896	73.38
242.13	61.38
242.363	70.38
242.597	95.38
242.83	73.38
243.064	88.38
243.298	78.38
243.531	95.38
243.765	75.38
243.998	77.38
244.232	72.38
244.465	75.38
244.699	69.38
244.932	79.38
245.166	88.38
245.399	74.38
245.633	76.38
245.866	76.38
246.099	76.38
246.333	74.38
246.566	67.38
246.8	60.38
247.033	79.38
247.266	87.38
247.5	76.38
247.733	69.38
247.966	87.38
248.2	70.38
248.433	98.38
248.666	78.38
248.899	85.38
249.133	83.38
249.366	80.38
249.599	73.38
249.832	81.38
250.066	74.38
250.299	87.38
250.532	77.38
250.765	88.38
250.998	74.38
251.231	73.38
251.465	95.38
251.698	71.38
251.931	84.38
252.164	69.38
252.397	78.38
252.63	85.38
252.863	84.38
253.096	82.38
253.329	89.38
253.562	90.38
253.795	75.38
254.028	84.38
254.261	77.38
254.494	81.38
254.727	83.38
254.96	77.38
255.193	76.38
255.426	77.38
255.659	70.38
255.892	74.38
256.124	81.38
256.357	86.38
256.59	78.38
256.823	77.38
257.056	89.38
257.289	73.38
257.521	90.38
257.754	73.38
257.987	81.38
258.22	90.38
258.452	76.38
258.685	95.38
258.918	74.38
259.151	77.38
259.383	94.38
259.616	91.38
259.849	67.38
260.081	83.38
260.314	82.38
260.547	76.38
260.779	70.38
261.012	83.38
261.244	67.38
261.477	65.38
261.71	78.38
261.942	76.38
262.175	92.38
262.407	76.38
262.64	80.38
262.872	80.38
263.105	87.38
263.337	83.38
263.57	91.38
263.802	86.38
264.035	88.38
264.267	74.38
264.499	81.38
264.732	87.38
264.964	84.38
265.197	73.38
265.429	82.38
265.661	85.38
265.894	81.38
266.126	75.38
266.358	80.38
266.591	87.38
266.823	88.38
267.055	83.38
267.287	87.38
267.52	81.38
267.752	77.38
267.984	82.38
268.216	92.38
268.448	97.38
268.681	83.38
268.913	81.38
269.145	77.38
269.377	91.38
269.609	77.38
269.841	87.38
270.073	81.38
270.306	89.38
270.538	82.38
270.77	69.38
271.002	97.38
271.234	93.38
271.466	85.38
271.698	85.38
271.93	91.38
272.162	85.38
272.394	81.38
272.626	88.38
272.858	86.38
273.09	66.38
273.322	84.38
273.553	89.38
273.785	76.38
274.017	78.38
274.249	93.38
274.481	89.38
274.713	88.38
274.945	77.38
275.176	89.38
275.408	95.38
275.64	88.38
275.872	78.38
276.104	78.38
276.335	75.38
276.567	60.38
276.799	83.38
277.031	83.38
277.262	88.38
277.494	84.38
277.726	73.38
277.957	81.38
278.189	75.38
278.421	87.38
278.652	90.38
278.884	90.38
279.115	100.38
279.347	73.38
279.579	90.38
279.81	80.38
280.042	92.38
280.273	76.38
280.505	85.38
280.736	72.38
280.968	95.38
281.199	91.38
281.431	67.38
281.662	91.38
281.894	101.38
282.125	85.38
282.356	85.38
282.588	83.38
282.819	83.38
283.051	84.38
283.282	83.38
283.513	80.38
283.745	78.38
283.976	93.38
284.207	92.38
284.439	89.38
284.67	81.38
284.901	86.38
285.132	72.38
285.364	84.38
285.595	85.38
285.826	77.38
286.057	91.38
286.288	88.38
286.52	72.38
286.751	85.38
286.982	69.38
287.213	91.38
287.444	81.38
287.675	92.38
287.906	103.38
288.138	90.38
288.369	92.38
288.6	90.38
288.831	73.38
289.062	78.38
289.293	73.38
289.524	92.38
289.755	64.38
289.986	85.38
290.217	87.38
290.448	69.38
290.679	78.38
290.91	95.38
291.141	66.38
291.371	87.38
291.602	98.38
291.833	91.38
292.064	81.38
292.295	82.38
292.526	91.38
292.757	80.38
292.987	87.38
293.218	81.38
293.449	84.38
293.68	96.38
293.91	81.38
294.141	84.38
294.372	95.38
294.603	100.38
294.833	78.38
295.064	80.38
295.295	73.38
295.525	89.38
295.756	69.38
295.987	78.38
296.217	81.38
296.448	81.38
296.679	73.38
296.909	95.38
297.14	81.38
297.37	87.38
297.601	83.38
297.831	71.38
298.062	87.38
298.292	88.38
298.523	89.38
298.753	83.38
298.984	82.38
299.214	78.38
299.445	89.38
299.675	85.38
299.905	90.38
300.136	76.38
300.366	83.38
300.597	78.38
300.827	98.38
301.057	79.38
301.288	83.38
301.518	87.38
301.748	96.38
301.979	112.38
302.209	90.38
302.439	103.38
302.669	96.38
302.9	75.38
303.13	83.38
303.36	85.38
303.59	99.38
303.82	90.38
304.051	95.38
304.281	74.38
304.511	83.38
304.741	78.38
304.971	93.38
305.201	92.38
305.431	94.38
305.661	79.38
305.891	71.38
306.121	75.38
306.352	80.38
306.582	92.38
306.812	84.38
307.042	84.38
307.272	81.38
307.502	80.38
307.731	75.38
307.961	102.38
308.191	88.38
308.421	73.38
308.651	73.38
308.881	60.38
309.111	100.38
309.341	103.38
309.571	96.38
309.8	84.38
310.03	88.38
310.26	98.38
310.49	86.38
310.72	84.38
310.949	90.38
311.179	80.38
311.409	88.38
311.639	86.38
311.868	90.38
312.098	91.38
312.328	98.38
312.557	87.38
312.787	81.38
313.017	83.38
313.246	88.38
313.476	102.38
313.706	85.38
313.935	80.38
314.165	85.38
314.394	83.38
314.624	91.38
314.853	89.38
315.083	83.38
315.312	77.38
315.542	84.38
315.771	91.38
316.001	88.38
316.23	96.38
316.46	76.38
316.689	79.38
316.919	84.38
317.148	93.38
317.377	91.38
317.607	97.38
317.836	96.38
318.065	90.38
318.295	103.38
318.524	103.38
318.753	94.38
318.983	86.38
319.212	78.38
319.441	97.38
319.67	93.38
319.9	90.38
320.129	82.38
320.358	82.38
320.587	84.38
320.816	82.38
321.046	86.38
321.275	81.38
321.504	91.38
321.733	89.38
321.962	94.38
322.191	91.38
322.42	93.38
322.649	96.38
322.878	77.38
323.108	91.38
323.337	99.38
323.566	93.38
323.795	102.38
324.024	93.38
324.253	99.38
324.482	83.38
324.71	100.38
324.939	85.38
325.168	78.38
325.397	92.38
325.626	83.38
325.855	85.38
326.084	83.38
326.313	71.38
326.542	92.38
326.77	95.38
326.999	79.38
327.228	84.38
327.457	70.38
327.686	88.38
327.914	72.38
328.143	89.38
328.372	81.38
328.6	73.38
328.829	77.38
329.058	87.38
329.287	99.38
329.515	81.38
329.744	80.38
329.972	83.38
330.201	95.38
330.43	87.38
330.658	88.38
330.887	79.38
331.115	86.38
331.344	86.38
331.572	86.38
331.801	78.38
332.03	92.38
332.258	77.38
332.486	85.38
332.715	79.38
332.943	84.38
333.172	88.38
333.4	80.38
333.629	100.38
333.857	91.38
334.085	102.38
334.314	71.38
334.542	78.38
334.771	91.38
334.999	80.38
335.227	93.38
335.455	88.38
335.684	89.38
335.912	83.38
336.14	77.38
336.369	90.38
336.597	81.38
336.825	79.38
337.053	82.38
337.281	90.38
337.51	88.38
337.738	91.38
337.966	88.38
338.194	77.38
338.422	74.38
338.65	97.38
338.878	83.38
339.106	85.38
339.334	96.38
339.562	84.38
339.79	86.38
340.018	89.38
340.246	89.38
340.474	94.38
340.702	86.38
340.93	89.38
341.158	88.38
341.386	99.38
341.614	80.38
341.842	77.38
342.07	89.38
342.298	100.38
342.526	71.38
342.754	92.38
342.981	84.38
343.209	90.38
343.437	93.38
343.665	65.38
343.893	86.38
344.12	83.38
344.348	86.38
344.576	92.38
344.804	77.38
345.031	91.38
345.259	78.38
345.487	87.38
345.714	93.38
345.942	98.38
346.17	78.38
346.397	84.38
346.625	81.38
346.853	89.38
347.08	98.38
347.308	99.38
347.535	100.38
347.763	81.38
347.99	89.38
348.218	78.38
348.445	82.38
348.673	86.38
348.9	93.38
349.128	95.38
349.355	87.38
349.583	71.38
349.81	76.38
350.037	91.38
350.265	84.38
350.492	68.38
350.72	90.38
350.947	72.38
351.174	81.38
351.402	89.38
351.629	85.38
351.856	79.38
352.083	79.38
352.311	80.38
352.538	87.38
352.765	104.38
352.992	84.38
353.22	88.38
353.447	77.38
353.674	93.38
353.901	83.38
354.128	81.38
354.355	86.38
354.583	68.38
354.81	79.38
355.037	83.38
355.264	77.38
355.491	81.38
355.718	78.38
355.945	71.38
356.172	80.38
356.399	77.38
356.626	88.38
356.853	89.38
357.08	99.38
357.307	85.38
357.534	77.38
357.761	102.38
357.988	95.38
358.215	99.38
358.441	94.38
358.668	69.38
358.895	77.38
359.122	73.38
359.349	82.38
359.576	87.38
359.802	92.38
360.029	85.38
360.256	105.38
360.483	71.38
360.709	84.38
360.936	92.38
361.163	84.38
361.39	84.38
361.616	71.38
361.843	77.38
362.07	84.38
362.296	87.38
362.523	85.38
362.749	76.38
362.976	106.38
363.203	91.38
363.429	88.38
363.656	93.38
363.882	94.38
364.109	95.38
364.335	88.38
364.562	84.38
364.788	90.38
365.015	99.38
365.241	77.38
365.468	76.38
365.694	81.38
365.92	85.38
366.147	84.38
366.373	88.38
366.599	78.38
366.826	60.38
367.052	84.38
367.278	76.38
367.505	91.38
367.731	83.38
367.957	87.38
368.184	97.38
368.41	75.38
368.636	86.38
368.862	94.38
369.089	75.38
369.315	87.38
369.541	82.38
369.767	83.38
369.993	85.38
370.219	91.38
370.445	96.38
370.672	87.38
370.898	91.38
371.124	88.38
371.35	82.38
371.576	78.38
371.802	78.38
372.028	89.38
372.254	87.38
372.48	88.38
372.706	81.38
372.932	80.38
373.158	95.38
373.384	96.38
373.61	82.38
373.835	102.38
374.061	83.38
374.287	96.38
374.513	89.38
374.739	91.38
374.965	97.38
375.191	88.38
375.416	84.38
375.642	88.38
375.868	92.38
376.094	80.38
376.319	88.38
376.545	80.38
376.771	70.38
376.997	83.38
377.222	85.38
377.448	75.38
377.674	83.38
377.899	81.38
378.125	81.38
378.35	87.38
378.576	101.38
378.802	92.38
379.027	81.38
379.253	102.38
379.478	88.38
379.704	90.38
379.929	77.38
380.155	83.38
380.38	58.38
380.606	87.38
380.831	87.38
381.057	95.38
381.282	83.38
381.507	88.38
381.733	88.38
381.958	87.38
382.184	87.38
382.409	92.38
382.634	96.38
382.86	88.38
383.085	81.38
383.31	89.38
383.535	91.38
383.761	89.38
383.986	84.38
384.211	87.38
384.436	83.38
384.662	78.38
384.887	85.38
385.112	87.38
385.337	87.38
385.562	75.38
385.787	90.38
386.013	83.38
386.238	86.38
386.463	93.38
386.688	94.38
386.913	81.38
387.138	94.38
387.363	74.38
387.588	81.38
387.813	92.38
388.038	85.38
388.263	86.38
388.488	86.38
388.713	85.38
388.938	81.38
389.163	87.38
389.387	78.38
389.612	77.38
389.837	89.38
390.062	86.38
390.287	82.38
390.512	80.38
390.736	77.38
390.961	73.38
391.186	82.38
391.411	96.38
391.636	73.38
391.86	84.38
392.085	81.38
392.31	84.38
392.534	93.38
392.759	105.38
392.984	125.38
393.208	180.38
393.433	257.38
393.658	223.38
393.882	99.38
394.107	100.38
394.331	98.38
394.556	96.38
394.78	91.38
395.005	85.38
395.229	81.38
395.454	87.38
395.678	76.38
395.903	93.38
396.127	111.38
396.352	123.38
396.576	137.38
396.801	192.38
397.025	238.38
397.249	113.38
397.474	98.38
397.698	83.38
397.922	95.38
398.147	76.38
398.371	78.38
398.595	74.38
398.82	90.38
399.044	82.38
399.268	81.38
399.492	89.38
399.717	90.38
399.941	73.38
400.165	83.38
400.389	74.38
400.613	89.38
400.837	83.38
401.062	78.38
401.286	84.38
401.51	73.38
401.734	67.38
401.958	67.38
402.182	75.38
402.406	96.38
402.63	89.38
402.854	96.38
403.078	93.38
403.302	69.38
403.526	85.38
403.75	73.38
403.974	100.38
404.198	101.38
404.422	85.38
404.645	89.38
404.869	83.38
405.093	87.38
405.317	93.38
405.541	83.38
405.765	76.38
405.988	78.38
406.212	83.38
406.436	80.38
406.66	99.38
406.883	97.38
407.107	82.38
407.331	83.38
407.555	93.38
407.778	109.38
408.002	107.38
408.226	93.38
408.449	85.38
408.673	95.38
408.896	95.38
409.12	101.38
409.344	89.38
409.567	82.38
409.791	89.38
410.014	90.38
410.238	87.38
410.461	83.38
410.685	99.38
410.908	80.38
411.132	61.38
411.355	85.38
411.578	91.38
411.802	90.38
412.025	100.38
412.249	88.38
412.472	84.38
412.695	77.38
412.919	81.38
413.142	96.38
413.365	80.38
413.589	92.38
413.812	91.38
414.035	79.38
414.258	84.38
414.482	84.38
414.705	84.38
414.928	81.38
415.151	72.38
415.374	77.38
415.597	86.38
415.821	77.38
416.044	84.38
416.267	76.38
416.49	81.38
416.713	75.38
416.936	84.38
417.159	100.38
417.382	96.38
417.605	81.38
417.828	81.38
418.051	81.38
418.274	81.38
418.497	85.38
418.72	74.38
418.943	89.38
419.166	98.38
419.389	95.38
419.611	89.38
419.834	81.38
420.057	90.38
420.28	90.38
420.503	74.38
420.726	86.38
420.948	89.38
421.171	88.38
421.394	80.38
421.617	99.38
421.839	99.38
422.062	92.38
422.285	118.38
422.507	179.38
422.73	255.38
422.953	236.38
423.175	98.38
423.398	93.38
423.621	88.38
423.843	77.38
424.066	81.38
424.288	100.38
424.511	80.38
424.733	97.38
424.956	93.38
425.178	89.38
425.401	91.38
425.623	87.38
425.846	89.38
426.068	89.38
426.291	67.38
426.513	71.38
426.735	79.38
426.958	89.38
427.18	86.38
427.402	94.38
427.625	79.38
427.847	81.38
428.069	81.38
428.292	104.38
428.514	113.38
428.736	101.38
428.958	97.38
429.181	97.38
429.403	92.38
429.625	75.38
429.847	87.38
430.069	106.38
430.292	124.38
430.514	113.38
430.736	90.38
430.958	106.38
431.18	74.38
431.402	84.38
431.624	82.38
431.846	96.38
432.068	108.38
432.29	98.38
432.512	81.38
432.734	88.38
432.956	84.38
433.178	77.38
433.4	81.38
433.622	89.38
433.844	80.38
434.066	89.38
434.287	79.38
434.509	86.38
434.731	74.38
434.953	87.38
435.175	90.38
435.397	71.38
435.618	78.38
435.84	84.38
436.062	82.38
436.284	73.38
436.505	90.38
436.727	90.38
436.949	80.38
437.17	83.38
437.392	90.38
437.614	79.38
437.835	71.38
438.057	83.38
438.278	75.38
438.5	83.38
438.721	90.38
438.943	77.38
439.165	82.38
439.386	79.38
439.608	90.38
439.829	71.38
440.05	79.38
440.272	84.38
440.493	77.38
440.715	81.38
440.936	82.38
441.158	100.38
441.379	84.38
441.6	83.38
441.822	76.38
442.043	80.38
442.264	91.38
442.486	84.38
442.707	104.38
442.928	99.38
443.149	84.38
443.371	107.38
443.592	147.38
443.813	130.38
444.034	88.38
444.255	76.38
444.476	76.38
444.698	75.38
444.919	74.38
445.14	147.38
445.361	154.38
445.582	165.38
445.803	133.38
446.024	105.38
446.245	90.38
446.466	90.38
446.687	91.38
446.908	71.38
447.129	85.38
447.35	80.38
447.571	80.38
447.792	81.38
448.013	75.38
448.234	83.38
448.455	88.38
448.675	67.38
448.896	89.38
449.117	68.38
449.338	74.38
449.559	81.38
449.779	84.38
450	77.38
450.221	65.38
450.442	99.38
450.662	92.38
450.883	71.38
451.104	92.38
451.324	91.38
451.545	86.38
451.766	79.38
451.986	86.38
452.207	86.38
452.428	94.38
452.648	89.38
452.869	81.38
453.089	81.38
453.31	74.38
453.53	63.38
453.751	79.38
453.971	87.38
454.192	90.38
454.412	81.38
454.633	87.38
454.853	85.38
455.073	95.38
455.294	75.38
455.514	92.38
455.734	104.38
455.955	75.38
456.175	81.38
456.395	82.38
456.616	88.38
456.836	88.38
457.056	71.38
457.276	83.38
457.497	81.38
457.717	85.38
457.937	108.38
458.157	87.38
458.377	103.38
458.598	85.38
458.818	109.38
459.038	85.38
459.258	85.38
459.478	89.38
459.698	79.38
459.918	86.38
460.138	82.38
460.358	88.38
460.578	90.38
460.798	95.38
461.018	100.38
461.238	89.38
461.458	82.38
461.678	96.38
461.898	71.38
462.118	85.38
462.338	81.38
462.558	88.38
462.777	71.38
462.997	70.38
463.217	75.38
463.437	95.38
463.657	75.38
463.876	83.38
464.096	96.38
464.316	82.38
464.536	63.38
464.755	95.38
464.975	91.38
465.195	70.38
465.414	77.38
465.634	83.38
465.854	77.38
466.073	86.38
466.293	69.38
466.512	76.38
466.732	77.38
466.951	74.38
467.171	81.38
467.391	83.38
467.61	93.38
467.829	97.38
468.049	86.38
468.268	90.38
468.488	84.38
468.707	95.38
468.927	101.38
469.146	71.38
469.365	81.38
469.585	99.38
469.804	95.38
470.023	91.38
470.243	80.38
470.462	74.38
470.681	83.38
470.901	74.38
471.12	88.38
471.339	98.38
471.558	97.38
471.777	72.38
471.997	88.38
472.216	83.38
472.435	75.38
472.654	84.38
472.873	91.38
473.092	69.38
473.311	87.38
473.53	80.38
473.749	73.38
473.968	88.38
474.187	85.38
474.406	73.38
474.625	85.38
474.844	84.38
475.063	79.38
475.282	90.38
475.501	76.38
475.72	97.38
475.939	79.38
476.158	84.38
476.377	87.38
476.596	83.38
476.814	72.38
477.033	81.38
477.252	83.38
477.471	83.38
477.69	91.38
477.908	97.38
478.127	87.38
478.346	93.38
478.564	84.38
478.783	72.38
479.002	78.38
479.22	75.38
479.439	83.38
479.658	80.38
479.876	80.38
480.095	86.38
480.313	89.38
480.532	92.38
480.751	95.38
480.969	83.38
481.188	95.38
481.406	74.38
481.624	74.38
481.843	80.38
482.061	73.38
482.28	66.38
482.498	91.38
482.717	79.38
482.935	83.38
483.153	95.38
483.372	90.38
483.59	73.38
483.808	90.38
484.027	73.38
484.245	82.38
484.463	85.38
484.681	93.38
484.9	78.38
485.118	86.38
485.336	85.38
485.554	83.38
485.772	82.38
485.99	71.38
486.209	84.38
486.427	91.38
486.645	84.38
486.863	89.38
487.081	86.38
487.299	84.38
487.517	88.38
487.735	96.38
487.953	116.38
488.171	107.38
488.389	95.38
488.607	76.38
488.825	81.38
489.043	77.38
489.261	98.38
489.479	85.38
489.696	88.38
489.914	76.38
490.132	79.38
490.35	69.38
490.568	85.38
490.786	87.38
491.003	69.38
491.221	87.38
491.439	81.38
491.657	103.38
491.874	79.38
492.092	68.38
492.31	84.38
492.527	93.38
492.745	93.38
492.963	84.38
493.18	64.38
493.398	85.38
493.615	93.38
493.833	79.38
494.05	88.38
494.268	88.38
494.485	71.38
494.703	99.38
494.92	89.38
495.138	92.38
495.355	78.38
495.573	86.38
495.79	88.38
496.008	83.38
496.225	83.38
496.442	79.38
496.66	99.38
496.877	91.38
497.094	97.38
497.312	104.38
497.529	90.38
497.746	84.38
497.963	76.38
498.181	100.38
498.398	83.38
498.615	76.38
498.832	87.38
499.049	82.38
499.267	80.38
499.484	80.38
499.701	86.38
499.918	85.38
500.135	82.38
500.352	99.38
500.569	88.38
500.786	79.38
501.003	95.38
501.22	83.38
501.437	79.38
501.654	77.38
501.871	84.38
502.088	89.38
502.305	88.38
502.522	83.38
502.739	83.38
502.956	83.38
503.172	86.38
503.389	77.38
503.606	81.38
503.823	84.38
504.04	99.38
504.256	85.38
504.473	105.38
504.69	90.38
504.907	81.38
505.123	72.38
505.34	92.38
505.557	80.38
505.773	84.38
505.99	82.38
506.207	93.38
506.423	83.38
506.64	101.38
506.856	95.38
507.073	80.38
507.289	95.38
507.506	72.38
507.722	79.38
507.939	83.38
508.155	73.38
508.372	87.38
508.588	75.38
508.805	81.38
509.021	95.38
509.238	107.38
509.454	92.38
509.67	82.38
509.887	81.38
510.103	103.38
510.319	84.38
510.536	79.38
510.752	80.38
510.968	84.38
511.184	92.38
511.401	69.38
511.617	71.38
511.833	86.38
512.049	83.38
512.265	100.38
512.481	80.38
512.698	75.38
512.914	83.38
513.13	71.38
513.346	88.38
513.562	95.38
513.778	78.38
513.994	76.38
514.21	73.38
514.426	85.38
514.642	81.38
514.858	87.38
515.074	90.38
515.29	83.38
515.506	79.38
515.721	76.38
515.937	91.38
516.153	95.38
516.369	82.38
516.585	82.38
516.801	90.38
517.016	96.38
517.232	64.38
517.448	88.38
517.664	92.38
517.879	83.38
518.095	87.38
518.311	94.38
518.527	101.38
518.742	93.38
518.958	99.38
519.173	98.38
