Data from 17600_1_HRD10591_00039.txt Node
Date: Mon Jan 19 14:07:43 EST 2026
User: Yrep
Spectrometer: HR+D1059
Trigger mode: 1
Integration Time (sec): 1.000000E-1
Scans to average: 1
Electric dark correction enabled: true
Nonlinearity correction enabled: false
Boxcar width: 0
XAxis mode: Wavelengths
Number of Pixels in Spectrum: 2048
>>>>>Begin Spectral Data<<<<<
223.165	-21.88
223.4	-21.88
223.635	-21.88
223.869	-27.88
224.104	-27.88
224.338	-0.88
224.573	-5.88
224.808	-21.88
225.042	-27.88
225.277	2.12
225.511	1.12
225.746	7.12
225.98	5.12
226.215	14.12
226.449	17.12
226.683	29.12
226.918	19.12
227.152	39.12
227.387	29.12
227.621	41.12
227.856	53.12
228.09	38.12
228.324	47.12
228.559	57.12
228.793	53.12
229.027	70.12
229.262	47.12
229.496	57.12
229.73	66.12
229.964	78.12
230.199	81.12
230.433	78.12
230.667	86.12
230.901	78.12
231.136	97.12
231.37	66.12
231.604	72.12
231.838	84.12
232.072	89.12
232.306	89.12
232.541	79.12
232.775	81.12
233.009	87.12
233.243	84.12
233.477	76.12
233.711	75.12
233.945	74.12
234.179	69.12
234.413	77.12
234.647	83.12
234.881	83.12
235.115	83.12
235.349	81.12
235.583	85.12
235.817	76.12
236.051	91.12
236.285	90.12
236.519	83.12
236.753	85.12
236.987	95.12
237.221	85.12
237.455	99.12
237.689	59.12
237.922	71.12
238.156	71.12
238.39	65.12
238.624	71.12
238.858	84.12
239.091	63.12
239.325	69.12
239.559	87.12
239.793	84.12
240.027	79.12
240.26	74.12
240.494	80.12
240.728	69.12
240.961	78.12
241.195	77.12
241.429	81.12
241.662	67.12
241.896	68.12
242.13	77.12
242.363	93.12
242.597	71.12
242.83	75.12
243.064	73.12
243.298	76.12
243.531	81.12
243.765	81.12
243.998	73.12
244.232	73.12
244.465	76.12
244.699	81.12
244.932	70.12
245.166	85.12
245.399	93.12
245.633	90.12
245.866	85.12
246.099	88.12
246.333	83.12
246.566	74.12
246.8	73.12
247.033	71.12
247.266	73.12
247.5	75.12
247.733	95.12
247.966	74.12
248.2	89.12
248.433	86.12
248.666	78.12
248.899	70.12
249.133	83.12
249.366	89.12
249.599	90.12
249.832	67.12
250.066	89.12
250.299	66.12
250.532	79.12
250.765	82.12
250.998	83.12
251.231	78.12
251.465	77.12
251.698	75.12
251.931	72.12
252.164	64.12
252.397	84.12
252.63	78.12
252.863	80.12
253.096	82.12
253.329	81.12
253.562	74.12
253.795	74.12
254.028	76.12
254.261	84.12
254.494	76.12
254.727	86.12
254.96	83.12
255.193	77.12
255.426	74.12
255.659	91.12
255.892	72.12
256.124	80.12
256.357	75.12
256.59	85.12
256.823	88.12
257.056	67.12
257.289	75.12
257.521	73.12
257.754	86.12
257.987	81.12
258.22	88.12
258.452	89.12
258.685	91.12
258.918	67.12
259.151	78.12
259.383	92.12
259.616	90.12
259.849	82.12
260.081	80.12
260.314	78.12
260.547	88.12
260.779	85.12
261.012	78.12
261.244	75.12
261.477	72.12
261.71	73.12
261.942	89.12
262.175	73.12
262.407	93.12
262.64	71.12
262.872	73.12
263.105	77.12
263.337	100.12
263.57	84.12
263.802	88.12
264.035	86.12
264.267	86.12
264.499	73.12
264.732	88.12
264.964	73.12
265.197	88.12
265.429	80.12
265.661	75.12
265.894	85.12
266.126	85.12
266.358	86.12
266.591	71.12
266.823	73.12
267.055	82.12
267.287	80.12
267.52	77.12
267.752	76.12
267.984	69.12
268.216	81.12
268.448	96.12
268.681	91.12
268.913	78.12
269.145	82.12
269.377	88.12
269.609	82.12
269.841	82.12
270.073	78.12
270.306	75.12
270.538	83.12
270.77	86.12
271.002	85.12
271.234	76.12
271.466	94.12
271.698	75.12
271.93	78.12
272.162	93.12
272.394	81.12
272.626	89.12
272.858	85.12
273.09	80.12
273.322	83.12
273.553	75.12
273.785	78.12
274.017	91.12
274.249	83.12
274.481	68.12
274.713	78.12
274.945	87.12
275.176	72.12
275.408	84.12
275.64	69.12
275.872	78.12
276.104	91.12
276.335	93.12
276.567	77.12
276.799	87.12
277.031	89.12
277.262	85.12
277.494	91.12
277.726	81.12
277.957	91.12
278.189	75.12
278.421	81.12
278.652	80.12
278.884	85.12
279.115	97.12
279.347	84.12
279.579	81.12
279.81	96.12
280.042	86.12
280.273	101.12
280.505	88.12
280.736	75.12
280.968	85.12
281.199	78.12
281.431	91.12
281.662	73.12
281.894	85.12
282.125	87.12
282.356	73.12
282.588	92.12
282.819	79.12
283.051	87.12
283.282	82.12
283.513	76.12
283.745	87.12
283.976	85.12
284.207	82.12
284.439	101.12
284.67	75.12
284.901	91.12
285.132	91.12
285.364	95.12
285.595	81.12
285.826	95.12
286.057	74.12
286.288	83.12
286.52	83.12
286.751	88.12
286.982	88.12
287.213	83.12
287.444	92.12
287.675	90.12
287.906	73.12
288.138	77.12
288.369	88.12
288.6	75.12
288.831	77.12
289.062	77.12
289.293	67.12
289.524	87.12
289.755	85.12
289.986	95.12
290.217	69.12
290.448	77.12
290.679	76.12
290.91	75.12
291.141	81.12
291.371	94.12
291.602	95.12
291.833	94.12
292.064	83.12
292.295	86.12
292.526	82.12
292.757	77.12
292.987	79.12
293.218	82.12
293.449	89.12
293.68	73.12
293.91	90.12
294.141	95.12
294.372	83.12
294.603	83.12
294.833	84.12
295.064	86.12
295.295	87.12
295.525	84.12
295.756	83.12
295.987	68.12
296.217	88.12
296.448	91.12
296.679	102.12
296.909	89.12
297.14	76.12
297.37	82.12
297.601	88.12
297.831	73.12
298.062	92.12
298.292	82.12
298.523	99.12
298.753	84.12
298.984	77.12
299.214	84.12
299.445	78.12
299.675	93.12
299.905	76.12
300.136	87.12
300.366	90.12
300.597	76.12
300.827	87.12
301.057	81.12
301.288	86.12
301.518	83.12
301.748	93.12
301.979	106.12
302.209	97.12
302.439	95.12
302.669	90.12
302.9	92.12
303.13	84.12
303.36	83.12
303.59	81.12
303.82	81.12
304.051	79.12
304.281	88.12
304.511	73.12
304.741	86.12
304.971	90.12
305.201	98.12
305.431	88.12
305.661	86.12
305.891	92.12
306.121	91.12
306.352	84.12
306.582	76.12
306.812	77.12
307.042	94.12
307.272	85.12
307.502	99.12
307.731	76.12
307.961	88.12
308.191	89.12
308.421	86.12
308.651	83.12
308.881	81.12
309.111	107.12
309.341	105.12
309.571	82.12
309.8	86.12
310.03	89.12
310.26	83.12
310.49	82.12
310.72	81.12
310.949	80.12
311.179	88.12
311.409	83.12
311.639	82.12
311.868	81.12
312.098	84.12
312.328	87.12
312.557	87.12
312.787	80.12
313.017	86.12
313.246	80.12
313.476	78.12
313.706	80.12
313.935	87.12
314.165	96.12
314.394	73.12
314.624	88.12
314.853	97.12
315.083	86.12
315.312	85.12
315.542	99.12
315.771	87.12
316.001	87.12
316.23	87.12
316.46	94.12
316.689	83.12
316.919	96.12
317.148	95.12
317.377	95.12
317.607	103.12
317.836	87.12
318.065	109.12
318.295	104.12
318.524	86.12
318.753	85.12
318.983	83.12
319.212	81.12
319.441	109.12
319.67	81.12
319.9	84.12
320.129	83.12
320.358	83.12
320.587	89.12
320.816	81.12
321.046	83.12
321.275	87.12
321.504	90.12
321.733	86.12
321.962	92.12
322.191	88.12
322.42	86.12
322.649	91.12
322.878	106.12
323.108	98.12
323.337	75.12
323.566	93.12
323.795	85.12
324.024	104.12
324.253	81.12
324.482	76.12
324.71	74.12
324.939	84.12
325.168	95.12
325.397	87.12
325.626	86.12
325.855	73.12
326.084	84.12
326.313	84.12
326.542	73.12
326.77	93.12
326.999	87.12
327.228	93.12
327.457	78.12
327.686	83.12
327.914	89.12
328.143	75.12
328.372	75.12
328.6	72.12
328.829	87.12
329.058	72.12
329.287	87.12
329.515	80.12
329.744	88.12
329.972	81.12
330.201	97.12
330.43	86.12
330.658	95.12
330.887	86.12
331.115	84.12
331.344	83.12
331.572	93.12
331.801	77.12
332.03	92.12
332.258	88.12
332.486	77.12
332.715	83.12
332.943	84.12
333.172	91.12
333.4	95.12
333.629	98.12
333.857	85.12
334.085	95.12
334.314	86.12
334.542	95.12
334.771	85.12
334.999	97.12
335.227	81.12
335.455	76.12
335.684	84.12
335.912	85.12
336.14	99.12
336.369	92.12
336.597	88.12
336.825	71.12
337.053	66.12
337.281	84.12
337.51	89.12
337.738	107.12
337.966	92.12
338.194	91.12
338.422	81.12
338.65	96.12
338.878	98.12
339.106	95.12
339.334	89.12
339.562	90.12
339.79	96.12
340.018	82.12
340.246	81.12
340.474	84.12
340.702	80.12
340.93	80.12
341.158	77.12
341.386	88.12
341.614	88.12
341.842	92.12
342.07	78.12
342.298	85.12
342.526	77.12
342.754	84.12
342.981	67.12
343.209	81.12
343.437	95.12
343.665	91.12
343.893	91.12
344.12	95.12
344.348	92.12
344.576	83.12
344.804	83.12
345.031	89.12
345.259	92.12
345.487	83.12
345.714	99.12
345.942	84.12
346.17	98.12
346.397	79.12
346.625	81.12
346.853	91.12
347.08	91.12
347.308	83.12
347.535	88.12
347.763	100.12
347.99	92.12
348.218	91.12
348.445	80.12
348.673	90.12
348.9	78.12
349.128	95.12
349.355	74.12
349.583	99.12
349.81	90.12
350.037	85.12
350.265	84.12
350.492	90.12
350.72	74.12
350.947	81.12
351.174	95.12
351.402	96.12
351.629	87.12
351.856	81.12
352.083	79.12
352.311	84.12
352.538	83.12
352.765	97.12
352.992	92.12
353.22	84.12
353.447	94.12
353.674	86.12
353.901	89.12
354.128	92.12
354.355	88.12
354.583	80.12
354.81	88.12
355.037	90.12
355.264	74.12
355.491	108.12
355.718	74.12
355.945	73.12
356.172	100.12
356.399	87.12
356.626	83.12
356.853	92.12
357.08	89.12
357.307	89.12
357.534	79.12
357.761	81.12
357.988	83.12
358.215	92.12
358.441	85.12
358.668	77.12
358.895	76.12
359.122	98.12
359.349	76.12
359.576	82.12
359.802	81.12
360.029	92.12
360.256	86.12
360.483	85.12
360.709	93.12
360.936	94.12
361.163	82.12
361.39	63.12
361.616	83.12
361.843	97.12
362.07	79.12
362.296	95.12
362.523	80.12
362.749	85.12
362.976	98.12
363.203	95.12
363.429	106.12
363.656	91.12
363.882	72.12
364.109	80.12
364.335	95.12
364.562	98.12
364.788	110.12
365.015	98.12
365.241	83.12
365.468	88.12
365.694	93.12
365.92	88.12
366.147	88.12
366.373	83.12
366.599	97.12
366.826	86.12
367.052	84.12
367.278	83.12
367.505	90.12
367.731	71.12
367.957	66.12
368.184	89.12
368.41	93.12
368.636	85.12
368.862	77.12
369.089	93.12
369.315	79.12
369.541	85.12
369.767	85.12
369.993	92.12
370.219	87.12
370.445	87.12
370.672	82.12
370.898	74.12
371.124	90.12
371.35	92.12
371.576	89.12
371.802	90.12
372.028	78.12
372.254	72.12
372.48	96.12
372.706	86.12
372.932	93.12
373.158	85.12
373.384	97.12
373.61	101.12
373.835	102.12
374.061	95.12
374.287	74.12
374.513	81.12
374.739	99.12
374.965	100.12
375.191	87.12
375.416	75.12
375.642	81.12
375.868	106.12
376.094	93.12
376.319	77.12
376.545	91.12
376.771	82.12
376.997	99.12
377.222	80.12
377.448	74.12
377.674	81.12
377.899	97.12
378.125	91.12
378.35	99.12
378.576	77.12
378.802	78.12
379.027	86.12
379.253	78.12
379.478	100.12
379.704	100.12
379.929	88.12
380.155	75.12
380.38	90.12
380.606	106.12
380.831	98.12
381.057	96.12
381.282	94.12
381.507	89.12
381.733	91.12
381.958	94.12
382.184	110.12
382.409	95.12
382.634	99.12
382.86	90.12
383.085	104.12
383.31	88.12
383.535	96.12
383.761	83.12
383.986	96.12
384.211	88.12
384.436	96.12
384.662	87.12
384.887	79.12
385.112	86.12
385.337	91.12
385.562	83.12
385.787	89.12
386.013	88.12
386.238	80.12
386.463	92.12
386.688	103.12
386.913	78.12
387.138	89.12
387.363	85.12
387.588	92.12
387.813	79.12
388.038	86.12
388.263	95.12
388.488	95.12
388.713	93.12
388.938	89.12
389.163	83.12
389.387	81.12
389.612	83.12
389.837	84.12
390.062	90.12
390.287	78.12
390.512	91.12
390.736	87.12
390.961	79.12
391.186	73.12
391.411	85.12
391.636	96.12
391.86	87.12
392.085	89.12
392.31	89.12
392.534	92.12
392.759	120.12
392.984	151.12
393.208	273.12
393.433	420.12
393.658	330.12
393.882	140.12
394.107	123.12
394.331	116.12
394.556	122.12
394.78	98.12
395.005	96.12
395.229	70.12
395.454	95.12
395.678	101.12
395.903	117.12
396.127	137.12
396.352	141.12
396.576	173.12
396.801	290.12
397.025	352.12
397.249	182.12
397.474	106.12
397.698	85.12
397.922	95.12
398.147	91.12
398.371	83.12
398.595	86.12
398.82	87.12
399.044	90.12
399.268	86.12
399.492	90.12
399.717	97.12
399.941	81.12
400.165	83.12
400.389	80.12
400.613	89.12
400.837	86.12
401.062	94.12
401.286	100.12
401.51	83.12
401.734	77.12
401.958	66.12
402.182	84.12
402.406	88.12
402.63	106.12
402.854	85.12
403.078	87.12
403.302	79.12
403.526	83.12
403.75	86.12
403.974	74.12
404.198	89.12
404.422	91.12
404.645	95.12
404.869	90.12
405.093	91.12
405.317	77.12
405.541	79.12
405.765	85.12
405.988	98.12
406.212	92.12
406.436	83.12
406.66	70.12
406.883	71.12
407.107	94.12
407.331	88.12
407.555	99.12
407.778	133.12
408.002	132.12
408.226	99.12
408.449	79.12
408.673	85.12
408.896	76.12
409.12	83.12
409.344	81.12
409.567	93.12
409.791	97.12
410.014	97.12
410.238	93.12
410.461	72.12
410.685	77.12
410.908	90.12
411.132	86.12
411.355	91.12
411.578	80.12
411.802	86.12
412.025	82.12
412.249	82.12
412.472	77.12
412.695	82.12
412.919	80.12
413.142	87.12
413.365	86.12
413.589	72.12
413.812	86.12
414.035	91.12
414.258	96.12
414.482	77.12
414.705	90.12
414.928	87.12
415.151	67.12
415.374	92.12
415.597	78.12
415.821	72.12
416.044	85.12
416.267	79.12
416.49	95.12
416.713	73.12
416.936	71.12
417.159	68.12
417.382	80.12
417.605	90.12
417.828	92.12
418.051	88.12
418.274	90.12
418.497	86.12
418.72	86.12
418.943	78.12
419.166	91.12
419.389	92.12
419.611	84.12
419.834	103.12
420.057	96.12
420.28	85.12
420.503	88.12
420.726	92.12
420.948	86.12
421.171	100.12
421.394	113.12
421.617	126.12
421.839	107.12
422.062	109.12
422.285	119.12
422.507	199.12
422.73	314.12
422.953	255.12
423.175	131.12
423.398	96.12
423.621	95.12
423.843	88.12
424.066	83.12
424.288	91.12
424.511	88.12
424.733	85.12
424.956	71.12
425.178	79.12
425.401	82.12
425.623	88.12
425.846	79.12
426.068	89.12
426.291	81.12
426.513	84.12
426.735	95.12
426.958	83.12
427.18	85.12
427.402	88.12
427.625	70.12
427.847	91.12
428.069	95.12
428.292	121.12
428.514	123.12
428.736	100.12
428.958	104.12
429.181	109.12
429.403	87.12
429.625	90.12
429.847	103.12
430.069	144.12
430.292	160.12
430.514	144.12
430.736	102.12
430.958	122.12
431.18	98.12
431.402	76.12
431.624	83.12
431.846	111.12
432.068	112.12
432.29	90.12
432.512	79.12
432.734	78.12
432.956	76.12
433.178	97.12
433.4	83.12
433.622	89.12
433.844	81.12
434.066	74.12
434.287	85.12
434.509	81.12
434.731	92.12
434.953	85.12
435.175	76.12
435.397	95.12
435.618	81.12
435.84	96.12
436.062	85.12
436.284	83.12
436.505	79.12
436.727	94.12
436.949	91.12
437.17	88.12
437.392	72.12
437.614	98.12
437.835	87.12
438.057	83.12
438.278	91.12
438.5	91.12
438.721	74.12
438.943	83.12
439.165	68.12
439.386	76.12
439.608	89.12
439.829	81.12
440.05	84.12
440.272	86.12
440.493	76.12
440.715	91.12
440.936	83.12
441.158	90.12
441.379	85.12
441.6	81.12
441.822	81.12
442.043	92.12
442.264	81.12
442.486	108.12
442.707	134.12
442.928	116.12
443.149	105.12
443.371	111.12
443.592	176.12
443.813	159.12
444.034	91.12
444.255	99.12
444.476	89.12
444.698	83.12
444.919	84.12
445.14	154.12
445.361	179.12
445.582	202.12
445.803	183.12
446.024	96.12
446.245	91.12
446.466	86.12
446.687	71.12
446.908	80.12
447.129	92.12
447.35	91.12
447.571	83.12
447.792	75.12
448.013	71.12
448.234	80.12
448.455	87.12
448.675	78.12
448.896	89.12
449.117	83.12
449.338	75.12
449.559	83.12
449.779	80.12
450	77.12
450.221	82.12
450.442	83.12
450.662	90.12
450.883	86.12
451.104	86.12
451.324	71.12
451.545	92.12
451.766	73.12
451.986	77.12
452.207	92.12
452.428	86.12
452.648	101.12
452.869	87.12
453.089	105.12
453.31	96.12
453.53	85.12
453.751	83.12
453.971	85.12
454.192	76.12
454.412	74.12
454.633	79.12
454.853	89.12
455.073	88.12
455.294	91.12
455.514	90.12
455.734	82.12
455.955	77.12
456.175	74.12
456.395	84.12
456.616	85.12
456.836	92.12
457.056	78.12
457.276	83.12
457.497	97.12
457.717	80.12
457.937	81.12
458.157	92.12
458.377	104.12
458.598	99.12
458.818	93.12
459.038	85.12
459.258	76.12
459.478	79.12
459.698	81.12
459.918	83.12
460.138	81.12
460.358	75.12
460.578	101.12
460.798	112.12
461.018	104.12
461.238	87.12
461.458	80.12
461.678	72.12
461.898	77.12
462.118	96.12
462.338	89.12
462.558	85.12
462.777	83.12
462.997	82.12
463.217	85.12
463.437	76.12
463.657	81.12
463.876	70.12
464.096	77.12
464.316	81.12
464.536	75.12
464.755	77.12
464.975	70.12
465.195	75.12
465.414	88.12
465.634	92.12
465.854	79.12
466.073	91.12
466.293	91.12
466.512	76.12
466.732	69.12
466.951	72.12
467.171	74.12
467.391	72.12
467.61	84.12
467.829	71.12
468.049	82.12
468.268	63.12
468.488	74.12
468.707	83.12
468.927	80.12
469.146	74.12
469.365	98.12
469.585	104.12
469.804	81.12
470.023	85.12
470.243	72.12
470.462	77.12
470.681	91.12
470.901	81.12
471.12	72.12
471.339	89.12
471.558	87.12
471.777	81.12
471.997	77.12
472.216	86.12
472.435	88.12
472.654	89.12
472.873	77.12
473.092	93.12
473.311	69.12
473.53	87.12
473.749	76.12
473.968	87.12
474.187	91.12
474.406	90.12
474.625	83.12
474.844	90.12
475.063	96.12
475.282	80.12
475.501	89.12
475.72	100.12
475.939	81.12
476.158	76.12
476.377	91.12
476.596	85.12
476.814	84.12
477.033	72.12
477.252	91.12
477.471	68.12
477.69	85.12
477.908	87.12
478.127	92.12
478.346	89.12
478.564	88.12
478.783	82.12
479.002	83.12
479.22	95.12
479.439	80.12
479.658	83.12
479.876	72.12
480.095	76.12
480.313	95.12
480.532	91.12
480.751	88.12
480.969	85.12
481.188	77.12
481.406	90.12
481.624	90.12
481.843	90.12
482.061	76.12
482.28	84.12
482.498	93.12
482.717	98.12
482.935	92.12
483.153	76.12
483.372	76.12
483.59	77.12
483.808	74.12
484.027	93.12
484.245	90.12
484.463	82.12
484.681	82.12
484.9	88.12
485.118	97.12
485.336	74.12
485.554	76.12
485.772	70.12
485.99	90.12
486.209	83.12
486.427	83.12
486.645	70.12
486.863	83.12
487.081	99.12
487.299	83.12
487.517	86.12
487.735	87.12
487.953	117.12
488.171	102.12
488.389	81.12
488.607	84.12
488.825	81.12
489.043	87.12
489.261	93.12
489.479	79.12
489.696	83.12
489.914	72.12
490.132	80.12
490.35	92.12
490.568	95.12
490.786	83.12
491.003	76.12
491.221	81.12
491.439	75.12
491.657	92.12
491.874	84.12
492.092	82.12
492.31	61.12
492.527	78.12
492.745	79.12
492.963	79.12
493.18	97.12
493.398	75.12
493.615	86.12
493.833	91.12
494.05	82.12
494.268	94.12
494.485	93.12
494.703	87.12
494.92	85.12
495.138	82.12
495.355	84.12
495.573	89.12
495.79	88.12
496.008	91.12
496.225	85.12
496.442	87.12
496.66	85.12
496.877	88.12
497.094	100.12
497.312	88.12
497.529	79.12
497.746	79.12
497.963	77.12
498.181	85.12
498.398	91.12
498.615	84.12
498.832	83.12
499.049	73.12
499.267	83.12
499.484	77.12
499.701	73.12
499.918	96.12
500.135	83.12
500.352	95.12
500.569	76.12
500.786	84.12
501.003	81.12
501.22	93.12
501.437	74.12
501.654	81.12
501.871	78.12
502.088	87.12
502.305	75.12
502.522	85.12
502.739	76.12
502.956	77.12
503.172	81.12
503.389	87.12
503.606	76.12
503.823	84.12
504.04	95.12
504.256	117.12
504.473	92.12
504.69	90.12
504.907	95.12
505.123	89.12
505.34	66.12
505.557	83.12
505.773	84.12
505.99	66.12
506.207	78.12
506.423	85.12
506.64	81.12
506.856	92.12
507.073	78.12
507.289	75.12
507.506	83.12
507.722	72.12
507.939	95.12
508.155	99.12
508.372	83.12
508.588	82.12
508.805	88.12
509.021	81.12
509.238	84.12
509.454	85.12
509.67	85.12
509.887	80.12
510.103	74.12
510.319	91.12
510.536	75.12
510.752	85.12
510.968	83.12
511.184	69.12
511.401	80.12
511.617	76.12
511.833	76.12
512.049	91.12
512.265	87.12
512.481	78.12
512.698	91.12
512.914	75.12
513.13	91.12
513.346	85.12
513.562	74.12
513.778	89.12
513.994	91.12
514.21	75.12
514.426	94.12
514.642	90.12
514.858	95.12
515.074	87.12
515.29	94.12
515.506	80.12
515.721	73.12
515.937	84.12
516.153	85.12
516.369	92.12
516.585	87.12
516.801	81.12
517.016	92.12
517.232	70.12
517.448	87.12
517.664	89.12
517.879	87.12
518.095	80.12
518.311	73.12
518.527	95.12
518.742	93.12
518.958	106.12
