Data from 17600_1_HRD10591_00001.txt Node
Date: Mon Jan 19 14:07:24 EST 2026
User: Yrep
Spectrometer: HR+D1059
Trigger mode: 1
Integration Time (sec): 1.000000E-1
Scans to average: 1
Electric dark correction enabled: true
Nonlinearity correction enabled: false
Boxcar width: 0
XAxis mode: Wavelengths
Number of Pixels in Spectrum: 2048
>>>>>Begin Spectral Data<<<<<
223.165	-14.56
223.4	-14.56
223.635	-14.56
223.869	-20.56
224.104	-17.56
224.338	-10.56
224.573	-37.56
224.808	-14.56
225.042	-21.56
225.277	1.44
225.511	-3.56
225.746	4.44
225.98	13.44
226.215	10.44
226.449	20.44
226.683	16.44
226.918	35.44
227.152	38.44
227.387	36.44
227.621	39.44
227.856	39.44
228.09	26.44
228.324	53.44
228.559	52.44
228.793	41.44
229.027	53.44
229.262	54.44
229.496	74.44
229.73	73.44
229.964	86.44
230.199	84.44
230.433	70.44
230.667	79.44
230.901	78.44
231.136	74.44
231.37	62.44
231.604	77.44
231.838	90.44
232.072	79.44
232.306	67.44
232.541	66.44
232.775	93.44
233.009	88.44
233.243	79.44
233.477	94.44
233.711	84.44
233.945	85.44
234.179	85.44
234.413	77.44
234.647	89.44
234.881	73.44
235.115	82.44
235.349	80.44
235.583	65.44
235.817	77.44
236.051	87.44
236.285	82.44
236.519	68.44
236.753	89.44
236.987	61.44
237.221	77.44
237.455	77.44
237.689	61.44
237.922	79.44
238.156	74.44
238.39	72.44
238.624	78.44
238.858	66.44
239.091	66.44
239.325	74.44
239.559	70.44
239.793	79.44
240.027	73.44
240.26	77.44
240.494	75.44
240.728	73.44
240.961	85.44
241.195	64.44
241.429	74.44
241.662	90.44
241.896	65.44
242.13	73.44
242.363	71.44
242.597	77.44
242.83	77.44
243.064	85.44
243.298	76.44
243.531	80.44
243.765	75.44
243.998	86.44
244.232	82.44
244.465	89.44
244.699	72.44
244.932	66.44
245.166	73.44
245.399	93.44
245.633	79.44
245.866	78.44
246.099	70.44
246.333	67.44
246.566	76.44
246.8	72.44
247.033	72.44
247.266	77.44
247.5	67.44
247.733	84.44
247.966	75.44
248.2	67.44
248.433	88.44
248.666	77.44
248.899	75.44
249.133	81.44
249.366	91.44
249.599	64.44
249.832	74.44
250.066	70.44
250.299	58.44
250.532	58.44
250.765	84.44
250.998	78.44
251.231	79.44
251.465	88.44
251.698	72.44
251.931	92.44
252.164	91.44
252.397	78.44
252.63	88.44
252.863	87.44
253.096	79.44
253.329	82.44
253.562	91.44
253.795	68.44
254.028	82.44
254.261	75.44
254.494	70.44
254.727	93.44
254.96	72.44
255.193	78.44
255.426	60.44
255.659	71.44
255.892	74.44
256.124	78.44
256.357	80.44
256.59	80.44
256.823	75.44
257.056	87.44
257.289	72.44
257.521	79.44
257.754	82.44
257.987	73.44
258.22	90.44
258.452	77.44
258.685	80.44
258.918	66.44
259.151	83.44
259.383	84.44
259.616	79.44
259.849	69.44
260.081	71.44
260.314	78.44
260.547	82.44
260.779	67.44
261.012	70.44
261.244	81.44
261.477	72.44
261.71	81.44
261.942	80.44
262.175	76.44
262.407	72.44
262.64	89.44
262.872	78.44
263.105	85.44
263.337	78.44
263.57	83.44
263.802	80.44
264.035	78.44
264.267	84.44
264.499	85.44
264.732	88.44
264.964	82.44
265.197	81.44
265.429	88.44
265.661	79.44
265.894	86.44
266.126	87.44
266.358	82.44
266.591	87.44
266.823	88.44
267.055	72.44
267.287	87.44
267.52	72.44
267.752	81.44
267.984	90.44
268.216	80.44
268.448	82.44
268.681	85.44
268.913	94.44
269.145	89.44
269.377	88.44
269.609	71.44
269.841	69.44
270.073	88.44
270.306	88.44
270.538	94.44
270.77	96.44
271.002	81.44
271.234	82.44
271.466	86.44
271.698	73.44
271.93	102.44
272.162	90.44
272.394	73.44
272.626	80.44
272.858	72.44
273.09	82.44
273.322	82.44
273.553	89.44
273.785	82.44
274.017	87.44
274.249	87.44
274.481	68.44
274.713	78.44
274.945	84.44
275.176	66.44
275.408	84.44
275.64	80.44
275.872	79.44
276.104	82.44
276.335	74.44
276.567	92.44
276.799	89.44
277.031	94.44
277.262	85.44
277.494	99.44
277.726	89.44
277.957	84.44
278.189	90.44
278.421	94.44
278.652	83.44
278.884	79.44
279.115	82.44
279.347	88.44
279.579	80.44
279.81	88.44
280.042	78.44
280.273	83.44
280.505	76.44
280.736	67.44
280.968	84.44
281.199	81.44
281.431	80.44
281.662	80.44
281.894	74.44
282.125	85.44
282.356	78.44
282.588	84.44
282.819	83.44
283.051	84.44
283.282	76.44
283.513	72.44
283.745	80.44
283.976	84.44
284.207	79.44
284.439	105.44
284.67	76.44
284.901	82.44
285.132	96.44
285.364	97.44
285.595	97.44
285.826	80.44
286.057	78.44
286.288	72.44
286.52	80.44
286.751	74.44
286.982	90.44
287.213	92.44
287.444	88.44
287.675	78.44
287.906	69.44
288.138	79.44
288.369	88.44
288.6	84.44
288.831	83.44
289.062	86.44
289.293	77.44
289.524	81.44
289.755	99.44
289.986	88.44
290.217	89.44
290.448	79.44
290.679	82.44
290.91	90.44
291.141	89.44
291.371	74.44
291.602	78.44
291.833	72.44
292.064	76.44
292.295	72.44
292.526	72.44
292.757	104.44
292.987	93.44
293.218	75.44
293.449	75.44
293.68	86.44
293.91	73.44
294.141	84.44
294.372	74.44
294.603	75.44
294.833	90.44
295.064	84.44
295.295	84.44
295.525	83.44
295.756	88.44
295.987	80.44
296.217	83.44
296.448	81.44
296.679	86.44
296.909	82.44
297.14	74.44
297.37	92.44
297.601	91.44
297.831	84.44
298.062	90.44
298.292	76.44
298.523	88.44
298.753	92.44
298.984	88.44
299.214	87.44
299.445	90.44
299.675	96.44
299.905	95.44
300.136	76.44
300.366	102.44
300.597	77.44
300.827	80.44
301.057	86.44
301.288	77.44
301.518	83.44
301.748	99.44
301.979	90.44
302.209	80.44
302.439	89.44
302.669	74.44
302.9	79.44
303.13	88.44
303.36	82.44
303.59	80.44
303.82	102.44
304.051	97.44
304.281	84.44
304.511	86.44
304.741	88.44
304.971	80.44
305.201	87.44
305.431	92.44
305.661	82.44
305.891	78.44
306.121	87.44
306.352	96.44
306.582	98.44
306.812	89.44
307.042	90.44
307.272	78.44
307.502	91.44
307.731	79.44
307.961	85.44
308.191	71.44
308.421	101.44
308.651	88.44
308.881	84.44
309.111	87.44
309.341	99.44
309.571	88.44
309.8	71.44
310.03	80.44
310.26	84.44
310.49	90.44
310.72	93.44
310.949	89.44
311.179	91.44
311.409	98.44
311.639	86.44
311.868	83.44
312.098	81.44
312.328	74.44
312.557	95.44
312.787	87.44
313.017	94.44
313.246	92.44
313.476	94.44
313.706	88.44
313.935	85.44
314.165	85.44
314.394	81.44
314.624	75.44
314.853	80.44
315.083	84.44
315.312	96.44
315.542	82.44
315.771	86.44
316.001	97.44
316.23	83.44
316.46	76.44
316.689	68.44
316.919	91.44
317.148	79.44
317.377	79.44
317.607	97.44
317.836	101.44
318.065	94.44
318.295	90.44
318.524	78.44
318.753	88.44
318.983	85.44
319.212	87.44
319.441	81.44
319.67	74.44
319.9	83.44
320.129	96.44
320.358	95.44
320.587	65.44
320.816	84.44
321.046	87.44
321.275	81.44
321.504	94.44
321.733	95.44
321.962	74.44
322.191	88.44
322.42	85.44
322.649	78.44
322.878	88.44
323.108	85.44
323.337	100.44
323.566	88.44
323.795	100.44
324.024	95.44
324.253	93.44
324.482	95.44
324.71	80.44
324.939	101.44
325.168	94.44
325.397	84.44
325.626	84.44
325.855	86.44
326.084	82.44
326.313	84.44
326.542	90.44
326.77	89.44
326.999	85.44
327.228	90.44
327.457	86.44
327.686	81.44
327.914	82.44
328.143	88.44
328.372	84.44
328.6	88.44
328.829	90.44
329.058	93.44
329.287	90.44
329.515	84.44
329.744	86.44
329.972	98.44
330.201	78.44
330.43	80.44
330.658	79.44
330.887	100.44
331.115	85.44
331.344	91.44
331.572	85.44
331.801	79.44
332.03	81.44
332.258	82.44
332.486	68.44
332.715	80.44
332.943	72.44
333.172	87.44
333.4	98.44
333.629	88.44
333.857	82.44
334.085	85.44
334.314	89.44
334.542	84.44
334.771	80.44
334.999	82.44
335.227	87.44
335.455	83.44
335.684	84.44
335.912	80.44
336.14	96.44
336.369	84.44
336.597	91.44
336.825	87.44
337.053	83.44
337.281	84.44
337.51	81.44
337.738	101.44
337.966	88.44
338.194	78.44
338.422	82.44
338.65	89.44
338.878	82.44
339.106	80.44
339.334	94.44
339.562	87.44
339.79	87.44
340.018	83.44
340.246	87.44
340.474	88.44
340.702	82.44
340.93	82.44
341.158	88.44
341.386	88.44
341.614	88.44
341.842	96.44
342.07	91.44
342.298	86.44
342.526	73.44
342.754	84.44
342.981	82.44
343.209	84.44
343.437	100.44
343.665	86.44
343.893	92.44
344.12	90.44
344.348	80.44
344.576	76.44
344.804	97.44
345.031	88.44
345.259	78.44
345.487	68.44
345.714	70.44
345.942	80.44
346.17	82.44
346.397	89.44
346.625	105.44
346.853	81.44
347.08	82.44
347.308	77.44
347.535	84.44
347.763	81.44
347.99	83.44
348.218	76.44
348.445	88.44
348.673	79.44
348.9	85.44
349.128	77.44
349.355	100.44
349.583	74.44
349.81	80.44
350.037	74.44
350.265	79.44
350.492	74.44
350.72	80.44
350.947	96.44
351.174	87.44
351.402	100.44
351.629	94.44
351.856	78.44
352.083	64.44
352.311	84.44
352.538	77.44
352.765	82.44
352.992	102.44
353.22	85.44
353.447	83.44
353.674	70.44
353.901	97.44
354.128	74.44
354.355	91.44
354.583	79.44
354.81	100.44
355.037	76.44
355.264	83.44
355.491	82.44
355.718	80.44
355.945	92.44
356.172	94.44
356.399	104.44
356.626	76.44
356.853	79.44
357.08	91.44
357.307	80.44
357.534	91.44
357.761	85.44
357.988	92.44
358.215	93.44
358.441	91.44
358.668	71.44
358.895	80.44
359.122	89.44
359.349	72.44
359.576	72.44
359.802	82.44
360.029	75.44
360.256	91.44
360.483	93.44
360.709	98.44
360.936	77.44
361.163	76.44
361.39	91.44
361.616	92.44
361.843	87.44
362.07	92.44
362.296	80.44
362.523	94.44
362.749	81.44
362.976	108.44
363.203	104.44
363.429	100.44
363.656	101.44
363.882	87.44
364.109	90.44
364.335	96.44
364.562	114.44
364.788	89.44
365.015	90.44
365.241	80.44
365.468	81.44
365.694	85.44
365.92	78.44
366.147	79.44
366.373	80.44
366.599	79.44
366.826	82.44
367.052	82.44
367.278	93.44
367.505	93.44
367.731	84.44
367.957	72.44
368.184	69.44
368.41	77.44
368.636	87.44
368.862	87.44
369.089	97.44
369.315	90.44
369.541	76.44
369.767	87.44
369.993	97.44
370.219	86.44
370.445	87.44
370.672	80.44
370.898	72.44
371.124	89.44
371.35	72.44
371.576	81.44
371.802	94.44
372.028	92.44
372.254	83.44
372.48	86.44
372.706	87.44
372.932	97.44
373.158	87.44
373.384	96.44
373.61	108.44
373.835	112.44
374.061	87.44
374.287	87.44
374.513	85.44
374.739	78.44
374.965	95.44
375.191	102.44
375.416	84.44
375.642	86.44
375.868	90.44
376.094	89.44
376.319	85.44
376.545	88.44
376.771	81.44
376.997	87.44
377.222	87.44
377.448	83.44
377.674	75.44
377.899	90.44
378.125	84.44
378.35	87.44
378.576	85.44
378.802	91.44
379.027	83.44
379.253	87.44
379.478	103.44
379.704	84.44
379.929	94.44
380.155	79.44
380.38	91.44
380.606	84.44
380.831	82.44
381.057	93.44
381.282	97.44
381.507	88.44
381.733	94.44
381.958	68.44
382.184	78.44
382.409	90.44
382.634	97.44
382.86	93.44
383.085	96.44
383.31	97.44
383.535	97.44
383.761	92.44
383.986	80.44
384.211	88.44
384.436	78.44
384.662	74.44
384.887	72.44
385.112	82.44
385.337	99.44
385.562	86.44
385.787	94.44
386.013	94.44
386.238	92.44
386.463	86.44
386.688	81.44
386.913	88.44
387.138	84.44
387.363	81.44
387.588	79.44
387.813	97.44
388.038	84.44
388.263	82.44
388.488	92.44
388.713	82.44
388.938	79.44
389.163	82.44
389.387	84.44
389.612	75.44
389.837	73.44
390.062	92.44
390.287	92.44
390.512	92.44
390.736	78.44
390.961	85.44
391.186	87.44
391.411	75.44
391.636	73.44
391.86	92.44
392.085	86.44
392.31	102.44
392.534	94.44
392.759	112.44
392.984	131.44
393.208	220.44
393.433	282.44
393.658	223.44
393.882	117.44
394.107	102.44
394.331	117.44
394.556	99.44
394.78	98.44
395.005	82.44
395.229	77.44
395.454	92.44
395.678	100.44
395.903	113.44
396.127	119.44
396.352	144.44
396.576	153.44
396.801	221.44
397.025	230.44
397.249	146.44
397.474	104.44
397.698	84.44
397.922	80.44
398.147	78.44
398.371	81.44
398.595	92.44
398.82	79.44
399.044	86.44
399.268	69.44
399.492	82.44
399.717	72.44
399.941	80.44
400.165	81.44
400.389	80.44
400.613	84.44
400.837	75.44
401.062	84.44
401.286	83.44
401.51	77.44
401.734	64.44
401.958	74.44
402.182	84.44
402.406	84.44
402.63	93.44
402.854	81.44
403.078	82.44
403.302	87.44
403.526	79.44
403.75	78.44
403.974	94.44
404.198	80.44
404.422	86.44
404.645	100.44
404.869	97.44
405.093	66.44
405.317	69.44
405.541	101.44
405.765	80.44
405.988	77.44
406.212	93.44
406.436	69.44
406.66	78.44
406.883	70.44
407.107	80.44
407.331	82.44
407.555	101.44
407.778	113.44
408.002	95.44
408.226	85.44
408.449	86.44
408.673	90.44
408.896	80.44
409.12	79.44
409.344	100.44
409.567	89.44
409.791	94.44
410.014	100.44
410.238	91.44
410.461	91.44
410.685	64.44
410.908	83.44
411.132	81.44
411.355	82.44
411.578	92.44
411.802	86.44
412.025	90.44
412.249	74.44
412.472	73.44
412.695	84.44
412.919	84.44
413.142	81.44
413.365	78.44
413.589	81.44
413.812	74.44
414.035	75.44
414.258	64.44
414.482	72.44
414.705	83.44
414.928	73.44
415.151	75.44
415.374	77.44
415.597	72.44
415.821	66.44
416.044	77.44
416.267	89.44
416.49	87.44
416.713	78.44
416.936	84.44
417.159	81.44
417.382	93.44
417.605	78.44
417.828	80.44
418.051	87.44
418.274	89.44
418.497	73.44
418.72	92.44
418.943	76.44
419.166	93.44
419.389	74.44
419.611	76.44
419.834	75.44
420.057	86.44
420.28	82.44
420.503	99.44
420.726	84.44
420.948	77.44
421.171	96.44
421.394	96.44
421.617	115.44
421.839	110.44
422.062	126.44
422.285	138.44
422.507	209.44
422.73	291.44
422.953	256.44
423.175	152.44
423.398	121.44
423.621	96.44
423.843	88.44
424.066	103.44
424.288	83.44
424.511	92.44
424.733	95.44
424.956	79.44
425.178	101.44
425.401	80.44
425.623	75.44
425.846	93.44
426.068	84.44
426.291	100.44
426.513	86.44
426.735	86.44
426.958	82.44
427.18	84.44
427.402	97.44
427.625	84.44
427.847	94.44
428.069	80.44
428.292	102.44
428.514	132.44
428.736	101.44
428.958	100.44
429.181	120.44
429.403	97.44
429.625	89.44
429.847	103.44
430.069	129.44
430.292	152.44
430.514	130.44
430.736	122.44
430.958	120.44
431.18	91.44
431.402	88.44
431.624	80.44
431.846	102.44
432.068	125.44
432.29	84.44
432.512	93.44
432.734	87.44
432.956	82.44
433.178	92.44
433.4	80.44
433.622	81.44
433.844	80.44
434.066	80.44
434.287	83.44
434.509	98.44
434.731	77.44
434.953	94.44
435.175	76.44
435.397	86.44
435.618	85.44
435.84	80.44
436.062	72.44
436.284	67.44
436.505	95.44
436.727	84.44
436.949	89.44
437.17	72.44
437.392	66.44
437.614	62.44
437.835	75.44
438.057	75.44
438.278	74.44
438.5	71.44
438.721	95.44
438.943	92.44
439.165	78.44
439.386	73.44
439.608	73.44
439.829	89.44
440.05	99.44
440.272	91.44
440.493	101.44
440.715	86.44
440.936	82.44
441.158	98.44
441.379	97.44
441.6	92.44
441.822	86.44
442.043	84.44
442.264	89.44
442.486	127.44
442.707	149.44
442.928	110.44
443.149	93.44
443.371	128.44
443.592	178.44
443.813	168.44
444.034	101.44
444.255	77.44
444.476	95.44
444.698	93.44
444.919	93.44
445.14	160.44
445.361	165.44
445.582	212.44
445.803	190.44
446.024	94.44
446.245	93.44
446.466	73.44
446.687	70.44
446.908	87.44
447.129	80.44
447.35	69.44
447.571	96.44
447.792	81.44
448.013	76.44
448.234	80.44
448.455	80.44
448.675	85.44
448.896	72.44
449.117	85.44
449.338	80.44
449.559	71.44
449.779	80.44
450	80.44
450.221	71.44
450.442	80.44
450.662	78.44
450.883	85.44
451.104	87.44
451.324	74.44
451.545	67.44
451.766	81.44
451.986	81.44
452.207	82.44
452.428	79.44
452.648	102.44
452.869	90.44
453.089	102.44
453.31	69.44
453.53	82.44
453.751	86.44
453.971	95.44
454.192	83.44
454.412	84.44
454.633	76.44
454.853	86.44
455.073	71.44
455.294	68.44
455.514	93.44
455.734	96.44
455.955	78.44
456.175	94.44
456.395	80.44
456.616	75.44
456.836	83.44
457.056	81.44
457.276	83.44
457.497	87.44
457.717	86.44
457.937	95.44
458.157	101.44
458.377	98.44
458.598	111.44
458.818	108.44
459.038	80.44
459.258	95.44
459.478	86.44
459.698	67.44
459.918	85.44
460.138	76.44
460.358	82.44
460.578	96.44
460.798	117.44
461.018	105.44
461.238	76.44
461.458	85.44
461.678	75.44
461.898	83.44
462.118	84.44
462.338	86.44
462.558	88.44
462.777	77.44
462.997	87.44
463.217	90.44
463.437	86.44
463.657	71.44
463.876	82.44
464.096	81.44
464.316	91.44
464.536	89.44
464.755	90.44
464.975	92.44
465.195	78.44
465.414	78.44
465.634	91.44
465.854	88.44
466.073	92.44
466.293	91.44
466.512	74.44
466.732	72.44
466.951	84.44
467.171	83.44
467.391	82.44
467.61	69.44
467.829	75.44
468.049	76.44
468.268	82.44
468.488	96.44
468.707	104.44
468.927	93.44
469.146	98.44
469.365	75.44
469.585	77.44
469.804	96.44
470.023	80.44
470.243	89.44
470.462	89.44
470.681	80.44
470.901	75.44
471.12	84.44
471.339	90.44
471.558	86.44
471.777	81.44
471.997	68.44
472.216	80.44
472.435	74.44
472.654	72.44
472.873	84.44
473.092	77.44
473.311	80.44
473.53	82.44
473.749	86.44
473.968	92.44
474.187	89.44
474.406	86.44
474.625	83.44
474.844	88.44
475.063	95.44
475.282	82.44
475.501	91.44
475.72	82.44
475.939	74.44
476.158	69.44
476.377	80.44
476.596	77.44
476.814	75.44
477.033	78.44
477.252	81.44
477.471	88.44
477.69	69.44
477.908	83.44
478.127	92.44
478.346	86.44
478.564	96.44
478.783	98.44
479.002	80.44
479.22	78.44
479.439	72.44
479.658	78.44
479.876	83.44
480.095	72.44
480.313	83.44
480.532	75.44
480.751	80.44
480.969	73.44
481.188	88.44
481.406	87.44
481.624	81.44
481.843	82.44
482.061	81.44
482.28	89.44
482.498	75.44
482.717	86.44
482.935	84.44
483.153	86.44
483.372	74.44
483.59	73.44
483.808	81.44
484.027	86.44
484.245	82.44
484.463	88.44
484.681	91.44
484.9	90.44
485.118	78.44
485.336	77.44
485.554	78.44
485.772	94.44
485.99	85.44
486.209	89.44
486.427	90.44
486.645	79.44
486.863	95.44
487.081	90.44
487.299	97.44
487.517	93.44
487.735	106.44
487.953	139.44
488.171	122.44
488.389	93.44
488.607	88.44
488.825	86.44
489.043	87.44
489.261	90.44
489.479	94.44
489.696	77.44
489.914	76.44
490.132	84.44
490.35	88.44
490.568	69.44
490.786	73.44
491.003	75.44
491.221	72.44
491.439	71.44
491.657	83.44
491.874	98.44
492.092	97.44
492.31	96.44
492.527	77.44
492.745	84.44
492.963	72.44
493.18	76.44
493.398	84.44
493.615	74.44
493.833	72.44
494.05	85.44
494.268	90.44
494.485	71.44
494.703	94.44
494.92	88.44
495.138	93.44
495.355	82.44
495.573	80.44
495.79	84.44
496.008	88.44
496.225	85.44
496.442	76.44
496.66	97.44
496.877	88.44
497.094	76.44
497.312	85.44
497.529	79.44
497.746	94.44
497.963	88.44
498.181	93.44
498.398	79.44
498.615	84.44
498.832	76.44
499.049	84.44
499.267	92.44
499.484	104.44
499.701	90.44
499.918	95.44
500.135	92.44
500.352	94.44
500.569	92.44
500.786	104.44
501.003	88.44
501.22	88.44
501.437	78.44
501.654	85.44
501.871	80.44
502.088	84.44
502.305	97.44
502.522	88.44
502.739	81.44
502.956	96.44
503.172	93.44
503.389	81.44
503.606	88.44
503.823	85.44
504.04	85.44
504.256	111.44
504.473	111.44
504.69	92.44
504.907	87.44
505.123	82.44
505.34	96.44
505.557	85.44
505.773	84.44
505.99	84.44
506.207	89.44
506.423	86.44
506.64	94.44
506.856	98.44
507.073	92.44
507.289	80.44
507.506	95.44
507.722	77.44
507.939	92.44
508.155	85.44
508.372	90.44
508.588	84.44
508.805	96.44
509.021	83.44
509.238	84.44
509.454	87.44
509.67	88.44
509.887	80.44
510.103	72.44
510.319	96.44
510.536	83.44
510.752	86.44
510.968	74.44
511.184	72.44
511.401	85.44
511.617	83.44
511.833	92.44
512.049	78.44
512.265	94.44
512.481	90.44
512.698	87.44
512.914	71.44
513.13	93.44
513.346	88.44
513.562	68.44
513.778	77.44
513.994	80.44
514.21	77.44
514.426	83.44
514.642	84.44
514.858	92.44
515.074	87.44
515.29	94.44
515.506	92.44
515.721	92.44
515.937	86.44
516.153	98.44
516.369	87.44
516.585	75.44
516.801	78.44
517.016	72.44
517.232	78.44
517.448	95.44
517.664	110.44
517.879	80.44
518.095	90.44
518.311	94.44
518.527	100.44
518.742	97.44
