Data from 17600_1_HRD10591_00020.txt Node
Date: Mon Jan 19 14:07:34 EST 2026
User: Yrep
Spectrometer: HR+D1059
Trigger mode: 1
Integration Time (sec): 1.000000E-1
Scans to average: 1
Electric dark correction enabled: true
Nonlinearity correction enabled: false
Boxcar width: 0
XAxis mode: Wavelengths
Number of Pixels in Spectrum: 2048
>>>>>Begin Spectral Data<<<<<
223.165	-10.88
223.4	-10.88
223.635	-10.88
223.869	-25.88
224.104	-28.88
224.338	-20.88
224.573	-10.88
224.808	-24.88
225.042	-6.88
225.277	-13.88
225.511	-4.88
225.746	17.12
225.98	5.12
226.215	15.12
226.449	13.12
226.683	36.12
226.918	26.12
227.152	35.12
227.387	45.12
227.621	54.12
227.856	62.12
228.09	47.12
228.324	49.12
228.559	61.12
228.793	66.12
229.027	65.12
229.262	69.12
229.496	72.12
229.73	68.12
229.964	88.12
230.199	77.12
230.433	73.12
230.667	75.12
230.901	82.12
231.136	71.12
231.37	75.12
231.604	91.12
231.838	79.12
232.072	81.12
232.306	71.12
232.541	83.12
232.775	79.12
233.009	74.12
233.243	82.12
233.477	81.12
233.711	57.12
233.945	69.12
234.179	88.12
234.413	86.12
234.647	80.12
234.881	93.12
235.115	78.12
235.349	87.12
235.583	69.12
235.817	83.12
236.051	89.12
236.285	81.12
236.519	86.12
236.753	78.12
236.987	89.12
237.221	82.12
237.455	73.12
237.689	77.12
237.922	85.12
238.156	74.12
238.39	85.12
238.624	81.12
238.858	79.12
239.091	78.12
239.325	72.12
239.559	76.12
239.793	80.12
240.027	85.12
240.26	80.12
240.494	74.12
240.728	83.12
240.961	76.12
241.195	77.12
241.429	61.12
241.662	76.12
241.896	80.12
242.13	67.12
242.363	90.12
242.597	76.12
242.83	85.12
243.064	91.12
243.298	70.12
243.531	69.12
243.765	76.12
243.998	73.12
244.232	80.12
244.465	76.12
244.699	67.12
244.932	68.12
245.166	99.12
245.399	79.12
245.633	92.12
245.866	87.12
246.099	74.12
246.333	81.12
246.566	87.12
246.8	80.12
247.033	71.12
247.266	77.12
247.5	80.12
247.733	73.12
247.966	72.12
248.2	99.12
248.433	77.12
248.666	95.12
248.899	83.12
249.133	88.12
249.366	80.12
249.599	82.12
249.832	75.12
250.066	89.12
250.299	77.12
250.532	87.12
250.765	103.12
250.998	92.12
251.231	89.12
251.465	89.12
251.698	78.12
251.931	65.12
252.164	79.12
252.397	82.12
252.63	83.12
252.863	79.12
253.096	71.12
253.329	80.12
253.562	80.12
253.795	94.12
254.028	79.12
254.261	87.12
254.494	79.12
254.727	79.12
254.96	85.12
255.193	86.12
255.426	79.12
255.659	80.12
255.892	92.12
256.124	84.12
256.357	83.12
256.59	93.12
256.823	82.12
257.056	94.12
257.289	87.12
257.521	88.12
257.754	73.12
257.987	71.12
258.22	85.12
258.452	85.12
258.685	85.12
258.918	80.12
259.151	83.12
259.383	87.12
259.616	86.12
259.849	90.12
260.081	78.12
260.314	95.12
260.547	93.12
260.779	89.12
261.012	102.12
261.244	77.12
261.477	70.12
261.71	83.12
261.942	77.12
262.175	90.12
262.407	87.12
262.64	67.12
262.872	73.12
263.105	87.12
263.337	83.12
263.57	84.12
263.802	88.12
264.035	89.12
264.267	84.12
264.499	87.12
264.732	76.12
264.964	80.12
265.197	72.12
265.429	77.12
265.661	90.12
265.894	81.12
266.126	75.12
266.358	78.12
266.591	85.12
266.823	85.12
267.055	70.12
267.287	85.12
267.52	80.12
267.752	86.12
267.984	105.12
268.216	89.12
268.448	89.12
268.681	90.12
268.913	79.12
269.145	74.12
269.377	72.12
269.609	69.12
269.841	72.12
270.073	97.12
270.306	80.12
270.538	78.12
270.77	81.12
271.002	83.12
271.234	85.12
271.466	85.12
271.698	90.12
271.93	92.12
272.162	85.12
272.394	88.12
272.626	76.12
272.858	80.12
273.09	86.12
273.322	98.12
273.553	85.12
273.785	89.12
274.017	77.12
274.249	79.12
274.481	87.12
274.713	77.12
274.945	83.12
275.176	78.12
275.408	79.12
275.64	89.12
275.872	79.12
276.104	92.12
276.335	84.12
276.567	81.12
276.799	87.12
277.031	83.12
277.262	83.12
277.494	82.12
277.726	87.12
277.957	93.12
278.189	88.12
278.421	90.12
278.652	84.12
278.884	74.12
279.115	90.12
279.347	72.12
279.579	71.12
279.81	95.12
280.042	86.12
280.273	94.12
280.505	84.12
280.736	84.12
280.968	86.12
281.199	86.12
281.431	82.12
281.662	93.12
281.894	79.12
282.125	82.12
282.356	94.12
282.588	77.12
282.819	91.12
283.051	82.12
283.282	90.12
283.513	76.12
283.745	104.12
283.976	99.12
284.207	86.12
284.439	74.12
284.67	84.12
284.901	82.12
285.132	97.12
285.364	87.12
285.595	78.12
285.826	87.12
286.057	101.12
286.288	76.12
286.52	97.12
286.751	89.12
286.982	68.12
287.213	71.12
287.444	80.12
287.675	90.12
287.906	91.12
288.138	85.12
288.369	78.12
288.6	101.12
288.831	83.12
289.062	85.12
289.293	93.12
289.524	85.12
289.755	86.12
289.986	83.12
290.217	79.12
290.448	89.12
290.679	97.12
290.91	94.12
291.141	95.12
291.371	103.12
291.602	90.12
291.833	77.12
292.064	90.12
292.295	85.12
292.526	79.12
292.757	94.12
292.987	95.12
293.218	76.12
293.449	76.12
293.68	93.12
293.91	86.12
294.141	81.12
294.372	73.12
294.603	67.12
294.833	85.12
295.064	81.12
295.295	84.12
295.525	83.12
295.756	90.12
295.987	91.12
296.217	84.12
296.448	91.12
296.679	82.12
296.909	99.12
297.14	90.12
297.37	75.12
297.601	86.12
297.831	91.12
298.062	79.12
298.292	100.12
298.523	91.12
298.753	79.12
298.984	99.12
299.214	75.12
299.445	79.12
299.675	94.12
299.905	93.12
300.136	74.12
300.366	73.12
300.597	82.12
300.827	81.12
301.057	94.12
301.288	72.12
301.518	81.12
301.748	74.12
301.979	98.12
302.209	89.12
302.439	106.12
302.669	86.12
302.9	72.12
303.13	86.12
303.36	93.12
303.59	79.12
303.82	94.12
304.051	99.12
304.281	101.12
304.511	97.12
304.741	93.12
304.971	76.12
305.201	93.12
305.431	86.12
305.661	90.12
305.891	84.12
306.121	76.12
306.352	84.12
306.582	80.12
306.812	83.12
307.042	88.12
307.272	79.12
307.502	92.12
307.731	85.12
307.961	97.12
308.191	89.12
308.421	97.12
308.651	89.12
308.881	97.12
309.111	101.12
309.341	91.12
309.571	82.12
309.8	70.12
310.03	88.12
310.26	86.12
310.49	97.12
310.72	93.12
310.949	92.12
311.179	82.12
311.409	73.12
311.639	99.12
311.868	85.12
312.098	85.12
312.328	101.12
312.557	73.12
312.787	74.12
313.017	88.12
313.246	88.12
313.476	94.12
313.706	93.12
313.935	85.12
314.165	86.12
314.394	82.12
314.624	88.12
314.853	90.12
315.083	85.12
315.312	93.12
315.542	93.12
315.771	81.12
316.001	73.12
316.23	89.12
316.46	86.12
316.689	86.12
316.919	96.12
317.148	95.12
317.377	88.12
317.607	77.12
317.836	87.12
318.065	88.12
318.295	88.12
318.524	102.12
318.753	89.12
318.983	92.12
319.212	100.12
319.441	87.12
319.67	93.12
319.9	97.12
320.129	77.12
320.358	77.12
320.587	76.12
320.816	89.12
321.046	88.12
321.275	90.12
321.504	80.12
321.733	90.12
321.962	80.12
322.191	87.12
322.42	89.12
322.649	84.12
322.878	107.12
323.108	92.12
323.337	76.12
323.566	82.12
323.795	87.12
324.024	90.12
324.253	86.12
324.482	92.12
324.71	81.12
324.939	93.12
325.168	84.12
325.397	83.12
325.626	82.12
325.855	80.12
326.084	92.12
326.313	86.12
326.542	91.12
326.77	88.12
326.999	91.12
327.228	113.12
327.457	74.12
327.686	81.12
327.914	79.12
328.143	105.12
328.372	85.12
328.6	75.12
328.829	82.12
329.058	95.12
329.287	86.12
329.515	89.12
329.744	91.12
329.972	86.12
330.201	89.12
330.43	95.12
330.658	93.12
330.887	87.12
331.115	92.12
331.344	87.12
331.572	93.12
331.801	99.12
332.03	76.12
332.258	83.12
332.486	92.12
332.715	91.12
332.943	87.12
333.172	81.12
333.4	92.12
333.629	87.12
333.857	79.12
334.085	82.12
334.314	86.12
334.542	90.12
334.771	93.12
334.999	77.12
335.227	86.12
335.455	89.12
335.684	80.12
335.912	99.12
336.14	85.12
336.369	71.12
336.597	89.12
336.825	71.12
337.053	95.12
337.281	82.12
337.51	91.12
337.738	102.12
337.966	88.12
338.194	97.12
338.422	95.12
338.65	88.12
338.878	99.12
339.106	89.12
339.334	88.12
339.562	100.12
339.79	83.12
340.018	86.12
340.246	90.12
340.474	88.12
340.702	90.12
340.93	83.12
341.158	83.12
341.386	93.12
341.614	77.12
341.842	86.12
342.07	79.12
342.298	88.12
342.526	90.12
342.754	93.12
342.981	94.12
343.209	94.12
343.437	98.12
343.665	73.12
343.893	86.12
344.12	85.12
344.348	99.12
344.576	78.12
344.804	94.12
345.031	91.12
345.259	93.12
345.487	86.12
345.714	75.12
345.942	75.12
346.17	92.12
346.397	92.12
346.625	91.12
346.853	80.12
347.08	93.12
347.308	84.12
347.535	85.12
347.763	93.12
347.99	94.12
348.218	93.12
348.445	73.12
348.673	87.12
348.9	90.12
349.128	82.12
349.355	104.12
349.583	96.12
349.81	92.12
350.037	93.12
350.265	94.12
350.492	93.12
350.72	82.12
350.947	103.12
351.174	98.12
351.402	88.12
351.629	75.12
351.856	82.12
352.083	84.12
352.311	89.12
352.538	77.12
352.765	104.12
352.992	88.12
353.22	91.12
353.447	91.12
353.674	83.12
353.901	83.12
354.128	90.12
354.355	92.12
354.583	92.12
354.81	85.12
355.037	77.12
355.264	89.12
355.491	91.12
355.718	84.12
355.945	67.12
356.172	84.12
356.399	90.12
356.626	97.12
356.853	96.12
357.08	71.12
357.307	87.12
357.534	88.12
357.761	98.12
357.988	73.12
358.215	90.12
358.441	98.12
358.668	87.12
358.895	82.12
359.122	107.12
359.349	75.12
359.576	103.12
359.802	83.12
360.029	74.12
360.256	83.12
360.483	93.12
360.709	79.12
360.936	98.12
361.163	95.12
361.39	91.12
361.616	84.12
361.843	85.12
362.07	90.12
362.296	93.12
362.523	95.12
362.749	90.12
362.976	85.12
363.203	103.12
363.429	78.12
363.656	91.12
363.882	84.12
364.109	90.12
364.335	92.12
364.562	71.12
364.788	85.12
365.015	89.12
365.241	93.12
365.468	87.12
365.694	93.12
365.92	91.12
366.147	74.12
366.373	94.12
366.599	77.12
366.826	90.12
367.052	101.12
367.278	90.12
367.505	76.12
367.731	81.12
367.957	90.12
368.184	83.12
368.41	103.12
368.636	87.12
368.862	77.12
369.089	71.12
369.315	89.12
369.541	90.12
369.767	93.12
369.993	96.12
370.219	74.12
370.445	88.12
370.672	83.12
370.898	94.12
371.124	87.12
371.35	89.12
371.576	97.12
371.802	91.12
372.028	85.12
372.254	86.12
372.48	81.12
372.706	92.12
372.932	87.12
373.158	93.12
373.384	84.12
373.61	102.12
373.835	87.12
374.061	101.12
374.287	93.12
374.513	84.12
374.739	75.12
374.965	81.12
375.191	72.12
375.416	87.12
375.642	87.12
375.868	85.12
376.094	75.12
376.319	87.12
376.545	80.12
376.771	69.12
376.997	82.12
377.222	86.12
377.448	81.12
377.674	74.12
377.899	88.12
378.125	85.12
378.35	92.12
378.576	80.12
378.802	70.12
379.027	86.12
379.253	104.12
379.478	98.12
379.704	98.12
379.929	89.12
380.155	69.12
380.38	87.12
380.606	85.12
380.831	87.12
381.057	90.12
381.282	85.12
381.507	96.12
381.733	78.12
381.958	99.12
382.184	83.12
382.409	98.12
382.634	99.12
382.86	80.12
383.085	86.12
383.31	79.12
383.535	99.12
383.761	89.12
383.986	87.12
384.211	91.12
384.436	94.12
384.662	93.12
384.887	106.12
385.112	94.12
385.337	95.12
385.562	98.12
385.787	94.12
386.013	74.12
386.238	83.12
386.463	79.12
386.688	86.12
386.913	85.12
387.138	95.12
387.363	78.12
387.588	99.12
387.813	97.12
388.038	91.12
388.263	86.12
388.488	70.12
388.713	87.12
388.938	77.12
389.163	89.12
389.387	99.12
389.612	90.12
389.837	86.12
390.062	97.12
390.287	86.12
390.512	91.12
390.736	94.12
390.961	73.12
391.186	74.12
391.411	80.12
391.636	90.12
391.86	90.12
392.085	87.12
392.31	84.12
392.534	91.12
392.759	98.12
392.984	126.12
393.208	166.12
393.433	241.12
393.658	193.12
393.882	110.12
394.107	85.12
394.331	100.12
394.556	90.12
394.78	100.12
395.005	80.12
395.229	79.12
395.454	83.12
395.678	97.12
395.903	101.12
396.127	104.12
396.352	108.12
396.576	122.12
396.801	181.12
397.025	201.12
397.249	140.12
397.474	98.12
397.698	80.12
397.922	99.12
398.147	80.12
398.371	78.12
398.595	93.12
398.82	86.12
399.044	86.12
399.268	85.12
399.492	83.12
399.717	92.12
399.941	83.12
400.165	86.12
400.389	79.12
400.613	88.12
400.837	87.12
401.062	94.12
401.286	89.12
401.51	89.12
401.734	79.12
401.958	98.12
402.182	87.12
402.406	77.12
402.63	91.12
402.854	79.12
403.078	77.12
403.302	97.12
403.526	77.12
403.75	67.12
403.974	94.12
404.198	85.12
404.422	85.12
404.645	100.12
404.869	97.12
405.093	88.12
405.317	81.12
405.541	80.12
405.765	82.12
405.988	79.12
406.212	91.12
406.436	85.12
406.66	81.12
406.883	83.12
407.107	79.12
407.331	97.12
407.555	91.12
407.778	97.12
408.002	106.12
408.226	85.12
408.449	75.12
408.673	83.12
408.896	79.12
409.12	94.12
409.344	92.12
409.567	102.12
409.791	97.12
410.014	75.12
410.238	87.12
410.461	85.12
410.685	79.12
410.908	83.12
411.132	81.12
411.355	97.12
411.578	79.12
411.802	103.12
412.025	87.12
412.249	84.12
412.472	74.12
412.695	94.12
412.919	73.12
413.142	81.12
413.365	78.12
413.589	80.12
413.812	76.12
414.035	83.12
414.258	79.12
414.482	87.12
414.705	95.12
414.928	82.12
415.151	81.12
415.374	78.12
415.597	79.12
415.821	93.12
416.044	85.12
416.267	78.12
416.49	70.12
416.713	83.12
416.936	85.12
417.159	91.12
417.382	80.12
417.605	84.12
417.828	70.12
418.051	77.12
418.274	90.12
418.497	77.12
418.72	82.12
418.943	71.12
419.166	91.12
419.389	83.12
419.611	78.12
419.834	89.12
420.057	79.12
420.28	86.12
420.503	103.12
420.726	97.12
420.948	93.12
421.171	75.12
421.394	93.12
421.617	110.12
421.839	102.12
422.062	98.12
422.285	99.12
422.507	120.12
422.73	191.12
422.953	169.12
423.175	103.12
423.398	95.12
423.621	78.12
423.843	81.12
424.066	85.12
424.288	86.12
424.511	79.12
424.733	87.12
424.956	92.12
425.178	85.12
425.401	80.12
425.623	90.12
425.846	79.12
426.068	82.12
426.291	86.12
426.513	95.12
426.735	90.12
426.958	70.12
427.18	92.12
427.402	81.12
427.625	79.12
427.847	83.12
428.069	100.12
428.292	100.12
428.514	104.12
428.736	92.12
428.958	101.12
429.181	84.12
429.403	76.12
429.625	73.12
429.847	102.12
430.069	100.12
430.292	104.12
430.514	102.12
430.736	99.12
430.958	81.12
431.18	69.12
431.402	93.12
431.624	85.12
431.846	100.12
432.068	87.12
432.29	78.12
432.512	83.12
432.734	90.12
432.956	79.12
433.178	90.12
433.4	72.12
433.622	91.12
433.844	85.12
434.066	82.12
434.287	86.12
434.509	87.12
434.731	77.12
434.953	80.12
435.175	79.12
435.397	89.12
435.618	79.12
435.84	93.12
436.062	85.12
436.284	83.12
436.505	95.12
436.727	82.12
436.949	93.12
437.17	94.12
437.392	90.12
437.614	102.12
437.835	81.12
438.057	89.12
438.278	92.12
438.5	92.12
438.721	83.12
438.943	81.12
439.165	88.12
439.386	83.12
439.608	86.12
439.829	99.12
440.05	97.12
440.272	80.12
440.493	87.12
440.715	78.12
440.936	90.12
441.158	89.12
441.379	86.12
441.6	77.12
441.822	93.12
442.043	76.12
442.264	86.12
442.486	86.12
442.707	88.12
442.928	89.12
443.149	93.12
443.371	101.12
443.592	115.12
443.813	118.12
444.034	84.12
444.255	77.12
444.476	76.12
444.698	97.12
444.919	93.12
445.14	164.12
445.361	131.12
445.582	132.12
445.803	123.12
446.024	91.12
446.245	89.12
446.466	85.12
446.687	78.12
446.908	83.12
447.129	92.12
447.35	87.12
447.571	104.12
447.792	89.12
448.013	88.12
448.234	89.12
448.455	77.12
448.675	86.12
448.896	76.12
449.117	77.12
449.338	82.12
449.559	83.12
449.779	96.12
450	70.12
450.221	83.12
450.442	85.12
450.662	95.12
450.883	84.12
451.104	95.12
451.324	89.12
451.545	74.12
451.766	78.12
451.986	91.12
452.207	85.12
452.428	86.12
452.648	87.12
452.869	85.12
453.089	97.12
453.31	90.12
453.53	87.12
453.751	86.12
453.971	82.12
454.192	92.12
454.412	70.12
454.633	98.12
454.853	89.12
455.073	88.12
455.294	86.12
455.514	79.12
455.734	89.12
455.955	83.12
456.175	79.12
456.395	78.12
456.616	78.12
456.836	97.12
457.056	87.12
457.276	81.12
457.497	83.12
457.717	78.12
457.937	94.12
458.157	86.12
458.377	95.12
458.598	89.12
458.818	77.12
459.038	95.12
459.258	109.12
459.478	98.12
459.698	85.12
459.918	74.12
460.138	103.12
460.358	85.12
460.578	89.12
460.798	99.12
461.018	92.12
461.238	83.12
461.458	94.12
461.678	97.12
461.898	86.12
462.118	85.12
462.338	101.12
462.558	86.12
462.777	84.12
462.997	94.12
463.217	83.12
463.437	83.12
463.657	79.12
463.876	73.12
464.096	80.12
464.316	71.12
464.536	81.12
464.755	102.12
464.975	80.12
465.195	90.12
465.414	84.12
465.634	79.12
465.854	77.12
466.073	82.12
466.293	92.12
466.512	91.12
466.732	102.12
466.951	85.12
467.171	73.12
467.391	90.12
467.61	83.12
467.829	92.12
468.049	83.12
468.268	65.12
468.488	75.12
468.707	84.12
468.927	88.12
469.146	73.12
469.365	84.12
469.585	89.12
469.804	80.12
470.023	71.12
470.243	91.12
470.462	99.12
470.681	102.12
470.901	75.12
471.12	81.12
471.339	92.12
471.558	94.12
471.777	89.12
471.997	89.12
472.216	86.12
472.435	81.12
472.654	91.12
472.873	82.12
473.092	73.12
473.311	71.12
473.53	93.12
473.749	94.12
473.968	89.12
474.187	82.12
474.406	74.12
474.625	88.12
474.844	74.12
475.063	91.12
475.282	91.12
475.501	80.12
475.72	88.12
475.939	97.12
476.158	86.12
476.377	85.12
476.596	79.12
476.814	89.12
477.033	80.12
477.252	95.12
477.471	83.12
477.69	103.12
477.908	91.12
478.127	78.12
478.346	79.12
478.564	97.12
478.783	94.12
479.002	83.12
479.22	76.12
479.439	83.12
479.658	69.12
479.876	86.12
480.095	82.12
480.313	89.12
480.532	85.12
480.751	87.12
480.969	87.12
481.188	93.12
481.406	92.12
481.624	89.12
481.843	85.12
482.061	77.12
482.28	76.12
482.498	89.12
482.717	85.12
482.935	93.12
483.153	80.12
483.372	98.12
483.59	78.12
483.808	89.12
484.027	94.12
484.245	85.12
484.463	79.12
484.681	94.12
484.9	85.12
485.118	93.12
485.336	90.12
485.554	85.12
485.772	86.12
485.99	101.12
486.209	89.12
486.427	89.12
486.645	85.12
486.863	86.12
487.081	79.12
487.299	82.12
487.517	95.12
487.735	97.12
487.953	98.12
488.171	106.12
488.389	87.12
488.607	87.12
488.825	80.12
489.043	85.12
489.261	104.12
489.479	100.12
489.696	90.12
489.914	79.12
490.132	101.12
490.35	86.12
490.568	91.12
490.786	92.12
491.003	82.12
491.221	93.12
491.439	78.12
491.657	84.12
491.874	71.12
492.092	77.12
492.31	80.12
492.527	81.12
492.745	85.12
492.963	72.12
493.18	91.12
493.398	89.12
493.615	89.12
493.833	85.12
494.05	89.12
494.268	86.12
494.485	75.12
494.703	94.12
494.92	90.12
495.138	90.12
495.355	94.12
495.573	75.12
495.79	75.12
496.008	96.12
496.225	96.12
496.442	88.12
496.66	91.12
496.877	98.12
497.094	105.12
497.312	88.12
497.529	91.12
497.746	90.12
497.963	84.12
498.181	78.12
498.398	73.12
498.615	92.12
498.832	94.12
499.049	79.12
499.267	85.12
499.484	84.12
499.701	79.12
499.918	97.12
500.135	71.12
500.352	86.12
500.569	84.12
500.786	82.12
501.003	95.12
501.22	76.12
501.437	88.12
501.654	90.12
501.871	84.12
502.088	90.12
502.305	83.12
502.522	71.12
502.739	82.12
502.956	81.12
503.172	91.12
503.389	88.12
503.606	67.12
503.823	94.12
504.04	86.12
504.256	98.12
504.473	101.12
504.69	83.12
504.907	85.12
505.123	76.12
505.34	92.12
505.557	79.12
505.773	81.12
505.99	78.12
506.207	100.12
506.423	92.12
506.64	90.12
506.856	79.12
507.073	72.12
507.289	93.12
507.506	74.12
507.722	77.12
507.939	75.12
508.155	85.12
508.372	91.12
508.588	87.12
508.805	93.12
509.021	105.12
509.238	83.12
509.454	80.12
509.67	81.12
509.887	95.12
510.103	86.12
510.319	86.12
510.536	90.12
510.752	92.12
510.968	69.12
511.184	89.12
511.401	85.12
511.617	85.12
511.833	84.12
512.049	99.12
512.265	87.12
512.481	92.12
512.698	90.12
512.914	92.12
513.13	93.12
513.346	90.12
513.562	87.12
513.778	85.12
513.994	85.12
514.21	89.12
514.426	89.12
514.642	90.12
514.858	77.12
515.074	85.12
515.29	87.12
515.506	88.12
515.721	81.12
515.937	91.12
516.153	96.12
516.369	86.12
516.585	98.12
516.801	83.12
517.016	79.12
517.232	85.12
517.448	82.12
517.664	90.12
517.879	95.12
518.095	105.12
518.311	86.12
518.527	87.12
518.742	88.12
518.958	99.12
