Data from 17600_1_HRD10591_00035.txt Node
Date: Mon Jan 19 14:07:41 EST 2026
User: Yrep
Spectrometer: HR+D1059
Trigger mode: 1
Integration Time (sec): 1.000000E-1
Scans to average: 1
Electric dark correction enabled: true
Nonlinearity correction enabled: false
Boxcar width: 0
XAxis mode: Wavelengths
Number of Pixels in Spectrum: 2048
>>>>>Begin Spectral Data<<<<<
223.165	-12.5
223.4	-12.5
223.635	-12.5
223.869	-14.5
224.104	-17.5
224.338	-23.5
224.573	-20.5
224.808	-19.5
225.042	-3.5
225.277	-9.5
225.511	1.5
225.746	9.5
225.98	4.5
226.215	10.5
226.449	19.5
226.683	15.5
226.918	28.5
227.152	31.5
227.387	38.5
227.621	45.5
227.856	51.5
228.09	44.5
228.324	58.5
228.559	43.5
228.793	55.5
229.027	51.5
229.262	56.5
229.496	55.5
229.73	75.5
229.964	69.5
230.199	78.5
230.433	69.5
230.667	77.5
230.901	78.5
231.136	86.5
231.37	80.5
231.604	78.5
231.838	80.5
232.072	76.5
232.306	84.5
232.541	69.5
232.775	79.5
233.009	77.5
233.243	87.5
233.477	86.5
233.711	75.5
233.945	90.5
234.179	82.5
234.413	79.5
234.647	65.5
234.881	84.5
235.115	84.5
235.349	83.5
235.583	82.5
235.817	87.5
236.051	76.5
236.285	71.5
236.519	78.5
236.753	74.5
236.987	81.5
237.221	87.5
237.455	66.5
237.689	87.5
237.922	76.5
238.156	66.5
238.39	71.5
238.624	83.5
238.858	73.5
239.091	86.5
239.325	92.5
239.559	78.5
239.793	82.5
240.027	73.5
240.26	66.5
240.494	71.5
240.728	81.5
240.961	74.5
241.195	87.5
241.429	88.5
241.662	72.5
241.896	68.5
242.13	72.5
242.363	81.5
242.597	69.5
242.83	82.5
243.064	85.5
243.298	76.5
243.531	78.5
243.765	59.5
243.998	79.5
244.232	78.5
244.465	72.5
244.699	78.5
244.932	85.5
245.166	80.5
245.399	87.5
245.633	89.5
245.866	76.5
246.099	73.5
246.333	81.5
246.566	77.5
246.8	85.5
247.033	84.5
247.266	87.5
247.5	78.5
247.733	86.5
247.966	69.5
248.2	72.5
248.433	82.5
248.666	88.5
248.899	77.5
249.133	90.5
249.366	84.5
249.599	75.5
249.832	74.5
250.066	82.5
250.299	92.5
250.532	67.5
250.765	85.5
250.998	71.5
251.231	83.5
251.465	76.5
251.698	78.5
251.931	82.5
252.164	58.5
252.397	75.5
252.63	89.5
252.863	83.5
253.096	77.5
253.329	83.5
253.562	76.5
253.795	97.5
254.028	84.5
254.261	77.5
254.494	91.5
254.727	89.5
254.96	82.5
255.193	79.5
255.426	74.5
255.659	78.5
255.892	96.5
256.124	71.5
256.357	62.5
256.59	83.5
256.823	85.5
257.056	79.5
257.289	79.5
257.521	98.5
257.754	79.5
257.987	78.5
258.22	86.5
258.452	94.5
258.685	86.5
258.918	82.5
259.151	88.5
259.383	97.5
259.616	83.5
259.849	81.5
260.081	84.5
260.314	95.5
260.547	82.5
260.779	83.5
261.012	86.5
261.244	64.5
261.477	88.5
261.71	83.5
261.942	83.5
262.175	78.5
262.407	73.5
262.64	89.5
262.872	80.5
263.105	86.5
263.337	79.5
263.57	73.5
263.802	90.5
264.035	90.5
264.267	89.5
264.499	85.5
264.732	88.5
264.964	89.5
265.197	72.5
265.429	63.5
265.661	82.5
265.894	98.5
266.126	81.5
266.358	78.5
266.591	78.5
266.823	87.5
267.055	84.5
267.287	86.5
267.52	72.5
267.752	81.5
267.984	92.5
268.216	83.5
268.448	86.5
268.681	82.5
268.913	85.5
269.145	99.5
269.377	82.5
269.609	79.5
269.841	93.5
270.073	89.5
270.306	81.5
270.538	87.5
270.77	78.5
271.002	81.5
271.234	84.5
271.466	84.5
271.698	77.5
271.93	77.5
272.162	81.5
272.394	85.5
272.626	88.5
272.858	77.5
273.09	94.5
273.322	78.5
273.553	78.5
273.785	90.5
274.017	85.5
274.249	84.5
274.481	83.5
274.713	86.5
274.945	90.5
275.176	77.5
275.408	85.5
275.64	90.5
275.872	66.5
276.104	70.5
276.335	94.5
276.567	92.5
276.799	106.5
277.031	85.5
277.262	77.5
277.494	81.5
277.726	84.5
277.957	80.5
278.189	88.5
278.421	89.5
278.652	76.5
278.884	78.5
279.115	84.5
279.347	74.5
279.579	84.5
279.81	82.5
280.042	80.5
280.273	89.5
280.505	79.5
280.736	92.5
280.968	84.5
281.199	77.5
281.431	93.5
281.662	89.5
281.894	79.5
282.125	78.5
282.356	85.5
282.588	77.5
282.819	83.5
283.051	96.5
283.282	85.5
283.513	86.5
283.745	89.5
283.976	90.5
284.207	90.5
284.439	92.5
284.67	100.5
284.901	77.5
285.132	92.5
285.364	91.5
285.595	79.5
285.826	91.5
286.057	73.5
286.288	87.5
286.52	90.5
286.751	78.5
286.982	86.5
287.213	100.5
287.444	80.5
287.675	76.5
287.906	86.5
288.138	87.5
288.369	84.5
288.6	95.5
288.831	76.5
289.062	87.5
289.293	82.5
289.524	82.5
289.755	99.5
289.986	89.5
290.217	84.5
290.448	86.5
290.679	102.5
290.91	102.5
291.141	100.5
291.371	94.5
291.602	74.5
291.833	88.5
292.064	85.5
292.295	81.5
292.526	77.5
292.757	82.5
292.987	91.5
293.218	88.5
293.449	90.5
293.68	92.5
293.91	88.5
294.141	91.5
294.372	79.5
294.603	81.5
294.833	78.5
295.064	91.5
295.295	86.5
295.525	82.5
295.756	93.5
295.987	70.5
296.217	82.5
296.448	85.5
296.679	85.5
296.909	91.5
297.14	84.5
297.37	86.5
297.601	85.5
297.831	93.5
298.062	85.5
298.292	92.5
298.523	76.5
298.753	92.5
298.984	79.5
299.214	79.5
299.445	101.5
299.675	99.5
299.905	99.5
300.136	75.5
300.366	91.5
300.597	91.5
300.827	66.5
301.057	92.5
301.288	74.5
301.518	93.5
301.748	80.5
301.979	97.5
302.209	76.5
302.439	92.5
302.669	93.5
302.9	84.5
303.13	84.5
303.36	72.5
303.59	75.5
303.82	99.5
304.051	81.5
304.281	100.5
304.511	86.5
304.741	92.5
304.971	88.5
305.201	85.5
305.431	85.5
305.661	84.5
305.891	85.5
306.121	89.5
306.352	100.5
306.582	86.5
306.812	95.5
307.042	81.5
307.272	77.5
307.502	85.5
307.731	67.5
307.961	104.5
308.191	88.5
308.421	74.5
308.651	95.5
308.881	84.5
309.111	103.5
309.341	80.5
309.571	88.5
309.8	88.5
310.03	84.5
310.26	73.5
310.49	90.5
310.72	73.5
310.949	84.5
311.179	92.5
311.409	90.5
311.639	82.5
311.868	73.5
312.098	85.5
312.328	98.5
312.557	87.5
312.787	79.5
313.017	83.5
313.246	92.5
313.476	95.5
313.706	80.5
313.935	84.5
314.165	87.5
314.394	98.5
314.624	98.5
314.853	87.5
315.083	81.5
315.312	84.5
315.542	72.5
315.771	92.5
316.001	82.5
316.23	92.5
316.46	95.5
316.689	85.5
316.919	88.5
317.148	101.5
317.377	90.5
317.607	88.5
317.836	103.5
318.065	99.5
318.295	86.5
318.524	86.5
318.753	98.5
318.983	90.5
319.212	88.5
319.441	69.5
319.67	78.5
319.9	88.5
320.129	78.5
320.358	94.5
320.587	94.5
320.816	85.5
321.046	100.5
321.275	92.5
321.504	76.5
321.733	92.5
321.962	81.5
322.191	65.5
322.42	76.5
322.649	88.5
322.878	84.5
323.108	90.5
323.337	96.5
323.566	90.5
323.795	86.5
324.024	81.5
324.253	75.5
324.482	88.5
324.71	76.5
324.939	96.5
325.168	84.5
325.397	95.5
325.626	87.5
325.855	92.5
326.084	98.5
326.313	81.5
326.542	95.5
326.77	96.5
326.999	84.5
327.228	82.5
327.457	85.5
327.686	88.5
327.914	75.5
328.143	79.5
328.372	82.5
328.6	97.5
328.829	70.5
329.058	89.5
329.287	93.5
329.515	90.5
329.744	86.5
329.972	91.5
330.201	88.5
330.43	81.5
330.658	102.5
330.887	87.5
331.115	78.5
331.344	73.5
331.572	106.5
331.801	88.5
332.03	73.5
332.258	81.5
332.486	77.5
332.715	88.5
332.943	84.5
333.172	90.5
333.4	66.5
333.629	76.5
333.857	88.5
334.085	87.5
334.314	85.5
334.542	82.5
334.771	87.5
334.999	86.5
335.227	83.5
335.455	83.5
335.684	99.5
335.912	96.5
336.14	97.5
336.369	72.5
336.597	65.5
336.825	82.5
337.053	86.5
337.281	86.5
337.51	89.5
337.738	94.5
337.966	86.5
338.194	95.5
338.422	90.5
338.65	98.5
338.878	98.5
339.106	85.5
339.334	91.5
339.562	88.5
339.79	96.5
340.018	84.5
340.246	79.5
340.474	79.5
340.702	68.5
340.93	80.5
341.158	83.5
341.386	88.5
341.614	78.5
341.842	88.5
342.07	89.5
342.298	84.5
342.526	84.5
342.754	71.5
342.981	82.5
343.209	80.5
343.437	86.5
343.665	79.5
343.893	81.5
344.12	85.5
344.348	93.5
344.576	78.5
344.804	84.5
345.031	77.5
345.259	66.5
345.487	86.5
345.714	84.5
345.942	87.5
346.17	97.5
346.397	104.5
346.625	84.5
346.853	76.5
347.08	84.5
347.308	99.5
347.535	88.5
347.763	78.5
347.99	85.5
348.218	99.5
348.445	86.5
348.673	87.5
348.9	84.5
349.128	74.5
349.355	77.5
349.583	91.5
349.81	73.5
350.037	76.5
350.265	88.5
350.492	73.5
350.72	80.5
350.947	84.5
351.174	97.5
351.402	99.5
351.629	84.5
351.856	85.5
352.083	82.5
352.311	72.5
352.538	86.5
352.765	90.5
352.992	107.5
353.22	91.5
353.447	79.5
353.674	101.5
353.901	78.5
354.128	86.5
354.355	102.5
354.583	94.5
354.81	76.5
355.037	82.5
355.264	79.5
355.491	77.5
355.718	92.5
355.945	96.5
356.172	84.5
356.399	82.5
356.626	90.5
356.853	76.5
357.08	72.5
357.307	87.5
357.534	87.5
357.761	82.5
357.988	100.5
358.215	90.5
358.441	84.5
358.668	87.5
358.895	89.5
359.122	82.5
359.349	88.5
359.576	82.5
359.802	88.5
360.029	90.5
360.256	84.5
360.483	69.5
360.709	80.5
360.936	94.5
361.163	94.5
361.39	85.5
361.616	75.5
361.843	78.5
362.07	81.5
362.296	90.5
362.523	92.5
362.749	100.5
362.976	84.5
363.203	78.5
363.429	82.5
363.656	106.5
363.882	82.5
364.109	99.5
364.335	80.5
364.562	78.5
364.788	82.5
365.015	89.5
365.241	67.5
365.468	84.5
365.694	84.5
365.92	73.5
366.147	96.5
366.373	84.5
366.599	88.5
366.826	90.5
367.052	84.5
367.278	89.5
367.505	87.5
367.731	89.5
367.957	86.5
368.184	77.5
368.41	82.5
368.636	76.5
368.862	72.5
369.089	78.5
369.315	89.5
369.541	84.5
369.767	91.5
369.993	85.5
370.219	88.5
370.445	93.5
370.672	90.5
370.898	87.5
371.124	91.5
371.35	75.5
371.576	76.5
371.802	67.5
372.028	82.5
372.254	94.5
372.48	77.5
372.706	77.5
372.932	86.5
373.158	86.5
373.384	87.5
373.61	90.5
373.835	82.5
374.061	97.5
374.287	82.5
374.513	97.5
374.739	87.5
374.965	86.5
375.191	88.5
375.416	89.5
375.642	87.5
375.868	79.5
376.094	103.5
376.319	89.5
376.545	86.5
376.771	91.5
376.997	85.5
377.222	93.5
377.448	79.5
377.674	85.5
377.899	80.5
378.125	90.5
378.35	99.5
378.576	88.5
378.802	88.5
379.027	86.5
379.253	74.5
379.478	77.5
379.704	92.5
379.929	85.5
380.155	95.5
380.38	87.5
380.606	79.5
380.831	78.5
381.057	84.5
381.282	89.5
381.507	88.5
381.733	104.5
381.958	74.5
382.184	77.5
382.409	80.5
382.634	94.5
382.86	89.5
383.085	80.5
383.31	83.5
383.535	88.5
383.761	89.5
383.986	75.5
384.211	92.5
384.436	77.5
384.662	85.5
384.887	86.5
385.112	78.5
385.337	73.5
385.562	92.5
385.787	84.5
386.013	76.5
386.238	90.5
386.463	82.5
386.688	96.5
386.913	84.5
387.138	99.5
387.363	94.5
387.588	83.5
387.813	80.5
388.038	70.5
388.263	84.5
388.488	86.5
388.713	81.5
388.938	91.5
389.163	98.5
389.387	85.5
389.612	92.5
389.837	77.5
390.062	85.5
390.287	87.5
390.512	76.5
390.736	79.5
390.961	80.5
391.186	91.5
391.411	83.5
391.636	92.5
391.86	84.5
392.085	90.5
392.31	58.5
392.534	74.5
392.759	92.5
392.984	108.5
393.208	172.5
393.433	225.5
393.658	180.5
393.882	101.5
394.107	82.5
394.331	87.5
394.556	86.5
394.78	76.5
395.005	90.5
395.229	74.5
395.454	82.5
395.678	88.5
395.903	85.5
396.127	108.5
396.352	98.5
396.576	119.5
396.801	166.5
397.025	178.5
397.249	121.5
397.474	104.5
397.698	90.5
397.922	63.5
398.147	83.5
398.371	81.5
398.595	85.5
398.82	74.5
399.044	78.5
399.268	87.5
399.492	84.5
399.717	76.5
399.941	83.5
400.165	78.5
400.389	93.5
400.613	57.5
400.837	72.5
401.062	91.5
401.286	87.5
401.51	84.5
401.734	95.5
401.958	90.5
402.182	84.5
402.406	82.5
402.63	79.5
402.854	80.5
403.078	89.5
403.302	82.5
403.526	73.5
403.75	82.5
403.974	78.5
404.198	89.5
404.422	102.5
404.645	98.5
404.869	91.5
405.093	78.5
405.317	76.5
405.541	88.5
405.765	81.5
405.988	94.5
406.212	89.5
406.436	85.5
406.66	84.5
406.883	98.5
407.107	88.5
407.331	81.5
407.555	86.5
407.778	84.5
408.002	97.5
408.226	93.5
408.449	82.5
408.673	98.5
408.896	76.5
409.12	86.5
409.344	100.5
409.567	88.5
409.791	83.5
410.014	89.5
410.238	86.5
410.461	82.5
410.685	89.5
410.908	84.5
411.132	77.5
411.355	79.5
411.578	92.5
411.802	88.5
412.025	100.5
412.249	63.5
412.472	70.5
412.695	70.5
412.919	86.5
413.142	83.5
413.365	83.5
413.589	90.5
413.812	97.5
414.035	85.5
414.258	64.5
414.482	82.5
414.705	71.5
414.928	78.5
415.151	73.5
415.374	84.5
415.597	80.5
415.821	90.5
416.044	84.5
416.267	83.5
416.49	78.5
416.713	86.5
416.936	84.5
417.159	75.5
417.382	70.5
417.605	85.5
417.828	86.5
418.051	97.5
418.274	82.5
418.497	100.5
418.72	85.5
418.943	81.5
419.166	75.5
419.389	74.5
419.611	93.5
419.834	71.5
420.057	87.5
420.28	82.5
420.503	82.5
420.726	77.5
420.948	87.5
421.171	88.5
421.394	89.5
421.617	91.5
421.839	91.5
422.062	70.5
422.285	102.5
422.507	138.5
422.73	177.5
422.953	153.5
423.175	92.5
423.398	71.5
423.621	84.5
423.843	86.5
424.066	92.5
424.288	79.5
424.511	82.5
424.733	78.5
424.956	84.5
425.178	76.5
425.401	64.5
425.623	74.5
425.846	85.5
426.068	73.5
426.291	96.5
426.513	70.5
426.735	81.5
426.958	72.5
427.18	83.5
427.402	82.5
427.625	88.5
427.847	92.5
428.069	94.5
428.292	100.5
428.514	101.5
428.736	83.5
428.958	89.5
429.181	92.5
429.403	93.5
429.625	100.5
429.847	80.5
430.069	84.5
430.292	98.5
430.514	89.5
430.736	74.5
430.958	99.5
431.18	92.5
431.402	90.5
431.624	94.5
431.846	94.5
432.068	88.5
432.29	83.5
432.512	83.5
432.734	89.5
432.956	91.5
433.178	92.5
433.4	78.5
433.622	82.5
433.844	59.5
434.066	97.5
434.287	93.5
434.509	83.5
434.731	82.5
434.953	90.5
435.175	85.5
435.397	81.5
435.618	85.5
435.84	74.5
436.062	78.5
436.284	69.5
436.505	76.5
436.727	82.5
436.949	98.5
437.17	79.5
437.392	78.5
437.614	96.5
437.835	80.5
438.057	73.5
438.278	98.5
438.5	90.5
438.721	84.5
438.943	87.5
439.165	89.5
439.386	78.5
439.608	88.5
439.829	75.5
440.05	93.5
440.272	84.5
440.493	84.5
440.715	75.5
440.936	96.5
441.158	88.5
441.379	82.5
441.6	99.5
441.822	82.5
442.043	70.5
442.264	78.5
442.486	80.5
442.707	91.5
442.928	92.5
443.149	93.5
443.371	95.5
443.592	115.5
443.813	89.5
444.034	77.5
444.255	82.5
444.476	71.5
444.698	78.5
444.919	81.5
445.14	150.5
445.361	120.5
445.582	109.5
445.803	99.5
446.024	88.5
446.245	78.5
446.466	87.5
446.687	76.5
446.908	84.5
447.129	89.5
447.35	85.5
447.571	78.5
447.792	82.5
448.013	88.5
448.234	87.5
448.455	72.5
448.675	72.5
448.896	91.5
449.117	91.5
449.338	71.5
449.559	85.5
449.779	74.5
450	82.5
450.221	85.5
450.442	77.5
450.662	90.5
450.883	76.5
451.104	74.5
451.324	88.5
451.545	69.5
451.766	96.5
451.986	91.5
452.207	79.5
452.428	66.5
452.648	86.5
452.869	81.5
453.089	84.5
453.31	78.5
453.53	80.5
453.751	84.5
453.971	89.5
454.192	88.5
454.412	92.5
454.633	76.5
454.853	68.5
455.073	77.5
455.294	75.5
455.514	100.5
455.734	78.5
455.955	85.5
456.175	89.5
456.395	69.5
456.616	83.5
456.836	81.5
457.056	82.5
457.276	84.5
457.497	100.5
457.717	70.5
457.937	86.5
458.157	86.5
458.377	86.5
458.598	82.5
458.818	103.5
459.038	74.5
459.258	75.5
459.478	91.5
459.698	85.5
459.918	90.5
460.138	75.5
460.358	84.5
460.578	78.5
460.798	85.5
461.018	88.5
461.238	98.5
461.458	88.5
461.678	96.5
461.898	83.5
462.118	86.5
462.338	82.5
462.558	76.5
462.777	80.5
462.997	70.5
463.217	80.5
463.437	91.5
463.657	84.5
463.876	77.5
464.096	84.5
464.316	78.5
464.536	90.5
464.755	90.5
464.975	87.5
465.195	88.5
465.414	90.5
465.634	68.5
465.854	82.5
466.073	83.5
466.293	83.5
466.512	89.5
466.732	90.5
466.951	75.5
467.171	85.5
467.391	76.5
467.61	73.5
467.829	84.5
468.049	79.5
468.268	78.5
468.488	85.5
468.707	68.5
468.927	88.5
469.146	70.5
469.365	88.5
469.585	87.5
469.804	88.5
470.023	97.5
470.243	92.5
470.462	94.5
470.681	97.5
470.901	90.5
471.12	84.5
471.339	87.5
471.558	65.5
471.777	79.5
471.997	86.5
472.216	97.5
472.435	89.5
472.654	82.5
472.873	87.5
473.092	88.5
473.311	87.5
473.53	91.5
473.749	92.5
473.968	84.5
474.187	73.5
474.406	88.5
474.625	87.5
474.844	79.5
475.063	83.5
475.282	87.5
475.501	77.5
475.72	89.5
475.939	92.5
476.158	84.5
476.377	84.5
476.596	75.5
476.814	82.5
477.033	80.5
477.252	83.5
477.471	91.5
477.69	88.5
477.908	79.5
478.127	84.5
478.346	85.5
478.564	73.5
478.783	88.5
479.002	93.5
479.22	87.5
479.439	81.5
479.658	89.5
479.876	97.5
480.095	79.5
480.313	89.5
480.532	76.5
480.751	82.5
480.969	91.5
481.188	81.5
481.406	79.5
481.624	85.5
481.843	84.5
482.061	90.5
482.28	98.5
482.498	88.5
482.717	83.5
482.935	90.5
483.153	81.5
483.372	77.5
483.59	74.5
483.808	95.5
484.027	86.5
484.245	86.5
484.463	72.5
484.681	91.5
484.9	82.5
485.118	70.5
485.336	83.5
485.554	101.5
485.772	90.5
485.99	89.5
486.209	93.5
486.427	72.5
486.645	84.5
486.863	92.5
487.081	74.5
487.299	86.5
487.517	82.5
487.735	93.5
487.953	98.5
488.171	86.5
488.389	80.5
488.607	78.5
488.825	90.5
489.043	77.5
489.261	88.5
489.479	88.5
489.696	87.5
489.914	84.5
490.132	83.5
490.35	85.5
490.568	90.5
490.786	93.5
491.003	86.5
491.221	88.5
491.439	86.5
491.657	76.5
491.874	89.5
492.092	92.5
492.31	81.5
492.527	72.5
492.745	86.5
492.963	86.5
493.18	83.5
493.398	82.5
493.615	77.5
493.833	84.5
494.05	72.5
494.268	78.5
494.485	85.5
494.703	90.5
494.92	85.5
495.138	98.5
495.355	84.5
495.573	82.5
495.79	86.5
496.008	88.5
496.225	76.5
496.442	86.5
496.66	94.5
496.877	73.5
497.094	78.5
497.312	85.5
497.529	77.5
497.746	85.5
497.963	88.5
498.181	89.5
498.398	78.5
498.615	90.5
498.832	82.5
499.049	85.5
499.267	77.5
499.484	100.5
499.701	85.5
499.918	88.5
500.135	78.5
500.352	77.5
500.569	84.5
500.786	80.5
501.003	84.5
501.22	74.5
501.437	82.5
501.654	84.5
501.871	85.5
502.088	86.5
502.305	89.5
502.522	79.5
502.739	84.5
502.956	82.5
503.172	76.5
503.389	84.5
503.606	74.5
503.823	89.5
504.04	96.5
504.256	96.5
504.473	87.5
504.69	92.5
504.907	87.5
505.123	88.5
505.34	100.5
505.557	90.5
505.773	84.5
505.99	87.5
506.207	80.5
506.423	79.5
506.64	84.5
506.856	82.5
507.073	87.5
507.289	90.5
507.506	85.5
507.722	86.5
507.939	98.5
508.155	93.5
508.372	70.5
508.588	85.5
508.805	82.5
509.021	82.5
509.238	84.5
509.454	99.5
509.67	87.5
509.887	76.5
510.103	89.5
510.319	82.5
510.536	94.5
510.752	85.5
510.968	92.5
511.184	88.5
511.401	82.5
511.617	84.5
511.833	85.5
512.049	82.5
512.265	98.5
512.481	84.5
512.698	80.5
512.914	87.5
513.13	76.5
513.346	76.5
513.562	78.5
513.778	85.5
513.994	77.5
514.21	92.5
514.426	96.5
514.642	70.5
514.858	76.5
515.074	81.5
515.29	90.5
515.506	82.5
515.721	103.5
515.937	88.5
516.153	88.5
516.369	91.5
516.585	75.5
516.801	65.5
517.016	91.5
517.232	88.5
517.448	95.5
517.664	88.5
517.879	87.5
518.095	83.5
518.311	73.5
518.527	92.5
518.742	74.5
518.958	87.5
519.173	85.5
519.389	97.5
519.605	85.5
519.82	94.5
520.036	89.5
520.251	83.5
520.467	88.5
520.682	88.5
520.898	92.5
521.113	90.5
521.329	98.5
521.544	78.5
521.76	83.5
521.975	84.5
522.19	89.5
522.406	96.5
522.621	79.5
522.836	79.5
523.052	85.5
523.267	92.5
523.482	90.5
523.698	76.5
523.913	90.5
524.128	80.5
524.343	82.5
524.559	89.5
524.774	87.5
524.989	78.5
525.204	80.5
525.419	96.5
525.634	87.5
525.849	98.5
526.064	91.5
526.28	88.5
526.495	97.5
526.71	103.5
526.925	95.5
527.14	109.5
527.355	108.5
527.57	93.5
527.785	84.5
527.999	94.5
528.214	85.5
528.429	73.5
528.644	85.5
528.859	85.5
529.074	85.5
529.289	83.5
529.503	89.5
529.718	83.5
529.933	83.5
530.148	87.5
530.363	84.5
530.577	88.5
530.792	94.5
531.007	68.5
531.221	90.5
531.436	74.5
531.651	82.5
531.865	92.5
532.08	95.5
532.295	97.5
532.509	77.5
532.724	90.5
532.938	93.5
533.153	72.5
533.367	82.5
533.582	90.5
533.796	88.5
534.011	90.5
534.225	92.5
534.44	85.5
534.654	88.5
534.868	92.5
535.083	99.5
535.297	87.5
535.511	84.5
535.726	84.5
535.94	98.5
536.154	88.5
536.369	90.5
536.583	105.5
536.797	70.5
537.011	84.5
537.225	87.5
537.44	103.5
537.654	100.5
537.868	85.5
538.082	84.5
538.296	79.5
538.51	86.5
538.724	84.5
538.938	85.5
539.153	91.5
539.367	96.5
539.581	84.5
539.795	84.5
