Data from 17600_1_HRD10591_00034.txt Node
Date: Mon Jan 19 14:07:41 EST 2026
User: Yrep
Spectrometer: HR+D1059
Trigger mode: 1
Integration Time (sec): 1.000000E-1
Scans to average: 1
Electric dark correction enabled: true
Nonlinearity correction enabled: false
Boxcar width: 0
XAxis mode: Wavelengths
Number of Pixels in Spectrum: 2048
>>>>>Begin Spectral Data<<<<<
223.165	-16.19
223.4	-16.19
223.635	-16.19
223.869	-6.19
224.104	-17.19
224.338	-33.19
224.573	-8.19
224.808	-20.19
225.042	-5.19
225.277	-2.19
225.511	-7.19
225.746	-1.19
225.98	3.81
226.215	10.81
226.449	25.81
226.683	19.81
226.918	31.81
227.152	24.81
227.387	27.81
227.621	47.81
227.856	31.81
228.09	55.81
228.324	65.81
228.559	50.81
228.793	64.81
229.027	56.81
229.262	53.81
229.496	74.81
229.73	81.81
229.964	75.81
230.199	81.81
230.433	75.81
230.667	67.81
230.901	86.81
231.136	78.81
231.37	72.81
231.604	80.81
231.838	89.81
232.072	85.81
232.306	86.81
232.541	74.81
232.775	67.81
233.009	73.81
233.243	82.81
233.477	75.81
233.711	80.81
233.945	85.81
234.179	67.81
234.413	94.81
234.647	83.81
234.881	75.81
235.115	81.81
235.349	67.81
235.583	79.81
235.817	77.81
236.051	77.81
236.285	67.81
236.519	63.81
236.753	73.81
236.987	85.81
237.221	55.81
237.455	84.81
237.689	76.81
237.922	86.81
238.156	71.81
238.39	97.81
238.624	78.81
238.858	75.81
239.091	73.81
239.325	80.81
239.559	73.81
239.793	85.81
240.027	72.81
240.26	81.81
240.494	77.81
240.728	62.81
240.961	75.81
241.195	84.81
241.429	88.81
241.662	78.81
241.896	75.81
242.13	81.81
242.363	73.81
242.597	86.81
242.83	79.81
243.064	90.81
243.298	81.81
243.531	68.81
243.765	69.81
243.998	84.81
244.232	89.81
244.465	74.81
244.699	80.81
244.932	60.81
245.166	75.81
245.399	75.81
245.633	80.81
245.866	72.81
246.099	73.81
246.333	85.81
246.566	86.81
246.8	73.81
247.033	90.81
247.266	91.81
247.5	84.81
247.733	87.81
247.966	82.81
248.2	75.81
248.433	85.81
248.666	73.81
248.899	70.81
249.133	77.81
249.366	79.81
249.599	86.81
249.832	75.81
250.066	73.81
250.299	76.81
250.532	84.81
250.765	65.81
250.998	81.81
251.231	62.81
251.465	69.81
251.698	94.81
251.931	74.81
252.164	66.81
252.397	81.81
252.63	75.81
252.863	79.81
253.096	81.81
253.329	79.81
253.562	74.81
253.795	70.81
254.028	78.81
254.261	81.81
254.494	76.81
254.727	68.81
254.96	79.81
255.193	92.81
255.426	82.81
255.659	74.81
255.892	69.81
256.124	79.81
256.357	73.81
256.59	96.81
256.823	79.81
257.056	92.81
257.289	84.81
257.521	75.81
257.754	92.81
257.987	79.81
258.22	84.81
258.452	75.81
258.685	73.81
258.918	79.81
259.151	79.81
259.383	81.81
259.616	87.81
259.849	79.81
260.081	80.81
260.314	74.81
260.547	81.81
260.779	82.81
261.012	88.81
261.244	82.81
261.477	78.81
261.71	86.81
261.942	79.81
262.175	68.81
262.407	91.81
262.64	83.81
262.872	78.81
263.105	81.81
263.337	76.81
263.57	85.81
263.802	78.81
264.035	90.81
264.267	71.81
264.499	82.81
264.732	87.81
264.964	83.81
265.197	86.81
265.429	83.81
265.661	81.81
265.894	84.81
266.126	102.81
266.358	91.81
266.591	78.81
266.823	81.81
267.055	77.81
267.287	74.81
267.52	67.81
267.752	75.81
267.984	77.81
268.216	98.81
268.448	83.81
268.681	85.81
268.913	83.81
269.145	68.81
269.377	89.81
269.609	79.81
269.841	96.81
270.073	81.81
270.306	74.81
270.538	82.81
270.77	88.81
271.002	78.81
271.234	81.81
271.466	82.81
271.698	71.81
271.93	93.81
272.162	75.81
272.394	90.81
272.626	83.81
272.858	73.81
273.09	81.81
273.322	72.81
273.553	78.81
273.785	75.81
274.017	87.81
274.249	91.81
274.481	91.81
274.713	71.81
274.945	81.81
275.176	89.81
275.408	91.81
275.64	80.81
275.872	90.81
276.104	93.81
276.335	83.81
276.567	77.81
276.799	88.81
277.031	81.81
277.262	83.81
277.494	95.81
277.726	95.81
277.957	83.81
278.189	97.81
278.421	90.81
278.652	83.81
278.884	73.81
279.115	97.81
279.347	84.81
279.579	79.81
279.81	79.81
280.042	80.81
280.273	90.81
280.505	83.81
280.736	74.81
280.968	84.81
281.199	81.81
281.431	82.81
281.662	78.81
281.894	73.81
282.125	88.81
282.356	79.81
282.588	97.81
282.819	96.81
283.051	71.81
283.282	81.81
283.513	72.81
283.745	90.81
283.976	86.81
284.207	90.81
284.439	73.81
284.67	85.81
284.901	91.81
285.132	93.81
285.364	70.81
285.595	88.81
285.826	82.81
286.057	95.81
286.288	90.81
286.52	89.81
286.751	87.81
286.982	79.81
287.213	81.81
287.444	95.81
287.675	93.81
287.906	101.81
288.138	82.81
288.369	96.81
288.6	96.81
288.831	82.81
289.062	73.81
289.293	100.81
289.524	91.81
289.755	87.81
289.986	93.81
290.217	73.81
290.448	72.81
290.679	85.81
290.91	80.81
291.141	75.81
291.371	86.81
291.602	70.81
291.833	81.81
292.064	85.81
292.295	73.81
292.526	85.81
292.757	90.81
292.987	62.81
293.218	85.81
293.449	91.81
293.68	89.81
293.91	72.81
294.141	90.81
294.372	81.81
294.603	87.81
294.833	89.81
295.064	88.81
295.295	78.81
295.525	83.81
295.756	84.81
295.987	81.81
296.217	91.81
296.448	86.81
296.679	98.81
296.909	68.81
297.14	86.81
297.37	84.81
297.601	75.81
297.831	90.81
298.062	80.81
298.292	80.81
298.523	86.81
298.753	96.81
298.984	79.81
299.214	74.81
299.445	78.81
299.675	83.81
299.905	99.81
300.136	103.81
300.366	79.81
300.597	89.81
300.827	96.81
301.057	87.81
301.288	80.81
301.518	81.81
301.748	83.81
301.979	103.81
302.209	86.81
302.439	81.81
302.669	77.81
302.9	76.81
303.13	81.81
303.36	82.81
303.59	79.81
303.82	85.81
304.051	83.81
304.281	105.81
304.511	98.81
304.741	75.81
304.971	80.81
305.201	79.81
305.431	81.81
305.661	96.81
305.891	75.81
306.121	91.81
306.352	78.81
306.582	71.81
306.812	81.81
307.042	85.81
307.272	97.81
307.502	90.81
307.731	89.81
307.961	96.81
308.191	91.81
308.421	84.81
308.651	92.81
308.881	87.81
309.111	90.81
309.341	85.81
309.571	91.81
309.8	86.81
310.03	89.81
310.26	85.81
310.49	88.81
310.72	83.81
310.949	84.81
311.179	91.81
311.409	81.81
311.639	83.81
311.868	97.81
312.098	99.81
312.328	92.81
312.557	95.81
312.787	86.81
313.017	74.81
313.246	74.81
313.476	79.81
313.706	88.81
313.935	83.81
314.165	89.81
314.394	86.81
314.624	79.81
314.853	86.81
315.083	85.81
315.312	85.81
315.542	77.81
315.771	94.81
316.001	101.81
316.23	93.81
316.46	88.81
316.689	101.81
316.919	91.81
317.148	87.81
317.377	100.81
317.607	93.81
317.836	109.81
318.065	89.81
318.295	90.81
318.524	77.81
318.753	93.81
318.983	78.81
319.212	91.81
319.441	78.81
319.67	69.81
319.9	92.81
320.129	81.81
320.358	93.81
320.587	91.81
320.816	81.81
321.046	86.81
321.275	74.81
321.504	79.81
321.733	79.81
321.962	84.81
322.191	95.81
322.42	72.81
322.649	89.81
322.878	77.81
323.108	78.81
323.337	84.81
323.566	92.81
323.795	85.81
324.024	78.81
324.253	84.81
324.482	86.81
324.71	93.81
324.939	94.81
325.168	80.81
325.397	75.81
325.626	83.81
325.855	88.81
326.084	79.81
326.313	90.81
326.542	72.81
326.77	77.81
326.999	89.81
327.228	75.81
327.457	82.81
327.686	81.81
327.914	93.81
328.143	73.81
328.372	81.81
328.6	83.81
328.829	95.81
329.058	81.81
329.287	77.81
329.515	75.81
329.744	89.81
329.972	82.81
330.201	99.81
330.43	82.81
330.658	86.81
330.887	82.81
331.115	82.81
331.344	79.81
331.572	83.81
331.801	78.81
332.03	82.81
332.258	82.81
332.486	90.81
332.715	83.81
332.943	91.81
333.172	95.81
333.4	79.81
333.629	87.81
333.857	70.81
334.085	90.81
334.314	98.81
334.542	82.81
334.771	87.81
334.999	93.81
335.227	82.81
335.455	72.81
335.684	98.81
335.912	92.81
336.14	77.81
336.369	85.81
336.597	94.81
336.825	73.81
337.053	79.81
337.281	105.81
337.51	87.81
337.738	82.81
337.966	74.81
338.194	100.81
338.422	86.81
338.65	91.81
338.878	84.81
339.106	92.81
339.334	70.81
339.562	90.81
339.79	83.81
340.018	84.81
340.246	89.81
340.474	90.81
340.702	83.81
340.93	82.81
341.158	63.81
341.386	85.81
341.614	75.81
341.842	73.81
342.07	71.81
342.298	81.81
342.526	92.81
342.754	77.81
342.981	86.81
343.209	94.81
343.437	89.81
343.665	83.81
343.893	89.81
344.12	89.81
344.348	97.81
344.576	84.81
344.804	75.81
345.031	83.81
345.259	87.81
345.487	98.81
345.714	89.81
345.942	88.81
346.17	83.81
346.397	88.81
346.625	85.81
346.853	78.81
347.08	87.81
347.308	81.81
347.535	96.81
347.763	95.81
347.99	75.81
348.218	92.81
348.445	79.81
348.673	83.81
348.9	91.81
349.128	65.81
349.355	83.81
349.583	85.81
349.81	81.81
350.037	71.81
350.265	73.81
350.492	75.81
350.72	98.81
350.947	82.81
351.174	96.81
351.402	93.81
351.629	72.81
351.856	79.81
352.083	77.81
352.311	89.81
352.538	86.81
352.765	78.81
352.992	84.81
353.22	83.81
353.447	87.81
353.674	85.81
353.901	98.81
354.128	89.81
354.355	91.81
354.583	87.81
354.81	73.81
355.037	95.81
355.264	75.81
355.491	82.81
355.718	86.81
355.945	92.81
356.172	91.81
356.399	88.81
356.626	76.81
356.853	95.81
357.08	79.81
357.307	75.81
357.534	90.81
357.761	81.81
357.988	96.81
358.215	92.81
358.441	89.81
358.668	91.81
358.895	82.81
359.122	90.81
359.349	68.81
359.576	65.81
359.802	76.81
360.029	74.81
360.256	75.81
360.483	89.81
360.709	79.81
360.936	82.81
361.163	85.81
361.39	81.81
361.616	92.81
361.843	89.81
362.07	85.81
362.296	106.81
362.523	90.81
362.749	110.81
362.976	80.81
363.203	77.81
363.429	78.81
363.656	73.81
363.882	95.81
364.109	95.81
364.335	99.81
364.562	89.81
364.788	75.81
365.015	82.81
365.241	89.81
365.468	76.81
365.694	83.81
365.92	89.81
366.147	89.81
366.373	87.81
366.599	85.81
366.826	74.81
367.052	87.81
367.278	84.81
367.505	72.81
367.731	81.81
367.957	108.81
368.184	96.81
368.41	86.81
368.636	72.81
368.862	96.81
369.089	73.81
369.315	65.81
369.541	92.81
369.767	89.81
369.993	87.81
370.219	90.81
370.445	99.81
370.672	93.81
370.898	92.81
371.124	87.81
371.35	79.81
371.576	80.81
371.802	101.81
372.028	82.81
372.254	78.81
372.48	76.81
372.706	75.81
372.932	89.81
373.158	80.81
373.384	89.81
373.61	109.81
373.835	103.81
374.061	106.81
374.287	78.81
374.513	95.81
374.739	86.81
374.965	88.81
375.191	94.81
375.416	73.81
375.642	90.81
375.868	85.81
376.094	101.81
376.319	87.81
376.545	90.81
376.771	86.81
376.997	86.81
377.222	89.81
377.448	81.81
377.674	85.81
377.899	94.81
378.125	84.81
378.35	98.81
378.576	98.81
378.802	89.81
379.027	81.81
379.253	87.81
379.478	93.81
379.704	100.81
379.929	87.81
380.155	91.81
380.38	88.81
380.606	79.81
380.831	89.81
381.057	98.81
381.282	103.81
381.507	89.81
381.733	94.81
381.958	100.81
382.184	82.81
382.409	85.81
382.634	91.81
382.86	93.81
383.085	92.81
383.31	102.81
383.535	89.81
383.761	86.81
383.986	87.81
384.211	88.81
384.436	101.81
384.662	87.81
384.887	69.81
385.112	88.81
385.337	91.81
385.562	89.81
385.787	91.81
386.013	87.81
386.238	87.81
386.463	92.81
386.688	105.81
386.913	85.81
387.138	76.81
387.363	96.81
387.588	84.81
387.813	85.81
388.038	87.81
388.263	91.81
388.488	79.81
388.713	93.81
388.938	80.81
389.163	81.81
389.387	85.81
389.612	78.81
389.837	76.81
390.062	85.81
390.287	78.81
390.512	80.81
390.736	93.81
390.961	89.81
391.186	75.81
391.411	91.81
391.636	82.81
391.86	78.81
392.085	88.81
392.31	102.81
392.534	88.81
392.759	105.81
392.984	188.81
393.208	331.81
393.433	467.81
393.658	329.81
393.882	133.81
394.107	109.81
394.331	95.81
394.556	92.81
394.78	97.81
395.005	99.81
395.229	101.81
395.454	82.81
395.678	69.81
395.903	103.81
396.127	130.81
396.352	131.81
396.576	186.81
396.801	303.81
397.025	379.81
397.249	177.81
397.474	89.81
397.698	85.81
397.922	74.81
398.147	67.81
398.371	93.81
398.595	85.81
398.82	76.81
399.044	80.81
399.268	96.81
399.492	91.81
399.717	64.81
399.941	81.81
400.165	86.81
400.389	81.81
400.613	80.81
400.837	87.81
401.062	91.81
401.286	86.81
401.51	80.81
401.734	70.81
401.958	83.81
402.182	75.81
402.406	73.81
402.63	80.81
402.854	85.81
403.078	89.81
403.302	83.81
403.526	91.81
403.75	71.81
403.974	90.81
404.198	99.81
404.422	80.81
404.645	97.81
404.869	103.81
405.093	97.81
405.317	79.81
405.541	73.81
405.765	77.81
405.988	81.81
406.212	71.81
406.436	94.81
406.66	94.81
406.883	80.81
407.107	77.81
407.331	86.81
407.555	107.81
407.778	131.81
408.002	117.81
408.226	80.81
408.449	83.81
408.673	87.81
408.896	83.81
409.12	83.81
409.344	74.81
409.567	86.81
409.791	95.81
410.014	101.81
410.238	96.81
410.461	81.81
410.685	78.81
410.908	76.81
411.132	90.81
411.355	69.81
411.578	83.81
411.802	89.81
412.025	80.81
412.249	78.81
412.472	76.81
412.695	97.81
412.919	93.81
413.142	98.81
413.365	73.81
413.589	78.81
413.812	76.81
414.035	70.81
414.258	76.81
414.482	78.81
414.705	62.81
414.928	74.81
415.151	82.81
415.374	81.81
415.597	74.81
415.821	73.81
416.044	74.81
416.267	88.81
416.49	69.81
416.713	74.81
416.936	65.81
417.159	80.81
417.382	94.81
417.605	92.81
417.828	86.81
418.051	93.81
418.274	81.81
418.497	81.81
418.72	74.81
418.943	77.81
419.166	77.81
419.389	75.81
419.611	76.81
419.834	87.81
420.057	90.81
420.28	86.81
420.503	90.81
420.726	87.81
420.948	83.81
421.171	79.81
421.394	106.81
421.617	129.81
421.839	113.81
422.062	91.81
422.285	106.81
422.507	197.81
422.73	315.81
422.953	266.81
423.175	128.81
423.398	93.81
423.621	98.81
423.843	76.81
424.066	73.81
424.288	98.81
424.511	95.81
424.733	69.81
424.956	74.81
425.178	94.81
425.401	79.81
425.623	72.81
425.846	84.81
426.068	83.81
426.291	86.81
426.513	81.81
426.735	83.81
426.958	75.81
427.18	84.81
427.402	76.81
427.625	84.81
427.847	90.81
428.069	88.81
428.292	115.81
428.514	106.81
428.736	97.81
428.958	108.81
429.181	99.81
429.403	98.81
429.625	86.81
429.847	98.81
430.069	109.81
430.292	130.81
430.514	126.81
430.736	119.81
430.958	99.81
431.18	87.81
431.402	88.81
431.624	83.81
431.846	100.81
432.068	112.81
432.29	80.81
432.512	88.81
432.734	74.81
432.956	89.81
433.178	75.81
433.4	82.81
433.622	97.81
433.844	83.81
434.066	74.81
434.287	77.81
434.509	84.81
434.731	71.81
434.953	87.81
435.175	89.81
435.397	76.81
435.618	78.81
435.84	83.81
436.062	83.81
436.284	87.81
436.505	79.81
436.727	80.81
436.949	75.81
437.17	83.81
437.392	85.81
437.614	77.81
437.835	64.81
438.057	90.81
438.278	86.81
438.5	106.81
438.721	84.81
438.943	99.81
439.165	85.81
439.386	91.81
439.608	101.81
439.829	73.81
440.05	70.81
440.272	81.81
440.493	81.81
440.715	75.81
440.936	76.81
441.158	85.81
441.379	67.81
441.6	86.81
441.822	83.81
442.043	77.81
442.264	93.81
442.486	102.81
442.707	105.81
442.928	90.81
443.149	96.81
443.371	105.81
443.592	142.81
443.813	133.81
444.034	81.81
444.255	79.81
444.476	83.81
444.698	79.81
444.919	84.81
445.14	155.81
445.361	132.81
445.582	173.81
445.803	160.81
446.024	76.81
446.245	79.81
446.466	82.81
446.687	76.81
446.908	64.81
447.129	97.81
447.35	91.81
447.571	85.81
447.792	84.81
448.013	76.81
448.234	67.81
448.455	73.81
448.675	87.81
448.896	77.81
449.117	91.81
449.338	82.81
449.559	81.81
449.779	74.81
450	89.81
450.221	96.81
450.442	77.81
450.662	87.81
450.883	73.81
451.104	89.81
451.324	70.81
451.545	76.81
451.766	83.81
451.986	90.81
452.207	78.81
452.428	97.81
452.648	80.81
452.869	79.81
453.089	97.81
453.31	90.81
453.53	79.81
453.751	87.81
453.971	80.81
454.192	76.81
454.412	93.81
454.633	88.81
454.853	84.81
455.073	83.81
455.294	77.81
455.514	81.81
455.734	82.81
455.955	72.81
456.175	76.81
456.395	91.81
456.616	80.81
456.836	87.81
457.056	87.81
457.276	72.81
457.497	71.81
457.717	91.81
457.937	80.81
458.157	84.81
458.377	82.81
458.598	102.81
458.818	87.81
459.038	76.81
459.258	80.81
459.478	84.81
459.698	99.81
459.918	81.81
460.138	79.81
460.358	80.81
460.578	76.81
460.798	91.81
461.018	98.81
461.238	83.81
461.458	79.81
461.678	73.81
461.898	87.81
462.118	88.81
462.338	78.81
462.558	80.81
462.777	88.81
462.997	85.81
463.217	73.81
463.437	78.81
463.657	83.81
463.876	79.81
464.096	81.81
464.316	86.81
464.536	86.81
464.755	78.81
464.975	73.81
465.195	77.81
465.414	82.81
465.634	70.81
465.854	89.81
466.073	81.81
466.293	91.81
466.512	85.81
466.732	71.81
466.951	73.81
467.171	80.81
467.391	89.81
467.61	93.81
467.829	91.81
468.049	87.81
468.268	70.81
468.488	89.81
468.707	76.81
468.927	81.81
469.146	86.81
469.365	81.81
469.585	84.81
469.804	79.81
470.023	88.81
470.243	89.81
470.462	74.81
470.681	89.81
470.901	83.81
471.12	71.81
471.339	77.81
471.558	75.81
471.777	88.81
471.997	83.81
472.216	93.81
472.435	81.81
472.654	68.81
472.873	85.81
473.092	85.81
473.311	79.81
473.53	74.81
473.749	71.81
473.968	97.81
474.187	89.81
474.406	90.81
474.625	86.81
474.844	82.81
475.063	69.81
475.282	78.81
475.501	84.81
475.72	109.81
475.939	96.81
476.158	102.81
476.377	80.81
476.596	83.81
476.814	82.81
477.033	82.81
477.252	82.81
477.471	84.81
477.69	80.81
477.908	93.81
478.127	77.81
478.346	83.81
478.564	85.81
478.783	86.81
479.002	82.81
479.22	88.81
479.439	88.81
479.658	83.81
479.876	79.81
480.095	96.81
480.313	91.81
480.532	82.81
480.751	84.81
480.969	77.81
481.188	90.81
481.406	92.81
481.624	88.81
481.843	93.81
482.061	75.81
482.28	83.81
482.498	94.81
482.717	92.81
482.935	67.81
483.153	93.81
483.372	81.81
483.59	90.81
483.808	85.81
484.027	82.81
484.245	85.81
484.463	85.81
484.681	82.81
484.9	81.81
485.118	89.81
485.336	71.81
485.554	78.81
485.772	87.81
485.99	94.81
486.209	81.81
486.427	79.81
486.645	91.81
486.863	73.81
487.081	80.81
487.299	93.81
487.517	89.81
487.735	85.81
487.953	113.81
488.171	109.81
488.389	91.81
488.607	85.81
488.825	93.81
489.043	75.81
489.261	89.81
489.479	86.81
489.696	83.81
489.914	93.81
490.132	83.81
490.35	89.81
490.568	85.81
490.786	71.81
491.003	101.81
491.221	70.81
491.439	75.81
491.657	91.81
491.874	102.81
492.092	90.81
492.31	86.81
492.527	72.81
492.745	76.81
492.963	80.81
493.18	86.81
493.398	81.81
493.615	87.81
493.833	85.81
494.05	81.81
494.268	91.81
494.485	79.81
494.703	78.81
494.92	94.81
495.138	68.81
495.355	91.81
495.573	75.81
495.79	84.81
496.008	99.81
496.225	93.81
496.442	74.81
496.66	94.81
496.877	89.81
497.094	87.81
497.312	95.81
497.529	86.81
497.746	79.81
497.963	84.81
498.181	85.81
498.398	72.81
498.615	87.81
498.832	90.81
499.049	105.81
499.267	92.81
499.484	82.81
499.701	95.81
499.918	90.81
500.135	87.81
500.352	72.81
500.569	74.81
500.786	82.81
501.003	80.81
501.22	61.81
501.437	92.81
501.654	100.81
501.871	97.81
502.088	89.81
502.305	89.81
502.522	84.81
502.739	69.81
502.956	90.81
503.172	91.81
503.389	87.81
503.606	80.81
503.823	77.81
504.04	83.81
504.256	88.81
504.473	97.81
504.69	80.81
504.907	85.81
505.123	87.81
505.34	98.81
505.557	83.81
505.773	94.81
505.99	80.81
506.207	90.81
506.423	72.81
506.64	91.81
506.856	77.81
507.073	93.81
507.289	85.81
507.506	78.81
507.722	85.81
507.939	68.81
508.155	79.81
508.372	79.81
508.588	94.81
508.805	70.81
509.021	79.81
509.238	79.81
509.454	87.81
509.67	86.81
509.887	90.81
510.103	89.81
510.319	93.81
510.536	81.81
510.752	78.81
510.968	81.81
511.184	68.81
511.401	79.81
511.617	86.81
511.833	85.81
512.049	71.81
512.265	71.81
512.481	95.81
512.698	79.81
512.914	90.81
513.13	85.81
513.346	88.81
513.562	72.81
513.778	77.81
513.994	79.81
514.21	85.81
514.426	81.81
514.642	82.81
514.858	88.81
515.074	76.81
515.29	85.81
515.506	83.81
515.721	97.81
515.937	82.81
516.153	77.81
516.369	85.81
516.585	77.81
516.801	60.81
517.016	89.81
517.232	77.81
517.448	80.81
517.664	100.81
517.879	83.81
518.095	79.81
518.311	86.81
518.527	90.81
518.742	90.81
518.958	90.81
519.173	99.81
