Data from 17600_1_HRD10591_00036.txt Node
Date: Mon Jan 19 14:07:42 EST 2026
User: Yrep
Spectrometer: HR+D1059
Trigger mode: 1
Integration Time (sec): 1.000000E-1
Scans to average: 1
Electric dark correction enabled: true
Nonlinearity correction enabled: false
Boxcar width: 0
XAxis mode: Wavelengths
Number of Pixels in Spectrum: 2048
>>>>>Begin Spectral Data<<<<<
223.165	-7.62
223.4	-7.62
223.635	-7.62
223.869	-19.62
224.104	-24.62
224.338	-17.62
224.573	-8.62
224.808	-20.62
225.042	-8.62
225.277	-19.62
225.511	-6.62
225.746	7.38
225.98	4.38
226.215	18.38
226.449	18.38
226.683	23.38
226.918	33.38
227.152	28.38
227.387	23.38
227.621	38.38
227.856	42.38
228.09	51.38
228.324	53.38
228.559	54.38
228.793	44.38
229.027	54.38
229.262	65.38
229.496	63.38
229.73	66.38
229.964	55.38
230.199	82.38
230.433	85.38
230.667	81.38
230.901	89.38
231.136	79.38
231.37	90.38
231.604	86.38
231.838	76.38
232.072	83.38
232.306	87.38
232.541	79.38
232.775	82.38
233.009	79.38
233.243	77.38
233.477	75.38
233.711	80.38
233.945	84.38
234.179	73.38
234.413	84.38
234.647	84.38
234.881	88.38
235.115	86.38
235.349	75.38
235.583	89.38
235.817	66.38
236.051	76.38
236.285	80.38
236.519	72.38
236.753	76.38
236.987	76.38
237.221	62.38
237.455	74.38
237.689	70.38
237.922	69.38
238.156	80.38
238.39	65.38
238.624	74.38
238.858	71.38
239.091	82.38
239.325	77.38
239.559	67.38
239.793	82.38
240.027	81.38
240.26	72.38
240.494	81.38
240.728	70.38
240.961	72.38
241.195	66.38
241.429	70.38
241.662	74.38
241.896	77.38
242.13	89.38
242.363	77.38
242.597	80.38
242.83	82.38
243.064	76.38
243.298	82.38
243.531	76.38
243.765	76.38
243.998	84.38
244.232	86.38
244.465	74.38
244.699	82.38
244.932	77.38
245.166	82.38
245.399	86.38
245.633	74.38
245.866	81.38
246.099	60.38
246.333	67.38
246.566	69.38
246.8	86.38
247.033	70.38
247.266	83.38
247.5	72.38
247.733	89.38
247.966	64.38
248.2	68.38
248.433	70.38
248.666	87.38
248.899	87.38
249.133	76.38
249.366	96.38
249.599	76.38
249.832	79.38
250.066	66.38
250.299	69.38
250.532	74.38
250.765	83.38
250.998	77.38
251.231	74.38
251.465	77.38
251.698	82.38
251.931	75.38
252.164	84.38
252.397	78.38
252.63	74.38
252.863	65.38
253.096	75.38
253.329	97.38
253.562	74.38
253.795	82.38
254.028	76.38
254.261	91.38
254.494	71.38
254.727	77.38
254.96	84.38
255.193	98.38
255.426	83.38
255.659	73.38
255.892	80.38
256.124	66.38
256.357	88.38
256.59	90.38
256.823	83.38
257.056	80.38
257.289	76.38
257.521	75.38
257.754	80.38
257.987	76.38
258.22	91.38
258.452	88.38
258.685	79.38
258.918	93.38
259.151	80.38
259.383	83.38
259.616	79.38
259.849	102.38
260.081	78.38
260.314	69.38
260.547	86.38
260.779	92.38
261.012	70.38
261.244	77.38
261.477	74.38
261.71	76.38
261.942	83.38
262.175	94.38
262.407	84.38
262.64	86.38
262.872	89.38
263.105	89.38
263.337	81.38
263.57	77.38
263.802	77.38
264.035	83.38
264.267	74.38
264.499	78.38
264.732	94.38
264.964	83.38
265.197	87.38
265.429	64.38
265.661	76.38
265.894	88.38
266.126	83.38
266.358	79.38
266.591	85.38
266.823	78.38
267.055	73.38
267.287	79.38
267.52	91.38
267.752	87.38
267.984	66.38
268.216	86.38
268.448	80.38
268.681	75.38
268.913	84.38
269.145	69.38
269.377	86.38
269.609	90.38
269.841	82.38
270.073	79.38
270.306	80.38
270.538	80.38
270.77	91.38
271.002	70.38
271.234	62.38
271.466	87.38
271.698	81.38
271.93	106.38
272.162	98.38
272.394	76.38
272.626	86.38
272.858	75.38
273.09	68.38
273.322	81.38
273.553	84.38
273.785	75.38
274.017	83.38
274.249	76.38
274.481	75.38
274.713	90.38
274.945	70.38
275.176	76.38
275.408	74.38
275.64	77.38
275.872	78.38
276.104	89.38
276.335	80.38
276.567	70.38
276.799	86.38
277.031	94.38
277.262	68.38
277.494	78.38
277.726	66.38
277.957	71.38
278.189	90.38
278.421	102.38
278.652	88.38
278.884	76.38
279.115	86.38
279.347	84.38
279.579	76.38
279.81	88.38
280.042	94.38
280.273	96.38
280.505	83.38
280.736	80.38
280.968	79.38
281.199	97.38
281.431	93.38
281.662	83.38
281.894	83.38
282.125	75.38
282.356	94.38
282.588	86.38
282.819	91.38
283.051	91.38
283.282	75.38
283.513	75.38
283.745	80.38
283.976	80.38
284.207	75.38
284.439	77.38
284.67	85.38
284.901	95.38
285.132	84.38
285.364	87.38
285.595	76.38
285.826	74.38
286.057	84.38
286.288	76.38
286.52	88.38
286.751	84.38
286.982	95.38
287.213	90.38
287.444	80.38
287.675	85.38
287.906	94.38
288.138	96.38
288.369	90.38
288.6	94.38
288.831	96.38
289.062	90.38
289.293	86.38
289.524	84.38
289.755	80.38
289.986	90.38
290.217	92.38
290.448	88.38
290.679	80.38
290.91	94.38
291.141	95.38
291.371	74.38
291.602	85.38
291.833	75.38
292.064	87.38
292.295	74.38
292.526	76.38
292.757	82.38
292.987	79.38
293.218	84.38
293.449	94.38
293.68	86.38
293.91	81.38
294.141	82.38
294.372	79.38
294.603	81.38
294.833	88.38
295.064	74.38
295.295	73.38
295.525	74.38
295.756	89.38
295.987	80.38
296.217	92.38
296.448	78.38
296.679	83.38
296.909	84.38
297.14	82.38
297.37	82.38
297.601	98.38
297.831	94.38
298.062	89.38
298.292	82.38
298.523	79.38
298.753	82.38
298.984	82.38
299.214	88.38
299.445	95.38
299.675	70.38
299.905	94.38
300.136	89.38
300.366	76.38
300.597	83.38
300.827	82.38
301.057	82.38
301.288	82.38
301.518	73.38
301.748	83.38
301.979	95.38
302.209	74.38
302.439	88.38
302.669	91.38
302.9	80.38
303.13	88.38
303.36	94.38
303.59	93.38
303.82	97.38
304.051	90.38
304.281	94.38
304.511	86.38
304.741	76.38
304.971	75.38
305.201	81.38
305.431	84.38
305.661	88.38
305.891	83.38
306.121	79.38
306.352	77.38
306.582	83.38
306.812	84.38
307.042	90.38
307.272	80.38
307.502	79.38
307.731	79.38
307.961	82.38
308.191	94.38
308.421	86.38
308.651	88.38
308.881	95.38
309.111	78.38
309.341	91.38
309.571	91.38
309.8	88.38
310.03	76.38
310.26	85.38
310.49	76.38
310.72	80.38
310.949	88.38
311.179	79.38
311.409	88.38
311.639	89.38
311.868	71.38
312.098	77.38
312.328	96.38
312.557	84.38
312.787	84.38
313.017	84.38
313.246	93.38
313.476	89.38
313.706	76.38
313.935	92.38
314.165	85.38
314.394	87.38
314.624	86.38
314.853	90.38
315.083	91.38
315.312	88.38
315.542	82.38
315.771	100.38
316.001	92.38
316.23	94.38
316.46	84.38
316.689	89.38
316.919	83.38
317.148	67.38
317.377	96.38
317.607	102.38
317.836	92.38
318.065	87.38
318.295	82.38
318.524	94.38
318.753	87.38
318.983	81.38
319.212	78.38
319.441	79.38
319.67	83.38
319.9	95.38
320.129	75.38
320.358	98.38
320.587	96.38
320.816	76.38
321.046	98.38
321.275	81.38
321.504	82.38
321.733	90.38
321.962	97.38
322.191	93.38
322.42	87.38
322.649	81.38
322.878	74.38
323.108	90.38
323.337	78.38
323.566	89.38
323.795	87.38
324.024	84.38
324.253	84.38
324.482	88.38
324.71	80.38
324.939	88.38
325.168	81.38
325.397	86.38
325.626	80.38
325.855	97.38
326.084	92.38
326.313	68.38
326.542	88.38
326.77	94.38
326.999	86.38
327.228	96.38
327.457	81.38
327.686	72.38
327.914	86.38
328.143	79.38
328.372	87.38
328.6	89.38
328.829	87.38
329.058	81.38
329.287	86.38
329.515	78.38
329.744	88.38
329.972	88.38
330.201	93.38
330.43	95.38
330.658	86.38
330.887	84.38
331.115	91.38
331.344	90.38
331.572	89.38
331.801	87.38
332.03	105.38
332.258	90.38
332.486	74.38
332.715	89.38
332.943	80.38
333.172	92.38
333.4	83.38
333.629	95.38
333.857	89.38
334.085	88.38
334.314	82.38
334.542	97.38
334.771	96.38
334.999	66.38
335.227	88.38
335.455	88.38
335.684	89.38
335.912	90.38
336.14	85.38
336.369	86.38
336.597	93.38
336.825	80.38
337.053	86.38
337.281	87.38
337.51	82.38
337.738	82.38
337.966	73.38
338.194	75.38
338.422	66.38
338.65	84.38
338.878	84.38
339.106	71.38
339.334	90.38
339.562	85.38
339.79	90.38
340.018	83.38
340.246	79.38
340.474	76.38
340.702	78.38
340.93	86.38
341.158	82.38
341.386	95.38
341.614	84.38
341.842	85.38
342.07	96.38
342.298	83.38
342.526	66.38
342.754	86.38
342.981	81.38
343.209	84.38
343.437	94.38
343.665	78.38
343.893	82.38
344.12	84.38
344.348	84.38
344.576	70.38
344.804	64.38
345.031	75.38
345.259	78.38
345.487	82.38
345.714	90.38
345.942	77.38
346.17	81.38
346.397	79.38
346.625	90.38
346.853	77.38
347.08	79.38
347.308	88.38
347.535	84.38
347.763	93.38
347.99	72.38
348.218	79.38
348.445	83.38
348.673	70.38
348.9	87.38
349.128	87.38
349.355	70.38
349.583	74.38
349.81	90.38
350.037	84.38
350.265	88.38
350.492	91.38
350.72	81.38
350.947	91.38
351.174	81.38
351.402	79.38
351.629	86.38
351.856	84.38
352.083	78.38
352.311	82.38
352.538	72.38
352.765	91.38
352.992	94.38
353.22	76.38
353.447	82.38
353.674	86.38
353.901	72.38
354.128	90.38
354.355	79.38
354.583	88.38
354.81	72.38
355.037	85.38
355.264	84.38
355.491	96.38
355.718	74.38
355.945	83.38
356.172	88.38
356.399	84.38
356.626	84.38
356.853	73.38
357.08	73.38
357.307	92.38
357.534	84.38
357.761	77.38
357.988	79.38
358.215	87.38
358.441	90.38
358.668	69.38
358.895	78.38
359.122	87.38
359.349	80.38
359.576	74.38
359.802	82.38
360.029	78.38
360.256	90.38
360.483	90.38
360.709	84.38
360.936	84.38
361.163	76.38
361.39	91.38
361.616	79.38
361.843	88.38
362.07	76.38
362.296	90.38
362.523	88.38
362.749	88.38
362.976	88.38
363.203	94.38
363.429	94.38
363.656	75.38
363.882	91.38
364.109	102.38
364.335	90.38
364.562	80.38
364.788	84.38
365.015	80.38
365.241	90.38
365.468	96.38
365.694	82.38
365.92	88.38
366.147	74.38
366.373	80.38
366.599	80.38
366.826	82.38
367.052	79.38
367.278	89.38
367.505	87.38
367.731	81.38
367.957	86.38
368.184	94.38
368.41	88.38
368.636	105.38
368.862	77.38
369.089	84.38
369.315	75.38
369.541	74.38
369.767	89.38
369.993	87.38
370.219	74.38
370.445	71.38
370.672	84.38
370.898	92.38
371.124	83.38
371.35	74.38
371.576	67.38
371.802	82.38
372.028	79.38
372.254	91.38
372.48	96.38
372.706	78.38
372.932	88.38
373.158	102.38
373.384	67.38
373.61	91.38
373.835	99.38
374.061	93.38
374.287	83.38
374.513	100.38
374.739	80.38
374.965	80.38
375.191	86.38
375.416	95.38
375.642	68.38
375.868	87.38
376.094	88.38
376.319	90.38
376.545	79.38
376.771	75.38
376.997	78.38
377.222	84.38
377.448	77.38
377.674	84.38
377.899	73.38
378.125	78.38
378.35	82.38
378.576	83.38
378.802	80.38
379.027	72.38
379.253	85.38
379.478	82.38
379.704	75.38
379.929	74.38
380.155	90.38
380.38	75.38
380.606	84.38
380.831	95.38
381.057	101.38
381.282	84.38
381.507	83.38
381.733	88.38
381.958	96.38
382.184	81.38
382.409	83.38
382.634	81.38
382.86	79.38
383.085	105.38
383.31	84.38
383.535	81.38
383.761	82.38
383.986	71.38
384.211	82.38
384.436	90.38
384.662	77.38
384.887	81.38
385.112	74.38
385.337	92.38
385.562	91.38
385.787	80.38
386.013	88.38
386.238	96.38
386.463	79.38
386.688	92.38
386.913	84.38
387.138	79.38
387.363	94.38
387.588	87.38
387.813	84.38
388.038	86.38
388.263	90.38
388.488	87.38
388.713	71.38
388.938	79.38
389.163	77.38
389.387	66.38
389.612	78.38
389.837	83.38
390.062	98.38
390.287	89.38
390.512	73.38
390.736	91.38
390.961	80.38
391.186	83.38
391.411	83.38
391.636	86.38
391.86	83.38
392.085	85.38
392.31	72.38
392.534	88.38
392.759	92.38
392.984	100.38
393.208	147.38
393.433	206.38
393.658	166.38
393.882	98.38
394.107	97.38
394.331	85.38
394.556	91.38
394.78	95.38
395.005	68.38
395.229	94.38
395.454	80.38
395.678	102.38
395.903	81.38
396.127	95.38
396.352	99.38
396.576	107.38
396.801	166.38
397.025	178.38
397.249	114.38
397.474	95.38
397.698	82.38
397.922	88.38
398.147	75.38
398.371	92.38
398.595	87.38
398.82	80.38
399.044	88.38
399.268	98.38
399.492	88.38
399.717	88.38
399.941	86.38
400.165	96.38
400.389	89.38
400.613	81.38
400.837	87.38
401.062	76.38
401.286	88.38
401.51	92.38
401.734	81.38
401.958	80.38
402.182	73.38
402.406	78.38
402.63	99.38
402.854	85.38
403.078	94.38
403.302	80.38
403.526	80.38
403.75	80.38
403.974	87.38
404.198	89.38
404.422	84.38
404.645	90.38
404.869	94.38
405.093	84.38
405.317	72.38
405.541	82.38
405.765	82.38
405.988	87.38
406.212	89.38
406.436	74.38
406.66	86.38
406.883	90.38
407.107	86.38
407.331	91.38
407.555	86.38
407.778	88.38
408.002	92.38
408.226	87.38
408.449	87.38
408.673	89.38
408.896	86.38
409.12	97.38
409.344	82.38
409.567	80.38
409.791	77.38
410.014	82.38
410.238	79.38
410.461	63.38
410.685	74.38
410.908	78.38
411.132	79.38
411.355	81.38
411.578	77.38
411.802	70.38
412.025	84.38
412.249	84.38
412.472	79.38
412.695	89.38
412.919	92.38
413.142	82.38
413.365	82.38
413.589	86.38
413.812	82.38
414.035	88.38
414.258	74.38
414.482	82.38
414.705	75.38
414.928	76.38
415.151	79.38
415.374	93.38
415.597	74.38
415.821	84.38
416.044	88.38
416.267	77.38
416.49	95.38
416.713	80.38
416.936	77.38
417.159	75.38
417.382	69.38
417.605	70.38
417.828	84.38
418.051	87.38
418.274	89.38
418.497	75.38
418.72	78.38
418.943	82.38
419.166	88.38
419.389	81.38
419.611	72.38
419.834	80.38
420.057	81.38
420.28	86.38
420.503	89.38
420.726	77.38
420.948	74.38
421.171	78.38
421.394	90.38
421.617	94.38
421.839	97.38
422.062	86.38
422.285	77.38
422.507	128.38
422.73	167.38
422.953	137.38
423.175	105.38
423.398	102.38
423.621	79.38
423.843	69.38
424.066	77.38
424.288	75.38
424.511	64.38
424.733	84.38
424.956	84.38
425.178	89.38
425.401	72.38
425.623	89.38
425.846	93.38
426.068	84.38
426.291	88.38
426.513	96.38
426.735	100.38
426.958	82.38
427.18	73.38
427.402	91.38
427.625	75.38
427.847	85.38
428.069	86.38
428.292	89.38
428.514	83.38
428.736	100.38
428.958	85.38
429.181	90.38
429.403	84.38
429.625	82.38
429.847	114.38
430.069	99.38
430.292	99.38
430.514	94.38
430.736	96.38
430.958	85.38
431.18	76.38
431.402	95.38
431.624	84.38
431.846	90.38
432.068	84.38
432.29	88.38
432.512	90.38
432.734	80.38
432.956	67.38
433.178	92.38
433.4	74.38
433.622	73.38
433.844	85.38
434.066	84.38
434.287	80.38
434.509	66.38
434.731	80.38
434.953	90.38
435.175	79.38
435.397	70.38
435.618	80.38
435.84	83.38
436.062	82.38
436.284	70.38
436.505	80.38
436.727	70.38
436.949	64.38
437.17	90.38
437.392	64.38
437.614	80.38
437.835	86.38
438.057	85.38
438.278	75.38
438.5	81.38
438.721	60.38
438.943	80.38
439.165	77.38
439.386	81.38
439.608	82.38
439.829	82.38
440.05	76.38
440.272	88.38
440.493	76.38
440.715	76.38
440.936	65.38
441.158	90.38
441.379	82.38
441.6	79.38
441.822	66.38
442.043	75.38
442.264	74.38
442.486	103.38
442.707	88.38
442.928	86.38
443.149	83.38
443.371	92.38
443.592	105.38
443.813	97.38
444.034	78.38
444.255	82.38
444.476	84.38
444.698	74.38
444.919	82.38
445.14	142.38
445.361	123.38
445.582	128.38
445.803	115.38
446.024	86.38
446.245	81.38
446.466	78.38
446.687	79.38
446.908	80.38
447.129	79.38
447.35	83.38
447.571	86.38
447.792	94.38
448.013	75.38
448.234	93.38
448.455	82.38
448.675	95.38
448.896	80.38
449.117	74.38
449.338	68.38
449.559	88.38
449.779	91.38
450	108.38
450.221	76.38
450.442	91.38
450.662	84.38
450.883	74.38
451.104	91.38
451.324	74.38
451.545	90.38
451.766	81.38
451.986	72.38
452.207	84.38
452.428	71.38
452.648	73.38
452.869	87.38
453.089	74.38
453.31	80.38
453.53	80.38
453.751	76.38
453.971	72.38
454.192	90.38
454.412	77.38
454.633	83.38
454.853	68.38
455.073	81.38
455.294	89.38
455.514	86.38
455.734	77.38
455.955	96.38
456.175	81.38
456.395	79.38
456.616	81.38
456.836	74.38
457.056	86.38
457.276	86.38
457.497	85.38
457.717	70.38
457.937	67.38
458.157	80.38
458.377	80.38
458.598	81.38
458.818	80.38
459.038	79.38
459.258	83.38
459.478	64.38
459.698	84.38
459.918	85.38
460.138	80.38
460.358	87.38
460.578	88.38
460.798	86.38
461.018	90.38
461.238	90.38
461.458	84.38
461.678	99.38
461.898	92.38
462.118	86.38
462.338	85.38
462.558	72.38
462.777	77.38
462.997	81.38
463.217	80.38
463.437	80.38
463.657	75.38
463.876	88.38
464.096	89.38
464.316	75.38
464.536	70.38
464.755	76.38
464.975	62.38
465.195	68.38
465.414	78.38
465.634	82.38
465.854	83.38
466.073	72.38
466.293	76.38
466.512	84.38
466.732	60.38
466.951	94.38
467.171	88.38
467.391	74.38
467.61	97.38
467.829	69.38
468.049	77.38
468.268	77.38
468.488	83.38
468.707	85.38
468.927	80.38
469.146	70.38
469.365	68.38
469.585	76.38
469.804	91.38
470.023	71.38
470.243	89.38
470.462	68.38
470.681	80.38
470.901	86.38
471.12	81.38
471.339	83.38
471.558	85.38
471.777	83.38
471.997	77.38
472.216	85.38
472.435	70.38
472.654	86.38
472.873	88.38
473.092	96.38
473.311	91.38
473.53	89.38
473.749	91.38
473.968	81.38
474.187	83.38
474.406	77.38
474.625	80.38
474.844	79.38
475.063	64.38
475.282	91.38
475.501	74.38
475.72	97.38
475.939	90.38
476.158	76.38
476.377	72.38
476.596	84.38
476.814	88.38
477.033	83.38
477.252	87.38
477.471	70.38
477.69	60.38
477.908	87.38
478.127	86.38
478.346	68.38
478.564	88.38
478.783	74.38
479.002	74.38
479.22	82.38
479.439	92.38
479.658	74.38
479.876	69.38
480.095	90.38
480.313	86.38
480.532	84.38
480.751	81.38
480.969	98.38
481.188	89.38
481.406	84.38
481.624	82.38
481.843	84.38
482.061	89.38
482.28	85.38
482.498	81.38
482.717	77.38
482.935	83.38
483.153	87.38
483.372	81.38
483.59	84.38
483.808	84.38
484.027	77.38
484.245	79.38
484.463	86.38
484.681	71.38
484.9	84.38
485.118	86.38
485.336	69.38
485.554	67.38
485.772	76.38
485.99	90.38
486.209	82.38
486.427	84.38
486.645	86.38
486.863	87.38
487.081	76.38
487.299	88.38
487.517	89.38
487.735	88.38
487.953	97.38
488.171	96.38
488.389	86.38
488.607	86.38
488.825	80.38
489.043	71.38
489.261	87.38
489.479	84.38
489.696	79.38
489.914	72.38
490.132	83.38
490.35	84.38
490.568	68.38
490.786	71.38
491.003	88.38
491.221	92.38
491.439	80.38
491.657	86.38
491.874	84.38
492.092	88.38
492.31	92.38
492.527	89.38
492.745	91.38
492.963	90.38
493.18	76.38
493.398	78.38
493.615	76.38
493.833	84.38
494.05	91.38
494.268	89.38
494.485	81.38
494.703	85.38
494.92	89.38
495.138	85.38
495.355	86.38
495.573	73.38
495.79	93.38
496.008	93.38
496.225	83.38
496.442	94.38
496.66	87.38
496.877	82.38
497.094	83.38
497.312	82.38
497.529	77.38
497.746	82.38
497.963	78.38
498.181	85.38
498.398	86.38
498.615	79.38
498.832	88.38
499.049	87.38
499.267	84.38
499.484	81.38
499.701	87.38
499.918	95.38
500.135	77.38
500.352	77.38
500.569	71.38
500.786	91.38
501.003	82.38
501.22	77.38
501.437	78.38
501.654	84.38
501.871	83.38
502.088	93.38
502.305	91.38
502.522	75.38
502.739	69.38
502.956	79.38
503.172	101.38
503.389	87.38
503.606	75.38
503.823	94.38
504.04	100.38
504.256	89.38
504.473	90.38
504.69	85.38
504.907	74.38
505.123	75.38
505.34	74.38
505.557	77.38
505.773	90.38
505.99	99.38
506.207	91.38
506.423	83.38
506.64	77.38
506.856	89.38
507.073	103.38
507.289	77.38
507.506	65.38
507.722	78.38
507.939	86.38
508.155	82.38
508.372	75.38
508.588	82.38
508.805	79.38
509.021	82.38
509.238	92.38
509.454	94.38
509.67	84.38
509.887	84.38
510.103	64.38
510.319	80.38
510.536	88.38
510.752	86.38
510.968	90.38
511.184	66.38
511.401	82.38
511.617	89.38
511.833	88.38
512.049	88.38
512.265	77.38
512.481	86.38
512.698	82.38
512.914	84.38
513.13	81.38
513.346	82.38
513.562	90.38
513.778	85.38
513.994	85.38
514.21	77.38
514.426	82.38
514.642	93.38
514.858	87.38
515.074	82.38
515.29	80.38
515.506	90.38
515.721	91.38
515.937	96.38
516.153	93.38
516.369	76.38
516.585	91.38
516.801	76.38
517.016	88.38
517.232	87.38
517.448	86.38
517.664	78.38
517.879	81.38
518.095	82.38
518.311	75.38
518.527	94.38
518.742	82.38
518.958	87.38
519.173	90.38
519.389	76.38
519.605	75.38
519.82	72.38
