Data from 17600_1_HRD10591_00025.txt Node
Date: Mon Jan 19 14:07:36 EST 2026
User: Yrep
Spectrometer: HR+D1059
Trigger mode: 1
Integration Time (sec): 1.000000E-1
Scans to average: 1
Electric dark correction enabled: true
Nonlinearity correction enabled: false
Boxcar width: 0
XAxis mode: Wavelengths
Number of Pixels in Spectrum: 2048
>>>>>Begin Spectral Data<<<<<
223.165	-13.5
223.4	-13.5
223.635	-13.5
223.869	-43.5
224.104	-24.5
224.338	-19.5
224.573	-9.5
224.808	-13.5
225.042	-12.5
225.277	0.5
225.511	9.5
225.746	1.5
225.98	16.5
226.215	7.5
226.449	13.5
226.683	27.5
226.918	31.5
227.152	28.5
227.387	25.5
227.621	33.5
227.856	45.5
228.09	46.5
228.324	46.5
228.559	47.5
228.793	65.5
229.027	56.5
229.262	55.5
229.496	69.5
229.73	58.5
229.964	64.5
230.199	79.5
230.433	80.5
230.667	73.5
230.901	93.5
231.136	87.5
231.37	78.5
231.604	82.5
231.838	77.5
232.072	79.5
232.306	91.5
232.541	80.5
232.775	83.5
233.009	99.5
233.243	82.5
233.477	76.5
233.711	87.5
233.945	78.5
234.179	86.5
234.413	84.5
234.647	80.5
234.881	87.5
235.115	71.5
235.349	78.5
235.583	76.5
235.817	73.5
236.051	93.5
236.285	78.5
236.519	86.5
236.753	84.5
236.987	63.5
237.221	79.5
237.455	77.5
237.689	84.5
237.922	80.5
238.156	73.5
238.39	73.5
238.624	73.5
238.858	87.5
239.091	82.5
239.325	80.5
239.559	72.5
239.793	71.5
240.027	71.5
240.26	64.5
240.494	69.5
240.728	85.5
240.961	79.5
241.195	75.5
241.429	63.5
241.662	71.5
241.896	75.5
242.13	83.5
242.363	68.5
242.597	77.5
242.83	84.5
243.064	78.5
243.298	69.5
243.531	63.5
243.765	87.5
243.998	65.5
244.232	76.5
244.465	74.5
244.699	73.5
244.932	80.5
245.166	78.5
245.399	67.5
245.633	80.5
245.866	73.5
246.099	78.5
246.333	73.5
246.566	74.5
246.8	67.5
247.033	69.5
247.266	74.5
247.5	73.5
247.733	82.5
247.966	77.5
248.2	82.5
248.433	80.5
248.666	77.5
248.899	69.5
249.133	69.5
249.366	74.5
249.599	93.5
249.832	84.5
250.066	76.5
250.299	75.5
250.532	72.5
250.765	70.5
250.998	84.5
251.231	81.5
251.465	78.5
251.698	70.5
251.931	75.5
252.164	77.5
252.397	79.5
252.63	96.5
252.863	72.5
253.096	72.5
253.329	71.5
253.562	70.5
253.795	79.5
254.028	66.5
254.261	89.5
254.494	86.5
254.727	64.5
254.96	64.5
255.193	77.5
255.426	75.5
255.659	73.5
255.892	85.5
256.124	83.5
256.357	81.5
256.59	72.5
256.823	72.5
257.056	68.5
257.289	74.5
257.521	82.5
257.754	60.5
257.987	78.5
258.22	82.5
258.452	80.5
258.685	86.5
258.918	86.5
259.151	80.5
259.383	75.5
259.616	87.5
259.849	84.5
260.081	90.5
260.314	78.5
260.547	93.5
260.779	70.5
261.012	79.5
261.244	95.5
261.477	88.5
261.71	68.5
261.942	68.5
262.175	74.5
262.407	83.5
262.64	80.5
262.872	82.5
263.105	73.5
263.337	80.5
263.57	92.5
263.802	71.5
264.035	73.5
264.267	75.5
264.499	69.5
264.732	63.5
264.964	78.5
265.197	78.5
265.429	78.5
265.661	84.5
265.894	78.5
266.126	77.5
266.358	65.5
266.591	75.5
266.823	68.5
267.055	77.5
267.287	80.5
267.52	68.5
267.752	76.5
267.984	87.5
268.216	72.5
268.448	80.5
268.681	69.5
268.913	90.5
269.145	81.5
269.377	82.5
269.609	88.5
269.841	83.5
270.073	79.5
270.306	87.5
270.538	72.5
270.77	74.5
271.002	72.5
271.234	85.5
271.466	86.5
271.698	72.5
271.93	77.5
272.162	84.5
272.394	72.5
272.626	84.5
272.858	83.5
273.09	78.5
273.322	83.5
273.553	82.5
273.785	86.5
274.017	93.5
274.249	68.5
274.481	66.5
274.713	91.5
274.945	72.5
275.176	87.5
275.408	100.5
275.64	72.5
275.872	80.5
276.104	80.5
276.335	82.5
276.567	66.5
276.799	78.5
277.031	69.5
277.262	80.5
277.494	80.5
277.726	78.5
277.957	73.5
278.189	70.5
278.421	80.5
278.652	86.5
278.884	86.5
279.115	79.5
279.347	86.5
279.579	97.5
279.81	90.5
280.042	90.5
280.273	90.5
280.505	81.5
280.736	93.5
280.968	89.5
281.199	77.5
281.431	77.5
281.662	74.5
281.894	83.5
282.125	76.5
282.356	80.5
282.588	80.5
282.819	78.5
283.051	85.5
283.282	76.5
283.513	78.5
283.745	69.5
283.976	79.5
284.207	94.5
284.439	79.5
284.67	87.5
284.901	91.5
285.132	87.5
285.364	79.5
285.595	70.5
285.826	81.5
286.057	70.5
286.288	88.5
286.52	77.5
286.751	81.5
286.982	78.5
287.213	67.5
287.444	86.5
287.675	66.5
287.906	86.5
288.138	69.5
288.369	78.5
288.6	72.5
288.831	75.5
289.062	80.5
289.293	77.5
289.524	71.5
289.755	83.5
289.986	72.5
290.217	89.5
290.448	85.5
290.679	82.5
290.91	80.5
291.141	83.5
291.371	103.5
291.602	81.5
291.833	78.5
292.064	80.5
292.295	85.5
292.526	79.5
292.757	73.5
292.987	82.5
293.218	75.5
293.449	88.5
293.68	88.5
293.91	81.5
294.141	84.5
294.372	85.5
294.603	81.5
294.833	93.5
295.064	79.5
295.295	75.5
295.525	88.5
295.756	84.5
295.987	87.5
296.217	99.5
296.448	81.5
296.679	89.5
296.909	81.5
297.14	83.5
297.37	74.5
297.601	76.5
297.831	84.5
298.062	80.5
298.292	78.5
298.523	87.5
298.753	89.5
298.984	73.5
299.214	82.5
299.445	72.5
299.675	78.5
299.905	85.5
300.136	74.5
300.366	74.5
300.597	89.5
300.827	95.5
301.057	98.5
301.288	86.5
301.518	80.5
301.748	83.5
301.979	100.5
302.209	81.5
302.439	77.5
302.669	94.5
302.9	94.5
303.13	69.5
303.36	73.5
303.59	72.5
303.82	79.5
304.051	90.5
304.281	90.5
304.511	92.5
304.741	79.5
304.971	84.5
305.201	92.5
305.431	80.5
305.661	83.5
305.891	92.5
306.121	81.5
306.352	78.5
306.582	79.5
306.812	82.5
307.042	87.5
307.272	88.5
307.502	72.5
307.731	83.5
307.961	84.5
308.191	82.5
308.421	84.5
308.651	80.5
308.881	64.5
309.111	79.5
309.341	86.5
309.571	78.5
309.8	80.5
310.03	72.5
310.26	76.5
310.49	78.5
310.72	101.5
310.949	87.5
311.179	65.5
311.409	76.5
311.639	96.5
311.868	86.5
312.098	81.5
312.328	82.5
312.557	82.5
312.787	86.5
313.017	92.5
313.246	86.5
313.476	79.5
313.706	89.5
313.935	84.5
314.165	65.5
314.394	70.5
314.624	83.5
314.853	78.5
315.083	84.5
315.312	93.5
315.542	80.5
315.771	87.5
316.001	73.5
316.23	78.5
316.46	90.5
316.689	86.5
316.919	84.5
317.148	82.5
317.377	86.5
317.607	96.5
317.836	74.5
318.065	78.5
318.295	80.5
318.524	100.5
318.753	86.5
318.983	88.5
319.212	75.5
319.441	78.5
319.67	92.5
319.9	88.5
320.129	74.5
320.358	82.5
320.587	84.5
320.816	78.5
321.046	75.5
321.275	89.5
321.504	75.5
321.733	98.5
321.962	95.5
322.191	84.5
322.42	80.5
322.649	93.5
322.878	92.5
323.108	96.5
323.337	86.5
323.566	85.5
323.795	83.5
324.024	75.5
324.253	92.5
324.482	94.5
324.71	78.5
324.939	82.5
325.168	64.5
325.397	83.5
325.626	73.5
325.855	92.5
326.084	68.5
326.313	94.5
326.542	89.5
326.77	78.5
326.999	78.5
327.228	81.5
327.457	99.5
327.686	97.5
327.914	83.5
328.143	97.5
328.372	80.5
328.6	92.5
328.829	87.5
329.058	65.5
329.287	82.5
329.515	71.5
329.744	87.5
329.972	79.5
330.201	82.5
330.43	106.5
330.658	73.5
330.887	71.5
331.115	77.5
331.344	86.5
331.572	79.5
331.801	82.5
332.03	85.5
332.258	83.5
332.486	90.5
332.715	83.5
332.943	95.5
333.172	79.5
333.4	85.5
333.629	91.5
333.857	69.5
334.085	80.5
334.314	106.5
334.542	87.5
334.771	80.5
334.999	83.5
335.227	84.5
335.455	78.5
335.684	80.5
335.912	80.5
336.14	94.5
336.369	85.5
336.597	90.5
336.825	89.5
337.053	92.5
337.281	83.5
337.51	90.5
337.738	89.5
337.966	81.5
338.194	73.5
338.422	93.5
338.65	88.5
338.878	83.5
339.106	88.5
339.334	79.5
339.562	90.5
339.79	91.5
340.018	74.5
340.246	78.5
340.474	80.5
340.702	78.5
340.93	88.5
341.158	72.5
341.386	72.5
341.614	56.5
341.842	72.5
342.07	72.5
342.298	75.5
342.526	74.5
342.754	75.5
342.981	75.5
343.209	89.5
343.437	94.5
343.665	78.5
343.893	76.5
344.12	93.5
344.348	83.5
344.576	83.5
344.804	82.5
345.031	77.5
345.259	96.5
345.487	99.5
345.714	83.5
345.942	85.5
346.17	82.5
346.397	62.5
346.625	70.5
346.853	81.5
347.08	81.5
347.308	80.5
347.535	83.5
347.763	73.5
347.99	80.5
348.218	88.5
348.445	92.5
348.673	81.5
348.9	65.5
349.128	91.5
349.355	96.5
349.583	85.5
349.81	94.5
350.037	81.5
350.265	92.5
350.492	90.5
350.72	79.5
350.947	89.5
351.174	80.5
351.402	92.5
351.629	84.5
351.856	77.5
352.083	78.5
352.311	68.5
352.538	93.5
352.765	87.5
352.992	71.5
353.22	62.5
353.447	86.5
353.674	89.5
353.901	83.5
354.128	78.5
354.355	78.5
354.583	92.5
354.81	87.5
355.037	78.5
355.264	94.5
355.491	71.5
355.718	63.5
355.945	69.5
356.172	86.5
356.399	68.5
356.626	90.5
356.853	68.5
357.08	72.5
357.307	79.5
357.534	77.5
357.761	94.5
357.988	100.5
358.215	72.5
358.441	78.5
358.668	80.5
358.895	80.5
359.122	87.5
359.349	82.5
359.576	64.5
359.802	82.5
360.029	64.5
360.256	74.5
360.483	72.5
360.709	81.5
360.936	80.5
361.163	75.5
361.39	89.5
361.616	87.5
361.843	83.5
362.07	103.5
362.296	84.5
362.523	88.5
362.749	88.5
362.976	82.5
363.203	87.5
363.429	77.5
363.656	69.5
363.882	89.5
364.109	83.5
364.335	72.5
364.562	88.5
364.788	71.5
365.015	84.5
365.241	75.5
365.468	97.5
365.694	88.5
365.92	82.5
366.147	93.5
366.373	86.5
366.599	90.5
366.826	80.5
367.052	80.5
367.278	76.5
367.505	86.5
367.731	89.5
367.957	75.5
368.184	81.5
368.41	76.5
368.636	78.5
368.862	66.5
369.089	88.5
369.315	79.5
369.541	72.5
369.767	93.5
369.993	74.5
370.219	96.5
370.445	78.5
370.672	70.5
370.898	70.5
371.124	78.5
371.35	73.5
371.576	84.5
371.802	96.5
372.028	76.5
372.254	75.5
372.48	87.5
372.706	101.5
372.932	89.5
373.158	77.5
373.384	93.5
373.61	91.5
373.835	93.5
374.061	77.5
374.287	72.5
374.513	76.5
374.739	75.5
374.965	90.5
375.191	84.5
375.416	72.5
375.642	84.5
375.868	66.5
376.094	97.5
376.319	85.5
376.545	74.5
376.771	87.5
376.997	82.5
377.222	94.5
377.448	92.5
377.674	90.5
377.899	66.5
378.125	78.5
378.35	85.5
378.576	90.5
378.802	75.5
379.027	80.5
379.253	93.5
379.478	81.5
379.704	72.5
379.929	80.5
380.155	79.5
380.38	88.5
380.606	81.5
380.831	68.5
381.057	94.5
381.282	82.5
381.507	82.5
381.733	74.5
381.958	64.5
382.184	82.5
382.409	72.5
382.634	85.5
382.86	98.5
383.085	78.5
383.31	87.5
383.535	72.5
383.761	87.5
383.986	74.5
384.211	90.5
384.436	75.5
384.662	65.5
384.887	90.5
385.112	83.5
385.337	72.5
385.562	83.5
385.787	71.5
386.013	79.5
386.238	74.5
386.463	91.5
386.688	86.5
386.913	94.5
387.138	79.5
387.363	82.5
387.588	94.5
387.813	82.5
388.038	84.5
388.263	82.5
388.488	81.5
388.713	77.5
388.938	85.5
389.163	86.5
389.387	78.5
389.612	88.5
389.837	80.5
390.062	71.5
390.287	76.5
390.512	82.5
390.736	88.5
390.961	70.5
391.186	87.5
391.411	65.5
391.636	92.5
391.86	85.5
392.085	85.5
392.31	89.5
392.534	109.5
392.759	116.5
392.984	104.5
393.208	154.5
393.433	216.5
393.658	169.5
393.882	86.5
394.107	84.5
394.331	79.5
394.556	85.5
394.78	83.5
395.005	73.5
395.229	68.5
395.454	66.5
395.678	87.5
395.903	89.5
396.127	89.5
396.352	93.5
396.576	124.5
396.801	166.5
397.025	180.5
397.249	110.5
397.474	98.5
397.698	84.5
397.922	98.5
398.147	90.5
398.371	74.5
398.595	72.5
398.82	80.5
399.044	82.5
399.268	75.5
399.492	68.5
399.717	92.5
399.941	79.5
400.165	67.5
400.389	84.5
400.613	69.5
400.837	75.5
401.062	87.5
401.286	73.5
401.51	71.5
401.734	88.5
401.958	86.5
402.182	67.5
402.406	76.5
402.63	76.5
402.854	78.5
403.078	88.5
403.302	80.5
403.526	74.5
403.75	74.5
403.974	103.5
404.198	93.5
404.422	109.5
404.645	110.5
404.869	109.5
405.093	77.5
405.317	86.5
405.541	79.5
405.765	70.5
405.988	75.5
406.212	87.5
406.436	70.5
406.66	71.5
406.883	86.5
407.107	68.5
407.331	73.5
407.555	88.5
407.778	78.5
408.002	98.5
408.226	75.5
408.449	77.5
408.673	87.5
408.896	81.5
409.12	89.5
409.344	92.5
409.567	65.5
409.791	80.5
410.014	69.5
410.238	74.5
410.461	89.5
410.685	72.5
410.908	81.5
411.132	88.5
411.355	88.5
411.578	89.5
411.802	79.5
412.025	68.5
412.249	78.5
412.472	89.5
412.695	88.5
412.919	78.5
413.142	84.5
413.365	92.5
413.589	71.5
413.812	90.5
414.035	79.5
414.258	86.5
414.482	71.5
414.705	81.5
414.928	76.5
415.151	80.5
415.374	80.5
415.597	81.5
415.821	72.5
416.044	69.5
416.267	71.5
416.49	75.5
416.713	80.5
416.936	84.5
417.159	74.5
417.382	83.5
417.605	78.5
417.828	80.5
418.051	72.5
418.274	69.5
418.497	78.5
418.72	72.5
418.943	77.5
419.166	87.5
419.389	71.5
419.611	90.5
419.834	80.5
420.057	74.5
420.28	79.5
420.503	84.5
420.726	76.5
420.948	74.5
421.171	86.5
421.394	75.5
421.617	86.5
421.839	94.5
422.062	77.5
422.285	94.5
422.507	133.5
422.73	203.5
422.953	181.5
423.175	108.5
423.398	94.5
423.621	90.5
423.843	84.5
424.066	64.5
424.288	75.5
424.511	92.5
424.733	80.5
424.956	74.5
425.178	84.5
425.401	86.5
425.623	75.5
425.846	81.5
426.068	80.5
426.291	90.5
426.513	66.5
426.735	82.5
426.958	77.5
427.18	85.5
427.402	77.5
427.625	82.5
427.847	84.5
428.069	82.5
428.292	90.5
428.514	93.5
428.736	92.5
428.958	89.5
429.181	94.5
429.403	80.5
429.625	83.5
429.847	94.5
430.069	97.5
430.292	118.5
430.514	101.5
430.736	102.5
430.958	92.5
431.18	89.5
431.402	89.5
431.624	77.5
431.846	89.5
432.068	103.5
432.29	74.5
432.512	83.5
432.734	88.5
432.956	89.5
433.178	73.5
433.4	72.5
433.622	76.5
433.844	72.5
434.066	66.5
434.287	83.5
434.509	76.5
434.731	86.5
434.953	83.5
435.175	84.5
435.397	75.5
435.618	70.5
435.84	73.5
436.062	78.5
436.284	86.5
436.505	78.5
436.727	74.5
436.949	77.5
437.17	86.5
437.392	86.5
437.614	71.5
437.835	66.5
438.057	73.5
438.278	69.5
438.5	91.5
438.721	83.5
438.943	70.5
439.165	84.5
439.386	95.5
439.608	87.5
439.829	90.5
440.05	88.5
440.272	88.5
440.493	91.5
440.715	69.5
440.936	86.5
441.158	84.5
441.379	100.5
441.6	72.5
441.822	85.5
442.043	92.5
442.264	80.5
442.486	85.5
442.707	97.5
442.928	93.5
443.149	88.5
443.371	94.5
443.592	127.5
443.813	110.5
444.034	93.5
444.255	78.5
444.476	83.5
444.698	80.5
444.919	84.5
445.14	154.5
445.361	144.5
445.582	139.5
445.803	131.5
446.024	93.5
446.245	74.5
446.466	93.5
446.687	92.5
446.908	89.5
447.129	79.5
447.35	80.5
447.571	80.5
447.792	61.5
448.013	85.5
448.234	74.5
448.455	92.5
448.675	71.5
448.896	85.5
449.117	75.5
449.338	76.5
449.559	79.5
449.779	74.5
450	67.5
450.221	72.5
450.442	79.5
450.662	78.5
450.883	78.5
451.104	83.5
451.324	90.5
451.545	71.5
451.766	78.5
451.986	82.5
452.207	78.5
452.428	83.5
452.648	78.5
452.869	88.5
453.089	72.5
453.31	93.5
453.53	79.5
453.751	79.5
453.971	85.5
454.192	77.5
454.412	72.5
454.633	80.5
454.853	78.5
455.073	88.5
455.294	72.5
455.514	85.5
455.734	67.5
455.955	92.5
456.175	80.5
456.395	84.5
456.616	81.5
456.836	72.5
457.056	75.5
457.276	66.5
457.497	86.5
457.717	85.5
457.937	88.5
458.157	89.5
458.377	90.5
458.598	63.5
458.818	75.5
459.038	73.5
459.258	82.5
459.478	95.5
459.698	81.5
459.918	67.5
460.138	90.5
460.358	84.5
460.578	84.5
460.798	85.5
461.018	89.5
461.238	87.5
461.458	80.5
461.678	86.5
461.898	86.5
462.118	74.5
462.338	68.5
462.558	86.5
462.777	97.5
462.997	92.5
463.217	84.5
463.437	86.5
463.657	81.5
463.876	77.5
464.096	80.5
464.316	54.5
464.536	68.5
464.755	98.5
464.975	86.5
465.195	78.5
465.414	80.5
465.634	66.5
465.854	89.5
466.073	80.5
466.293	71.5
466.512	75.5
466.732	85.5
466.951	88.5
467.171	73.5
467.391	71.5
467.61	76.5
467.829	68.5
468.049	82.5
468.268	72.5
468.488	74.5
468.707	84.5
468.927	73.5
469.146	77.5
469.365	78.5
469.585	80.5
469.804	90.5
470.023	77.5
470.243	73.5
470.462	80.5
470.681	79.5
470.901	73.5
471.12	86.5
471.339	80.5
471.558	77.5
471.777	75.5
471.997	72.5
472.216	84.5
472.435	81.5
472.654	77.5
472.873	72.5
473.092	94.5
473.311	65.5
473.53	91.5
473.749	84.5
473.968	62.5
474.187	72.5
474.406	85.5
474.625	77.5
474.844	80.5
475.063	75.5
475.282	77.5
475.501	75.5
475.72	88.5
475.939	73.5
476.158	84.5
476.377	90.5
476.596	74.5
476.814	91.5
477.033	83.5
477.252	78.5
477.471	84.5
477.69	88.5
477.908	81.5
478.127	80.5
478.346	95.5
478.564	79.5
478.783	81.5
479.002	69.5
479.22	85.5
479.439	82.5
479.658	74.5
479.876	75.5
480.095	85.5
480.313	85.5
480.532	80.5
480.751	88.5
480.969	72.5
481.188	90.5
481.406	92.5
481.624	84.5
481.843	71.5
482.061	81.5
482.28	88.5
482.498	84.5
482.717	61.5
482.935	98.5
483.153	73.5
483.372	83.5
483.59	84.5
483.808	72.5
484.027	83.5
484.245	89.5
484.463	71.5
484.681	75.5
484.9	76.5
485.118	89.5
485.336	68.5
485.554	80.5
485.772	100.5
485.99	74.5
486.209	87.5
486.427	77.5
486.645	79.5
486.863	74.5
487.081	88.5
487.299	81.5
487.517	78.5
487.735	85.5
487.953	94.5
488.171	83.5
488.389	79.5
488.607	81.5
488.825	69.5
489.043	92.5
489.261	86.5
489.479	72.5
489.696	71.5
489.914	71.5
490.132	79.5
490.35	53.5
490.568	62.5
490.786	90.5
491.003	77.5
491.221	90.5
491.439	75.5
491.657	72.5
491.874	78.5
492.092	73.5
492.31	82.5
492.527	84.5
492.745	77.5
492.963	77.5
493.18	75.5
493.398	87.5
493.615	91.5
493.833	85.5
494.05	84.5
494.268	74.5
494.485	92.5
494.703	94.5
494.92	89.5
495.138	84.5
495.355	90.5
495.573	80.5
495.79	80.5
496.008	88.5
496.225	82.5
496.442	85.5
496.66	78.5
496.877	86.5
497.094	78.5
497.312	87.5
497.529	90.5
497.746	90.5
497.963	87.5
498.181	63.5
498.398	91.5
498.615	97.5
498.832	88.5
499.049	84.5
499.267	74.5
499.484	88.5
499.701	106.5
499.918	85.5
500.135	71.5
500.352	80.5
500.569	86.5
500.786	90.5
501.003	90.5
501.22	87.5
501.437	79.5
501.654	81.5
501.871	88.5
502.088	66.5
502.305	92.5
502.522	86.5
502.739	84.5
502.956	82.5
503.172	90.5
503.389	88.5
503.606	85.5
503.823	83.5
504.04	80.5
504.256	82.5
504.473	100.5
504.69	82.5
504.907	97.5
505.123	100.5
505.34	72.5
505.557	84.5
505.773	85.5
505.99	71.5
506.207	80.5
506.423	78.5
506.64	84.5
506.856	92.5
507.073	86.5
507.289	95.5
507.506	86.5
507.722	78.5
507.939	83.5
508.155	84.5
508.372	78.5
508.588	77.5
508.805	85.5
509.021	86.5
509.238	88.5
509.454	74.5
509.67	73.5
509.887	73.5
510.103	76.5
510.319	84.5
510.536	89.5
510.752	80.5
510.968	103.5
511.184	65.5
511.401	74.5
511.617	93.5
511.833	80.5
512.049	81.5
512.265	73.5
512.481	76.5
512.698	76.5
512.914	94.5
513.13	94.5
513.346	81.5
513.562	75.5
513.778	81.5
513.994	94.5
514.21	95.5
514.426	82.5
514.642	98.5
514.858	75.5
515.074	69.5
515.29	74.5
515.506	82.5
515.721	89.5
515.937	90.5
516.153	82.5
516.369	85.5
516.585	83.5
516.801	94.5
517.016	87.5
517.232	79.5
517.448	82.5
517.664	79.5
517.879	93.5
518.095	71.5
518.311	75.5
518.527	97.5
518.742	81.5
518.958	92.5
519.173	118.5
519.389	90.5
519.605	75.5
519.82	89.5
520.036	85.5
520.251	79.5
520.467	85.5
520.682	92.5
520.898	71.5
521.113	94.5
521.329	83.5
521.544	84.5
521.76	88.5
521.975	85.5
522.19	81.5
522.406	76.5
522.621	80.5
522.836	87.5
523.052	89.5
523.267	71.5
523.482	75.5
523.698	72.5
523.913	82.5
524.128	69.5
524.343	79.5
524.559	94.5
524.774	82.5
524.989	75.5
525.204	68.5
525.419	82.5
525.634	79.5
525.849	79.5
526.064	84.5
526.28	113.5
526.495	127.5
526.71	127.5
526.925	110.5
527.14	136.5
527.355	119.5
527.57	101.5
527.785	74.5
527.999	80.5
528.214	67.5
528.429	84.5
528.644	89.5
528.859	85.5
529.074	72.5
529.289	82.5
529.503	80.5
529.718	82.5
529.933	79.5
530.148	82.5
530.363	84.5
530.577	85.5
530.792	76.5
531.007	87.5
531.221	88.5
531.436	77.5
531.651	89.5
531.865	84.5
532.08	75.5
532.295	85.5
532.509	85.5
532.724	84.5
532.938	73.5
533.153	92.5
533.367	82.5
533.582	80.5
533.796	86.5
534.011	88.5
534.225	96.5
534.44	84.5
534.654	91.5
534.868	102.5
535.083	101.5
535.297	89.5
535.511	85.5
535.726	92.5
535.94	88.5
536.154	85.5
536.369	96.5
536.583	98.5
536.797	89.5
537.011	82.5
537.225	72.5
537.44	77.5
537.654	77.5
537.868	95.5
538.082	78.5
538.296	82.5
538.51	90.5
538.724	93.5
538.938	87.5
539.153	73.5
539.367	74.5
539.581	80.5
539.795	95.5
540.009	88.5
