Data from 17600_1_HRD10591_00012.txt Node
Date: Mon Jan 19 14:07:30 EST 2026
User: Yrep
Spectrometer: HR+D1059
Trigger mode: 1
Integration Time (sec): 1.000000E-1
Scans to average: 1
Electric dark correction enabled: true
Nonlinearity correction enabled: false
Boxcar width: 0
XAxis mode: Wavelengths
Number of Pixels in Spectrum: 2048
>>>>>Begin Spectral Data<<<<<
223.165	-16.25
223.4	-16.25
223.635	-16.25
223.869	-34.25
224.104	-13.25
224.338	4.75
224.573	-21.25
224.808	-23.25
225.042	-27.25
225.277	-5.25
225.511	-6.25
225.746	4.75
225.98	13.75
226.215	7.75
226.449	28.75
226.683	20.75
226.918	26.75
227.152	39.75
227.387	32.75
227.621	37.75
227.856	43.75
228.09	36.75
228.324	53.75
228.559	61.75
228.793	52.75
229.027	67.75
229.262	69.75
229.496	67.75
229.73	74.75
229.964	79.75
230.199	71.75
230.433	79.75
230.667	86.75
230.901	87.75
231.136	73.75
231.37	75.75
231.604	78.75
231.838	78.75
232.072	74.75
232.306	84.75
232.541	90.75
232.775	75.75
233.009	80.75
233.243	83.75
233.477	78.75
233.711	83.75
233.945	73.75
234.179	75.75
234.413	80.75
234.647	81.75
234.881	70.75
235.115	90.75
235.349	82.75
235.583	87.75
235.817	67.75
236.051	85.75
236.285	72.75
236.519	83.75
236.753	63.75
236.987	81.75
237.221	67.75
237.455	65.75
237.689	89.75
237.922	69.75
238.156	77.75
238.39	76.75
238.624	74.75
238.858	73.75
239.091	74.75
239.325	68.75
239.559	80.75
239.793	80.75
240.027	89.75
240.26	87.75
240.494	75.75
240.728	77.75
240.961	88.75
241.195	81.75
241.429	89.75
241.662	75.75
241.896	65.75
242.13	71.75
242.363	78.75
242.597	73.75
242.83	75.75
243.064	81.75
243.298	81.75
243.531	70.75
243.765	84.75
243.998	82.75
244.232	84.75
244.465	84.75
244.699	75.75
244.932	98.75
245.166	74.75
245.399	73.75
245.633	87.75
245.866	86.75
246.099	78.75
246.333	80.75
246.566	79.75
246.8	83.75
247.033	56.75
247.266	75.75
247.5	67.75
247.733	87.75
247.966	87.75
248.2	64.75
248.433	77.75
248.666	84.75
248.899	70.75
249.133	75.75
249.366	81.75
249.599	85.75
249.832	75.75
250.066	80.75
250.299	83.75
250.532	82.75
250.765	81.75
250.998	82.75
251.231	78.75
251.465	82.75
251.698	75.75
251.931	83.75
252.164	79.75
252.397	87.75
252.63	89.75
252.863	77.75
253.096	78.75
253.329	79.75
253.562	85.75
253.795	72.75
254.028	73.75
254.261	89.75
254.494	80.75
254.727	98.75
254.96	75.75
255.193	71.75
255.426	72.75
255.659	78.75
255.892	88.75
256.124	94.75
256.357	83.75
256.59	82.75
256.823	76.75
257.056	80.75
257.289	65.75
257.521	82.75
257.754	95.75
257.987	93.75
258.22	78.75
258.452	76.75
258.685	80.75
258.918	72.75
259.151	78.75
259.383	69.75
259.616	70.75
259.849	65.75
260.081	81.75
260.314	83.75
260.547	72.75
260.779	79.75
261.012	73.75
261.244	80.75
261.477	88.75
261.71	57.75
261.942	83.75
262.175	97.75
262.407	75.75
262.64	99.75
262.872	79.75
263.105	96.75
263.337	85.75
263.57	75.75
263.802	78.75
264.035	91.75
264.267	86.75
264.499	90.75
264.732	68.75
264.964	81.75
265.197	75.75
265.429	99.75
265.661	78.75
265.894	82.75
266.126	82.75
266.358	62.75
266.591	97.75
266.823	93.75
267.055	97.75
267.287	88.75
267.52	79.75
267.752	75.75
267.984	86.75
268.216	87.75
268.448	71.75
268.681	78.75
268.913	86.75
269.145	78.75
269.377	88.75
269.609	92.75
269.841	74.75
270.073	63.75
270.306	65.75
270.538	93.75
270.77	88.75
271.002	87.75
271.234	87.75
271.466	87.75
271.698	90.75
271.93	89.75
272.162	82.75
272.394	73.75
272.626	87.75
272.858	82.75
273.09	83.75
273.322	75.75
273.553	81.75
273.785	84.75
274.017	75.75
274.249	71.75
274.481	84.75
274.713	76.75
274.945	93.75
275.176	73.75
275.408	73.75
275.64	86.75
275.872	84.75
276.104	67.75
276.335	89.75
276.567	78.75
276.799	77.75
277.031	101.75
277.262	75.75
277.494	76.75
277.726	89.75
277.957	90.75
278.189	80.75
278.421	69.75
278.652	73.75
278.884	76.75
279.115	82.75
279.347	88.75
279.579	88.75
279.81	90.75
280.042	83.75
280.273	87.75
280.505	87.75
280.736	93.75
280.968	79.75
281.199	69.75
281.431	75.75
281.662	73.75
281.894	96.75
282.125	85.75
282.356	86.75
282.588	76.75
282.819	85.75
283.051	72.75
283.282	79.75
283.513	87.75
283.745	90.75
283.976	77.75
284.207	80.75
284.439	92.75
284.67	94.75
284.901	85.75
285.132	90.75
285.364	98.75
285.595	74.75
285.826	65.75
286.057	76.75
286.288	86.75
286.52	71.75
286.751	75.75
286.982	79.75
287.213	85.75
287.444	80.75
287.675	88.75
287.906	93.75
288.138	86.75
288.369	77.75
288.6	84.75
288.831	76.75
289.062	82.75
289.293	86.75
289.524	76.75
289.755	84.75
289.986	101.75
290.217	104.75
290.448	74.75
290.679	94.75
290.91	81.75
291.141	81.75
291.371	91.75
291.602	82.75
291.833	86.75
292.064	99.75
292.295	103.75
292.526	70.75
292.757	80.75
292.987	73.75
293.218	85.75
293.449	87.75
293.68	86.75
293.91	80.75
294.141	85.75
294.372	81.75
294.603	94.75
294.833	91.75
295.064	72.75
295.295	74.75
295.525	83.75
295.756	76.75
295.987	84.75
296.217	74.75
296.448	81.75
296.679	91.75
296.909	85.75
297.14	79.75
297.37	69.75
297.601	94.75
297.831	73.75
298.062	93.75
298.292	101.75
298.523	74.75
298.753	86.75
298.984	90.75
299.214	81.75
299.445	81.75
299.675	87.75
299.905	80.75
300.136	84.75
300.366	102.75
300.597	83.75
300.827	89.75
301.057	75.75
301.288	94.75
301.518	89.75
301.748	78.75
301.979	95.75
302.209	91.75
302.439	98.75
302.669	94.75
302.9	76.75
303.13	81.75
303.36	83.75
303.59	80.75
303.82	98.75
304.051	82.75
304.281	77.75
304.511	80.75
304.741	92.75
304.971	86.75
305.201	79.75
305.431	84.75
305.661	93.75
305.891	76.75
306.121	96.75
306.352	79.75
306.582	101.75
306.812	78.75
307.042	81.75
307.272	77.75
307.502	87.75
307.731	94.75
307.961	83.75
308.191	65.75
308.421	76.75
308.651	84.75
308.881	84.75
309.111	83.75
309.341	89.75
309.571	81.75
309.8	85.75
310.03	72.75
310.26	80.75
310.49	79.75
310.72	97.75
310.949	91.75
311.179	91.75
311.409	70.75
311.639	79.75
311.868	89.75
312.098	83.75
312.328	91.75
312.557	83.75
312.787	84.75
313.017	89.75
313.246	75.75
313.476	72.75
313.706	69.75
313.935	77.75
314.165	88.75
314.394	81.75
314.624	82.75
314.853	82.75
315.083	83.75
315.312	77.75
315.542	79.75
315.771	76.75
316.001	79.75
316.23	98.75
316.46	81.75
316.689	70.75
316.919	93.75
317.148	86.75
317.377	80.75
317.607	73.75
317.836	89.75
318.065	91.75
318.295	88.75
318.524	74.75
318.753	84.75
318.983	69.75
319.212	79.75
319.441	77.75
319.67	89.75
319.9	89.75
320.129	89.75
320.358	82.75
320.587	70.75
320.816	78.75
321.046	65.75
321.275	85.75
321.504	85.75
321.733	87.75
321.962	83.75
322.191	83.75
322.42	71.75
322.649	86.75
322.878	89.75
323.108	74.75
323.337	84.75
323.566	93.75
323.795	77.75
324.024	76.75
324.253	87.75
324.482	88.75
324.71	73.75
324.939	88.75
325.168	81.75
325.397	70.75
325.626	77.75
325.855	90.75
326.084	83.75
326.313	80.75
326.542	83.75
326.77	79.75
326.999	80.75
327.228	80.75
327.457	87.75
327.686	84.75
327.914	92.75
328.143	84.75
328.372	94.75
328.6	83.75
328.829	80.75
329.058	81.75
329.287	83.75
329.515	74.75
329.744	77.75
329.972	69.75
330.201	84.75
330.43	75.75
330.658	81.75
330.887	75.75
331.115	90.75
331.344	85.75
331.572	65.75
331.801	76.75
332.03	83.75
332.258	71.75
332.486	69.75
332.715	91.75
332.943	78.75
333.172	81.75
333.4	87.75
333.629	85.75
333.857	77.75
334.085	85.75
334.314	86.75
334.542	93.75
334.771	86.75
334.999	86.75
335.227	78.75
335.455	83.75
335.684	71.75
335.912	91.75
336.14	75.75
336.369	75.75
336.597	91.75
336.825	74.75
337.053	91.75
337.281	81.75
337.51	73.75
337.738	81.75
337.966	81.75
338.194	80.75
338.422	92.75
338.65	71.75
338.878	79.75
339.106	79.75
339.334	79.75
339.562	85.75
339.79	81.75
340.018	89.75
340.246	72.75
340.474	82.75
340.702	71.75
340.93	75.75
341.158	69.75
341.386	66.75
341.614	87.75
341.842	79.75
342.07	84.75
342.298	75.75
342.526	82.75
342.754	69.75
342.981	75.75
343.209	81.75
343.437	97.75
343.665	90.75
343.893	86.75
344.12	90.75
344.348	93.75
344.576	79.75
344.804	83.75
345.031	86.75
345.259	71.75
345.487	86.75
345.714	86.75
345.942	77.75
346.17	73.75
346.397	82.75
346.625	88.75
346.853	97.75
347.08	81.75
347.308	83.75
347.535	85.75
347.763	78.75
347.99	103.75
348.218	83.75
348.445	87.75
348.673	81.75
348.9	82.75
349.128	86.75
349.355	72.75
349.583	90.75
349.81	75.75
350.037	75.75
350.265	83.75
350.492	76.75
350.72	88.75
350.947	83.75
351.174	81.75
351.402	92.75
351.629	87.75
351.856	88.75
352.083	83.75
352.311	79.75
352.538	67.75
352.765	86.75
352.992	81.75
353.22	86.75
353.447	84.75
353.674	85.75
353.901	73.75
354.128	85.75
354.355	86.75
354.583	75.75
354.81	75.75
355.037	98.75
355.264	81.75
355.491	100.75
355.718	97.75
355.945	82.75
356.172	86.75
356.399	90.75
356.626	85.75
356.853	89.75
357.08	87.75
357.307	84.75
357.534	81.75
357.761	85.75
357.988	79.75
358.215	87.75
358.441	77.75
358.668	86.75
358.895	84.75
359.122	91.75
359.349	80.75
359.576	85.75
359.802	74.75
360.029	89.75
360.256	80.75
360.483	78.75
360.709	92.75
360.936	88.75
361.163	88.75
361.39	82.75
361.616	76.75
361.843	75.75
362.07	68.75
362.296	97.75
362.523	81.75
362.749	82.75
362.976	75.75
363.203	94.75
363.429	76.75
363.656	80.75
363.882	85.75
364.109	91.75
364.335	93.75
364.562	87.75
364.788	87.75
365.015	83.75
365.241	72.75
365.468	81.75
365.694	81.75
365.92	86.75
366.147	61.75
366.373	87.75
366.599	81.75
366.826	105.75
367.052	94.75
367.278	95.75
367.505	89.75
367.731	95.75
367.957	81.75
368.184	92.75
368.41	70.75
368.636	85.75
368.862	79.75
369.089	83.75
369.315	89.75
369.541	100.75
369.767	89.75
369.993	87.75
370.219	81.75
370.445	70.75
370.672	99.75
370.898	91.75
371.124	75.75
371.35	79.75
371.576	87.75
371.802	82.75
372.028	80.75
372.254	87.75
372.48	72.75
372.706	83.75
372.932	85.75
373.158	94.75
373.384	89.75
373.61	84.75
373.835	99.75
374.061	83.75
374.287	70.75
374.513	91.75
374.739	79.75
374.965	81.75
375.191	94.75
375.416	72.75
375.642	79.75
375.868	91.75
376.094	97.75
376.319	86.75
376.545	102.75
376.771	93.75
376.997	79.75
377.222	87.75
377.448	74.75
377.674	90.75
377.899	110.75
378.125	66.75
378.35	80.75
378.576	84.75
378.802	86.75
379.027	76.75
379.253	75.75
379.478	77.75
379.704	78.75
379.929	80.75
380.155	85.75
380.38	65.75
380.606	77.75
380.831	79.75
381.057	83.75
381.282	72.75
381.507	91.75
381.733	91.75
381.958	93.75
382.184	74.75
382.409	75.75
382.634	90.75
382.86	86.75
383.085	69.75
383.31	81.75
383.535	86.75
383.761	85.75
383.986	89.75
384.211	88.75
384.436	84.75
384.662	76.75
384.887	91.75
385.112	71.75
385.337	87.75
385.562	87.75
385.787	93.75
386.013	84.75
386.238	79.75
386.463	76.75
386.688	93.75
386.913	74.75
387.138	83.75
387.363	85.75
387.588	91.75
387.813	82.75
388.038	86.75
388.263	76.75
388.488	71.75
388.713	65.75
388.938	94.75
389.163	91.75
389.387	81.75
389.612	74.75
389.837	74.75
390.062	85.75
390.287	74.75
390.512	75.75
390.736	82.75
390.961	75.75
391.186	85.75
391.411	85.75
391.636	85.75
391.86	93.75
392.085	76.75
392.31	80.75
392.534	67.75
392.759	100.75
392.984	94.75
393.208	136.75
393.433	194.75
393.658	150.75
393.882	91.75
394.107	90.75
394.331	76.75
394.556	97.75
394.78	70.75
395.005	73.75
395.229	84.75
395.454	93.75
395.678	88.75
395.903	85.75
396.127	101.75
396.352	112.75
396.576	104.75
396.801	150.75
397.025	136.75
397.249	93.75
397.474	89.75
397.698	95.75
397.922	83.75
398.147	80.75
398.371	78.75
398.595	76.75
398.82	82.75
399.044	93.75
399.268	82.75
399.492	85.75
399.717	88.75
399.941	91.75
400.165	91.75
400.389	88.75
400.613	90.75
400.837	82.75
401.062	93.75
401.286	89.75
401.51	89.75
401.734	80.75
401.958	69.75
402.182	68.75
402.406	75.75
402.63	90.75
402.854	75.75
403.078	101.75
403.302	85.75
403.526	67.75
403.75	74.75
403.974	73.75
404.198	93.75
404.422	78.75
404.645	89.75
404.869	84.75
405.093	69.75
405.317	84.75
405.541	78.75
405.765	83.75
405.988	84.75
406.212	75.75
406.436	65.75
406.66	87.75
406.883	84.75
407.107	78.75
407.331	78.75
407.555	78.75
407.778	101.75
408.002	84.75
408.226	83.75
408.449	77.75
408.673	87.75
408.896	81.75
409.12	84.75
409.344	83.75
409.567	71.75
409.791	89.75
410.014	95.75
410.238	82.75
410.461	81.75
410.685	85.75
410.908	83.75
411.132	87.75
411.355	81.75
411.578	88.75
411.802	82.75
412.025	81.75
412.249	67.75
412.472	79.75
412.695	105.75
412.919	69.75
413.142	72.75
413.365	73.75
413.589	85.75
413.812	79.75
414.035	92.75
414.258	81.75
414.482	76.75
414.705	75.75
414.928	94.75
415.151	71.75
415.374	93.75
415.597	87.75
415.821	78.75
416.044	89.75
416.267	64.75
416.49	83.75
416.713	80.75
416.936	70.75
417.159	90.75
417.382	86.75
417.605	85.75
417.828	73.75
418.051	72.75
418.274	85.75
418.497	76.75
418.72	90.75
418.943	91.75
419.166	82.75
419.389	81.75
419.611	72.75
419.834	73.75
420.057	88.75
420.28	81.75
420.503	65.75
420.726	86.75
420.948	92.75
421.171	80.75
421.394	101.75
421.617	89.75
421.839	82.75
422.062	95.75
422.285	102.75
422.507	129.75
422.73	197.75
422.953	195.75
423.175	105.75
423.398	84.75
423.621	81.75
423.843	87.75
424.066	81.75
424.288	90.75
424.511	86.75
424.733	76.75
424.956	75.75
425.178	80.75
425.401	72.75
425.623	80.75
425.846	83.75
426.068	75.75
426.291	87.75
426.513	69.75
426.735	83.75
426.958	85.75
427.18	82.75
427.402	85.75
427.625	66.75
427.847	85.75
428.069	68.75
428.292	96.75
428.514	103.75
428.736	99.75
428.958	83.75
429.181	102.75
429.403	90.75
429.625	89.75
429.847	81.75
430.069	106.75
430.292	100.75
430.514	110.75
430.736	81.75
430.958	105.75
431.18	85.75
431.402	83.75
431.624	76.75
431.846	103.75
432.068	93.75
432.29	85.75
432.512	88.75
432.734	98.75
432.956	91.75
433.178	90.75
433.4	65.75
433.622	75.75
433.844	74.75
434.066	81.75
434.287	84.75
434.509	87.75
434.731	76.75
434.953	75.75
435.175	81.75
435.397	81.75
435.618	90.75
435.84	75.75
436.062	86.75
436.284	88.75
436.505	86.75
436.727	86.75
436.949	86.75
437.17	78.75
437.392	79.75
437.614	81.75
437.835	81.75
438.057	73.75
438.278	74.75
438.5	74.75
438.721	82.75
438.943	80.75
439.165	88.75
439.386	90.75
439.608	64.75
439.829	85.75
440.05	69.75
440.272	73.75
440.493	75.75
440.715	83.75
440.936	66.75
441.158	77.75
441.379	94.75
441.6	87.75
441.822	74.75
442.043	82.75
442.264	95.75
442.486	97.75
442.707	104.75
442.928	76.75
443.149	90.75
443.371	98.75
443.592	113.75
443.813	114.75
444.034	85.75
444.255	83.75
444.476	98.75
444.698	94.75
444.919	72.75
445.14	144.75
445.361	141.75
445.582	131.75
445.803	115.75
446.024	91.75
446.245	79.75
446.466	84.75
446.687	89.75
446.908	93.75
447.129	84.75
447.35	79.75
447.571	81.75
447.792	70.75
448.013	76.75
448.234	95.75
448.455	84.75
448.675	76.75
448.896	101.75
449.117	85.75
449.338	81.75
449.559	86.75
449.779	79.75
450	76.75
450.221	81.75
450.442	80.75
450.662	87.75
450.883	76.75
451.104	78.75
451.324	75.75
451.545	70.75
451.766	81.75
451.986	81.75
452.207	82.75
452.428	83.75
452.648	79.75
452.869	75.75
453.089	114.75
453.31	81.75
453.53	89.75
453.751	86.75
453.971	73.75
454.192	70.75
454.412	87.75
454.633	85.75
454.853	65.75
455.073	97.75
455.294	85.75
455.514	88.75
455.734	74.75
455.955	94.75
456.175	78.75
456.395	84.75
456.616	81.75
456.836	91.75
457.056	72.75
457.276	82.75
457.497	75.75
457.717	79.75
457.937	91.75
458.157	98.75
458.377	88.75
458.598	78.75
458.818	101.75
459.038	87.75
459.258	90.75
459.478	92.75
459.698	90.75
459.918	97.75
460.138	81.75
460.358	83.75
460.578	87.75
460.798	80.75
461.018	95.75
461.238	94.75
461.458	91.75
461.678	89.75
461.898	76.75
462.118	81.75
462.338	68.75
462.558	59.75
462.777	86.75
462.997	69.75
463.217	86.75
463.437	89.75
463.657	85.75
463.876	81.75
464.096	88.75
464.316	95.75
464.536	65.75
464.755	95.75
464.975	79.75
465.195	82.75
465.414	91.75
465.634	73.75
465.854	72.75
466.073	82.75
466.293	92.75
466.512	79.75
466.732	83.75
466.951	83.75
467.171	81.75
467.391	80.75
467.61	82.75
467.829	88.75
468.049	79.75
468.268	89.75
468.488	82.75
468.707	89.75
468.927	87.75
469.146	84.75
469.365	83.75
469.585	81.75
469.804	86.75
470.023	75.75
470.243	82.75
470.462	83.75
470.681	75.75
470.901	69.75
471.12	72.75
471.339	95.75
471.558	85.75
471.777	90.75
471.997	84.75
472.216	97.75
472.435	95.75
472.654	98.75
472.873	81.75
473.092	85.75
473.311	103.75
473.53	88.75
473.749	91.75
473.968	83.75
474.187	81.75
474.406	92.75
474.625	88.75
474.844	86.75
475.063	84.75
475.282	72.75
475.501	81.75
475.72	91.75
475.939	78.75
476.158	81.75
476.377	81.75
476.596	87.75
476.814	78.75
477.033	69.75
477.252	75.75
477.471	71.75
477.69	89.75
477.908	69.75
478.127	73.75
478.346	81.75
478.564	79.75
478.783	81.75
479.002	90.75
479.22	86.75
479.439	86.75
479.658	86.75
479.876	74.75
480.095	80.75
480.313	81.75
480.532	101.75
480.751	86.75
480.969	71.75
481.188	74.75
481.406	79.75
481.624	83.75
481.843	72.75
482.061	65.75
482.28	84.75
482.498	79.75
482.717	83.75
482.935	93.75
483.153	91.75
483.372	83.75
483.59	93.75
483.808	92.75
484.027	74.75
484.245	85.75
484.463	76.75
484.681	87.75
484.9	85.75
485.118	76.75
485.336	87.75
485.554	77.75
485.772	72.75
485.99	82.75
486.209	81.75
486.427	81.75
486.645	74.75
486.863	78.75
487.081	83.75
487.299	87.75
487.517	75.75
487.735	93.75
487.953	95.75
488.171	92.75
488.389	83.75
488.607	87.75
488.825	81.75
489.043	90.75
489.261	82.75
489.479	91.75
489.696	87.75
489.914	88.75
490.132	79.75
490.35	91.75
490.568	85.75
490.786	89.75
491.003	79.75
491.221	70.75
491.439	81.75
491.657	85.75
491.874	76.75
492.092	89.75
492.31	93.75
492.527	73.75
492.745	70.75
492.963	83.75
493.18	72.75
493.398	87.75
493.615	76.75
493.833	90.75
494.05	79.75
494.268	97.75
494.485	87.75
494.703	67.75
494.92	90.75
495.138	79.75
495.355	84.75
495.573	84.75
495.79	84.75
496.008	88.75
496.225	78.75
496.442	81.75
496.66	80.75
496.877	79.75
497.094	80.75
497.312	88.75
497.529	99.75
497.746	96.75
497.963	78.75
498.181	85.75
498.398	81.75
498.615	90.75
498.832	81.75
499.049	84.75
499.267	95.75
499.484	86.75
499.701	75.75
499.918	88.75
500.135	96.75
500.352	100.75
500.569	97.75
500.786	94.75
501.003	82.75
501.22	87.75
501.437	85.75
501.654	74.75
501.871	85.75
502.088	79.75
502.305	88.75
502.522	79.75
502.739	81.75
502.956	95.75
503.172	100.75
503.389	81.75
503.606	97.75
503.823	92.75
504.04	92.75
504.256	85.75
504.473	89.75
504.69	83.75
504.907	100.75
505.123	99.75
505.34	76.75
505.557	73.75
505.773	89.75
505.99	82.75
506.207	83.75
506.423	95.75
506.64	87.75
506.856	82.75
507.073	73.75
507.289	88.75
507.506	83.75
507.722	76.75
507.939	76.75
508.155	90.75
508.372	78.75
508.588	74.75
508.805	85.75
509.021	94.75
509.238	79.75
509.454	71.75
509.67	66.75
509.887	93.75
510.103	96.75
510.319	93.75
510.536	81.75
510.752	73.75
510.968	92.75
511.184	82.75
511.401	73.75
511.617	82.75
511.833	83.75
512.049	88.75
512.265	91.75
512.481	82.75
512.698	78.75
512.914	91.75
513.13	94.75
513.346	73.75
513.562	86.75
513.778	109.75
513.994	93.75
514.21	83.75
514.426	82.75
514.642	88.75
514.858	82.75
515.074	86.75
515.29	110.75
515.506	76.75
515.721	94.75
515.937	73.75
516.153	85.75
516.369	85.75
516.585	74.75
516.801	81.75
517.016	91.75
517.232	78.75
517.448	97.75
517.664	91.75
517.879	87.75
518.095	82.75
518.311	101.75
518.527	93.75
518.742	79.75
518.958	86.75
519.173	85.75
519.389	77.75
519.605	78.75
