Data from 17600_1_HRD10591_00002.txt Node
Date: Mon Jan 19 14:07:25 EST 2026
User: Yrep
Spectrometer: HR+D1059
Trigger mode: 1
Integration Time (sec): 1.000000E-1
Scans to average: 1
Electric dark correction enabled: true
Nonlinearity correction enabled: false
Boxcar width: 0
XAxis mode: Wavelengths
Number of Pixels in Spectrum: 2048
>>>>>Begin Spectral Data<<<<<
223.165	-26.38
223.4	-26.38
223.635	-26.38
223.869	-17.38
224.104	-20.38
224.338	-10.38
224.573	-17.38
224.808	-9.38
225.042	-5.38
225.277	-5.38
225.511	6.62
225.746	2.62
225.98	-4.38
226.215	12.62
226.449	20.62
226.683	19.62
226.918	22.62
227.152	31.62
227.387	40.62
227.621	43.62
227.856	39.62
228.09	55.62
228.324	56.62
228.559	51.62
228.793	52.62
229.027	65.62
229.262	62.62
229.496	79.62
229.73	69.62
229.964	70.62
230.199	68.62
230.433	78.62
230.667	90.62
230.901	76.62
231.136	74.62
231.37	73.62
231.604	76.62
231.838	94.62
232.072	76.62
232.306	78.62
232.541	82.62
232.775	79.62
233.009	76.62
233.243	82.62
233.477	77.62
233.711	71.62
233.945	84.62
234.179	82.62
234.413	85.62
234.647	85.62
234.881	79.62
235.115	70.62
235.349	74.62
235.583	73.62
235.817	82.62
236.051	83.62
236.285	73.62
236.519	62.62
236.753	78.62
236.987	90.62
237.221	81.62
237.455	80.62
237.689	70.62
237.922	91.62
238.156	72.62
238.39	67.62
238.624	76.62
238.858	78.62
239.091	90.62
239.325	75.62
239.559	76.62
239.793	88.62
240.027	80.62
240.26	71.62
240.494	62.62
240.728	85.62
240.961	74.62
241.195	68.62
241.429	67.62
241.662	74.62
241.896	85.62
242.13	82.62
242.363	80.62
242.597	83.62
242.83	71.62
243.064	75.62
243.298	97.62
243.531	76.62
243.765	82.62
243.998	67.62
244.232	79.62
244.465	90.62
244.699	74.62
244.932	86.62
245.166	71.62
245.399	85.62
245.633	70.62
245.866	69.62
246.099	72.62
246.333	88.62
246.566	72.62
246.8	74.62
247.033	79.62
247.266	84.62
247.5	86.62
247.733	72.62
247.966	79.62
248.2	72.62
248.433	75.62
248.666	84.62
248.899	85.62
249.133	91.62
249.366	85.62
249.599	84.62
249.832	84.62
250.066	84.62
250.299	76.62
250.532	82.62
250.765	68.62
250.998	70.62
251.231	65.62
251.465	72.62
251.698	70.62
251.931	84.62
252.164	67.62
252.397	71.62
252.63	72.62
252.863	83.62
253.096	71.62
253.329	86.62
253.562	76.62
253.795	90.62
254.028	84.62
254.261	74.62
254.494	86.62
254.727	85.62
254.96	86.62
255.193	77.62
255.426	76.62
255.659	76.62
255.892	78.62
256.124	102.62
256.357	89.62
256.59	79.62
256.823	82.62
257.056	75.62
257.289	74.62
257.521	86.62
257.754	79.62
257.987	76.62
258.22	68.62
258.452	87.62
258.685	83.62
258.918	83.62
259.151	93.62
259.383	81.62
259.616	91.62
259.849	85.62
260.081	78.62
260.314	87.62
260.547	82.62
260.779	86.62
261.012	87.62
261.244	87.62
261.477	87.62
261.71	82.62
261.942	74.62
262.175	79.62
262.407	82.62
262.64	78.62
262.872	81.62
263.105	84.62
263.337	85.62
263.57	75.62
263.802	101.62
264.035	83.62
264.267	69.62
264.499	67.62
264.732	82.62
264.964	92.62
265.197	86.62
265.429	85.62
265.661	84.62
265.894	74.62
266.126	92.62
266.358	71.62
266.591	72.62
266.823	99.62
267.055	87.62
267.287	86.62
267.52	83.62
267.752	84.62
267.984	83.62
268.216	91.62
268.448	81.62
268.681	88.62
268.913	84.62
269.145	87.62
269.377	81.62
269.609	74.62
269.841	85.62
270.073	91.62
270.306	89.62
270.538	95.62
270.77	78.62
271.002	83.62
271.234	95.62
271.466	85.62
271.698	83.62
271.93	84.62
272.162	86.62
272.394	83.62
272.626	105.62
272.858	94.62
273.09	76.62
273.322	85.62
273.553	86.62
273.785	83.62
274.017	88.62
274.249	91.62
274.481	84.62
274.713	95.62
274.945	92.62
275.176	76.62
275.408	86.62
275.64	84.62
275.872	83.62
276.104	79.62
276.335	80.62
276.567	75.62
276.799	85.62
277.031	102.62
277.262	67.62
277.494	77.62
277.726	84.62
277.957	84.62
278.189	81.62
278.421	90.62
278.652	76.62
278.884	86.62
279.115	88.62
279.347	84.62
279.579	94.62
279.81	90.62
280.042	98.62
280.273	95.62
280.505	94.62
280.736	102.62
280.968	86.62
281.199	91.62
281.431	77.62
281.662	82.62
281.894	91.62
282.125	82.62
282.356	90.62
282.588	81.62
282.819	85.62
283.051	79.62
283.282	80.62
283.513	91.62
283.745	75.62
283.976	79.62
284.207	87.62
284.439	77.62
284.67	94.62
284.901	84.62
285.132	84.62
285.364	102.62
285.595	86.62
285.826	76.62
286.057	91.62
286.288	86.62
286.52	78.62
286.751	72.62
286.982	89.62
287.213	82.62
287.444	83.62
287.675	102.62
287.906	112.62
288.138	77.62
288.369	89.62
288.6	88.62
288.831	76.62
289.062	91.62
289.293	83.62
289.524	88.62
289.755	81.62
289.986	97.62
290.217	89.62
290.448	83.62
290.679	103.62
290.91	80.62
291.141	76.62
291.371	94.62
291.602	88.62
291.833	88.62
292.064	86.62
292.295	88.62
292.526	94.62
292.757	90.62
292.987	87.62
293.218	84.62
293.449	87.62
293.68	95.62
293.91	86.62
294.141	82.62
294.372	98.62
294.603	95.62
294.833	87.62
295.064	92.62
295.295	82.62
295.525	69.62
295.756	90.62
295.987	75.62
296.217	82.62
296.448	88.62
296.679	83.62
296.909	109.62
297.14	94.62
297.37	89.62
297.601	96.62
297.831	94.62
298.062	75.62
298.292	80.62
298.523	96.62
298.753	68.62
298.984	91.62
299.214	90.62
299.445	71.62
299.675	96.62
299.905	88.62
300.136	92.62
300.366	99.62
300.597	90.62
300.827	92.62
301.057	81.62
301.288	76.62
301.518	88.62
301.748	91.62
301.979	105.62
302.209	89.62
302.439	95.62
302.669	91.62
302.9	82.62
303.13	95.62
303.36	92.62
303.59	88.62
303.82	102.62
304.051	92.62
304.281	95.62
304.511	84.62
304.741	90.62
304.971	91.62
305.201	75.62
305.431	87.62
305.661	88.62
305.891	88.62
306.121	103.62
306.352	94.62
306.582	82.62
306.812	91.62
307.042	91.62
307.272	81.62
307.502	82.62
307.731	70.62
307.961	86.62
308.191	88.62
308.421	91.62
308.651	107.62
308.881	106.62
309.111	102.62
309.341	109.62
309.571	98.62
309.8	84.62
310.03	88.62
310.26	82.62
310.49	71.62
310.72	82.62
310.949	83.62
311.179	83.62
311.409	87.62
311.639	82.62
311.868	94.62
312.098	90.62
312.328	84.62
312.557	105.62
312.787	75.62
313.017	85.62
313.246	79.62
313.476	100.62
313.706	87.62
313.935	88.62
314.165	102.62
314.394	94.62
314.624	97.62
314.853	98.62
315.083	88.62
315.312	91.62
315.542	82.62
315.771	100.62
316.001	105.62
316.23	100.62
316.46	82.62
316.689	87.62
316.919	96.62
317.148	94.62
317.377	107.62
317.607	93.62
317.836	93.62
318.065	111.62
318.295	104.62
318.524	86.62
318.753	82.62
318.983	73.62
319.212	100.62
319.441	102.62
319.67	90.62
319.9	83.62
320.129	92.62
320.358	84.62
320.587	87.62
320.816	89.62
321.046	89.62
321.275	83.62
321.504	90.62
321.733	82.62
321.962	79.62
322.191	99.62
322.42	83.62
322.649	89.62
322.878	98.62
323.108	84.62
323.337	98.62
323.566	84.62
323.795	91.62
324.024	82.62
324.253	94.62
324.482	88.62
324.71	83.62
324.939	89.62
325.168	80.62
325.397	71.62
325.626	74.62
325.855	78.62
326.084	89.62
326.313	92.62
326.542	90.62
326.77	80.62
326.999	83.62
327.228	95.62
327.457	89.62
327.686	98.62
327.914	92.62
328.143	81.62
328.372	85.62
328.6	84.62
328.829	91.62
329.058	91.62
329.287	96.62
329.515	91.62
329.744	83.62
329.972	98.62
330.201	112.62
330.43	102.62
330.658	95.62
330.887	78.62
331.115	95.62
331.344	82.62
331.572	79.62
331.801	95.62
332.03	88.62
332.258	91.62
332.486	77.62
332.715	88.62
332.943	100.62
333.172	83.62
333.4	84.62
333.629	97.62
333.857	90.62
334.085	88.62
334.314	89.62
334.542	101.62
334.771	114.62
334.999	103.62
335.227	96.62
335.455	82.62
335.684	84.62
335.912	103.62
336.14	114.62
336.369	112.62
336.597	85.62
336.825	88.62
337.053	87.62
337.281	99.62
337.51	87.62
337.738	90.62
337.966	87.62
338.194	90.62
338.422	98.62
338.65	90.62
338.878	74.62
339.106	63.62
339.334	96.62
339.562	96.62
339.79	94.62
340.018	91.62
340.246	83.62
340.474	86.62
340.702	93.62
340.93	79.62
341.158	80.62
341.386	82.62
341.614	92.62
341.842	84.62
342.07	85.62
342.298	77.62
342.526	83.62
342.754	97.62
342.981	95.62
343.209	92.62
343.437	98.62
343.665	79.62
343.893	84.62
344.12	106.62
344.348	80.62
344.576	88.62
344.804	82.62
345.031	91.62
345.259	87.62
345.487	78.62
345.714	84.62
345.942	91.62
346.17	95.62
346.397	90.62
346.625	74.62
346.853	102.62
347.08	88.62
347.308	77.62
347.535	105.62
347.763	92.62
347.99	86.62
348.218	87.62
348.445	95.62
348.673	99.62
348.9	92.62
349.128	85.62
349.355	98.62
349.583	94.62
349.81	90.62
350.037	87.62
350.265	91.62
350.492	87.62
350.72	74.62
350.947	92.62
351.174	84.62
351.402	72.62
351.629	79.62
351.856	86.62
352.083	92.62
352.311	91.62
352.538	90.62
352.765	96.62
352.992	90.62
353.22	78.62
353.447	92.62
353.674	82.62
353.901	84.62
354.128	75.62
354.355	87.62
354.583	95.62
354.81	99.62
355.037	97.62
355.264	66.62
355.491	85.62
355.718	87.62
355.945	83.62
356.172	90.62
356.399	90.62
356.626	110.62
356.853	100.62
357.08	102.62
357.307	99.62
357.534	87.62
357.761	109.62
357.988	90.62
358.215	97.62
358.441	104.62
358.668	100.62
358.895	115.62
359.122	104.62
359.349	80.62
359.576	97.62
359.802	83.62
360.029	84.62
360.256	100.62
360.483	95.62
360.709	107.62
360.936	108.62
361.163	94.62
361.39	95.62
361.616	96.62
361.843	102.62
362.07	103.62
362.296	118.62
362.523	128.62
362.749	122.62
362.976	146.62
363.203	156.62
363.429	124.62
363.656	91.62
363.882	102.62
364.109	116.62
364.335	160.62
364.562	170.62
364.788	134.62
365.015	107.62
365.241	87.62
365.468	96.62
365.694	102.62
365.92	94.62
366.147	96.62
366.373	93.62
366.599	91.62
366.826	99.62
367.052	94.62
367.278	110.62
367.505	82.62
367.731	97.62
367.957	97.62
368.184	104.62
368.41	92.62
368.636	102.62
368.862	93.62
369.089	99.62
369.315	99.62
369.541	88.62
369.767	99.62
369.993	83.62
370.219	98.62
370.445	97.62
370.672	112.62
370.898	113.62
371.124	109.62
371.35	90.62
371.576	86.62
371.802	95.62
372.028	120.62
372.254	116.62
372.48	90.62
372.706	86.62
372.932	96.62
373.158	105.62
373.384	110.62
373.61	136.62
373.835	122.62
374.061	113.62
374.287	89.62
374.513	113.62
374.739	112.62
374.965	121.62
375.191	115.62
375.416	94.62
375.642	91.62
375.868	106.62
376.094	103.62
376.319	104.62
376.545	103.62
376.771	103.62
376.997	87.62
377.222	88.62
377.448	81.62
377.674	91.62
377.899	85.62
378.125	84.62
378.35	87.62
378.576	102.62
378.802	91.62
379.027	105.62
379.253	104.62
379.478	99.62
379.704	86.62
379.929	88.62
380.155	92.62
380.38	89.62
380.606	98.62
380.831	89.62
381.057	103.62
381.282	91.62
381.507	112.62
381.733	100.62
381.958	80.62
382.184	103.62
382.409	114.62
382.634	102.62
382.86	111.62
383.085	118.62
383.31	118.62
383.535	114.62
383.761	102.62
383.986	108.62
384.211	113.62
384.436	109.62
384.662	106.62
384.887	107.62
385.112	114.62
385.337	110.62
385.562	115.62
385.787	101.62
386.013	114.62
386.238	107.62
386.463	104.62
386.688	116.62
386.913	96.62
387.138	102.62
387.363	128.62
387.588	118.62
387.813	99.62
388.038	109.62
388.263	113.62
388.488	110.62
388.713	105.62
388.938	102.62
389.163	108.62
389.387	103.62
389.612	104.62
389.837	95.62
390.062	94.62
390.287	89.62
390.512	100.62
390.736	101.62
390.961	93.62
391.186	110.62
391.411	98.62
391.636	112.62
391.86	103.62
392.085	108.62
392.31	122.62
392.534	133.62
392.759	152.62
392.984	212.62
393.208	380.62
393.433	540.62
393.658	450.62
393.882	185.62
394.107	138.62
394.331	137.62
394.556	166.62
394.78	139.62
395.005	119.62
395.229	106.62
395.454	114.62
395.678	124.62
395.903	146.62
396.127	190.62
396.352	207.62
396.576	254.62
396.801	367.62
397.025	448.62
397.249	259.62
397.474	163.62
397.698	116.62
397.922	101.62
398.147	88.62
398.371	90.62
398.595	108.62
398.82	83.62
399.044	91.62
399.268	99.62
399.492	99.62
399.717	89.62
399.941	96.62
400.165	106.62
400.389	100.62
400.613	106.62
400.837	90.62
401.062	91.62
401.286	94.62
401.51	89.62
401.734	78.62
401.958	91.62
402.182	84.62
402.406	82.62
402.63	95.62
402.854	100.62
403.078	103.62
403.302	100.62
403.526	103.62
403.75	93.62
403.974	76.62
404.198	94.62
404.422	102.62
404.645	114.62
404.869	106.62
405.093	87.62
405.317	99.62
405.541	94.62
405.765	106.62
405.988	90.62
406.212	103.62
406.436	92.62
406.66	78.62
406.883	87.62
407.107	104.62
407.331	91.62
407.555	102.62
407.778	134.62
408.002	152.62
408.226	110.62
408.449	98.62
408.673	86.62
408.896	92.62
409.12	110.62
409.344	93.62
409.567	122.62
409.791	106.62
410.014	114.62
410.238	97.62
410.461	98.62
410.685	94.62
410.908	107.62
411.132	98.62
411.355	88.62
411.578	94.62
411.802	88.62
412.025	84.62
412.249	92.62
412.472	88.62
412.695	89.62
412.919	95.62
413.142	86.62
413.365	93.62
413.589	91.62
413.812	96.62
414.035	94.62
414.258	84.62
414.482	82.62
414.705	96.62
414.928	80.62
415.151	101.62
415.374	90.62
415.597	76.62
415.821	93.62
416.044	90.62
416.267	93.62
416.49	82.62
416.713	68.62
416.936	91.62
417.159	82.62
417.382	75.62
417.605	95.62
417.828	91.62
418.051	80.62
418.274	94.62
418.497	97.62
418.72	95.62
418.943	84.62
419.166	98.62
419.389	84.62
419.611	100.62
419.834	105.62
420.057	89.62
420.28	86.62
420.503	107.62
420.726	90.62
420.948	89.62
421.171	112.62
421.394	114.62
421.617	177.62
421.839	190.62
422.062	172.62
422.285	244.62
422.507	406.62
422.73	598.62
422.953	553.62
423.175	311.62
423.398	194.62
423.621	147.62
423.843	121.62
424.066	110.62
424.288	120.62
424.511	114.62
424.733	104.62
424.956	91.62
425.178	102.62
425.401	112.62
425.623	92.62
425.846	98.62
426.068	100.62
426.291	84.62
426.513	104.62
426.735	92.62
426.958	97.62
427.18	94.62
427.402	112.62
427.625	98.62
427.847	102.62
428.069	117.62
428.292	145.62
428.514	179.62
428.736	116.62
428.958	150.62
429.181	164.62
429.403	124.62
429.625	105.62
429.847	146.62
430.069	222.62
430.292	267.62
430.514	216.62
430.736	152.62
430.958	170.62
431.18	110.62
431.402	97.62
431.624	110.62
431.846	157.62
432.068	176.62
432.29	114.62
432.512	86.62
432.734	101.62
432.956	89.62
433.178	78.62
433.4	84.62
433.622	87.62
433.844	97.62
434.066	75.62
434.287	91.62
434.509	95.62
434.731	84.62
434.953	88.62
435.175	89.62
435.397	102.62
435.618	103.62
435.84	114.62
436.062	102.62
436.284	104.62
436.505	105.62
436.727	102.62
436.949	94.62
437.17	87.62
437.392	95.62
437.614	98.62
437.835	90.62
438.057	83.62
438.278	92.62
438.5	121.62
438.721	95.62
438.943	99.62
439.165	87.62
439.386	72.62
439.608	94.62
439.829	102.62
440.05	91.62
440.272	99.62
440.493	103.62
440.715	100.62
440.936	102.62
441.158	89.62
441.379	92.62
441.6	93.62
441.822	100.62
442.043	102.62
442.264	106.62
442.486	186.62
442.707	229.62
442.928	174.62
443.149	134.62
443.371	185.62
443.592	367.62
443.813	295.62
444.034	140.62
444.255	97.62
444.476	94.62
444.698	97.62
444.919	111.62
445.14	182.62
445.361	251.62
445.582	432.62
445.803	356.62
446.024	154.62
446.245	111.62
446.466	97.62
446.687	91.62
446.908	83.62
447.129	87.62
447.35	64.62
447.571	107.62
447.792	76.62
448.013	101.62
448.234	84.62
448.455	100.62
448.675	95.62
448.896	89.62
449.117	85.62
449.338	89.62
449.559	90.62
449.779	85.62
450	91.62
450.221	95.62
450.442	90.62
450.662	82.62
450.883	87.62
451.104	87.62
451.324	101.62
451.545	90.62
451.766	87.62
451.986	94.62
452.207	112.62
452.428	112.62
452.648	120.62
452.869	122.62
453.089	111.62
453.31	120.62
453.53	107.62
453.751	91.62
453.971	91.62
454.192	95.62
454.412	91.62
454.633	98.62
454.853	101.62
455.073	96.62
455.294	96.62
455.514	97.62
455.734	86.62
455.955	93.62
456.175	78.62
456.395	87.62
456.616	90.62
456.836	98.62
457.056	86.62
457.276	86.62
457.497	83.62
457.717	109.62
457.937	140.62
458.157	168.62
458.377	175.62
458.598	161.62
458.818	167.62
459.038	130.62
459.258	107.62
459.478	75.62
459.698	84.62
459.918	96.62
460.138	95.62
460.358	81.62
460.578	112.62
460.798	168.62
461.018	169.62
461.238	99.62
461.458	86.62
461.678	84.62
461.898	105.62
462.118	105.62
462.338	97.62
462.558	86.62
462.777	92.62
462.997	88.62
463.217	81.62
463.437	97.62
463.657	76.62
463.876	99.62
464.096	77.62
464.316	81.62
464.536	93.62
464.755	87.62
464.975	82.62
465.195	89.62
465.414	91.62
465.634	88.62
465.854	89.62
466.073	87.62
466.293	99.62
466.512	102.62
466.732	78.62
466.951	89.62
467.171	86.62
467.391	77.62
467.61	80.62
467.829	83.62
468.049	92.62
468.268	98.62
468.488	73.62
468.707	93.62
468.927	97.62
469.146	91.62
469.365	86.62
469.585	95.62
469.804	109.62
470.023	100.62
470.243	88.62
470.462	93.62
470.681	90.62
470.901	90.62
471.12	100.62
471.339	90.62
471.558	82.62
471.777	82.62
471.997	113.62
472.216	100.62
472.435	96.62
472.654	86.62
472.873	105.62
473.092	93.62
473.311	102.62
473.53	89.62
473.749	79.62
473.968	91.62
474.187	104.62
474.406	95.62
474.625	88.62
474.844	93.62
475.063	80.62
475.282	93.62
475.501	85.62
475.72	96.62
475.939	85.62
476.158	91.62
476.377	86.62
476.596	95.62
476.814	99.62
477.033	89.62
477.252	95.62
477.471	94.62
477.69	81.62
477.908	88.62
478.127	90.62
478.346	91.62
478.564	101.62
478.783	90.62
479.002	87.62
479.22	87.62
479.439	77.62
479.658	86.62
479.876	96.62
480.095	82.62
480.313	93.62
480.532	101.62
480.751	95.62
480.969	90.62
481.188	105.62
481.406	100.62
481.624	91.62
481.843	90.62
482.061	95.62
482.28	92.62
482.498	102.62
482.717	77.62
482.935	88.62
483.153	101.62
483.372	119.62
483.59	103.62
483.808	91.62
484.027	89.62
484.245	81.62
484.463	103.62
484.681	107.62
484.9	89.62
485.118	112.62
485.336	78.62
485.554	100.62
485.772	88.62
485.99	97.62
486.209	107.62
486.427	101.62
486.645	92.62
486.863	100.62
487.081	98.62
487.299	100.62
487.517	122.62
487.735	145.62
487.953	241.62
488.171	191.62
488.389	112.62
488.607	106.62
488.825	92.62
489.043	82.62
489.261	88.62
489.479	95.62
489.696	90.62
489.914	98.62
490.132	100.62
490.35	97.62
490.568	103.62
490.786	107.62
491.003	105.62
491.221	85.62
491.439	90.62
491.657	102.62
491.874	100.62
492.092	100.62
492.31	95.62
492.527	95.62
492.745	96.62
492.963	102.62
493.18	96.62
493.398	97.62
493.615	99.62
493.833	94.62
494.05	88.62
494.268	94.62
494.485	79.62
494.703	92.62
494.92	93.62
495.138	107.62
495.355	80.62
495.573	103.62
495.79	96.62
496.008	114.62
496.225	96.62
496.442	116.62
496.66	106.62
496.877	102.62
497.094	99.62
497.312	89.62
497.529	96.62
497.746	93.62
497.963	82.62
498.181	99.62
498.398	105.62
498.615	102.62
498.832	83.62
499.049	101.62
499.267	108.62
499.484	87.62
499.701	92.62
499.918	102.62
500.135	115.62
500.352	105.62
500.569	98.62
500.786	104.62
501.003	105.62
501.22	99.62
501.437	97.62
501.654	100.62
501.871	94.62
502.088	74.62
502.305	90.62
502.522	80.62
502.739	99.62
502.956	85.62
503.172	94.62
503.389	81.62
503.606	98.62
503.823	88.62
504.04	120.62
504.256	193.62
504.473	210.62
504.69	116.62
504.907	115.62
505.123	96.62
505.34	97.62
505.557	100.62
505.773	82.62
505.99	88.62
506.207	86.62
506.423	96.62
506.64	99.62
506.856	95.62
507.073	95.62
507.289	93.62
507.506	96.62
507.722	89.62
507.939	91.62
508.155	100.62
508.372	98.62
508.588	87.62
508.805	102.62
509.021	110.62
509.238	82.62
509.454	100.62
509.67	97.62
509.887	90.62
510.103	90.62
510.319	84.62
510.536	110.62
510.752	97.62
510.968	96.62
511.184	96.62
511.401	94.62
511.617	96.62
511.833	100.62
512.049	99.62
512.265	99.62
512.481	99.62
512.698	99.62
512.914	102.62
513.13	94.62
513.346	89.62
513.562	84.62
513.778	97.62
513.994	101.62
514.21	94.62
514.426	94.62
514.642	84.62
514.858	73.62
515.074	94.62
515.29	99.62
