Data from 17600_1_HRD10591_00008.txt Node
Date: Mon Jan 19 14:07:28 EST 2026
User: Yrep
Spectrometer: HR+D1059
Trigger mode: 1
Integration Time (sec): 1.000000E-1
Scans to average: 1
Electric dark correction enabled: true
Nonlinearity correction enabled: false
Boxcar width: 0
XAxis mode: Wavelengths
Number of Pixels in Spectrum: 2048
>>>>>Begin Spectral Data<<<<<
223.165	-14.12
223.4	-14.12
223.635	-14.12
223.869	-22.12
224.104	-18.12
224.338	-22.12
224.573	-4.12
224.808	-18.12
225.042	-2.12
225.277	-8.12
225.511	-1.12
225.746	-6.12
225.98	10.88
226.215	13.88
226.449	19.88
226.683	22.88
226.918	14.88
227.152	33.88
227.387	49.88
227.621	47.88
227.856	42.88
228.09	55.88
228.324	47.88
228.559	62.88
228.793	58.88
229.027	62.88
229.262	63.88
229.496	66.88
229.73	75.88
229.964	73.88
230.199	76.88
230.433	67.88
230.667	80.88
230.901	67.88
231.136	70.88
231.37	72.88
231.604	80.88
231.838	83.88
232.072	75.88
232.306	63.88
232.541	71.88
232.775	72.88
233.009	84.88
233.243	79.88
233.477	74.88
233.711	90.88
233.945	89.88
234.179	90.88
234.413	65.88
234.647	74.88
234.881	77.88
235.115	81.88
235.349	79.88
235.583	74.88
235.817	79.88
236.051	83.88
236.285	82.88
236.519	66.88
236.753	72.88
236.987	58.88
237.221	78.88
237.455	76.88
237.689	73.88
237.922	89.88
238.156	80.88
238.39	69.88
238.624	76.88
238.858	75.88
239.091	96.88
239.325	74.88
239.559	69.88
239.793	61.88
240.027	94.88
240.26	95.88
240.494	78.88
240.728	70.88
240.961	87.88
241.195	75.88
241.429	79.88
241.662	67.88
241.896	73.88
242.13	72.88
242.363	83.88
242.597	83.88
242.83	68.88
243.064	89.88
243.298	77.88
243.531	76.88
243.765	89.88
243.998	74.88
244.232	73.88
244.465	90.88
244.699	74.88
244.932	87.88
245.166	81.88
245.399	72.88
245.633	79.88
245.866	67.88
246.099	70.88
246.333	69.88
246.566	83.88
246.8	83.88
247.033	65.88
247.266	83.88
247.5	79.88
247.733	70.88
247.966	85.88
248.2	92.88
248.433	75.88
248.666	66.88
248.899	81.88
249.133	87.88
249.366	81.88
249.599	73.88
249.832	90.88
250.066	95.88
250.299	71.88
250.532	73.88
250.765	63.88
250.998	83.88
251.231	85.88
251.465	79.88
251.698	71.88
251.931	89.88
252.164	83.88
252.397	79.88
252.63	88.88
252.863	82.88
253.096	85.88
253.329	89.88
253.562	75.88
253.795	79.88
254.028	82.88
254.261	90.88
254.494	74.88
254.727	88.88
254.96	90.88
255.193	77.88
255.426	82.88
255.659	67.88
255.892	84.88
256.124	95.88
256.357	69.88
256.59	67.88
256.823	71.88
257.056	83.88
257.289	83.88
257.521	67.88
257.754	93.88
257.987	73.88
258.22	73.88
258.452	89.88
258.685	99.88
258.918	80.88
259.151	83.88
259.383	69.88
259.616	75.88
259.849	89.88
260.081	83.88
260.314	74.88
260.547	97.88
260.779	75.88
261.012	67.88
261.244	69.88
261.477	91.88
261.71	86.88
261.942	78.88
262.175	79.88
262.407	88.88
262.64	89.88
262.872	89.88
263.105	88.88
263.337	91.88
263.57	89.88
263.802	73.88
264.035	84.88
264.267	75.88
264.499	71.88
264.732	67.88
264.964	68.88
265.197	83.88
265.429	90.88
265.661	82.88
265.894	102.88
266.126	84.88
266.358	84.88
266.591	78.88
266.823	81.88
267.055	73.88
267.287	90.88
267.52	95.88
267.752	80.88
267.984	77.88
268.216	87.88
268.448	92.88
268.681	84.88
268.913	81.88
269.145	85.88
269.377	89.88
269.609	84.88
269.841	78.88
270.073	77.88
270.306	83.88
270.538	89.88
270.77	88.88
271.002	75.88
271.234	90.88
271.466	91.88
271.698	82.88
271.93	81.88
272.162	86.88
272.394	101.88
272.626	71.88
272.858	76.88
273.09	61.88
273.322	100.88
273.553	82.88
273.785	86.88
274.017	78.88
274.249	78.88
274.481	80.88
274.713	87.88
274.945	81.88
275.176	88.88
275.408	81.88
275.64	77.88
275.872	78.88
276.104	81.88
276.335	85.88
276.567	91.88
276.799	90.88
277.031	81.88
277.262	72.88
277.494	77.88
277.726	97.88
277.957	77.88
278.189	86.88
278.421	77.88
278.652	89.88
278.884	90.88
279.115	81.88
279.347	79.88
279.579	89.88
279.81	100.88
280.042	96.88
280.273	74.88
280.505	75.88
280.736	90.88
280.968	83.88
281.199	89.88
281.431	82.88
281.662	93.88
281.894	82.88
282.125	90.88
282.356	87.88
282.588	75.88
282.819	91.88
283.051	76.88
283.282	82.88
283.513	88.88
283.745	83.88
283.976	83.88
284.207	76.88
284.439	94.88
284.67	85.88
284.901	65.88
285.132	81.88
285.364	97.88
285.595	101.88
285.826	92.88
286.057	84.88
286.288	81.88
286.52	90.88
286.751	91.88
286.982	85.88
287.213	92.88
287.444	90.88
287.675	72.88
287.906	89.88
288.138	103.88
288.369	88.88
288.6	85.88
288.831	93.88
289.062	85.88
289.293	88.88
289.524	82.88
289.755	83.88
289.986	69.88
290.217	91.88
290.448	91.88
290.679	93.88
290.91	77.88
291.141	81.88
291.371	106.88
291.602	87.88
291.833	74.88
292.064	74.88
292.295	95.88
292.526	93.88
292.757	89.88
292.987	86.88
293.218	88.88
293.449	94.88
293.68	81.88
293.91	96.88
294.141	82.88
294.372	72.88
294.603	77.88
294.833	88.88
295.064	95.88
295.295	89.88
295.525	88.88
295.756	91.88
295.987	74.88
296.217	77.88
296.448	74.88
296.679	91.88
296.909	80.88
297.14	82.88
297.37	93.88
297.601	81.88
297.831	81.88
298.062	81.88
298.292	81.88
298.523	90.88
298.753	75.88
298.984	93.88
299.214	90.88
299.445	89.88
299.675	98.88
299.905	83.88
300.136	83.88
300.366	82.88
300.597	87.88
300.827	95.88
301.057	77.88
301.288	79.88
301.518	105.88
301.748	82.88
301.979	101.88
302.209	89.88
302.439	85.88
302.669	95.88
302.9	85.88
303.13	85.88
303.36	74.88
303.59	91.88
303.82	79.88
304.051	88.88
304.281	67.88
304.511	89.88
304.741	81.88
304.971	84.88
305.201	83.88
305.431	69.88
305.661	76.88
305.891	91.88
306.121	90.88
306.352	98.88
306.582	103.88
306.812	80.88
307.042	89.88
307.272	86.88
307.502	84.88
307.731	93.88
307.961	96.88
308.191	91.88
308.421	97.88
308.651	93.88
308.881	76.88
309.111	93.88
309.341	99.88
309.571	89.88
309.8	97.88
310.03	84.88
310.26	83.88
310.49	90.88
310.72	84.88
310.949	95.88
311.179	84.88
311.409	85.88
311.639	85.88
311.868	80.88
312.098	96.88
312.328	83.88
312.557	91.88
312.787	73.88
313.017	100.88
313.246	86.88
313.476	85.88
313.706	74.88
313.935	72.88
314.165	80.88
314.394	80.88
314.624	83.88
314.853	69.88
315.083	83.88
315.312	93.88
315.542	93.88
315.771	87.88
316.001	101.88
316.23	88.88
316.46	70.88
316.689	86.88
316.919	88.88
317.148	86.88
317.377	89.88
317.607	92.88
317.836	98.88
318.065	109.88
318.295	101.88
318.524	76.88
318.753	98.88
318.983	82.88
319.212	101.88
319.441	81.88
319.67	85.88
319.9	81.88
320.129	81.88
320.358	93.88
320.587	91.88
320.816	91.88
321.046	80.88
321.275	93.88
321.504	96.88
321.733	78.88
321.962	73.88
322.191	89.88
322.42	72.88
322.649	98.88
322.878	90.88
323.108	79.88
323.337	74.88
323.566	81.88
323.795	95.88
324.024	80.88
324.253	88.88
324.482	90.88
324.71	83.88
324.939	83.88
325.168	103.88
325.397	97.88
325.626	89.88
325.855	83.88
326.084	87.88
326.313	87.88
326.542	78.88
326.77	83.88
326.999	89.88
327.228	73.88
327.457	99.88
327.686	82.88
327.914	93.88
328.143	93.88
328.372	69.88
328.6	67.88
328.829	87.88
329.058	76.88
329.287	92.88
329.515	87.88
329.744	86.88
329.972	87.88
330.201	88.88
330.43	74.88
330.658	81.88
330.887	86.88
331.115	90.88
331.344	96.88
331.572	87.88
331.801	81.88
332.03	89.88
332.258	74.88
332.486	91.88
332.715	73.88
332.943	85.88
333.172	72.88
333.4	91.88
333.629	86.88
333.857	95.88
334.085	81.88
334.314	80.88
334.542	75.88
334.771	102.88
334.999	86.88
335.227	86.88
335.455	83.88
335.684	79.88
335.912	88.88
336.14	84.88
336.369	96.88
336.597	96.88
336.825	83.88
337.053	81.88
337.281	91.88
337.51	86.88
337.738	76.88
337.966	81.88
338.194	65.88
338.422	80.88
338.65	84.88
338.878	85.88
339.106	86.88
339.334	90.88
339.562	91.88
339.79	80.88
340.018	81.88
340.246	91.88
340.474	81.88
340.702	82.88
340.93	97.88
341.158	79.88
341.386	85.88
341.614	84.88
341.842	96.88
342.07	89.88
342.298	73.88
342.526	76.88
342.754	90.88
342.981	82.88
343.209	85.88
343.437	91.88
343.665	78.88
343.893	79.88
344.12	82.88
344.348	80.88
344.576	73.88
344.804	73.88
345.031	71.88
345.259	89.88
345.487	80.88
345.714	79.88
345.942	91.88
346.17	97.88
346.397	82.88
346.625	84.88
346.853	78.88
347.08	91.88
347.308	103.88
347.535	90.88
347.763	86.88
347.99	92.88
348.218	95.88
348.445	75.88
348.673	81.88
348.9	78.88
349.128	92.88
349.355	101.88
349.583	80.88
349.81	81.88
350.037	91.88
350.265	75.88
350.492	85.88
350.72	77.88
350.947	81.88
351.174	94.88
351.402	84.88
351.629	88.88
351.856	87.88
352.083	76.88
352.311	85.88
352.538	76.88
352.765	76.88
352.992	79.88
353.22	89.88
353.447	77.88
353.674	87.88
353.901	81.88
354.128	79.88
354.355	91.88
354.583	79.88
354.81	89.88
355.037	97.88
355.264	80.88
355.491	89.88
355.718	77.88
355.945	90.88
356.172	91.88
356.399	86.88
356.626	85.88
356.853	84.88
357.08	89.88
357.307	100.88
357.534	91.88
357.761	84.88
357.988	93.88
358.215	94.88
358.441	94.88
358.668	90.88
358.895	85.88
359.122	87.88
359.349	73.88
359.576	97.88
359.802	93.88
360.029	85.88
360.256	87.88
360.483	83.88
360.709	86.88
360.936	89.88
361.163	89.88
361.39	71.88
361.616	91.88
361.843	82.88
362.07	96.88
362.296	100.88
362.523	97.88
362.749	93.88
362.976	102.88
363.203	116.88
363.429	93.88
363.656	80.88
363.882	96.88
364.109	107.88
364.335	102.88
364.562	116.88
364.788	96.88
365.015	99.88
365.241	95.88
365.468	85.88
365.694	89.88
365.92	103.88
366.147	82.88
366.373	91.88
366.599	87.88
366.826	86.88
367.052	96.88
367.278	82.88
367.505	97.88
367.731	95.88
367.957	86.88
368.184	85.88
368.41	83.88
368.636	85.88
368.862	81.88
369.089	80.88
369.315	76.88
369.541	84.88
369.767	84.88
369.993	97.88
370.219	92.88
370.445	91.88
370.672	83.88
370.898	90.88
371.124	86.88
371.35	81.88
371.576	87.88
371.802	91.88
372.028	97.88
372.254	84.88
372.48	92.88
372.706	69.88
372.932	100.88
373.158	91.88
373.384	112.88
373.61	93.88
373.835	110.88
374.061	95.88
374.287	85.88
374.513	105.88
374.739	89.88
374.965	95.88
375.191	80.88
375.416	78.88
375.642	88.88
375.868	91.88
376.094	86.88
376.319	87.88
376.545	89.88
376.771	90.88
376.997	87.88
377.222	75.88
377.448	74.88
377.674	92.88
377.899	80.88
378.125	79.88
378.35	98.88
378.576	86.88
378.802	92.88
379.027	83.88
379.253	93.88
379.478	76.88
379.704	104.88
379.929	97.88
380.155	88.88
380.38	93.88
380.606	102.88
380.831	82.88
381.057	96.88
381.282	81.88
381.507	91.88
381.733	101.88
381.958	99.88
382.184	90.88
382.409	83.88
382.634	101.88
382.86	91.88
383.085	97.88
383.31	85.88
383.535	75.88
383.761	85.88
383.986	85.88
384.211	88.88
384.436	81.88
384.662	89.88
384.887	78.88
385.112	97.88
385.337	96.88
385.562	98.88
385.787	99.88
386.013	97.88
386.238	91.88
386.463	90.88
386.688	103.88
386.913	95.88
387.138	98.88
387.363	94.88
387.588	101.88
387.813	92.88
388.038	94.88
388.263	99.88
388.488	93.88
388.713	97.88
388.938	86.88
389.163	85.88
389.387	79.88
389.612	94.88
389.837	90.88
390.062	103.88
390.287	75.88
390.512	81.88
390.736	86.88
390.961	94.88
391.186	85.88
391.411	77.88
391.636	75.88
391.86	101.88
392.085	92.88
392.31	91.88
392.534	110.88
392.759	118.88
392.984	152.88
393.208	271.88
393.433	353.88
393.658	275.88
393.882	134.88
394.107	106.88
394.331	107.88
394.556	127.88
394.78	98.88
395.005	94.88
395.229	91.88
395.454	99.88
395.678	97.88
395.903	119.88
396.127	138.88
396.352	150.88
396.576	180.88
396.801	260.88
397.025	276.88
397.249	161.88
397.474	129.88
397.698	101.88
397.922	87.88
398.147	83.88
398.371	93.88
398.595	85.88
398.82	89.88
399.044	90.88
399.268	97.88
399.492	91.88
399.717	83.88
399.941	84.88
400.165	88.88
400.389	88.88
400.613	92.88
400.837	89.88
401.062	81.88
401.286	90.88
401.51	83.88
401.734	86.88
401.958	91.88
402.182	79.88
402.406	90.88
402.63	85.88
402.854	73.88
403.078	74.88
403.302	80.88
403.526	95.88
403.75	93.88
403.974	81.88
404.198	84.88
404.422	79.88
404.645	90.88
404.869	89.88
405.093	85.88
405.317	91.88
405.541	93.88
405.765	76.88
405.988	85.88
406.212	90.88
406.436	94.88
406.66	96.88
406.883	101.88
407.107	97.88
407.331	100.88
407.555	98.88
407.778	113.88
408.002	112.88
408.226	84.88
408.449	86.88
408.673	78.88
408.896	72.88
409.12	84.88
409.344	85.88
409.567	91.88
409.791	104.88
410.014	115.88
410.238	73.88
410.461	76.88
410.685	81.88
410.908	73.88
411.132	91.88
411.355	95.88
411.578	81.88
411.802	84.88
412.025	86.88
412.249	87.88
412.472	85.88
412.695	86.88
412.919	83.88
413.142	87.88
413.365	99.88
413.589	88.88
413.812	75.88
414.035	93.88
414.258	68.88
414.482	80.88
414.705	88.88
414.928	86.88
415.151	109.88
415.374	85.88
415.597	74.88
415.821	87.88
416.044	85.88
416.267	95.88
416.49	71.88
416.713	83.88
416.936	81.88
417.159	81.88
417.382	96.88
417.605	85.88
417.828	85.88
418.051	84.88
418.274	70.88
418.497	85.88
418.72	88.88
418.943	90.88
419.166	94.88
419.389	100.88
419.611	86.88
419.834	76.88
420.057	90.88
420.28	86.88
420.503	102.88
420.726	100.88
420.948	87.88
421.171	98.88
421.394	97.88
421.617	112.88
421.839	138.88
422.062	112.88
422.285	153.88
422.507	240.88
422.73	397.88
422.953	327.88
423.175	191.88
423.398	124.88
423.621	95.88
423.843	102.88
424.066	88.88
424.288	82.88
424.511	79.88
424.733	87.88
424.956	77.88
425.178	93.88
425.401	78.88
425.623	94.88
425.846	89.88
426.068	73.88
426.291	82.88
426.513	82.88
426.735	87.88
426.958	92.88
427.18	88.88
427.402	80.88
427.625	104.88
427.847	99.88
428.069	99.88
428.292	111.88
428.514	121.88
428.736	112.88
428.958	114.88
429.181	113.88
429.403	92.88
429.625	99.88
429.847	132.88
430.069	153.88
430.292	170.88
430.514	147.88
430.736	135.88
430.958	132.88
431.18	114.88
431.402	93.88
431.624	103.88
431.846	104.88
432.068	123.88
432.29	101.88
432.512	88.88
432.734	93.88
432.956	87.88
433.178	81.88
433.4	95.88
433.622	88.88
433.844	95.88
434.066	83.88
434.287	86.88
434.509	76.88
434.731	72.88
434.953	91.88
435.175	90.88
435.397	85.88
435.618	86.88
435.84	89.88
436.062	94.88
436.284	86.88
436.505	74.88
436.727	84.88
436.949	73.88
437.17	81.88
437.392	82.88
437.614	81.88
437.835	86.88
438.057	78.88
438.278	80.88
438.5	94.88
438.721	88.88
438.943	83.88
439.165	85.88
439.386	81.88
439.608	86.88
439.829	87.88
440.05	90.88
440.272	93.88
440.493	90.88
440.715	81.88
440.936	83.88
441.158	78.88
441.379	75.88
441.6	80.88
441.822	99.88
442.043	97.88
442.264	91.88
442.486	125.88
442.707	149.88
442.928	125.88
443.149	113.88
443.371	152.88
443.592	207.88
443.813	189.88
444.034	107.88
444.255	87.88
444.476	97.88
444.698	82.88
444.919	74.88
445.14	156.88
445.361	188.88
445.582	262.88
445.803	200.88
446.024	117.88
446.245	95.88
446.466	108.88
446.687	81.88
446.908	93.88
447.129	103.88
447.35	95.88
447.571	100.88
447.792	80.88
448.013	94.88
448.234	80.88
448.455	75.88
448.675	75.88
448.896	73.88
449.117	84.88
449.338	91.88
449.559	73.88
449.779	87.88
450	92.88
450.221	81.88
450.442	85.88
450.662	80.88
450.883	91.88
451.104	77.88
451.324	81.88
451.545	91.88
451.766	77.88
451.986	82.88
452.207	85.88
452.428	74.88
452.648	91.88
452.869	97.88
453.089	84.88
453.31	89.88
453.53	85.88
453.751	84.88
453.971	98.88
454.192	88.88
454.412	76.88
454.633	76.88
454.853	90.88
455.073	88.88
455.294	81.88
455.514	89.88
455.734	87.88
455.955	72.88
456.175	75.88
456.395	86.88
456.616	66.88
456.836	86.88
457.056	90.88
457.276	80.88
457.497	87.88
457.717	95.88
457.937	88.88
458.157	103.88
458.377	123.88
458.598	102.88
458.818	124.88
459.038	91.88
459.258	72.88
459.478	85.88
459.698	91.88
459.918	90.88
460.138	85.88
460.358	93.88
460.578	91.88
460.798	133.88
461.018	126.88
461.238	89.88
461.458	89.88
461.678	99.88
461.898	102.88
462.118	91.88
462.338	85.88
462.558	77.88
462.777	80.88
462.997	83.88
463.217	70.88
463.437	73.88
463.657	93.88
463.876	82.88
464.096	81.88
464.316	79.88
464.536	73.88
464.755	79.88
464.975	87.88
465.195	85.88
465.414	86.88
465.634	85.88
465.854	65.88
466.073	92.88
466.293	90.88
466.512	82.88
466.732	79.88
466.951	65.88
467.171	69.88
467.391	75.88
467.61	80.88
467.829	77.88
468.049	94.88
468.268	74.88
468.488	92.88
468.707	89.88
468.927	73.88
469.146	81.88
469.365	93.88
469.585	73.88
469.804	79.88
470.023	95.88
470.243	93.88
470.462	91.88
470.681	89.88
470.901	93.88
471.12	90.88
471.339	75.88
471.558	80.88
471.777	69.88
471.997	85.88
472.216	80.88
472.435	83.88
472.654	84.88
472.873	90.88
473.092	85.88
473.311	88.88
473.53	85.88
473.749	78.88
473.968	79.88
474.187	91.88
474.406	90.88
474.625	70.88
474.844	88.88
475.063	88.88
475.282	78.88
475.501	86.88
475.72	86.88
475.939	102.88
476.158	89.88
476.377	86.88
476.596	83.88
476.814	98.88
477.033	75.88
477.252	70.88
477.471	80.88
477.69	84.88
477.908	82.88
478.127	81.88
478.346	88.88
478.564	89.88
478.783	72.88
479.002	74.88
479.22	92.88
479.439	88.88
479.658	80.88
479.876	84.88
480.095	96.88
480.313	85.88
480.532	88.88
480.751	94.88
480.969	89.88
481.188	95.88
481.406	113.88
481.624	81.88
481.843	98.88
482.061	90.88
482.28	79.88
482.498	94.88
482.717	75.88
482.935	75.88
483.153	91.88
483.372	88.88
483.59	86.88
483.808	78.88
484.027	84.88
484.245	91.88
484.463	91.88
484.681	98.88
484.9	93.88
485.118	89.88
485.336	83.88
485.554	79.88
485.772	92.88
485.99	82.88
486.209	89.88
486.427	75.88
486.645	75.88
486.863	85.88
487.081	79.88
487.299	98.88
487.517	89.88
487.735	119.88
487.953	149.88
488.171	125.88
488.389	104.88
488.607	83.88
488.825	88.88
489.043	88.88
489.261	102.88
489.479	95.88
489.696	84.88
489.914	86.88
490.132	94.88
490.35	93.88
490.568	80.88
490.786	70.88
491.003	79.88
491.221	93.88
491.439	76.88
491.657	83.88
491.874	81.88
492.092	75.88
492.31	90.88
492.527	93.88
492.745	90.88
492.963	84.88
493.18	78.88
493.398	89.88
493.615	85.88
493.833	88.88
494.05	82.88
494.268	90.88
494.485	77.88
494.703	94.88
494.92	83.88
495.138	79.88
495.355	95.88
495.573	89.88
495.79	97.88
496.008	104.88
496.225	98.88
496.442	102.88
496.66	87.88
496.877	82.88
497.094	97.88
497.312	85.88
497.529	91.88
497.746	96.88
497.963	91.88
498.181	99.88
498.398	85.88
498.615	91.88
498.832	93.88
499.049	87.88
499.267	109.88
499.484	85.88
499.701	74.88
499.918	85.88
500.135	102.88
500.352	83.88
500.569	81.88
500.786	91.88
501.003	81.88
501.22	89.88
501.437	82.88
501.654	86.88
501.871	95.88
502.088	102.88
502.305	99.88
502.522	76.88
502.739	72.88
502.956	74.88
503.172	85.88
503.389	73.88
503.606	81.88
503.823	111.88
504.04	99.88
504.256	122.88
504.473	121.88
504.69	68.88
504.907	86.88
505.123	85.88
505.34	91.88
505.557	94.88
505.773	90.88
505.99	87.88
506.207	93.88
506.423	95.88
506.64	91.88
506.856	79.88
507.073	77.88
507.289	75.88
507.506	75.88
507.722	82.88
507.939	89.88
508.155	88.88
508.372	96.88
508.588	71.88
508.805	83.88
509.021	81.88
509.238	96.88
509.454	75.88
509.67	74.88
509.887	81.88
510.103	84.88
510.319	95.88
510.536	88.88
510.752	69.88
510.968	81.88
511.184	87.88
511.401	78.88
511.617	90.88
511.833	91.88
512.049	95.88
512.265	91.88
512.481	88.88
512.698	79.88
512.914	98.88
513.13	93.88
513.346	89.88
513.562	87.88
513.778	81.88
513.994	109.88
514.21	86.88
514.426	81.88
514.642	87.88
514.858	90.88
515.074	91.88
515.29	73.88
515.506	93.88
515.721	97.88
515.937	94.88
516.153	111.88
516.369	88.88
516.585	81.88
516.801	89.88
517.016	90.88
517.232	101.88
517.448	87.88
517.664	89.88
517.879	95.88
518.095	98.88
518.311	109.88
