Data from 17600_1_HRD10591_00029.txt Node
Date: Mon Jan 19 14:07:38 EST 2026
User: Yrep
Spectrometer: HR+D1059
Trigger mode: 1
Integration Time (sec): 1.000000E-1
Scans to average: 1
Electric dark correction enabled: true
Nonlinearity correction enabled: false
Boxcar width: 0
XAxis mode: Wavelengths
Number of Pixels in Spectrum: 2048
>>>>>Begin Spectral Data<<<<<
223.165	-15.69
223.4	-15.69
223.635	-15.69
223.869	-13.69
224.104	-17.69
224.338	-22.69
224.573	-6.69
224.808	-22.69
225.042	-12.69
225.277	-8.69
225.511	1.31
225.746	-0.69
225.98	7.31
226.215	5.31
226.449	7.31
226.683	27.31
226.918	36.31
227.152	36.31
227.387	25.31
227.621	36.31
227.856	36.31
228.09	46.31
228.324	62.31
228.559	53.31
228.793	55.31
229.027	63.31
229.262	57.31
229.496	60.31
229.73	72.31
229.964	87.31
230.199	72.31
230.433	68.31
230.667	73.31
230.901	80.31
231.136	72.31
231.37	79.31
231.604	81.31
231.838	72.31
232.072	66.31
232.306	82.31
232.541	85.31
232.775	75.31
233.009	87.31
233.243	85.31
233.477	87.31
233.711	73.31
233.945	77.31
234.179	70.31
234.413	74.31
234.647	91.31
234.881	88.31
235.115	92.31
235.349	71.31
235.583	82.31
235.817	78.31
236.051	87.31
236.285	78.31
236.519	80.31
236.753	65.31
236.987	75.31
237.221	68.31
237.455	80.31
237.689	82.31
237.922	68.31
238.156	80.31
238.39	70.31
238.624	66.31
238.858	72.31
239.091	73.31
239.325	72.31
239.559	80.31
239.793	67.31
240.027	80.31
240.26	82.31
240.494	74.31
240.728	66.31
240.961	70.31
241.195	84.31
241.429	79.31
241.662	73.31
241.896	78.31
242.13	76.31
242.363	84.31
242.597	87.31
242.83	80.31
243.064	81.31
243.298	79.31
243.531	84.31
243.765	73.31
243.998	75.31
244.232	62.31
244.465	70.31
244.699	73.31
244.932	71.31
245.166	74.31
245.399	94.31
245.633	80.31
245.866	73.31
246.099	77.31
246.333	80.31
246.566	77.31
246.8	72.31
247.033	81.31
247.266	79.31
247.5	81.31
247.733	74.31
247.966	73.31
248.2	85.31
248.433	81.31
248.666	70.31
248.899	74.31
249.133	82.31
249.366	84.31
249.599	78.31
249.832	89.31
250.066	93.31
250.299	85.31
250.532	78.31
250.765	74.31
250.998	80.31
251.231	73.31
251.465	95.31
251.698	73.31
251.931	78.31
252.164	75.31
252.397	69.31
252.63	72.31
252.863	77.31
253.096	92.31
253.329	85.31
253.562	75.31
253.795	88.31
254.028	74.31
254.261	71.31
254.494	86.31
254.727	80.31
254.96	75.31
255.193	87.31
255.426	86.31
255.659	86.31
255.892	76.31
256.124	99.31
256.357	73.31
256.59	71.31
256.823	78.31
257.056	76.31
257.289	82.31
257.521	82.31
257.754	80.31
257.987	81.31
258.22	74.31
258.452	80.31
258.685	78.31
258.918	77.31
259.151	89.31
259.383	94.31
259.616	74.31
259.849	76.31
260.081	76.31
260.314	85.31
260.547	79.31
260.779	89.31
261.012	69.31
261.244	76.31
261.477	89.31
261.71	79.31
261.942	86.31
262.175	78.31
262.407	72.31
262.64	77.31
262.872	88.31
263.105	100.31
263.337	83.31
263.57	81.31
263.802	77.31
264.035	76.31
264.267	78.31
264.499	74.31
264.732	72.31
264.964	78.31
265.197	85.31
265.429	73.31
265.661	83.31
265.894	77.31
266.126	71.31
266.358	85.31
266.591	73.31
266.823	82.31
267.055	87.31
267.287	85.31
267.52	76.31
267.752	78.31
267.984	85.31
268.216	64.31
268.448	80.31
268.681	86.31
268.913	83.31
269.145	71.31
269.377	96.31
269.609	85.31
269.841	79.31
270.073	94.31
270.306	85.31
270.538	69.31
270.77	93.31
271.002	74.31
271.234	68.31
271.466	80.31
271.698	82.31
271.93	74.31
272.162	81.31
272.394	85.31
272.626	92.31
272.858	82.31
273.09	81.31
273.322	74.31
273.553	84.31
273.785	69.31
274.017	68.31
274.249	98.31
274.481	80.31
274.713	74.31
274.945	73.31
275.176	74.31
275.408	88.31
275.64	76.31
275.872	79.31
276.104	77.31
276.335	79.31
276.567	68.31
276.799	65.31
277.031	84.31
277.262	73.31
277.494	77.31
277.726	78.31
277.957	90.31
278.189	86.31
278.421	92.31
278.652	81.31
278.884	76.31
279.115	82.31
279.347	87.31
279.579	81.31
279.81	97.31
280.042	80.31
280.273	67.31
280.505	72.31
280.736	78.31
280.968	77.31
281.199	84.31
281.431	81.31
281.662	95.31
281.894	95.31
282.125	80.31
282.356	77.31
282.588	68.31
282.819	84.31
283.051	75.31
283.282	83.31
283.513	88.31
283.745	88.31
283.976	74.31
284.207	94.31
284.439	82.31
284.67	77.31
284.901	80.31
285.132	65.31
285.364	88.31
285.595	94.31
285.826	84.31
286.057	86.31
286.288	85.31
286.52	86.31
286.751	73.31
286.982	80.31
287.213	79.31
287.444	87.31
287.675	86.31
287.906	65.31
288.138	75.31
288.369	87.31
288.6	84.31
288.831	83.31
289.062	76.31
289.293	75.31
289.524	82.31
289.755	88.31
289.986	83.31
290.217	66.31
290.448	65.31
290.679	89.31
290.91	96.31
291.141	93.31
291.371	86.31
291.602	85.31
291.833	82.31
292.064	80.31
292.295	81.31
292.526	85.31
292.757	67.31
292.987	90.31
293.218	92.31
293.449	77.31
293.68	81.31
293.91	82.31
294.141	72.31
294.372	84.31
294.603	74.31
294.833	84.31
295.064	77.31
295.295	80.31
295.525	79.31
295.756	88.31
295.987	93.31
296.217	77.31
296.448	83.31
296.679	92.31
296.909	81.31
297.14	74.31
297.37	90.31
297.601	74.31
297.831	85.31
298.062	85.31
298.292	92.31
298.523	73.31
298.753	78.31
298.984	70.31
299.214	72.31
299.445	84.31
299.675	80.31
299.905	76.31
300.136	86.31
300.366	83.31
300.597	93.31
300.827	80.31
301.057	84.31
301.288	83.31
301.518	85.31
301.748	82.31
301.979	110.31
302.209	81.31
302.439	90.31
302.669	88.31
302.9	93.31
303.13	85.31
303.36	85.31
303.59	86.31
303.82	70.31
304.051	95.31
304.281	94.31
304.511	85.31
304.741	79.31
304.971	83.31
305.201	83.31
305.431	85.31
305.661	80.31
305.891	82.31
306.121	72.31
306.352	85.31
306.582	99.31
306.812	79.31
307.042	90.31
307.272	72.31
307.502	77.31
307.731	66.31
307.961	92.31
308.191	85.31
308.421	74.31
308.651	67.31
308.881	92.31
309.111	74.31
309.341	79.31
309.571	83.31
309.8	74.31
310.03	77.31
310.26	83.31
310.49	90.31
310.72	86.31
310.949	94.31
311.179	84.31
311.409	76.31
311.639	77.31
311.868	79.31
312.098	89.31
312.328	71.31
312.557	82.31
312.787	80.31
313.017	81.31
313.246	88.31
313.476	68.31
313.706	78.31
313.935	79.31
314.165	84.31
314.394	90.31
314.624	82.31
314.853	81.31
315.083	79.31
315.312	73.31
315.542	89.31
315.771	78.31
316.001	78.31
316.23	72.31
316.46	75.31
316.689	81.31
316.919	93.31
317.148	88.31
317.377	88.31
317.607	91.31
317.836	80.31
318.065	80.31
318.295	92.31
318.524	89.31
318.753	88.31
318.983	84.31
319.212	81.31
319.441	84.31
319.67	71.31
319.9	78.31
320.129	68.31
320.358	79.31
320.587	91.31
320.816	85.31
321.046	80.31
321.275	79.31
321.504	90.31
321.733	82.31
321.962	85.31
322.191	84.31
322.42	86.31
322.649	74.31
322.878	79.31
323.108	103.31
323.337	78.31
323.566	94.31
323.795	87.31
324.024	86.31
324.253	83.31
324.482	90.31
324.71	86.31
324.939	87.31
325.168	80.31
325.397	87.31
325.626	83.31
325.855	83.31
326.084	77.31
326.313	82.31
326.542	103.31
326.77	84.31
326.999	78.31
327.228	82.31
327.457	77.31
327.686	87.31
327.914	79.31
328.143	93.31
328.372	100.31
328.6	88.31
328.829	87.31
329.058	80.31
329.287	78.31
329.515	86.31
329.744	87.31
329.972	79.31
330.201	90.31
330.43	70.31
330.658	82.31
330.887	80.31
331.115	76.31
331.344	83.31
331.572	85.31
331.801	85.31
332.03	96.31
332.258	78.31
332.486	65.31
332.715	74.31
332.943	83.31
333.172	80.31
333.4	82.31
333.629	70.31
333.857	100.31
334.085	86.31
334.314	72.31
334.542	85.31
334.771	95.31
334.999	92.31
335.227	81.31
335.455	87.31
335.684	84.31
335.912	86.31
336.14	84.31
336.369	91.31
336.597	87.31
336.825	88.31
337.053	89.31
337.281	84.31
337.51	86.31
337.738	80.31
337.966	68.31
338.194	95.31
338.422	79.31
338.65	73.31
338.878	85.31
339.106	78.31
339.334	82.31
339.562	81.31
339.79	83.31
340.018	81.31
340.246	82.31
340.474	69.31
340.702	80.31
340.93	89.31
341.158	84.31
341.386	82.31
341.614	75.31
341.842	78.31
342.07	81.31
342.298	86.31
342.526	85.31
342.754	84.31
342.981	86.31
343.209	85.31
343.437	84.31
343.665	85.31
343.893	79.31
344.12	85.31
344.348	82.31
344.576	79.31
344.804	83.31
345.031	82.31
345.259	81.31
345.487	76.31
345.714	73.31
345.942	85.31
346.17	78.31
346.397	78.31
346.625	86.31
346.853	87.31
347.08	87.31
347.308	76.31
347.535	75.31
347.763	88.31
347.99	70.31
348.218	84.31
348.445	80.31
348.673	74.31
348.9	81.31
349.128	84.31
349.355	74.31
349.583	81.31
349.81	79.31
350.037	80.31
350.265	74.31
350.492	75.31
350.72	90.31
350.947	80.31
351.174	78.31
351.402	78.31
351.629	71.31
351.856	75.31
352.083	83.31
352.311	88.31
352.538	86.31
352.765	90.31
352.992	97.31
353.22	85.31
353.447	83.31
353.674	90.31
353.901	81.31
354.128	68.31
354.355	74.31
354.583	84.31
354.81	85.31
355.037	81.31
355.264	103.31
355.491	70.31
355.718	70.31
355.945	72.31
356.172	70.31
356.399	100.31
356.626	84.31
356.853	80.31
357.08	88.31
357.307	85.31
357.534	85.31
357.761	95.31
357.988	92.31
358.215	88.31
358.441	71.31
358.668	72.31
358.895	82.31
359.122	93.31
359.349	88.31
359.576	77.31
359.802	94.31
360.029	84.31
360.256	82.31
360.483	78.31
360.709	83.31
360.936	92.31
361.163	72.31
361.39	81.31
361.616	80.31
361.843	91.31
362.07	71.31
362.296	76.31
362.523	74.31
362.749	76.31
362.976	79.31
363.203	97.31
363.429	82.31
363.656	88.31
363.882	73.31
364.109	90.31
364.335	90.31
364.562	78.31
364.788	81.31
365.015	87.31
365.241	80.31
365.468	81.31
365.694	93.31
365.92	93.31
366.147	73.31
366.373	77.31
366.599	81.31
366.826	88.31
367.052	80.31
367.278	86.31
367.505	86.31
367.731	93.31
367.957	84.31
368.184	71.31
368.41	80.31
368.636	87.31
368.862	81.31
369.089	94.31
369.315	85.31
369.541	86.31
369.767	78.31
369.993	74.31
370.219	82.31
370.445	85.31
370.672	87.31
370.898	77.31
371.124	79.31
371.35	72.31
371.576	69.31
371.802	74.31
372.028	82.31
372.254	79.31
372.48	71.31
372.706	82.31
372.932	83.31
373.158	80.31
373.384	95.31
373.61	92.31
373.835	83.31
374.061	79.31
374.287	82.31
374.513	92.31
374.739	82.31
374.965	76.31
375.191	78.31
375.416	93.31
375.642	77.31
375.868	71.31
376.094	86.31
376.319	63.31
376.545	78.31
376.771	82.31
376.997	71.31
377.222	84.31
377.448	87.31
377.674	61.31
377.899	61.31
378.125	82.31
378.35	62.31
378.576	73.31
378.802	60.31
379.027	76.31
379.253	76.31
379.478	84.31
379.704	88.31
379.929	77.31
380.155	91.31
380.38	86.31
380.606	78.31
380.831	84.31
381.057	88.31
381.282	72.31
381.507	71.31
381.733	72.31
381.958	62.31
382.184	82.31
382.409	82.31
382.634	92.31
382.86	70.31
383.085	96.31
383.31	87.31
383.535	83.31
383.761	79.31
383.986	73.31
384.211	80.31
384.436	69.31
384.662	83.31
384.887	85.31
385.112	93.31
385.337	73.31
385.562	80.31
385.787	91.31
386.013	89.31
386.238	83.31
386.463	70.31
386.688	70.31
386.913	80.31
387.138	86.31
387.363	88.31
387.588	77.31
387.813	75.31
388.038	90.31
388.263	78.31
388.488	84.31
388.713	80.31
388.938	88.31
389.163	78.31
389.387	73.31
389.612	80.31
389.837	88.31
390.062	81.31
390.287	77.31
390.512	69.31
390.736	86.31
390.961	83.31
391.186	72.31
391.411	69.31
391.636	84.31
391.86	80.31
392.085	91.31
392.31	72.31
392.534	78.31
392.759	83.31
392.984	94.31
393.208	116.31
393.433	153.31
393.658	127.31
393.882	100.31
394.107	88.31
394.331	65.31
394.556	73.31
394.78	95.31
395.005	75.31
395.229	72.31
395.454	87.31
395.678	77.31
395.903	90.31
396.127	96.31
396.352	82.31
396.576	94.31
396.801	128.31
397.025	146.31
397.249	91.31
397.474	88.31
397.698	82.31
397.922	86.31
398.147	88.31
398.371	70.31
398.595	70.31
398.82	90.31
399.044	80.31
399.268	72.31
399.492	69.31
399.717	74.31
399.941	85.31
400.165	94.31
400.389	87.31
400.613	75.31
400.837	76.31
401.062	72.31
401.286	72.31
401.51	74.31
401.734	79.31
401.958	81.31
402.182	84.31
402.406	88.31
402.63	78.31
402.854	83.31
403.078	89.31
403.302	68.31
403.526	88.31
403.75	70.31
403.974	75.31
404.198	71.31
404.422	86.31
404.645	88.31
404.869	74.31
405.093	74.31
405.317	74.31
405.541	87.31
405.765	82.31
405.988	77.31
406.212	84.31
406.436	81.31
406.66	67.31
406.883	84.31
407.107	79.31
407.331	82.31
407.555	83.31
407.778	79.31
408.002	92.31
408.226	84.31
408.449	83.31
408.673	74.31
408.896	78.31
409.12	81.31
409.344	96.31
409.567	76.31
409.791	73.31
410.014	82.31
410.238	95.31
410.461	74.31
410.685	92.31
410.908	86.31
411.132	84.31
411.355	74.31
411.578	83.31
411.802	84.31
412.025	83.31
412.249	80.31
412.472	64.31
412.695	76.31
412.919	82.31
413.142	76.31
413.365	68.31
413.589	69.31
413.812	77.31
414.035	87.31
414.258	83.31
414.482	81.31
414.705	90.31
414.928	77.31
415.151	62.31
415.374	68.31
415.597	87.31
415.821	84.31
416.044	72.31
416.267	76.31
416.49	81.31
416.713	79.31
416.936	74.31
417.159	83.31
417.382	68.31
417.605	82.31
417.828	85.31
418.051	92.31
418.274	89.31
418.497	74.31
418.72	78.31
418.943	74.31
419.166	75.31
419.389	84.31
419.611	81.31
419.834	85.31
420.057	81.31
420.28	91.31
420.503	74.31
420.726	84.31
420.948	73.31
421.171	72.31
421.394	85.31
421.617	77.31
421.839	69.31
422.062	81.31
422.285	90.31
422.507	96.31
422.73	115.31
422.953	111.31
423.175	89.31
423.398	73.31
423.621	75.31
423.843	80.31
424.066	80.31
424.288	90.31
424.511	79.31
424.733	70.31
424.956	75.31
425.178	71.31
425.401	84.31
425.623	85.31
425.846	69.31
426.068	79.31
426.291	77.31
426.513	93.31
426.735	94.31
426.958	91.31
427.18	85.31
427.402	77.31
427.625	77.31
427.847	84.31
428.069	78.31
428.292	81.31
428.514	79.31
428.736	80.31
428.958	83.31
429.181	83.31
429.403	79.31
429.625	79.31
429.847	84.31
430.069	92.31
430.292	80.31
430.514	89.31
430.736	73.31
430.958	86.31
431.18	66.31
431.402	70.31
431.624	78.31
431.846	76.31
432.068	94.31
432.29	76.31
432.512	78.31
432.734	71.31
432.956	88.31
433.178	84.31
433.4	69.31
433.622	76.31
433.844	79.31
434.066	84.31
434.287	83.31
434.509	80.31
434.731	96.31
434.953	85.31
435.175	73.31
435.397	70.31
435.618	91.31
435.84	82.31
436.062	73.31
436.284	82.31
436.505	86.31
436.727	85.31
436.949	78.31
437.17	74.31
437.392	72.31
437.614	88.31
437.835	80.31
438.057	85.31
438.278	88.31
438.5	80.31
438.721	81.31
438.943	84.31
439.165	75.31
439.386	78.31
439.608	80.31
439.829	80.31
440.05	72.31
440.272	74.31
440.493	82.31
440.715	73.31
440.936	76.31
441.158	70.31
441.379	61.31
441.6	81.31
441.822	85.31
442.043	72.31
442.264	85.31
442.486	70.31
442.707	75.31
442.928	97.31
443.149	79.31
443.371	81.31
443.592	82.31
443.813	83.31
444.034	76.31
444.255	77.31
444.476	75.31
444.698	85.31
444.919	89.31
445.14	137.31
445.361	113.31
445.582	97.31
445.803	79.31
446.024	80.31
446.245	80.31
446.466	83.31
446.687	70.31
446.908	70.31
447.129	82.31
447.35	90.31
447.571	77.31
447.792	78.31
448.013	73.31
448.234	72.31
448.455	76.31
448.675	92.31
448.896	75.31
449.117	81.31
449.338	75.31
449.559	68.31
449.779	82.31
450	92.31
450.221	86.31
450.442	85.31
450.662	72.31
450.883	84.31
451.104	90.31
451.324	88.31
451.545	72.31
451.766	73.31
451.986	85.31
452.207	82.31
452.428	88.31
452.648	79.31
452.869	81.31
453.089	81.31
453.31	80.31
453.53	86.31
453.751	84.31
453.971	76.31
454.192	84.31
454.412	82.31
454.633	80.31
454.853	92.31
455.073	82.31
455.294	60.31
455.514	81.31
455.734	86.31
455.955	86.31
456.175	85.31
456.395	70.31
456.616	94.31
456.836	87.31
457.056	80.31
457.276	82.31
457.497	64.31
457.717	87.31
457.937	82.31
458.157	90.31
458.377	66.31
458.598	79.31
458.818	87.31
459.038	85.31
459.258	80.31
459.478	90.31
459.698	73.31
459.918	93.31
460.138	85.31
460.358	96.31
460.578	94.31
460.798	70.31
461.018	74.31
461.238	87.31
461.458	79.31
461.678	86.31
461.898	78.31
462.118	74.31
462.338	91.31
462.558	88.31
462.777	85.31
462.997	81.31
463.217	79.31
463.437	74.31
463.657	81.31
463.876	74.31
464.096	76.31
464.316	71.31
464.536	77.31
464.755	72.31
464.975	92.31
465.195	67.31
465.414	87.31
465.634	73.31
465.854	89.31
466.073	81.31
466.293	73.31
466.512	77.31
466.732	90.31
466.951	86.31
467.171	82.31
467.391	82.31
467.61	72.31
467.829	89.31
468.049	65.31
468.268	74.31
468.488	84.31
468.707	76.31
468.927	75.31
469.146	89.31
469.365	78.31
469.585	75.31
469.804	72.31
470.023	83.31
470.243	78.31
470.462	83.31
470.681	86.31
470.901	80.31
471.12	74.31
471.339	92.31
471.558	78.31
471.777	82.31
471.997	74.31
472.216	90.31
472.435	69.31
472.654	88.31
472.873	93.31
473.092	78.31
473.311	63.31
473.53	88.31
473.749	75.31
473.968	89.31
474.187	78.31
474.406	83.31
474.625	81.31
474.844	80.31
475.063	75.31
475.282	74.31
475.501	80.31
475.72	99.31
475.939	82.31
476.158	96.31
476.377	82.31
476.596	99.31
476.814	83.31
477.033	80.31
477.252	73.31
477.471	82.31
477.69	60.31
477.908	86.31
478.127	71.31
478.346	79.31
478.564	84.31
478.783	82.31
479.002	78.31
479.22	85.31
479.439	79.31
479.658	76.31
479.876	78.31
480.095	80.31
480.313	85.31
480.532	84.31
480.751	91.31
480.969	73.31
481.188	83.31
481.406	73.31
481.624	69.31
481.843	85.31
482.061	72.31
482.28	84.31
482.498	87.31
482.717	87.31
482.935	75.31
483.153	74.31
483.372	64.31
483.59	71.31
483.808	82.31
484.027	79.31
484.245	82.31
484.463	79.31
484.681	98.31
484.9	82.31
485.118	89.31
485.336	66.31
485.554	74.31
485.772	84.31
485.99	85.31
486.209	75.31
486.427	79.31
486.645	85.31
486.863	87.31
487.081	78.31
487.299	84.31
487.517	72.31
487.735	81.31
487.953	90.31
488.171	85.31
488.389	84.31
488.607	85.31
488.825	78.31
489.043	86.31
489.261	87.31
489.479	85.31
489.696	78.31
489.914	86.31
490.132	96.31
490.35	85.31
490.568	83.31
490.786	71.31
491.003	89.31
491.221	87.31
491.439	81.31
491.657	72.31
491.874	82.31
492.092	87.31
492.31	78.31
492.527	84.31
492.745	87.31
492.963	93.31
493.18	90.31
493.398	74.31
493.615	76.31
493.833	93.31
494.05	82.31
494.268	91.31
494.485	87.31
494.703	80.31
494.92	88.31
495.138	80.31
495.355	74.31
495.573	78.31
495.79	82.31
496.008	82.31
496.225	84.31
496.442	84.31
496.66	88.31
496.877	79.31
497.094	83.31
497.312	73.31
497.529	91.31
497.746	88.31
497.963	70.31
498.181	74.31
498.398	93.31
498.615	84.31
498.832	80.31
499.049	88.31
499.267	83.31
499.484	74.31
499.701	89.31
499.918	90.31
500.135	85.31
500.352	76.31
500.569	75.31
500.786	89.31
501.003	79.31
501.22	99.31
501.437	80.31
501.654	77.31
501.871	76.31
502.088	92.31
502.305	94.31
502.522	81.31
502.739	84.31
502.956	87.31
503.172	82.31
503.389	88.31
503.606	79.31
503.823	78.31
504.04	91.31
504.256	97.31
504.473	78.31
504.69	86.31
504.907	85.31
505.123	71.31
505.34	84.31
505.557	74.31
505.773	86.31
505.99	76.31
506.207	64.31
506.423	84.31
506.64	84.31
506.856	88.31
507.073	69.31
507.289	76.31
507.506	80.31
507.722	81.31
507.939	83.31
508.155	96.31
508.372	102.31
508.588	78.31
508.805	74.31
509.021	71.31
509.238	78.31
509.454	87.31
509.67	95.31
509.887	79.31
510.103	76.31
510.319	71.31
510.536	79.31
510.752	82.31
510.968	90.31
511.184	96.31
511.401	85.31
511.617	90.31
511.833	84.31
512.049	86.31
512.265	75.31
512.481	79.31
512.698	88.31
512.914	73.31
513.13	88.31
513.346	93.31
513.562	72.31
513.778	88.31
513.994	85.31
514.21	72.31
514.426	82.31
514.642	88.31
514.858	75.31
515.074	94.31
515.29	84.31
515.506	65.31
515.721	86.31
515.937	99.31
516.153	74.31
516.369	74.31
516.585	87.31
516.801	81.31
517.016	92.31
517.232	75.31
517.448	96.31
517.664	85.31
517.879	84.31
518.095	72.31
518.311	94.31
518.527	85.31
518.742	74.31
518.958	81.31
519.173	81.31
519.389	80.31
519.605	83.31
519.82	85.31
520.036	75.31
