Data from 17600_1_HRD10591_00028.txt Node
Date: Mon Jan 19 14:07:38 EST 2026
User: Yrep
Spectrometer: HR+D1059
Trigger mode: 1
Integration Time (sec): 1.000000E-1
Scans to average: 1
Electric dark correction enabled: true
Nonlinearity correction enabled: false
Boxcar width: 0
XAxis mode: Wavelengths
Number of Pixels in Spectrum: 2048
>>>>>Begin Spectral Data<<<<<
223.165	-12.31
223.4	-12.31
223.635	-12.31
223.869	-33.31
224.104	-22.31
224.338	-12.31
224.573	-15.31
224.808	-8.31
225.042	-11.31
225.277	-6.31
225.511	-5.31
225.746	-4.31
225.98	12.69
226.215	14.69
226.449	26.69
226.683	13.69
226.918	32.69
227.152	30.69
227.387	38.69
227.621	36.69
227.856	49.69
228.09	36.69
228.324	55.69
228.559	47.69
228.793	55.69
229.027	66.69
229.262	57.69
229.496	67.69
229.73	66.69
229.964	68.69
230.199	62.69
230.433	64.69
230.667	70.69
230.901	72.69
231.136	80.69
231.37	75.69
231.604	78.69
231.838	73.69
232.072	74.69
232.306	67.69
232.541	83.69
232.775	73.69
233.009	90.69
233.243	82.69
233.477	79.69
233.711	63.69
233.945	85.69
234.179	78.69
234.413	85.69
234.647	81.69
234.881	79.69
235.115	78.69
235.349	75.69
235.583	74.69
235.817	84.69
236.051	75.69
236.285	69.69
236.519	80.69
236.753	89.69
236.987	79.69
237.221	65.69
237.455	74.69
237.689	82.69
237.922	68.69
238.156	74.69
238.39	52.69
238.624	72.69
238.858	74.69
239.091	80.69
239.325	70.69
239.559	75.69
239.793	64.69
240.027	85.69
240.26	74.69
240.494	79.69
240.728	72.69
240.961	72.69
241.195	73.69
241.429	72.69
241.662	65.69
241.896	74.69
242.13	62.69
242.363	76.69
242.597	60.69
242.83	66.69
243.064	60.69
243.298	86.69
243.531	77.69
243.765	72.69
243.998	68.69
244.232	84.69
244.465	79.69
244.699	65.69
244.932	75.69
245.166	69.69
245.399	71.69
245.633	75.69
245.866	81.69
246.099	73.69
246.333	81.69
246.566	72.69
246.8	70.69
247.033	72.69
247.266	77.69
247.5	82.69
247.733	81.69
247.966	68.69
248.2	88.69
248.433	86.69
248.666	72.69
248.899	95.69
249.133	66.69
249.366	74.69
249.599	68.69
249.832	60.69
250.066	82.69
250.299	93.69
250.532	87.69
250.765	74.69
250.998	72.69
251.231	87.69
251.465	83.69
251.698	52.69
251.931	77.69
252.164	85.69
252.397	73.69
252.63	68.69
252.863	72.69
253.096	85.69
253.329	78.69
253.562	80.69
253.795	85.69
254.028	86.69
254.261	74.69
254.494	77.69
254.727	85.69
254.96	82.69
255.193	70.69
255.426	90.69
255.659	67.69
255.892	84.69
256.124	71.69
256.357	74.69
256.59	72.69
256.823	74.69
257.056	70.69
257.289	93.69
257.521	78.69
257.754	71.69
257.987	84.69
258.22	94.69
258.452	83.69
258.685	78.69
258.918	80.69
259.151	68.69
259.383	74.69
259.616	74.69
259.849	82.69
260.081	72.69
260.314	87.69
260.547	85.69
260.779	60.69
261.012	75.69
261.244	71.69
261.477	82.69
261.71	86.69
261.942	80.69
262.175	80.69
262.407	81.69
262.64	85.69
262.872	93.69
263.105	82.69
263.337	78.69
263.57	78.69
263.802	72.69
264.035	80.69
264.267	88.69
264.499	84.69
264.732	73.69
264.964	80.69
265.197	77.69
265.429	79.69
265.661	94.69
265.894	102.69
266.126	90.69
266.358	74.69
266.591	82.69
266.823	75.69
267.055	76.69
267.287	79.69
267.52	86.69
267.752	74.69
267.984	79.69
268.216	93.69
268.448	73.69
268.681	86.69
268.913	79.69
269.145	81.69
269.377	85.69
269.609	83.69
269.841	84.69
270.073	89.69
270.306	81.69
270.538	73.69
270.77	82.69
271.002	98.69
271.234	74.69
271.466	91.69
271.698	78.69
271.93	80.69
272.162	85.69
272.394	76.69
272.626	69.69
272.858	82.69
273.09	84.69
273.322	84.69
273.553	92.69
273.785	93.69
274.017	80.69
274.249	84.69
274.481	78.69
274.713	86.69
274.945	70.69
275.176	85.69
275.408	92.69
275.64	89.69
275.872	88.69
276.104	76.69
276.335	82.69
276.567	84.69
276.799	87.69
277.031	80.69
277.262	84.69
277.494	81.69
277.726	86.69
277.957	79.69
278.189	82.69
278.421	84.69
278.652	69.69
278.884	86.69
279.115	88.69
279.347	77.69
279.579	70.69
279.81	89.69
280.042	80.69
280.273	88.69
280.505	92.69
280.736	77.69
280.968	80.69
281.199	83.69
281.431	69.69
281.662	92.69
281.894	93.69
282.125	79.69
282.356	84.69
282.588	94.69
282.819	90.69
283.051	88.69
283.282	69.69
283.513	85.69
283.745	90.69
283.976	75.69
284.207	78.69
284.439	74.69
284.67	88.69
284.901	73.69
285.132	89.69
285.364	74.69
285.595	72.69
285.826	85.69
286.057	89.69
286.288	96.69
286.52	84.69
286.751	100.69
286.982	68.69
287.213	87.69
287.444	79.69
287.675	80.69
287.906	89.69
288.138	88.69
288.369	77.69
288.6	85.69
288.831	72.69
289.062	75.69
289.293	88.69
289.524	83.69
289.755	82.69
289.986	105.69
290.217	66.69
290.448	69.69
290.679	80.69
290.91	89.69
291.141	83.69
291.371	87.69
291.602	77.69
291.833	77.69
292.064	80.69
292.295	92.69
292.526	80.69
292.757	81.69
292.987	81.69
293.218	72.69
293.449	78.69
293.68	80.69
293.91	69.69
294.141	85.69
294.372	86.69
294.603	82.69
294.833	83.69
295.064	78.69
295.295	104.69
295.525	80.69
295.756	88.69
295.987	85.69
296.217	78.69
296.448	85.69
296.679	77.69
296.909	90.69
297.14	89.69
297.37	88.69
297.601	82.69
297.831	95.69
298.062	84.69
298.292	72.69
298.523	96.69
298.753	82.69
298.984	78.69
299.214	76.69
299.445	79.69
299.675	74.69
299.905	78.69
300.136	94.69
300.366	93.69
300.597	82.69
300.827	84.69
301.057	98.69
301.288	78.69
301.518	77.69
301.748	88.69
301.979	88.69
302.209	86.69
302.439	82.69
302.669	84.69
302.9	96.69
303.13	80.69
303.36	88.69
303.59	86.69
303.82	88.69
304.051	75.69
304.281	82.69
304.511	82.69
304.741	72.69
304.971	86.69
305.201	81.69
305.431	73.69
305.661	83.69
305.891	73.69
306.121	71.69
306.352	73.69
306.582	80.69
306.812	94.69
307.042	80.69
307.272	99.69
307.502	82.69
307.731	86.69
307.961	88.69
308.191	74.69
308.421	89.69
308.651	99.69
308.881	82.69
309.111	85.69
309.341	89.69
309.571	94.69
309.8	74.69
310.03	74.69
310.26	90.69
310.49	88.69
310.72	80.69
310.949	93.69
311.179	82.69
311.409	77.69
311.639	73.69
311.868	95.69
312.098	87.69
312.328	77.69
312.557	78.69
312.787	85.69
313.017	67.69
313.246	83.69
313.476	97.69
313.706	79.69
313.935	73.69
314.165	94.69
314.394	80.69
314.624	93.69
314.853	82.69
315.083	94.69
315.312	87.69
315.542	92.69
315.771	76.69
316.001	87.69
316.23	91.69
316.46	83.69
316.689	77.69
316.919	75.69
317.148	93.69
317.377	93.69
317.607	81.69
317.836	80.69
318.065	84.69
318.295	91.69
318.524	63.69
318.753	93.69
318.983	81.69
319.212	84.69
319.441	88.69
319.67	68.69
319.9	84.69
320.129	86.69
320.358	93.69
320.587	81.69
320.816	91.69
321.046	77.69
321.275	79.69
321.504	85.69
321.733	84.69
321.962	94.69
322.191	89.69
322.42	85.69
322.649	79.69
322.878	95.69
323.108	85.69
323.337	86.69
323.566	79.69
323.795	89.69
324.024	81.69
324.253	99.69
324.482	78.69
324.71	77.69
324.939	89.69
325.168	84.69
325.397	94.69
325.626	77.69
325.855	77.69
326.084	74.69
326.313	88.69
326.542	77.69
326.77	78.69
326.999	81.69
327.228	69.69
327.457	78.69
327.686	79.69
327.914	74.69
328.143	84.69
328.372	90.69
328.6	84.69
328.829	82.69
329.058	83.69
329.287	89.69
329.515	83.69
329.744	75.69
329.972	85.69
330.201	91.69
330.43	85.69
330.658	78.69
330.887	92.69
331.115	81.69
331.344	84.69
331.572	82.69
331.801	88.69
332.03	84.69
332.258	69.69
332.486	83.69
332.715	80.69
332.943	81.69
333.172	82.69
333.4	83.69
333.629	78.69
333.857	92.69
334.085	75.69
334.314	86.69
334.542	89.69
334.771	88.69
334.999	89.69
335.227	88.69
335.455	86.69
335.684	81.69
335.912	91.69
336.14	86.69
336.369	104.69
336.597	103.69
336.825	77.69
337.053	83.69
337.281	75.69
337.51	71.69
337.738	84.69
337.966	72.69
338.194	79.69
338.422	78.69
338.65	82.69
338.878	84.69
339.106	90.69
339.334	74.69
339.562	76.69
339.79	87.69
340.018	87.69
340.246	85.69
340.474	86.69
340.702	80.69
340.93	77.69
341.158	68.69
341.386	76.69
341.614	70.69
341.842	85.69
342.07	80.69
342.298	74.69
342.526	89.69
342.754	83.69
342.981	81.69
343.209	91.69
343.437	92.69
343.665	87.69
343.893	86.69
344.12	93.69
344.348	80.69
344.576	84.69
344.804	92.69
345.031	62.69
345.259	74.69
345.487	83.69
345.714	78.69
345.942	72.69
346.17	94.69
346.397	73.69
346.625	79.69
346.853	80.69
347.08	67.69
347.308	80.69
347.535	87.69
347.763	79.69
347.99	92.69
348.218	94.69
348.445	72.69
348.673	78.69
348.9	79.69
349.128	87.69
349.355	85.69
349.583	81.69
349.81	69.69
350.037	73.69
350.265	83.69
350.492	81.69
350.72	90.69
350.947	86.69
351.174	79.69
351.402	92.69
351.629	86.69
351.856	80.69
352.083	74.69
352.311	81.69
352.538	73.69
352.765	85.69
352.992	93.69
353.22	88.69
353.447	80.69
353.674	90.69
353.901	73.69
354.128	83.69
354.355	82.69
354.583	85.69
354.81	86.69
355.037	73.69
355.264	82.69
355.491	83.69
355.718	68.69
355.945	82.69
356.172	78.69
356.399	94.69
356.626	73.69
356.853	97.69
357.08	84.69
357.307	90.69
357.534	73.69
357.761	81.69
357.988	90.69
358.215	80.69
358.441	85.69
358.668	81.69
358.895	82.69
359.122	95.69
359.349	78.69
359.576	83.69
359.802	83.69
360.029	72.69
360.256	77.69
360.483	81.69
360.709	72.69
360.936	97.69
361.163	79.69
361.39	69.69
361.616	80.69
361.843	86.69
362.07	76.69
362.296	84.69
362.523	80.69
362.749	84.69
362.976	94.69
363.203	103.69
363.429	88.69
363.656	86.69
363.882	87.69
364.109	74.69
364.335	90.69
364.562	92.69
364.788	82.69
365.015	90.69
365.241	93.69
365.468	94.69
365.694	66.69
365.92	68.69
366.147	70.69
366.373	71.69
366.599	73.69
366.826	86.69
367.052	81.69
367.278	78.69
367.505	73.69
367.731	86.69
367.957	64.69
368.184	78.69
368.41	84.69
368.636	84.69
368.862	84.69
369.089	87.69
369.315	88.69
369.541	91.69
369.767	78.69
369.993	90.69
370.219	81.69
370.445	88.69
370.672	78.69
370.898	89.69
371.124	76.69
371.35	77.69
371.576	74.69
371.802	72.69
372.028	92.69
372.254	82.69
372.48	71.69
372.706	76.69
372.932	91.69
373.158	83.69
373.384	92.69
373.61	100.69
373.835	110.69
374.061	96.69
374.287	89.69
374.513	82.69
374.739	74.69
374.965	65.69
375.191	88.69
375.416	75.69
375.642	80.69
375.868	72.69
376.094	67.69
376.319	80.69
376.545	72.69
376.771	85.69
376.997	90.69
377.222	74.69
377.448	66.69
377.674	90.69
377.899	82.69
378.125	77.69
378.35	81.69
378.576	73.69
378.802	63.69
379.027	73.69
379.253	86.69
379.478	80.69
379.704	67.69
379.929	73.69
380.155	74.69
380.38	88.69
380.606	77.69
380.831	83.69
381.057	76.69
381.282	93.69
381.507	76.69
381.733	100.69
381.958	78.69
382.184	76.69
382.409	87.69
382.634	82.69
382.86	84.69
383.085	83.69
383.31	86.69
383.535	92.69
383.761	78.69
383.986	86.69
384.211	80.69
384.436	99.69
384.662	84.69
384.887	85.69
385.112	87.69
385.337	86.69
385.562	96.69
385.787	87.69
386.013	77.69
386.238	79.69
386.463	80.69
386.688	94.69
386.913	73.69
387.138	80.69
387.363	78.69
387.588	78.69
387.813	97.69
388.038	79.69
388.263	92.69
388.488	74.69
388.713	87.69
388.938	69.69
389.163	59.69
389.387	81.69
389.612	64.69
389.837	77.69
390.062	82.69
390.287	70.69
390.512	77.69
390.736	92.69
390.961	78.69
391.186	85.69
391.411	80.69
391.636	78.69
391.86	93.69
392.085	98.69
392.31	84.69
392.534	94.69
392.759	89.69
392.984	125.69
393.208	201.69
393.433	285.69
393.658	229.69
393.882	120.69
394.107	101.69
394.331	78.69
394.556	108.69
394.78	101.69
395.005	85.69
395.229	88.69
395.454	88.69
395.678	85.69
395.903	95.69
396.127	111.69
396.352	121.69
396.576	142.69
396.801	221.69
397.025	261.69
397.249	124.69
397.474	101.69
397.698	75.69
397.922	78.69
398.147	80.69
398.371	77.69
398.595	78.69
398.82	79.69
399.044	78.69
399.268	68.69
399.492	78.69
399.717	89.69
399.941	78.69
400.165	75.69
400.389	82.69
400.613	70.69
400.837	67.69
401.062	74.69
401.286	71.69
401.51	82.69
401.734	75.69
401.958	81.69
402.182	83.69
402.406	73.69
402.63	78.69
402.854	69.69
403.078	77.69
403.302	73.69
403.526	75.69
403.75	81.69
403.974	80.69
404.198	76.69
404.422	93.69
404.645	96.69
404.869	87.69
405.093	91.69
405.317	88.69
405.541	76.69
405.765	86.69
405.988	75.69
406.212	82.69
406.436	76.69
406.66	82.69
406.883	73.69
407.107	96.69
407.331	70.69
407.555	88.69
407.778	102.69
408.002	112.69
408.226	77.69
408.449	84.69
408.673	97.69
408.896	78.69
409.12	72.69
409.344	94.69
409.567	76.69
409.791	75.69
410.014	82.69
410.238	79.69
410.461	74.69
410.685	71.69
410.908	83.69
411.132	79.69
411.355	90.69
411.578	82.69
411.802	79.69
412.025	91.69
412.249	75.69
412.472	72.69
412.695	80.69
412.919	74.69
413.142	64.69
413.365	80.69
413.589	72.69
413.812	65.69
414.035	77.69
414.258	81.69
414.482	83.69
414.705	83.69
414.928	83.69
415.151	81.69
415.374	78.69
415.597	66.69
415.821	75.69
416.044	83.69
416.267	89.69
416.49	74.69
416.713	73.69
416.936	86.69
417.159	77.69
417.382	80.69
417.605	75.69
417.828	79.69
418.051	93.69
418.274	82.69
418.497	87.69
418.72	78.69
418.943	83.69
419.166	95.69
419.389	65.69
419.611	81.69
419.834	79.69
420.057	92.69
420.28	84.69
420.503	86.69
420.726	70.69
420.948	76.69
421.171	77.69
421.394	79.69
421.617	100.69
421.839	97.69
422.062	97.69
422.285	122.69
422.507	158.69
422.73	258.69
422.953	231.69
423.175	120.69
423.398	88.69
423.621	76.69
423.843	82.69
424.066	80.69
424.288	83.69
424.511	82.69
424.733	85.69
424.956	71.69
425.178	82.69
425.401	85.69
425.623	81.69
425.846	81.69
426.068	66.69
426.291	73.69
426.513	89.69
426.735	72.69
426.958	75.69
427.18	75.69
427.402	91.69
427.625	77.69
427.847	90.69
428.069	86.69
428.292	97.69
428.514	99.69
428.736	85.69
428.958	105.69
429.181	92.69
429.403	86.69
429.625	80.69
429.847	101.69
430.069	114.69
430.292	134.69
430.514	124.69
430.736	110.69
430.958	100.69
431.18	83.69
431.402	72.69
431.624	80.69
431.846	102.69
432.068	110.69
432.29	97.69
432.512	74.69
432.734	78.69
432.956	70.69
433.178	73.69
433.4	91.69
433.622	74.69
433.844	87.69
434.066	76.69
434.287	80.69
434.509	80.69
434.731	77.69
434.953	86.69
435.175	83.69
435.397	76.69
435.618	82.69
435.84	85.69
436.062	83.69
436.284	77.69
436.505	72.69
436.727	83.69
436.949	90.69
437.17	88.69
437.392	73.69
437.614	91.69
437.835	78.69
438.057	78.69
438.278	75.69
438.5	87.69
438.721	80.69
438.943	87.69
439.165	93.69
439.386	77.69
439.608	71.69
439.829	78.69
440.05	84.69
440.272	91.69
440.493	85.69
440.715	88.69
440.936	70.69
441.158	84.69
441.379	78.69
441.6	73.69
441.822	86.69
442.043	84.69
442.264	85.69
442.486	104.69
442.707	119.69
442.928	87.69
443.149	94.69
443.371	110.69
443.592	151.69
443.813	136.69
444.034	91.69
444.255	82.69
444.476	92.69
444.698	76.69
444.919	80.69
445.14	148.69
445.361	148.69
445.582	150.69
445.803	129.69
446.024	72.69
446.245	86.69
446.466	84.69
446.687	90.69
446.908	74.69
447.129	80.69
447.35	72.69
447.571	82.69
447.792	68.69
448.013	75.69
448.234	88.69
448.455	80.69
448.675	83.69
448.896	80.69
449.117	75.69
449.338	80.69
449.559	78.69
449.779	64.69
450	73.69
450.221	81.69
450.442	82.69
450.662	83.69
450.883	78.69
451.104	82.69
451.324	63.69
451.545	78.69
451.766	69.69
451.986	84.69
452.207	78.69
452.428	76.69
452.648	82.69
452.869	73.69
453.089	75.69
453.31	86.69
453.53	73.69
453.751	73.69
453.971	79.69
454.192	72.69
454.412	61.69
454.633	65.69
454.853	79.69
455.073	72.69
455.294	77.69
455.514	75.69
455.734	73.69
455.955	87.69
456.175	77.69
456.395	84.69
456.616	80.69
456.836	81.69
457.056	79.69
457.276	64.69
457.497	87.69
457.717	85.69
457.937	73.69
458.157	94.69
458.377	88.69
458.598	80.69
458.818	97.69
459.038	74.69
459.258	88.69
459.478	76.69
459.698	76.69
459.918	83.69
460.138	82.69
460.358	79.69
460.578	84.69
460.798	102.69
461.018	97.69
461.238	75.69
461.458	93.69
461.678	73.69
461.898	84.69
462.118	75.69
462.338	73.69
462.558	89.69
462.777	77.69
462.997	81.69
463.217	85.69
463.437	82.69
463.657	71.69
463.876	77.69
464.096	78.69
464.316	70.69
464.536	79.69
464.755	88.69
464.975	80.69
465.195	67.69
465.414	82.69
465.634	80.69
465.854	87.69
466.073	75.69
466.293	79.69
466.512	87.69
466.732	85.69
466.951	83.69
467.171	70.69
467.391	73.69
467.61	88.69
467.829	81.69
468.049	102.69
468.268	92.69
468.488	75.69
468.707	79.69
468.927	81.69
469.146	81.69
469.365	81.69
469.585	71.69
469.804	88.69
470.023	79.69
470.243	81.69
470.462	79.69
470.681	75.69
470.901	73.69
471.12	74.69
471.339	73.69
471.558	80.69
471.777	85.69
471.997	65.69
472.216	74.69
472.435	87.69
472.654	87.69
472.873	75.69
473.092	88.69
473.311	72.69
473.53	79.69
473.749	87.69
473.968	97.69
474.187	78.69
474.406	78.69
474.625	85.69
474.844	91.69
475.063	79.69
475.282	78.69
475.501	58.69
475.72	74.69
475.939	77.69
476.158	77.69
476.377	75.69
476.596	86.69
476.814	76.69
477.033	90.69
477.252	74.69
477.471	66.69
477.69	91.69
477.908	78.69
478.127	85.69
478.346	83.69
478.564	79.69
478.783	82.69
479.002	81.69
479.22	70.69
479.439	99.69
479.658	84.69
479.876	72.69
480.095	55.69
480.313	77.69
480.532	81.69
480.751	83.69
480.969	74.69
481.188	79.69
481.406	87.69
481.624	76.69
481.843	80.69
482.061	66.69
482.28	83.69
482.498	89.69
482.717	78.69
482.935	78.69
483.153	84.69
483.372	82.69
483.59	88.69
483.808	86.69
484.027	86.69
484.245	90.69
484.463	73.69
484.681	85.69
484.9	75.69
485.118	93.69
485.336	76.69
485.554	75.69
485.772	102.69
485.99	76.69
486.209	80.69
486.427	77.69
486.645	80.69
486.863	97.69
487.081	84.69
487.299	69.69
487.517	86.69
487.735	89.69
487.953	106.69
488.171	105.69
488.389	80.69
488.607	74.69
488.825	88.69
489.043	78.69
489.261	78.69
489.479	61.69
489.696	76.69
489.914	74.69
490.132	84.69
490.35	86.69
490.568	78.69
490.786	79.69
491.003	78.69
491.221	78.69
491.439	81.69
491.657	76.69
491.874	76.69
492.092	80.69
492.31	84.69
492.527	85.69
492.745	70.69
492.963	73.69
493.18	79.69
493.398	65.69
493.615	89.69
493.833	68.69
494.05	78.69
494.268	73.69
494.485	81.69
494.703	85.69
494.92	92.69
495.138	78.69
495.355	80.69
495.573	79.69
495.79	73.69
496.008	85.69
496.225	72.69
496.442	82.69
496.66	86.69
496.877	74.69
497.094	84.69
497.312	89.69
497.529	86.69
497.746	76.69
497.963	75.69
498.181	74.69
498.398	93.69
498.615	90.69
498.832	86.69
499.049	79.69
499.267	80.69
499.484	70.69
499.701	74.69
499.918	91.69
500.135	73.69
500.352	89.69
500.569	84.69
500.786	80.69
501.003	81.69
501.22	92.69
501.437	82.69
501.654	71.69
501.871	88.69
502.088	76.69
502.305	88.69
502.522	82.69
502.739	84.69
502.956	92.69
503.172	95.69
503.389	86.69
503.606	80.69
503.823	93.69
504.04	90.69
504.256	99.69
504.473	94.69
504.69	89.69
504.907	70.69
505.123	71.69
505.34	77.69
505.557	78.69
505.773	93.69
505.99	81.69
506.207	72.69
506.423	82.69
506.64	84.69
506.856	83.69
507.073	86.69
507.289	71.69
507.506	70.69
507.722	78.69
507.939	70.69
508.155	80.69
508.372	83.69
508.588	87.69
508.805	84.69
509.021	80.69
509.238	72.69
509.454	84.69
509.67	78.69
509.887	60.69
510.103	86.69
510.319	80.69
510.536	72.69
510.752	87.69
510.968	83.69
511.184	89.69
511.401	89.69
511.617	92.69
511.833	77.69
512.049	79.69
512.265	78.69
512.481	81.69
512.698	78.69
512.914	83.69
513.13	85.69
513.346	72.69
513.562	79.69
513.778	67.69
513.994	82.69
514.21	84.69
514.426	78.69
514.642	83.69
514.858	86.69
515.074	87.69
515.29	89.69
515.506	90.69
515.721	72.69
515.937	83.69
516.153	89.69
516.369	86.69
516.585	101.69
516.801	86.69
517.016	75.69
517.232	98.69
517.448	88.69
517.664	71.69
517.879	86.69
518.095	70.69
518.311	69.69
518.527	86.69
518.742	71.69
518.958	86.69
519.173	97.69
519.389	98.69
