Data from 17600_1_HRD10591_00007.txt Node
Date: Mon Jan 19 14:07:27 EST 2026
User: Yrep
Spectrometer: HR+D1059
Trigger mode: 1
Integration Time (sec): 1.000000E-1
Scans to average: 1
Electric dark correction enabled: true
Nonlinearity correction enabled: false
Boxcar width: 0
XAxis mode: Wavelengths
Number of Pixels in Spectrum: 2048
>>>>>Begin Spectral Data<<<<<
223.165	-9.5
223.4	-9.5
223.635	-9.5
223.869	-12.5
224.104	-26.5
224.338	-17.5
224.573	-17.5
224.808	-5.5
225.042	-9.5
225.277	2.5
225.511	-16.5
225.746	-3.5
225.98	-1.5
226.215	10.5
226.449	22.5
226.683	22.5
226.918	37.5
227.152	24.5
227.387	46.5
227.621	44.5
227.856	42.5
228.09	40.5
228.324	41.5
228.559	40.5
228.793	63.5
229.027	57.5
229.262	68.5
229.496	64.5
229.73	56.5
229.964	68.5
230.199	59.5
230.433	72.5
230.667	76.5
230.901	78.5
231.136	72.5
231.37	75.5
231.604	72.5
231.838	91.5
232.072	76.5
232.306	80.5
232.541	75.5
232.775	73.5
233.009	90.5
233.243	82.5
233.477	81.5
233.711	78.5
233.945	85.5
234.179	92.5
234.413	66.5
234.647	77.5
234.881	80.5
235.115	80.5
235.349	93.5
235.583	73.5
235.817	81.5
236.051	74.5
236.285	81.5
236.519	83.5
236.753	73.5
236.987	80.5
237.221	71.5
237.455	68.5
237.689	78.5
237.922	75.5
238.156	65.5
238.39	74.5
238.624	78.5
238.858	78.5
239.091	70.5
239.325	67.5
239.559	61.5
239.793	82.5
240.027	86.5
240.26	68.5
240.494	86.5
240.728	84.5
240.961	78.5
241.195	71.5
241.429	74.5
241.662	68.5
241.896	82.5
242.13	70.5
242.363	78.5
242.597	66.5
242.83	70.5
243.064	73.5
243.298	79.5
243.531	68.5
243.765	63.5
243.998	81.5
244.232	59.5
244.465	75.5
244.699	70.5
244.932	76.5
245.166	79.5
245.399	69.5
245.633	76.5
245.866	83.5
246.099	62.5
246.333	70.5
246.566	80.5
246.8	78.5
247.033	67.5
247.266	67.5
247.5	66.5
247.733	62.5
247.966	63.5
248.2	64.5
248.433	84.5
248.666	76.5
248.899	80.5
249.133	79.5
249.366	68.5
249.599	74.5
249.832	72.5
250.066	72.5
250.299	69.5
250.532	83.5
250.765	84.5
250.998	97.5
251.231	78.5
251.465	80.5
251.698	74.5
251.931	83.5
252.164	69.5
252.397	79.5
252.63	75.5
252.863	73.5
253.096	76.5
253.329	78.5
253.562	71.5
253.795	72.5
254.028	80.5
254.261	70.5
254.494	71.5
254.727	74.5
254.96	69.5
255.193	75.5
255.426	76.5
255.659	81.5
255.892	77.5
256.124	79.5
256.357	75.5
256.59	75.5
256.823	80.5
257.056	75.5
257.289	77.5
257.521	72.5
257.754	99.5
257.987	71.5
258.22	80.5
258.452	87.5
258.685	86.5
258.918	90.5
259.151	85.5
259.383	77.5
259.616	72.5
259.849	81.5
260.081	78.5
260.314	79.5
260.547	76.5
260.779	80.5
261.012	80.5
261.244	75.5
261.477	85.5
261.71	87.5
261.942	85.5
262.175	75.5
262.407	82.5
262.64	97.5
262.872	77.5
263.105	90.5
263.337	80.5
263.57	80.5
263.802	94.5
264.035	88.5
264.267	84.5
264.499	77.5
264.732	79.5
264.964	78.5
265.197	80.5
265.429	77.5
265.661	84.5
265.894	78.5
266.126	105.5
266.358	80.5
266.591	85.5
266.823	78.5
267.055	77.5
267.287	68.5
267.52	78.5
267.752	80.5
267.984	85.5
268.216	74.5
268.448	79.5
268.681	72.5
268.913	74.5
269.145	83.5
269.377	77.5
269.609	77.5
269.841	75.5
270.073	87.5
270.306	90.5
270.538	87.5
270.77	84.5
271.002	80.5
271.234	81.5
271.466	88.5
271.698	73.5
271.93	75.5
272.162	82.5
272.394	78.5
272.626	71.5
272.858	74.5
273.09	79.5
273.322	69.5
273.553	78.5
273.785	80.5
274.017	101.5
274.249	80.5
274.481	77.5
274.713	69.5
274.945	75.5
275.176	74.5
275.408	74.5
275.64	77.5
275.872	75.5
276.104	86.5
276.335	89.5
276.567	76.5
276.799	86.5
277.031	81.5
277.262	83.5
277.494	96.5
277.726	83.5
277.957	86.5
278.189	85.5
278.421	89.5
278.652	83.5
278.884	90.5
279.115	87.5
279.347	84.5
279.579	82.5
279.81	84.5
280.042	91.5
280.273	80.5
280.505	74.5
280.736	94.5
280.968	74.5
281.199	88.5
281.431	90.5
281.662	85.5
281.894	85.5
282.125	91.5
282.356	78.5
282.588	84.5
282.819	88.5
283.051	83.5
283.282	86.5
283.513	80.5
283.745	68.5
283.976	78.5
284.207	94.5
284.439	77.5
284.67	96.5
284.901	68.5
285.132	83.5
285.364	89.5
285.595	77.5
285.826	85.5
286.057	76.5
286.288	66.5
286.52	84.5
286.751	70.5
286.982	82.5
287.213	77.5
287.444	87.5
287.675	84.5
287.906	72.5
288.138	81.5
288.369	81.5
288.6	72.5
288.831	66.5
289.062	88.5
289.293	76.5
289.524	85.5
289.755	73.5
289.986	86.5
290.217	72.5
290.448	84.5
290.679	76.5
290.91	90.5
291.141	85.5
291.371	97.5
291.602	75.5
291.833	75.5
292.064	75.5
292.295	86.5
292.526	77.5
292.757	80.5
292.987	102.5
293.218	73.5
293.449	79.5
293.68	96.5
293.91	99.5
294.141	102.5
294.372	82.5
294.603	81.5
294.833	74.5
295.064	78.5
295.295	87.5
295.525	78.5
295.756	82.5
295.987	77.5
296.217	71.5
296.448	83.5
296.679	85.5
296.909	94.5
297.14	78.5
297.37	85.5
297.601	72.5
297.831	71.5
298.062	79.5
298.292	89.5
298.523	67.5
298.753	94.5
298.984	83.5
299.214	74.5
299.445	87.5
299.675	86.5
299.905	93.5
300.136	94.5
300.366	97.5
300.597	94.5
300.827	66.5
301.057	92.5
301.288	81.5
301.518	68.5
301.748	91.5
301.979	102.5
302.209	100.5
302.439	85.5
302.669	81.5
302.9	84.5
303.13	88.5
303.36	84.5
303.59	100.5
303.82	97.5
304.051	84.5
304.281	75.5
304.511	92.5
304.741	87.5
304.971	95.5
305.201	87.5
305.431	79.5
305.661	96.5
305.891	76.5
306.121	87.5
306.352	78.5
306.582	81.5
306.812	77.5
307.042	89.5
307.272	88.5
307.502	88.5
307.731	76.5
307.961	89.5
308.191	100.5
308.421	88.5
308.651	89.5
308.881	86.5
309.111	90.5
309.341	80.5
309.571	111.5
309.8	88.5
310.03	69.5
310.26	90.5
310.49	87.5
310.72	80.5
310.949	75.5
311.179	70.5
311.409	89.5
311.639	74.5
311.868	74.5
312.098	73.5
312.328	69.5
312.557	86.5
312.787	80.5
313.017	95.5
313.246	71.5
313.476	72.5
313.706	72.5
313.935	74.5
314.165	97.5
314.394	86.5
314.624	82.5
314.853	93.5
315.083	95.5
315.312	83.5
315.542	82.5
315.771	80.5
316.001	87.5
316.23	77.5
316.46	75.5
316.689	72.5
316.919	81.5
317.148	90.5
317.377	89.5
317.607	101.5
317.836	92.5
318.065	87.5
318.295	96.5
318.524	90.5
318.753	84.5
318.983	97.5
319.212	75.5
319.441	82.5
319.67	84.5
319.9	83.5
320.129	80.5
320.358	88.5
320.587	90.5
320.816	76.5
321.046	84.5
321.275	84.5
321.504	75.5
321.733	78.5
321.962	92.5
322.191	88.5
322.42	98.5
322.649	90.5
322.878	91.5
323.108	94.5
323.337	94.5
323.566	69.5
323.795	70.5
324.024	97.5
324.253	77.5
324.482	82.5
324.71	89.5
324.939	85.5
325.168	72.5
325.397	86.5
325.626	92.5
325.855	83.5
326.084	80.5
326.313	87.5
326.542	73.5
326.77	74.5
326.999	74.5
327.228	89.5
327.457	70.5
327.686	81.5
327.914	74.5
328.143	81.5
328.372	81.5
328.6	88.5
328.829	74.5
329.058	90.5
329.287	92.5
329.515	85.5
329.744	86.5
329.972	77.5
330.201	84.5
330.43	88.5
330.658	77.5
330.887	76.5
331.115	81.5
331.344	82.5
331.572	75.5
331.801	81.5
332.03	81.5
332.258	86.5
332.486	81.5
332.715	86.5
332.943	76.5
333.172	71.5
333.4	76.5
333.629	87.5
333.857	103.5
334.085	87.5
334.314	89.5
334.542	105.5
334.771	85.5
334.999	89.5
335.227	82.5
335.455	72.5
335.684	78.5
335.912	90.5
336.14	84.5
336.369	88.5
336.597	95.5
336.825	75.5
337.053	72.5
337.281	86.5
337.51	78.5
337.738	92.5
337.966	82.5
338.194	100.5
338.422	93.5
338.65	88.5
338.878	82.5
339.106	77.5
339.334	79.5
339.562	88.5
339.79	79.5
340.018	86.5
340.246	71.5
340.474	73.5
340.702	81.5
340.93	84.5
341.158	79.5
341.386	82.5
341.614	80.5
341.842	75.5
342.07	79.5
342.298	64.5
342.526	90.5
342.754	83.5
342.981	82.5
343.209	81.5
343.437	82.5
343.665	84.5
343.893	72.5
344.12	83.5
344.348	94.5
344.576	77.5
344.804	81.5
345.031	83.5
345.259	90.5
345.487	68.5
345.714	82.5
345.942	80.5
346.17	86.5
346.397	72.5
346.625	80.5
346.853	86.5
347.08	72.5
347.308	92.5
347.535	96.5
347.763	72.5
347.99	82.5
348.218	78.5
348.445	70.5
348.673	70.5
348.9	91.5
349.128	82.5
349.355	94.5
349.583	74.5
349.81	81.5
350.037	84.5
350.265	86.5
350.492	84.5
350.72	88.5
350.947	69.5
351.174	86.5
351.402	80.5
351.629	81.5
351.856	70.5
352.083	78.5
352.311	92.5
352.538	81.5
352.765	75.5
352.992	89.5
353.22	91.5
353.447	84.5
353.674	86.5
353.901	71.5
354.128	78.5
354.355	71.5
354.583	80.5
354.81	70.5
355.037	77.5
355.264	82.5
355.491	92.5
355.718	80.5
355.945	80.5
356.172	81.5
356.399	78.5
356.626	92.5
356.853	83.5
357.08	93.5
357.307	88.5
357.534	78.5
357.761	100.5
357.988	96.5
358.215	96.5
358.441	109.5
358.668	84.5
358.895	72.5
359.122	75.5
359.349	86.5
359.576	72.5
359.802	90.5
360.029	85.5
360.256	77.5
360.483	90.5
360.709	92.5
360.936	93.5
361.163	83.5
361.39	84.5
361.616	83.5
361.843	76.5
362.07	101.5
362.296	96.5
362.523	103.5
362.749	100.5
362.976	96.5
363.203	109.5
363.429	92.5
363.656	86.5
363.882	84.5
364.109	101.5
364.335	117.5
364.562	103.5
364.788	92.5
365.015	87.5
365.241	80.5
365.468	74.5
365.694	68.5
365.92	94.5
366.147	87.5
366.373	83.5
366.599	74.5
366.826	86.5
367.052	87.5
367.278	81.5
367.505	87.5
367.731	101.5
367.957	79.5
368.184	89.5
368.41	72.5
368.636	88.5
368.862	80.5
369.089	71.5
369.315	76.5
369.541	86.5
369.767	86.5
369.993	94.5
370.219	90.5
370.445	87.5
370.672	102.5
370.898	91.5
371.124	92.5
371.35	85.5
371.576	88.5
371.802	77.5
372.028	91.5
372.254	89.5
372.48	88.5
372.706	84.5
372.932	87.5
373.158	98.5
373.384	102.5
373.61	111.5
373.835	102.5
374.061	79.5
374.287	88.5
374.513	98.5
374.739	96.5
374.965	99.5
375.191	89.5
375.416	90.5
375.642	84.5
375.868	82.5
376.094	89.5
376.319	87.5
376.545	93.5
376.771	92.5
376.997	88.5
377.222	81.5
377.448	74.5
377.674	68.5
377.899	65.5
378.125	82.5
378.35	75.5
378.576	84.5
378.802	94.5
379.027	82.5
379.253	91.5
379.478	78.5
379.704	77.5
379.929	91.5
380.155	95.5
380.38	78.5
380.606	81.5
380.831	86.5
381.057	98.5
381.282	98.5
381.507	85.5
381.733	89.5
381.958	104.5
382.184	97.5
382.409	84.5
382.634	110.5
382.86	96.5
383.085	96.5
383.31	101.5
383.535	110.5
383.761	96.5
383.986	101.5
384.211	94.5
384.436	92.5
384.662	96.5
384.887	97.5
385.112	97.5
385.337	88.5
385.562	83.5
385.787	78.5
386.013	84.5
386.238	81.5
386.463	81.5
386.688	103.5
386.913	79.5
387.138	92.5
387.363	92.5
387.588	115.5
387.813	80.5
388.038	99.5
388.263	102.5
388.488	111.5
388.713	106.5
388.938	92.5
389.163	80.5
389.387	81.5
389.612	80.5
389.837	86.5
390.062	89.5
390.287	96.5
390.512	80.5
390.736	70.5
390.961	77.5
391.186	89.5
391.411	91.5
391.636	77.5
391.86	66.5
392.085	94.5
392.31	89.5
392.534	109.5
392.759	121.5
392.984	162.5
393.208	259.5
393.433	350.5
393.658	276.5
393.882	135.5
394.107	107.5
394.331	114.5
394.556	108.5
394.78	103.5
395.005	96.5
395.229	92.5
395.454	86.5
395.678	93.5
395.903	105.5
396.127	131.5
396.352	136.5
396.576	173.5
396.801	216.5
397.025	262.5
397.249	161.5
397.474	117.5
397.698	93.5
397.922	90.5
398.147	82.5
398.371	98.5
398.595	84.5
398.82	86.5
399.044	87.5
399.268	82.5
399.492	87.5
399.717	85.5
399.941	80.5
400.165	66.5
400.389	70.5
400.613	81.5
400.837	84.5
401.062	90.5
401.286	86.5
401.51	77.5
401.734	85.5
401.958	82.5
402.182	75.5
402.406	74.5
402.63	84.5
402.854	62.5
403.078	75.5
403.302	94.5
403.526	74.5
403.75	72.5
403.974	73.5
404.198	83.5
404.422	95.5
404.645	90.5
404.869	84.5
405.093	84.5
405.317	92.5
405.541	82.5
405.765	68.5
405.988	96.5
406.212	85.5
406.436	73.5
406.66	91.5
406.883	98.5
407.107	86.5
407.331	87.5
407.555	94.5
407.778	109.5
408.002	113.5
408.226	103.5
408.449	71.5
408.673	92.5
408.896	102.5
409.12	86.5
409.344	74.5
409.567	88.5
409.791	72.5
410.014	97.5
410.238	86.5
410.461	82.5
410.685	75.5
410.908	78.5
411.132	86.5
411.355	83.5
411.578	81.5
411.802	83.5
412.025	74.5
412.249	78.5
412.472	66.5
412.695	81.5
412.919	76.5
413.142	90.5
413.365	99.5
413.589	82.5
413.812	74.5
414.035	85.5
414.258	90.5
414.482	117.5
414.705	69.5
414.928	90.5
415.151	77.5
415.374	73.5
415.597	74.5
415.821	80.5
416.044	101.5
416.267	81.5
416.49	95.5
416.713	94.5
416.936	69.5
417.159	79.5
417.382	82.5
417.605	89.5
417.828	79.5
418.051	86.5
418.274	85.5
418.497	93.5
418.72	80.5
418.943	84.5
419.166	97.5
419.389	101.5
419.611	100.5
419.834	90.5
420.057	87.5
420.28	86.5
420.503	87.5
420.726	89.5
420.948	79.5
421.171	97.5
421.394	104.5
421.617	133.5
421.839	121.5
422.062	120.5
422.285	166.5
422.507	232.5
422.73	370.5
422.953	316.5
423.175	172.5
423.398	132.5
423.621	88.5
423.843	91.5
424.066	103.5
424.288	92.5
424.511	78.5
424.733	95.5
424.956	86.5
425.178	88.5
425.401	81.5
425.623	98.5
425.846	71.5
426.068	83.5
426.291	76.5
426.513	75.5
426.735	78.5
426.958	82.5
427.18	93.5
427.402	90.5
427.625	88.5
427.847	81.5
428.069	103.5
428.292	115.5
428.514	122.5
428.736	102.5
428.958	122.5
429.181	128.5
429.403	102.5
429.625	86.5
429.847	124.5
430.069	152.5
430.292	150.5
430.514	169.5
430.736	126.5
430.958	140.5
431.18	97.5
431.402	86.5
431.624	92.5
431.846	110.5
432.068	136.5
432.29	98.5
432.512	98.5
432.734	91.5
432.956	89.5
433.178	89.5
433.4	97.5
433.622	88.5
433.844	87.5
434.066	95.5
434.287	89.5
434.509	86.5
434.731	78.5
434.953	81.5
435.175	79.5
435.397	78.5
435.618	88.5
435.84	93.5
436.062	96.5
436.284	83.5
436.505	76.5
436.727	94.5
436.949	94.5
437.17	79.5
437.392	87.5
437.614	92.5
437.835	73.5
438.057	93.5
438.278	89.5
438.5	81.5
438.721	82.5
438.943	63.5
439.165	78.5
439.386	95.5
439.608	91.5
439.829	83.5
440.05	86.5
440.272	77.5
440.493	87.5
440.715	94.5
440.936	65.5
441.158	82.5
441.379	91.5
441.6	83.5
441.822	80.5
442.043	94.5
442.264	88.5
442.486	122.5
442.707	133.5
442.928	108.5
443.149	106.5
443.371	134.5
443.592	195.5
443.813	170.5
444.034	92.5
444.255	98.5
444.476	93.5
444.698	70.5
444.919	94.5
445.14	152.5
445.361	172.5
445.582	254.5
445.803	212.5
446.024	116.5
446.245	98.5
446.466	87.5
446.687	91.5
446.908	92.5
447.129	88.5
447.35	81.5
447.571	91.5
447.792	60.5
448.013	81.5
448.234	90.5
448.455	79.5
448.675	85.5
448.896	78.5
449.117	86.5
449.338	98.5
449.559	82.5
449.779	73.5
450	85.5
450.221	81.5
450.442	85.5
450.662	78.5
450.883	81.5
451.104	84.5
451.324	92.5
451.545	89.5
451.766	62.5
451.986	102.5
452.207	88.5
452.428	95.5
452.648	96.5
452.869	102.5
453.089	83.5
453.31	72.5
453.53	74.5
453.751	86.5
453.971	89.5
454.192	77.5
454.412	88.5
454.633	78.5
454.853	76.5
455.073	75.5
455.294	84.5
455.514	98.5
455.734	78.5
455.955	83.5
456.175	80.5
456.395	74.5
456.616	85.5
456.836	97.5
457.056	89.5
457.276	72.5
457.497	76.5
457.717	102.5
457.937	103.5
458.157	109.5
458.377	113.5
458.598	114.5
458.818	110.5
459.038	106.5
459.258	93.5
459.478	81.5
459.698	86.5
459.918	88.5
460.138	89.5
460.358	86.5
460.578	89.5
460.798	97.5
461.018	119.5
461.238	104.5
461.458	84.5
461.678	78.5
461.898	77.5
462.118	78.5
462.338	84.5
462.558	96.5
462.777	92.5
462.997	80.5
463.217	80.5
463.437	83.5
463.657	69.5
463.876	71.5
464.096	82.5
464.316	86.5
464.536	88.5
464.755	84.5
464.975	77.5
465.195	92.5
465.414	73.5
465.634	76.5
465.854	78.5
466.073	78.5
466.293	77.5
466.512	72.5
466.732	87.5
466.951	72.5
467.171	73.5
467.391	85.5
467.61	86.5
467.829	87.5
468.049	82.5
468.268	75.5
468.488	80.5
468.707	85.5
468.927	85.5
469.146	91.5
469.365	85.5
469.585	90.5
469.804	92.5
470.023	82.5
470.243	81.5
470.462	97.5
470.681	80.5
470.901	92.5
471.12	73.5
471.339	96.5
471.558	77.5
471.777	80.5
471.997	74.5
472.216	78.5
472.435	91.5
472.654	83.5
472.873	73.5
473.092	73.5
473.311	74.5
473.53	77.5
473.749	82.5
473.968	71.5
474.187	84.5
474.406	94.5
474.625	78.5
474.844	88.5
475.063	81.5
475.282	83.5
475.501	58.5
475.72	80.5
475.939	80.5
476.158	74.5
476.377	96.5
476.596	74.5
476.814	88.5
477.033	76.5
477.252	79.5
477.471	75.5
477.69	82.5
477.908	81.5
478.127	96.5
478.346	74.5
478.564	90.5
478.783	80.5
479.002	79.5
479.22	82.5
479.439	88.5
479.658	86.5
479.876	82.5
480.095	94.5
480.313	98.5
480.532	77.5
480.751	80.5
480.969	79.5
481.188	78.5
481.406	93.5
481.624	87.5
481.843	80.5
482.061	85.5
482.28	78.5
482.498	86.5
482.717	81.5
482.935	81.5
483.153	89.5
483.372	90.5
483.59	92.5
483.808	80.5
484.027	86.5
484.245	78.5
484.463	85.5
484.681	94.5
484.9	80.5
485.118	90.5
485.336	93.5
485.554	83.5
485.772	73.5
485.99	84.5
486.209	87.5
486.427	86.5
486.645	73.5
486.863	91.5
487.081	75.5
487.299	97.5
487.517	89.5
487.735	108.5
487.953	158.5
488.171	118.5
488.389	104.5
488.607	90.5
488.825	85.5
489.043	86.5
489.261	91.5
489.479	94.5
489.696	93.5
489.914	93.5
490.132	84.5
490.35	89.5
490.568	86.5
490.786	84.5
491.003	81.5
491.221	76.5
491.439	80.5
491.657	75.5
491.874	78.5
492.092	88.5
492.31	75.5
492.527	75.5
492.745	88.5
492.963	94.5
493.18	96.5
493.398	88.5
493.615	98.5
493.833	97.5
494.05	82.5
494.268	86.5
494.485	88.5
494.703	92.5
494.92	110.5
495.138	75.5
495.355	89.5
495.573	84.5
495.79	101.5
496.008	94.5
496.225	88.5
496.442	93.5
496.66	82.5
496.877	93.5
497.094	84.5
497.312	96.5
497.529	103.5
497.746	95.5
497.963	85.5
498.181	97.5
498.398	88.5
498.615	84.5
498.832	87.5
499.049	87.5
499.267	95.5
499.484	88.5
499.701	83.5
499.918	98.5
500.135	98.5
500.352	85.5
500.569	83.5
500.786	84.5
501.003	89.5
501.22	92.5
501.437	96.5
501.654	94.5
501.871	86.5
502.088	91.5
502.305	80.5
502.522	92.5
502.739	91.5
502.956	87.5
503.172	84.5
503.389	98.5
503.606	86.5
503.823	94.5
504.04	108.5
504.256	130.5
504.473	126.5
504.69	95.5
504.907	102.5
505.123	80.5
505.34	96.5
505.557	105.5
505.773	83.5
505.99	89.5
506.207	101.5
506.423	72.5
506.64	101.5
506.856	93.5
507.073	82.5
507.289	75.5
507.506	90.5
507.722	82.5
507.939	95.5
508.155	83.5
508.372	70.5
508.588	82.5
508.805	73.5
509.021	86.5
509.238	74.5
509.454	84.5
509.67	74.5
509.887	68.5
510.103	102.5
510.319	87.5
510.536	86.5
510.752	98.5
510.968	72.5
511.184	102.5
511.401	82.5
511.617	96.5
511.833	92.5
512.049	80.5
512.265	92.5
512.481	79.5
512.698	87.5
512.914	97.5
513.13	77.5
513.346	79.5
513.562	76.5
513.778	84.5
513.994	94.5
514.21	77.5
514.426	89.5
514.642	89.5
514.858	82.5
515.074	79.5
515.29	75.5
515.506	85.5
515.721	81.5
515.937	82.5
516.153	94.5
516.369	90.5
516.585	86.5
516.801	94.5
517.016	93.5
517.232	84.5
517.448	88.5
517.664	86.5
517.879	74.5
518.095	77.5
518.311	69.5
518.527	92.5
518.742	100.5
518.958	136.5
519.173	142.5
519.389	105.5
519.605	82.5
519.82	78.5
520.036	80.5
520.251	78.5
520.467	80.5
520.682	76.5
520.898	90.5
521.113	81.5
521.329	96.5
521.544	91.5
521.76	81.5
521.975	101.5
522.19	78.5
522.406	80.5
522.621	81.5
522.836	85.5
523.052	93.5
523.267	88.5
523.482	84.5
523.698	88.5
523.913	86.5
524.128	95.5
524.343	76.5
524.559	85.5
524.774	102.5
524.989	91.5
525.204	90.5
525.419	88.5
525.634	96.5
525.849	98.5
526.064	109.5
526.28	194.5
526.495	265.5
526.71	297.5
526.925	195.5
527.14	256.5
527.355	226.5
527.57	95.5
527.785	94.5
527.999	84.5
528.214	87.5
528.429	89.5
528.644	94.5
528.859	82.5
529.074	101.5
529.289	92.5
529.503	86.5
529.718	96.5
529.933	86.5
530.148	88.5
530.363	105.5
530.577	92.5
530.792	91.5
531.007	78.5
531.221	98.5
531.436	78.5
531.651	93.5
531.865	84.5
532.08	79.5
532.295	83.5
532.509	90.5
532.724	106.5
532.938	109.5
533.153	83.5
533.367	87.5
533.582	102.5
533.796	97.5
534.011	84.5
534.225	84.5
534.44	88.5
534.654	94.5
534.868	98.5
535.083	158.5
535.297	120.5
535.511	100.5
535.726	103.5
535.94	99.5
536.154	96.5
536.369	90.5
536.583	96.5
536.797	84.5
537.011	102.5
537.225	89.5
537.44	110.5
537.654	84.5
537.868	90.5
538.082	88.5
538.296	87.5
