Data from 17600_1_HRD10591_00043.txt Node
Date: Mon Jan 19 14:07:45 EST 2026
User: Yrep
Spectrometer: HR+D1059
Trigger mode: 1
Integration Time (sec): 1.000000E-1
Scans to average: 1
Electric dark correction enabled: true
Nonlinearity correction enabled: false
Boxcar width: 0
XAxis mode: Wavelengths
Number of Pixels in Spectrum: 2048
>>>>>Begin Spectral Data<<<<<
223.165	-12.88
223.4	-12.88
223.635	-12.88
223.869	-32.88
224.104	-17.88
224.338	-11.88
224.573	-12.88
224.808	-17.88
225.042	-2.88
225.277	-1.88
225.511	6.12
225.746	8.12
225.98	11.12
226.215	13.12
226.449	13.12
226.683	24.12
226.918	22.12
227.152	13.12
227.387	28.12
227.621	37.12
227.856	62.12
228.09	52.12
228.324	36.12
228.559	47.12
228.793	55.12
229.027	56.12
229.262	57.12
229.496	61.12
229.73	69.12
229.964	79.12
230.199	58.12
230.433	72.12
230.667	58.12
230.901	70.12
231.136	77.12
231.37	82.12
231.604	77.12
231.838	67.12
232.072	65.12
232.306	77.12
232.541	81.12
232.775	80.12
233.009	84.12
233.243	82.12
233.477	73.12
233.711	80.12
233.945	70.12
234.179	81.12
234.413	89.12
234.647	73.12
234.881	75.12
235.115	73.12
235.349	78.12
235.583	71.12
235.817	77.12
236.051	70.12
236.285	79.12
236.519	70.12
236.753	70.12
236.987	80.12
237.221	94.12
237.455	84.12
237.689	78.12
237.922	85.12
238.156	65.12
238.39	62.12
238.624	70.12
238.858	80.12
239.091	68.12
239.325	70.12
239.559	80.12
239.793	63.12
240.027	67.12
240.26	53.12
240.494	66.12
240.728	67.12
240.961	79.12
241.195	75.12
241.429	75.12
241.662	70.12
241.896	70.12
242.13	69.12
242.363	73.12
242.597	69.12
242.83	79.12
243.064	74.12
243.298	63.12
243.531	82.12
243.765	70.12
243.998	65.12
244.232	77.12
244.465	63.12
244.699	74.12
244.932	77.12
245.166	87.12
245.399	82.12
245.633	76.12
245.866	79.12
246.099	68.12
246.333	71.12
246.566	72.12
246.8	67.12
247.033	79.12
247.266	70.12
247.5	72.12
247.733	64.12
247.966	72.12
248.2	67.12
248.433	72.12
248.666	75.12
248.899	78.12
249.133	80.12
249.366	71.12
249.599	73.12
249.832	72.12
250.066	72.12
250.299	74.12
250.532	67.12
250.765	62.12
250.998	71.12
251.231	71.12
251.465	70.12
251.698	81.12
251.931	71.12
252.164	68.12
252.397	78.12
252.63	66.12
252.863	71.12
253.096	72.12
253.329	70.12
253.562	79.12
253.795	77.12
254.028	83.12
254.261	64.12
254.494	67.12
254.727	78.12
254.96	81.12
255.193	76.12
255.426	87.12
255.659	69.12
255.892	86.12
256.124	72.12
256.357	75.12
256.59	74.12
256.823	73.12
257.056	83.12
257.289	68.12
257.521	88.12
257.754	69.12
257.987	69.12
258.22	76.12
258.452	58.12
258.685	73.12
258.918	77.12
259.151	72.12
259.383	85.12
259.616	70.12
259.849	71.12
260.081	81.12
260.314	83.12
260.547	57.12
260.779	79.12
261.012	84.12
261.244	68.12
261.477	67.12
261.71	76.12
261.942	75.12
262.175	77.12
262.407	87.12
262.64	86.12
262.872	76.12
263.105	81.12
263.337	73.12
263.57	73.12
263.802	72.12
264.035	83.12
264.267	93.12
264.499	80.12
264.732	83.12
264.964	82.12
265.197	84.12
265.429	76.12
265.661	87.12
265.894	92.12
266.126	78.12
266.358	87.12
266.591	88.12
266.823	83.12
267.055	86.12
267.287	73.12
267.52	68.12
267.752	77.12
267.984	75.12
268.216	83.12
268.448	90.12
268.681	77.12
268.913	84.12
269.145	81.12
269.377	80.12
269.609	86.12
269.841	87.12
270.073	78.12
270.306	69.12
270.538	82.12
270.77	78.12
271.002	71.12
271.234	73.12
271.466	76.12
271.698	74.12
271.93	68.12
272.162	74.12
272.394	79.12
272.626	98.12
272.858	82.12
273.09	87.12
273.322	75.12
273.553	70.12
273.785	74.12
274.017	84.12
274.249	74.12
274.481	76.12
274.713	75.12
274.945	71.12
275.176	76.12
275.408	84.12
275.64	77.12
275.872	82.12
276.104	79.12
276.335	64.12
276.567	86.12
276.799	82.12
277.031	76.12
277.262	84.12
277.494	78.12
277.726	86.12
277.957	89.12
278.189	88.12
278.421	56.12
278.652	76.12
278.884	88.12
279.115	84.12
279.347	82.12
279.579	86.12
279.81	81.12
280.042	73.12
280.273	70.12
280.505	78.12
280.736	82.12
280.968	75.12
281.199	80.12
281.431	68.12
281.662	72.12
281.894	73.12
282.125	90.12
282.356	73.12
282.588	78.12
282.819	82.12
283.051	89.12
283.282	75.12
283.513	87.12
283.745	68.12
283.976	71.12
284.207	71.12
284.439	79.12
284.67	85.12
284.901	85.12
285.132	95.12
285.364	70.12
285.595	82.12
285.826	82.12
286.057	98.12
286.288	84.12
286.52	68.12
286.751	77.12
286.982	77.12
287.213	62.12
287.444	74.12
287.675	82.12
287.906	97.12
288.138	70.12
288.369	84.12
288.6	81.12
288.831	67.12
289.062	80.12
289.293	88.12
289.524	85.12
289.755	91.12
289.986	84.12
290.217	91.12
290.448	66.12
290.679	82.12
290.91	90.12
291.141	77.12
291.371	90.12
291.602	94.12
291.833	87.12
292.064	87.12
292.295	65.12
292.526	87.12
292.757	68.12
292.987	81.12
293.218	84.12
293.449	78.12
293.68	81.12
293.91	78.12
294.141	84.12
294.372	85.12
294.603	66.12
294.833	69.12
295.064	94.12
295.295	70.12
295.525	88.12
295.756	85.12
295.987	92.12
296.217	82.12
296.448	90.12
296.679	91.12
296.909	67.12
297.14	66.12
297.37	77.12
297.601	82.12
297.831	92.12
298.062	73.12
298.292	72.12
298.523	85.12
298.753	84.12
298.984	78.12
299.214	66.12
299.445	76.12
299.675	78.12
299.905	82.12
300.136	75.12
300.366	74.12
300.597	83.12
300.827	75.12
301.057	75.12
301.288	82.12
301.518	65.12
301.748	78.12
301.979	95.12
302.209	68.12
302.439	77.12
302.669	78.12
302.9	77.12
303.13	70.12
303.36	63.12
303.59	81.12
303.82	80.12
304.051	87.12
304.281	85.12
304.511	91.12
304.741	87.12
304.971	76.12
305.201	86.12
305.431	86.12
305.661	78.12
305.891	73.12
306.121	82.12
306.352	89.12
306.582	83.12
306.812	71.12
307.042	67.12
307.272	76.12
307.502	80.12
307.731	77.12
307.961	84.12
308.191	83.12
308.421	82.12
308.651	82.12
308.881	64.12
309.111	81.12
309.341	88.12
309.571	78.12
309.8	60.12
310.03	68.12
310.26	82.12
310.49	86.12
310.72	84.12
310.949	76.12
311.179	90.12
311.409	78.12
311.639	90.12
311.868	96.12
312.098	93.12
312.328	73.12
312.557	93.12
312.787	84.12
313.017	76.12
313.246	81.12
313.476	80.12
313.706	76.12
313.935	76.12
314.165	91.12
314.394	93.12
314.624	66.12
314.853	80.12
315.083	89.12
315.312	81.12
315.542	86.12
315.771	80.12
316.001	90.12
316.23	85.12
316.46	90.12
316.689	77.12
316.919	78.12
317.148	88.12
317.377	82.12
317.607	74.12
317.836	79.12
318.065	94.12
318.295	80.12
318.524	80.12
318.753	83.12
318.983	94.12
319.212	81.12
319.441	82.12
319.67	84.12
319.9	75.12
320.129	80.12
320.358	78.12
320.587	68.12
320.816	79.12
321.046	72.12
321.275	82.12
321.504	76.12
321.733	83.12
321.962	81.12
322.191	86.12
322.42	78.12
322.649	94.12
322.878	77.12
323.108	74.12
323.337	77.12
323.566	95.12
323.795	75.12
324.024	85.12
324.253	111.12
324.482	92.12
324.71	86.12
324.939	90.12
325.168	73.12
325.397	74.12
325.626	99.12
325.855	82.12
326.084	76.12
326.313	75.12
326.542	77.12
326.77	79.12
326.999	79.12
327.228	72.12
327.457	74.12
327.686	75.12
327.914	74.12
328.143	79.12
328.372	81.12
328.6	90.12
328.829	89.12
329.058	90.12
329.287	86.12
329.515	85.12
329.744	75.12
329.972	84.12
330.201	72.12
330.43	93.12
330.658	70.12
330.887	88.12
331.115	88.12
331.344	83.12
331.572	69.12
331.801	82.12
332.03	85.12
332.258	78.12
332.486	75.12
332.715	88.12
332.943	83.12
333.172	95.12
333.4	86.12
333.629	77.12
333.857	82.12
334.085	78.12
334.314	70.12
334.542	68.12
334.771	71.12
334.999	88.12
335.227	58.12
335.455	82.12
335.684	87.12
335.912	91.12
336.14	91.12
336.369	88.12
336.597	91.12
336.825	77.12
337.053	83.12
337.281	82.12
337.51	74.12
337.738	83.12
337.966	59.12
338.194	73.12
338.422	75.12
338.65	90.12
338.878	74.12
339.106	67.12
339.334	80.12
339.562	70.12
339.79	82.12
340.018	85.12
340.246	75.12
340.474	76.12
340.702	81.12
340.93	80.12
341.158	84.12
341.386	86.12
341.614	67.12
341.842	91.12
342.07	80.12
342.298	71.12
342.526	74.12
342.754	76.12
342.981	75.12
343.209	79.12
343.437	90.12
343.665	68.12
343.893	81.12
344.12	82.12
344.348	86.12
344.576	90.12
344.804	88.12
345.031	69.12
345.259	85.12
345.487	72.12
345.714	96.12
345.942	82.12
346.17	88.12
346.397	81.12
346.625	82.12
346.853	70.12
347.08	78.12
347.308	84.12
347.535	90.12
347.763	83.12
347.99	75.12
348.218	76.12
348.445	83.12
348.673	84.12
348.9	86.12
349.128	83.12
349.355	95.12
349.583	78.12
349.81	84.12
350.037	78.12
350.265	77.12
350.492	70.12
350.72	93.12
350.947	85.12
351.174	78.12
351.402	75.12
351.629	98.12
351.856	79.12
352.083	79.12
352.311	82.12
352.538	78.12
352.765	80.12
352.992	79.12
353.22	87.12
353.447	87.12
353.674	78.12
353.901	82.12
354.128	80.12
354.355	83.12
354.583	82.12
354.81	70.12
355.037	78.12
355.264	74.12
355.491	81.12
355.718	70.12
355.945	78.12
356.172	72.12
356.399	81.12
356.626	74.12
356.853	85.12
357.08	92.12
357.307	83.12
357.534	74.12
357.761	67.12
357.988	86.12
358.215	80.12
358.441	81.12
358.668	84.12
358.895	78.12
359.122	71.12
359.349	74.12
359.576	78.12
359.802	73.12
360.029	82.12
360.256	80.12
360.483	80.12
360.709	90.12
360.936	94.12
361.163	85.12
361.39	75.12
361.616	80.12
361.843	71.12
362.07	75.12
362.296	80.12
362.523	79.12
362.749	69.12
362.976	86.12
363.203	76.12
363.429	80.12
363.656	92.12
363.882	80.12
364.109	65.12
364.335	82.12
364.562	86.12
364.788	74.12
365.015	86.12
365.241	82.12
365.468	80.12
365.694	82.12
365.92	64.12
366.147	83.12
366.373	79.12
366.599	75.12
366.826	80.12
367.052	75.12
367.278	85.12
367.505	82.12
367.731	82.12
367.957	79.12
368.184	86.12
368.41	70.12
368.636	65.12
368.862	69.12
369.089	76.12
369.315	73.12
369.541	78.12
369.767	78.12
369.993	46.12
370.219	67.12
370.445	82.12
370.672	87.12
370.898	84.12
371.124	74.12
371.35	90.12
371.576	87.12
371.802	84.12
372.028	73.12
372.254	74.12
372.48	86.12
372.706	77.12
372.932	98.12
373.158	88.12
373.384	87.12
373.61	105.12
373.835	83.12
374.061	82.12
374.287	80.12
374.513	67.12
374.739	88.12
374.965	90.12
375.191	78.12
375.416	72.12
375.642	76.12
375.868	84.12
376.094	91.12
376.319	78.12
376.545	78.12
376.771	72.12
376.997	83.12
377.222	78.12
377.448	86.12
377.674	88.12
377.899	74.12
378.125	65.12
378.35	84.12
378.576	79.12
378.802	72.12
379.027	74.12
379.253	84.12
379.478	73.12
379.704	80.12
379.929	81.12
380.155	81.12
380.38	70.12
380.606	71.12
380.831	85.12
381.057	81.12
381.282	85.12
381.507	79.12
381.733	72.12
381.958	88.12
382.184	70.12
382.409	77.12
382.634	94.12
382.86	75.12
383.085	102.12
383.31	73.12
383.535	83.12
383.761	85.12
383.986	84.12
384.211	77.12
384.436	76.12
384.662	68.12
384.887	94.12
385.112	88.12
385.337	85.12
385.562	88.12
385.787	84.12
386.013	91.12
386.238	90.12
386.463	83.12
386.688	86.12
386.913	76.12
387.138	81.12
387.363	85.12
387.588	90.12
387.813	97.12
388.038	76.12
388.263	80.12
388.488	82.12
388.713	83.12
388.938	91.12
389.163	76.12
389.387	76.12
389.612	80.12
389.837	77.12
390.062	86.12
390.287	71.12
390.512	83.12
390.736	79.12
390.961	77.12
391.186	86.12
391.411	98.12
391.636	72.12
391.86	71.12
392.085	78.12
392.31	76.12
392.534	80.12
392.759	95.12
392.984	112.12
393.208	175.12
393.433	247.12
393.658	179.12
393.882	99.12
394.107	108.12
394.331	88.12
394.556	85.12
394.78	82.12
395.005	83.12
395.229	88.12
395.454	87.12
395.678	72.12
395.903	78.12
396.127	108.12
396.352	92.12
396.576	116.12
396.801	183.12
397.025	200.12
397.249	138.12
397.474	87.12
397.698	89.12
397.922	90.12
398.147	83.12
398.371	87.12
398.595	87.12
398.82	81.12
399.044	79.12
399.268	83.12
399.492	94.12
399.717	84.12
399.941	67.12
400.165	70.12
400.389	78.12
400.613	78.12
400.837	56.12
401.062	86.12
401.286	82.12
401.51	90.12
401.734	77.12
401.958	70.12
402.182	70.12
402.406	72.12
402.63	79.12
402.854	76.12
403.078	72.12
403.302	76.12
403.526	76.12
403.75	80.12
403.974	81.12
404.198	68.12
404.422	80.12
404.645	84.12
404.869	86.12
405.093	78.12
405.317	84.12
405.541	89.12
405.765	72.12
405.988	68.12
406.212	80.12
406.436	86.12
406.66	74.12
406.883	63.12
407.107	71.12
407.331	83.12
407.555	87.12
407.778	102.12
408.002	93.12
408.226	71.12
408.449	79.12
408.673	57.12
408.896	72.12
409.12	62.12
409.344	78.12
409.567	64.12
409.791	78.12
410.014	82.12
410.238	65.12
410.461	75.12
410.685	70.12
410.908	70.12
411.132	81.12
411.355	75.12
411.578	79.12
411.802	86.12
412.025	77.12
412.249	85.12
412.472	80.12
412.695	77.12
412.919	94.12
413.142	86.12
413.365	76.12
413.589	82.12
413.812	90.12
414.035	89.12
414.258	67.12
414.482	81.12
414.705	73.12
414.928	84.12
415.151	91.12
415.374	64.12
415.597	84.12
415.821	77.12
416.044	73.12
416.267	76.12
416.49	85.12
416.713	79.12
416.936	79.12
417.159	75.12
417.382	76.12
417.605	80.12
417.828	80.12
418.051	71.12
418.274	67.12
418.497	88.12
418.72	82.12
418.943	83.12
419.166	79.12
419.389	79.12
419.611	89.12
419.834	75.12
420.057	84.12
420.28	78.12
420.503	85.12
420.726	67.12
420.948	63.12
421.171	63.12
421.394	83.12
421.617	82.12
421.839	88.12
422.062	85.12
422.285	101.12
422.507	130.12
422.73	186.12
422.953	150.12
423.175	97.12
423.398	88.12
423.621	81.12
423.843	72.12
424.066	59.12
424.288	81.12
424.511	66.12
424.733	78.12
424.956	90.12
425.178	81.12
425.401	92.12
425.623	89.12
425.846	76.12
426.068	88.12
426.291	80.12
426.513	80.12
426.735	83.12
426.958	69.12
427.18	74.12
427.402	70.12
427.625	95.12
427.847	82.12
428.069	86.12
428.292	98.12
428.514	90.12
428.736	77.12
428.958	91.12
429.181	88.12
429.403	83.12
429.625	91.12
429.847	85.12
430.069	85.12
430.292	117.12
430.514	112.12
430.736	95.12
430.958	85.12
431.18	79.12
431.402	72.12
431.624	84.12
431.846	90.12
432.068	94.12
432.29	67.12
432.512	80.12
432.734	66.12
432.956	81.12
433.178	83.12
433.4	86.12
433.622	84.12
433.844	80.12
434.066	83.12
434.287	83.12
434.509	94.12
434.731	84.12
434.953	82.12
435.175	61.12
435.397	79.12
435.618	79.12
435.84	72.12
436.062	59.12
436.284	67.12
436.505	66.12
436.727	79.12
436.949	77.12
437.17	86.12
437.392	83.12
437.614	91.12
437.835	81.12
438.057	80.12
438.278	79.12
438.5	78.12
438.721	67.12
438.943	91.12
439.165	83.12
439.386	76.12
439.608	79.12
439.829	76.12
440.05	75.12
440.272	70.12
440.493	80.12
440.715	72.12
440.936	67.12
441.158	80.12
441.379	68.12
441.6	85.12
441.822	77.12
442.043	88.12
442.264	86.12
442.486	87.12
442.707	102.12
442.928	87.12
443.149	90.12
443.371	86.12
443.592	122.12
443.813	99.12
444.034	92.12
444.255	74.12
444.476	91.12
444.698	84.12
444.919	88.12
445.14	159.12
445.361	131.12
445.582	144.12
445.803	117.12
446.024	90.12
446.245	96.12
446.466	79.12
446.687	76.12
446.908	78.12
447.129	74.12
447.35	77.12
447.571	91.12
447.792	79.12
448.013	79.12
448.234	72.12
448.455	83.12
448.675	74.12
448.896	87.12
449.117	80.12
449.338	85.12
449.559	73.12
449.779	79.12
450	71.12
450.221	72.12
450.442	79.12
450.662	69.12
450.883	71.12
451.104	82.12
451.324	66.12
451.545	70.12
451.766	73.12
451.986	79.12
452.207	69.12
452.428	80.12
452.648	86.12
452.869	74.12
453.089	88.12
453.31	73.12
453.53	86.12
453.751	72.12
453.971	83.12
454.192	80.12
454.412	82.12
454.633	88.12
454.853	89.12
455.073	57.12
455.294	75.12
455.514	89.12
455.734	64.12
455.955	81.12
456.175	84.12
456.395	75.12
456.616	67.12
456.836	87.12
457.056	79.12
457.276	85.12
457.497	78.12
457.717	81.12
457.937	63.12
458.157	78.12
458.377	85.12
458.598	95.12
458.818	78.12
459.038	75.12
459.258	78.12
459.478	80.12
459.698	77.12
459.918	72.12
460.138	65.12
460.358	77.12
460.578	80.12
460.798	96.12
461.018	94.12
461.238	80.12
461.458	82.12
461.678	72.12
461.898	65.12
462.118	86.12
462.338	72.12
462.558	73.12
462.777	64.12
462.997	78.12
463.217	82.12
463.437	80.12
463.657	78.12
463.876	85.12
464.096	71.12
464.316	64.12
464.536	92.12
464.755	69.12
464.975	80.12
465.195	72.12
465.414	71.12
465.634	60.12
465.854	76.12
466.073	70.12
466.293	85.12
466.512	76.12
466.732	77.12
466.951	78.12
467.171	70.12
467.391	78.12
467.61	65.12
467.829	82.12
468.049	82.12
468.268	69.12
468.488	76.12
468.707	74.12
468.927	85.12
469.146	83.12
469.365	72.12
469.585	65.12
469.804	76.12
470.023	70.12
470.243	76.12
470.462	74.12
470.681	62.12
470.901	70.12
471.12	89.12
471.339	79.12
471.558	79.12
471.777	85.12
471.997	84.12
472.216	73.12
472.435	80.12
472.654	78.12
472.873	70.12
473.092	90.12
473.311	85.12
473.53	83.12
473.749	87.12
473.968	78.12
474.187	80.12
474.406	78.12
474.625	69.12
474.844	69.12
475.063	83.12
475.282	79.12
475.501	86.12
475.72	87.12
475.939	75.12
476.158	82.12
476.377	75.12
476.596	78.12
476.814	74.12
477.033	86.12
477.252	84.12
477.471	87.12
477.69	75.12
477.908	72.12
478.127	74.12
478.346	78.12
478.564	84.12
478.783	88.12
479.002	79.12
479.22	66.12
479.439	73.12
479.658	88.12
479.876	72.12
480.095	88.12
480.313	88.12
480.532	72.12
480.751	76.12
480.969	82.12
481.188	85.12
481.406	79.12
481.624	85.12
481.843	82.12
482.061	93.12
482.28	98.12
482.498	77.12
482.717	79.12
482.935	78.12
483.153	79.12
483.372	83.12
483.59	83.12
483.808	88.12
484.027	87.12
484.245	71.12
484.463	71.12
484.681	102.12
484.9	89.12
485.118	67.12
485.336	73.12
485.554	76.12
485.772	83.12
485.99	82.12
486.209	83.12
486.427	86.12
486.645	80.12
486.863	89.12
487.081	82.12
487.299	74.12
487.517	82.12
487.735	77.12
487.953	84.12
488.171	74.12
488.389	71.12
488.607	76.12
488.825	78.12
489.043	76.12
489.261	89.12
489.479	85.12
489.696	76.12
489.914	81.12
490.132	74.12
490.35	72.12
490.568	85.12
490.786	86.12
491.003	82.12
491.221	75.12
491.439	80.12
491.657	78.12
491.874	77.12
492.092	87.12
492.31	88.12
492.527	84.12
492.745	86.12
492.963	84.12
493.18	97.12
493.398	90.12
493.615	74.12
493.833	82.12
494.05	76.12
494.268	81.12
494.485	71.12
494.703	86.12
494.92	80.12
495.138	73.12
495.355	85.12
495.573	76.12
495.79	82.12
496.008	81.12
496.225	75.12
496.442	72.12
496.66	85.12
496.877	70.12
497.094	76.12
497.312	82.12
497.529	79.12
497.746	75.12
497.963	73.12
498.181	77.12
498.398	84.12
498.615	66.12
498.832	74.12
499.049	72.12
499.267	84.12
499.484	57.12
499.701	80.12
499.918	85.12
500.135	81.12
500.352	83.12
500.569	72.12
500.786	67.12
501.003	74.12
501.22	82.12
501.437	70.12
501.654	69.12
501.871	72.12
502.088	93.12
502.305	84.12
502.522	82.12
502.739	85.12
502.956	87.12
503.172	69.12
503.389	74.12
503.606	86.12
503.823	89.12
504.04	85.12
504.256	96.12
504.473	81.12
504.69	81.12
504.907	87.12
505.123	82.12
505.34	70.12
505.557	84.12
505.773	81.12
505.99	70.12
506.207	87.12
506.423	81.12
506.64	88.12
506.856	72.12
507.073	77.12
507.289	73.12
507.506	80.12
507.722	67.12
507.939	70.12
508.155	87.12
508.372	92.12
508.588	79.12
508.805	79.12
509.021	82.12
509.238	80.12
509.454	84.12
509.67	81.12
509.887	85.12
510.103	82.12
510.319	78.12
510.536	89.12
510.752	90.12
510.968	72.12
511.184	81.12
511.401	76.12
511.617	69.12
511.833	71.12
512.049	83.12
512.265	84.12
512.481	83.12
512.698	82.12
512.914	81.12
513.13	85.12
513.346	89.12
513.562	78.12
513.778	72.12
513.994	72.12
514.21	84.12
514.426	90.12
514.642	90.12
514.858	85.12
515.074	72.12
515.29	84.12
515.506	69.12
515.721	85.12
515.937	95.12
516.153	68.12
516.369	82.12
516.585	85.12
516.801	89.12
517.016	86.12
517.232	58.12
517.448	79.12
517.664	86.12
517.879	71.12
518.095	86.12
518.311	82.12
518.527	82.12
518.742	71.12
518.958	87.12
519.173	72.12
519.389	82.12
519.605	87.12
519.82	73.12
