Data from 17600_1_HRD10591_00031.txt Node
Date: Mon Jan 19 14:07:39 EST 2026
User: Yrep
Spectrometer: HR+D1059
Trigger mode: 1
Integration Time (sec): 1.000000E-1
Scans to average: 1
Electric dark correction enabled: true
Nonlinearity correction enabled: false
Boxcar width: 0
XAxis mode: Wavelengths
Number of Pixels in Spectrum: 2048
>>>>>Begin Spectral Data<<<<<
223.165	-6.19
223.4	-6.19
223.635	-6.19
223.869	-23.19
224.104	-23.19
224.338	-13.19
224.573	-6.19
224.808	-13.19
225.042	-9.19
225.277	-20.19
225.511	-3.19
225.746	-8.19
225.98	6.81
226.215	30.81
226.449	10.81
226.683	13.81
226.918	35.81
227.152	27.81
227.387	42.81
227.621	28.81
227.856	41.81
228.09	36.81
228.324	40.81
228.559	46.81
228.793	64.81
229.027	50.81
229.262	48.81
229.496	66.81
229.73	62.81
229.964	64.81
230.199	74.81
230.433	75.81
230.667	67.81
230.901	74.81
231.136	76.81
231.37	54.81
231.604	59.81
231.838	68.81
232.072	59.81
232.306	78.81
232.541	86.81
232.775	73.81
233.009	78.81
233.243	77.81
233.477	79.81
233.711	74.81
233.945	83.81
234.179	74.81
234.413	69.81
234.647	80.81
234.881	55.81
235.115	57.81
235.349	69.81
235.583	78.81
235.817	76.81
236.051	82.81
236.285	51.81
236.519	78.81
236.753	83.81
236.987	67.81
237.221	67.81
237.455	66.81
237.689	66.81
237.922	64.81
238.156	60.81
238.39	70.81
238.624	61.81
238.858	68.81
239.091	67.81
239.325	75.81
239.559	59.81
239.793	57.81
240.027	74.81
240.26	73.81
240.494	70.81
240.728	69.81
240.961	72.81
241.195	70.81
241.429	61.81
241.662	73.81
241.896	66.81
242.13	66.81
242.363	69.81
242.597	79.81
242.83	65.81
243.064	72.81
243.298	67.81
243.531	66.81
243.765	80.81
243.998	48.81
244.232	84.81
244.465	69.81
244.699	71.81
244.932	58.81
245.166	66.81
245.399	66.81
245.633	70.81
245.866	70.81
246.099	71.81
246.333	68.81
246.566	70.81
246.8	70.81
247.033	62.81
247.266	78.81
247.5	66.81
247.733	80.81
247.966	66.81
248.2	70.81
248.433	69.81
248.666	70.81
248.899	66.81
249.133	63.81
249.366	73.81
249.599	67.81
249.832	83.81
250.066	59.81
250.299	68.81
250.532	74.81
250.765	65.81
250.998	72.81
251.231	75.81
251.465	71.81
251.698	64.81
251.931	53.81
252.164	64.81
252.397	76.81
252.63	64.81
252.863	68.81
253.096	75.81
253.329	83.81
253.562	79.81
253.795	79.81
254.028	84.81
254.261	70.81
254.494	85.81
254.727	80.81
254.96	73.81
255.193	78.81
255.426	75.81
255.659	81.81
255.892	76.81
256.124	64.81
256.357	79.81
256.59	80.81
256.823	62.81
257.056	75.81
257.289	77.81
257.521	88.81
257.754	67.81
257.987	72.81
258.22	84.81
258.452	72.81
258.685	60.81
258.918	71.81
259.151	66.81
259.383	83.81
259.616	78.81
259.849	59.81
260.081	77.81
260.314	76.81
260.547	78.81
260.779	77.81
261.012	68.81
261.244	71.81
261.477	75.81
261.71	74.81
261.942	67.81
262.175	80.81
262.407	84.81
262.64	76.81
262.872	67.81
263.105	81.81
263.337	74.81
263.57	67.81
263.802	76.81
264.035	86.81
264.267	77.81
264.499	73.81
264.732	81.81
264.964	72.81
265.197	81.81
265.429	82.81
265.661	69.81
265.894	72.81
266.126	82.81
266.358	80.81
266.591	84.81
266.823	76.81
267.055	69.81
267.287	78.81
267.52	69.81
267.752	76.81
267.984	62.81
268.216	76.81
268.448	92.81
268.681	60.81
268.913	82.81
269.145	75.81
269.377	71.81
269.609	75.81
269.841	62.81
270.073	82.81
270.306	82.81
270.538	70.81
270.77	74.81
271.002	69.81
271.234	78.81
271.466	85.81
271.698	92.81
271.93	78.81
272.162	78.81
272.394	88.81
272.626	74.81
272.858	77.81
273.09	81.81
273.322	75.81
273.553	84.81
273.785	90.81
274.017	76.81
274.249	84.81
274.481	78.81
274.713	76.81
274.945	78.81
275.176	73.81
275.408	75.81
275.64	83.81
275.872	70.81
276.104	94.81
276.335	78.81
276.567	77.81
276.799	78.81
277.031	77.81
277.262	54.81
277.494	69.81
277.726	69.81
277.957	77.81
278.189	68.81
278.421	76.81
278.652	74.81
278.884	72.81
279.115	60.81
279.347	60.81
279.579	74.81
279.81	84.81
280.042	74.81
280.273	70.81
280.505	80.81
280.736	76.81
280.968	78.81
281.199	73.81
281.431	88.81
281.662	78.81
281.894	73.81
282.125	88.81
282.356	72.81
282.588	84.81
282.819	84.81
283.051	77.81
283.282	75.81
283.513	65.81
283.745	95.81
283.976	87.81
284.207	81.81
284.439	74.81
284.67	89.81
284.901	81.81
285.132	85.81
285.364	71.81
285.595	102.81
285.826	76.81
286.057	82.81
286.288	76.81
286.52	88.81
286.751	73.81
286.982	81.81
287.213	67.81
287.444	67.81
287.675	85.81
287.906	71.81
288.138	87.81
288.369	79.81
288.6	78.81
288.831	98.81
289.062	91.81
289.293	76.81
289.524	68.81
289.755	68.81
289.986	72.81
290.217	73.81
290.448	91.81
290.679	80.81
290.91	86.81
291.141	76.81
291.371	75.81
291.602	81.81
291.833	73.81
292.064	89.81
292.295	69.81
292.526	79.81
292.757	77.81
292.987	97.81
293.218	81.81
293.449	80.81
293.68	75.81
293.91	68.81
294.141	69.81
294.372	80.81
294.603	76.81
294.833	73.81
295.064	78.81
295.295	77.81
295.525	86.81
295.756	78.81
295.987	86.81
296.217	78.81
296.448	70.81
296.679	74.81
296.909	75.81
297.14	70.81
297.37	71.81
297.601	92.81
297.831	84.81
298.062	76.81
298.292	84.81
298.523	66.81
298.753	84.81
298.984	85.81
299.214	82.81
299.445	90.81
299.675	89.81
299.905	76.81
300.136	85.81
300.366	80.81
300.597	87.81
300.827	71.81
301.057	82.81
301.288	88.81
301.518	75.81
301.748	79.81
301.979	85.81
302.209	86.81
302.439	80.81
302.669	68.81
302.9	67.81
303.13	73.81
303.36	74.81
303.59	77.81
303.82	82.81
304.051	77.81
304.281	65.81
304.511	67.81
304.741	81.81
304.971	66.81
305.201	76.81
305.431	69.81
305.661	81.81
305.891	90.81
306.121	84.81
306.352	82.81
306.582	76.81
306.812	83.81
307.042	83.81
307.272	82.81
307.502	82.81
307.731	70.81
307.961	82.81
308.191	93.81
308.421	91.81
308.651	84.81
308.881	88.81
309.111	110.81
309.341	90.81
309.571	84.81
309.8	71.81
310.03	74.81
310.26	69.81
310.49	83.81
310.72	95.81
310.949	65.81
311.179	91.81
311.409	90.81
311.639	83.81
311.868	84.81
312.098	90.81
312.328	70.81
312.557	90.81
312.787	67.81
313.017	76.81
313.246	73.81
313.476	81.81
313.706	92.81
313.935	71.81
314.165	70.81
314.394	76.81
314.624	65.81
314.853	92.81
315.083	74.81
315.312	84.81
315.542	69.81
315.771	80.81
316.001	100.81
316.23	76.81
316.46	70.81
316.689	73.81
316.919	75.81
317.148	88.81
317.377	72.81
317.607	90.81
317.836	96.81
318.065	88.81
318.295	89.81
318.524	84.81
318.753	70.81
318.983	84.81
319.212	93.81
319.441	87.81
319.67	76.81
319.9	77.81
320.129	93.81
320.358	91.81
320.587	89.81
320.816	80.81
321.046	84.81
321.275	67.81
321.504	85.81
321.733	82.81
321.962	82.81
322.191	87.81
322.42	74.81
322.649	88.81
322.878	76.81
323.108	82.81
323.337	88.81
323.566	85.81
323.795	88.81
324.024	76.81
324.253	89.81
324.482	85.81
324.71	89.81
324.939	81.81
325.168	73.81
325.397	72.81
325.626	79.81
325.855	75.81
326.084	77.81
326.313	95.81
326.542	78.81
326.77	72.81
326.999	86.81
327.228	77.81
327.457	71.81
327.686	73.81
327.914	72.81
328.143	84.81
328.372	74.81
328.6	79.81
328.829	77.81
329.058	91.81
329.287	71.81
329.515	84.81
329.744	87.81
329.972	72.81
330.201	86.81
330.43	71.81
330.658	74.81
330.887	82.81
331.115	78.81
331.344	67.81
331.572	75.81
331.801	85.81
332.03	69.81
332.258	72.81
332.486	78.81
332.715	83.81
332.943	77.81
333.172	91.81
333.4	80.81
333.629	68.81
333.857	81.81
334.085	80.81
334.314	84.81
334.542	86.81
334.771	84.81
334.999	84.81
335.227	98.81
335.455	74.81
335.684	76.81
335.912	97.81
336.14	60.81
336.369	79.81
336.597	71.81
336.825	86.81
337.053	83.81
337.281	76.81
337.51	72.81
337.738	79.81
337.966	77.81
338.194	66.81
338.422	82.81
338.65	70.81
338.878	91.81
339.106	74.81
339.334	88.81
339.562	81.81
339.79	64.81
340.018	71.81
340.246	72.81
340.474	81.81
340.702	86.81
340.93	89.81
341.158	78.81
341.386	71.81
341.614	64.81
341.842	71.81
342.07	83.81
342.298	79.81
342.526	79.81
342.754	82.81
342.981	70.81
343.209	74.81
343.437	89.81
343.665	82.81
343.893	80.81
344.12	81.81
344.348	88.81
344.576	82.81
344.804	88.81
345.031	79.81
345.259	74.81
345.487	76.81
345.714	81.81
345.942	84.81
346.17	85.81
346.397	84.81
346.625	64.81
346.853	70.81
347.08	73.81
347.308	74.81
347.535	92.81
347.763	88.81
347.99	80.81
348.218	84.81
348.445	79.81
348.673	71.81
348.9	70.81
349.128	80.81
349.355	84.81
349.583	82.81
349.81	68.81
350.037	84.81
350.265	80.81
350.492	69.81
350.72	66.81
350.947	79.81
351.174	88.81
351.402	96.81
351.629	79.81
351.856	80.81
352.083	77.81
352.311	74.81
352.538	72.81
352.765	82.81
352.992	82.81
353.22	66.81
353.447	70.81
353.674	80.81
353.901	77.81
354.128	71.81
354.355	76.81
354.583	88.81
354.81	85.81
355.037	78.81
355.264	75.81
355.491	98.81
355.718	78.81
355.945	72.81
356.172	72.81
356.399	73.81
356.626	73.81
356.853	74.81
357.08	88.81
357.307	80.81
357.534	82.81
357.761	92.81
357.988	86.81
358.215	82.81
358.441	81.81
358.668	69.81
358.895	76.81
359.122	80.81
359.349	86.81
359.576	75.81
359.802	73.81
360.029	91.81
360.256	76.81
360.483	76.81
360.709	98.81
360.936	98.81
361.163	75.81
361.39	67.81
361.616	89.81
361.843	90.81
362.07	91.81
362.296	94.81
362.523	77.81
362.749	71.81
362.976	70.81
363.203	85.81
363.429	74.81
363.656	70.81
363.882	83.81
364.109	88.81
364.335	99.81
364.562	93.81
364.788	76.81
365.015	68.81
365.241	74.81
365.468	70.81
365.694	71.81
365.92	90.81
366.147	82.81
366.373	70.81
366.599	69.81
366.826	78.81
367.052	85.81
367.278	92.81
367.505	92.81
367.731	80.81
367.957	78.81
368.184	73.81
368.41	83.81
368.636	89.81
368.862	75.81
369.089	78.81
369.315	76.81
369.541	73.81
369.767	80.81
369.993	88.81
370.219	83.81
370.445	98.81
370.672	86.81
370.898	78.81
371.124	76.81
371.35	85.81
371.576	81.81
371.802	83.81
372.028	75.81
372.254	93.81
372.48	83.81
372.706	77.81
372.932	89.81
373.158	84.81
373.384	86.81
373.61	102.81
373.835	100.81
374.061	88.81
374.287	83.81
374.513	97.81
374.739	70.81
374.965	86.81
375.191	89.81
375.416	86.81
375.642	84.81
375.868	73.81
376.094	84.81
376.319	66.81
376.545	77.81
376.771	74.81
376.997	78.81
377.222	66.81
377.448	77.81
377.674	68.81
377.899	71.81
378.125	78.81
378.35	70.81
378.576	73.81
378.802	76.81
379.027	76.81
379.253	74.81
379.478	73.81
379.704	81.81
379.929	75.81
380.155	86.81
380.38	67.81
380.606	77.81
380.831	66.81
381.057	86.81
381.282	83.81
381.507	73.81
381.733	67.81
381.958	92.81
382.184	73.81
382.409	93.81
382.634	101.81
382.86	76.81
383.085	88.81
383.31	86.81
383.535	100.81
383.761	91.81
383.986	97.81
384.211	72.81
384.436	76.81
384.662	92.81
384.887	82.81
385.112	74.81
385.337	88.81
385.562	93.81
385.787	83.81
386.013	75.81
386.238	85.81
386.463	93.81
386.688	98.81
386.913	81.81
387.138	82.81
387.363	73.81
387.588	88.81
387.813	84.81
388.038	93.81
388.263	90.81
388.488	100.81
388.713	79.81
388.938	69.81
389.163	90.81
389.387	80.81
389.612	76.81
389.837	75.81
390.062	68.81
390.287	80.81
390.512	73.81
390.736	70.81
390.961	74.81
391.186	92.81
391.411	74.81
391.636	82.81
391.86	80.81
392.085	79.81
392.31	81.81
392.534	93.81
392.759	101.81
392.984	153.81
393.208	248.81
393.433	368.81
393.658	277.81
393.882	132.81
394.107	93.81
394.331	84.81
394.556	106.81
394.78	89.81
395.005	78.81
395.229	73.81
395.454	74.81
395.678	83.81
395.903	114.81
396.127	122.81
396.352	129.81
396.576	153.81
396.801	263.81
397.025	277.81
397.249	156.81
397.474	94.81
397.698	80.81
397.922	92.81
398.147	84.81
398.371	71.81
398.595	69.81
398.82	85.81
399.044	83.81
399.268	90.81
399.492	82.81
399.717	78.81
399.941	61.81
400.165	78.81
400.389	85.81
400.613	76.81
400.837	84.81
401.062	68.81
401.286	78.81
401.51	88.81
401.734	72.81
401.958	66.81
402.182	60.81
402.406	78.81
402.63	74.81
402.854	76.81
403.078	77.81
403.302	82.81
403.526	82.81
403.75	84.81
403.974	76.81
404.198	86.81
404.422	86.81
404.645	80.81
404.869	85.81
405.093	72.81
405.317	69.81
405.541	65.81
405.765	86.81
405.988	76.81
406.212	62.81
406.436	71.81
406.66	80.81
406.883	80.81
407.107	90.81
407.331	85.81
407.555	80.81
407.778	117.81
408.002	122.81
408.226	91.81
408.449	69.81
408.673	82.81
408.896	89.81
409.12	76.81
409.344	81.81
409.567	72.81
409.791	88.81
410.014	96.81
410.238	69.81
410.461	74.81
410.685	78.81
410.908	67.81
411.132	76.81
411.355	78.81
411.578	77.81
411.802	83.81
412.025	76.81
412.249	57.81
412.472	80.81
412.695	82.81
412.919	73.81
413.142	68.81
413.365	72.81
413.589	88.81
413.812	95.81
414.035	87.81
414.258	82.81
414.482	68.81
414.705	74.81
414.928	82.81
415.151	75.81
415.374	68.81
415.597	69.81
415.821	81.81
416.044	85.81
416.267	61.81
416.49	62.81
416.713	84.81
416.936	74.81
417.159	62.81
417.382	89.81
417.605	84.81
417.828	65.81
418.051	84.81
418.274	66.81
418.497	71.81
418.72	69.81
418.943	71.81
419.166	90.81
419.389	76.81
419.611	82.81
419.834	80.81
420.057	83.81
420.28	52.81
420.503	82.81
420.726	77.81
420.948	93.81
421.171	94.81
421.394	91.81
421.617	94.81
421.839	108.81
422.062	93.81
422.285	110.81
422.507	189.81
422.73	300.81
422.953	240.81
423.175	116.81
423.398	88.81
423.621	84.81
423.843	94.81
424.066	83.81
424.288	74.81
424.511	66.81
424.733	73.81
424.956	73.81
425.178	73.81
425.401	67.81
425.623	78.81
425.846	64.81
426.068	71.81
426.291	80.81
426.513	80.81
426.735	76.81
426.958	73.81
427.18	69.81
427.402	74.81
427.625	70.81
427.847	78.81
428.069	82.81
428.292	105.81
428.514	99.81
428.736	82.81
428.958	102.81
429.181	110.81
429.403	93.81
429.625	82.81
429.847	97.81
430.069	113.81
430.292	125.81
430.514	134.81
430.736	98.81
430.958	100.81
431.18	88.81
431.402	76.81
431.624	80.81
431.846	94.81
432.068	106.81
432.29	73.81
432.512	76.81
432.734	77.81
432.956	79.81
433.178	94.81
433.4	69.81
433.622	83.81
433.844	77.81
434.066	82.81
434.287	61.81
434.509	76.81
434.731	70.81
434.953	72.81
435.175	70.81
435.397	86.81
435.618	81.81
435.84	72.81
436.062	79.81
436.284	64.81
436.505	64.81
436.727	72.81
436.949	65.81
437.17	92.81
437.392	69.81
437.614	73.81
437.835	78.81
438.057	81.81
438.278	94.81
438.5	86.81
438.721	76.81
438.943	71.81
439.165	75.81
439.386	72.81
439.608	76.81
439.829	74.81
440.05	77.81
440.272	78.81
440.493	64.81
440.715	76.81
440.936	74.81
441.158	80.81
441.379	84.81
441.6	88.81
441.822	72.81
442.043	82.81
442.264	76.81
442.486	85.81
442.707	121.81
442.928	84.81
443.149	91.81
443.371	119.81
443.592	140.81
443.813	124.81
444.034	92.81
444.255	89.81
444.476	68.81
444.698	79.81
444.919	82.81
445.14	148.81
445.361	142.81
445.582	175.81
445.803	177.81
446.024	92.81
446.245	74.81
446.466	85.81
446.687	61.81
446.908	66.81
447.129	65.81
447.35	86.81
447.571	77.81
447.792	78.81
448.013	77.81
448.234	90.81
448.455	81.81
448.675	65.81
448.896	74.81
449.117	78.81
449.338	80.81
449.559	69.81
449.779	77.81
450	69.81
450.221	68.81
450.442	72.81
450.662	72.81
450.883	70.81
451.104	77.81
451.324	78.81
451.545	76.81
451.766	82.81
451.986	63.81
452.207	60.81
452.428	67.81
452.648	89.81
452.869	82.81
453.089	72.81
453.31	80.81
453.53	63.81
453.751	76.81
453.971	83.81
454.192	85.81
454.412	75.81
454.633	60.81
454.853	67.81
455.073	69.81
455.294	79.81
455.514	86.81
455.734	73.81
455.955	73.81
456.175	73.81
456.395	80.81
456.616	59.81
456.836	81.81
457.056	80.81
457.276	62.81
457.497	87.81
457.717	85.81
457.937	78.81
458.157	91.81
458.377	77.81
458.598	92.81
458.818	84.81
459.038	83.81
459.258	64.81
459.478	64.81
459.698	80.81
459.918	78.81
460.138	77.81
460.358	88.81
460.578	83.81
460.798	84.81
461.018	90.81
461.238	85.81
461.458	83.81
461.678	68.81
461.898	73.81
462.118	86.81
462.338	70.81
462.558	68.81
462.777	71.81
462.997	66.81
463.217	82.81
463.437	83.81
463.657	94.81
463.876	68.81
464.096	68.81
464.316	77.81
464.536	70.81
464.755	83.81
464.975	65.81
465.195	70.81
465.414	76.81
465.634	67.81
465.854	90.81
466.073	82.81
466.293	62.81
466.512	65.81
466.732	70.81
466.951	86.81
467.171	67.81
467.391	78.81
467.61	67.81
467.829	75.81
468.049	69.81
468.268	88.81
468.488	72.81
468.707	66.81
468.927	77.81
469.146	70.81
469.365	77.81
469.585	78.81
469.804	76.81
470.023	73.81
470.243	78.81
470.462	72.81
470.681	74.81
470.901	69.81
471.12	80.81
471.339	85.81
471.558	74.81
471.777	69.81
471.997	80.81
472.216	74.81
472.435	74.81
472.654	71.81
472.873	76.81
473.092	68.81
473.311	79.81
473.53	82.81
473.749	76.81
473.968	80.81
474.187	81.81
474.406	66.81
474.625	71.81
474.844	81.81
475.063	82.81
475.282	89.81
475.501	76.81
475.72	81.81
475.939	77.81
476.158	83.81
476.377	75.81
476.596	74.81
476.814	69.81
477.033	72.81
477.252	72.81
477.471	71.81
477.69	69.81
477.908	78.81
478.127	71.81
478.346	76.81
478.564	76.81
478.783	74.81
479.002	77.81
479.22	70.81
479.439	78.81
479.658	70.81
479.876	76.81
480.095	83.81
480.313	75.81
480.532	83.81
480.751	69.81
480.969	79.81
481.188	80.81
481.406	68.81
481.624	72.81
481.843	84.81
482.061	76.81
482.28	66.81
482.498	75.81
482.717	90.81
482.935	85.81
483.153	64.81
483.372	66.81
483.59	77.81
483.808	84.81
484.027	74.81
484.245	76.81
484.463	84.81
484.681	86.81
484.9	90.81
485.118	72.81
485.336	80.81
485.554	63.81
485.772	68.81
485.99	82.81
486.209	83.81
486.427	88.81
486.645	69.81
486.863	79.81
487.081	79.81
487.299	69.81
487.517	77.81
487.735	92.81
487.953	101.81
488.171	94.81
488.389	75.81
488.607	70.81
488.825	77.81
489.043	69.81
489.261	77.81
489.479	84.81
489.696	75.81
489.914	81.81
490.132	90.81
490.35	81.81
490.568	84.81
490.786	85.81
491.003	80.81
491.221	70.81
491.439	82.81
491.657	81.81
491.874	78.81
492.092	67.81
492.31	87.81
492.527	74.81
492.745	80.81
492.963	69.81
493.18	81.81
493.398	77.81
493.615	69.81
493.833	78.81
494.05	75.81
494.268	84.81
494.485	78.81
494.703	68.81
494.92	91.81
495.138	80.81
495.355	98.81
495.573	89.81
495.79	77.81
496.008	66.81
496.225	76.81
496.442	70.81
496.66	88.81
496.877	81.81
497.094	74.81
497.312	82.81
497.529	82.81
497.746	69.81
497.963	77.81
498.181	72.81
498.398	75.81
498.615	90.81
498.832	69.81
499.049	70.81
499.267	83.81
499.484	86.81
499.701	80.81
499.918	83.81
500.135	73.81
500.352	81.81
500.569	82.81
500.786	66.81
501.003	75.81
501.22	72.81
501.437	74.81
501.654	84.81
501.871	75.81
502.088	80.81
502.305	82.81
502.522	76.81
502.739	79.81
502.956	88.81
503.172	90.81
503.389	80.81
503.606	75.81
503.823	74.81
504.04	63.81
504.256	86.81
504.473	96.81
504.69	91.81
504.907	67.81
505.123	69.81
505.34	74.81
505.557	82.81
505.773	86.81
505.99	79.81
506.207	76.81
506.423	84.81
506.64	83.81
506.856	77.81
507.073	71.81
507.289	70.81
507.506	68.81
507.722	88.81
507.939	68.81
508.155	75.81
508.372	81.81
508.588	78.81
508.805	72.81
509.021	83.81
509.238	70.81
509.454	84.81
509.67	67.81
509.887	85.81
510.103	74.81
510.319	60.81
510.536	75.81
510.752	80.81
510.968	68.81
511.184	80.81
511.401	82.81
511.617	79.81
511.833	72.81
512.049	74.81
512.265	82.81
512.481	74.81
512.698	68.81
512.914	77.81
513.13	82.81
513.346	85.81
513.562	78.81
513.778	75.81
513.994	80.81
514.21	71.81
514.426	70.81
514.642	76.81
514.858	69.81
515.074	68.81
515.29	88.81
515.506	85.81
515.721	84.81
515.937	80.81
516.153	76.81
516.369	73.81
516.585	73.81
516.801	76.81
517.016	85.81
517.232	86.81
517.448	76.81
517.664	72.81
517.879	68.81
518.095	85.81
518.311	77.81
518.527	93.81
518.742	80.81
518.958	115.81
519.173	88.81
519.389	78.81
519.605	80.81
