Data from 17600_1_HRD10591_00045.txt Node
Date: Mon Jan 19 14:07:46 EST 2026
User: Yrep
Spectrometer: HR+D1059
Trigger mode: 1
Integration Time (sec): 1.000000E-1
Scans to average: 1
Electric dark correction enabled: true
Nonlinearity correction enabled: false
Boxcar width: 0
XAxis mode: Wavelengths
Number of Pixels in Spectrum: 2048
>>>>>Begin Spectral Data<<<<<
223.165	-20.69
223.4	-20.69
223.635	-20.69
223.869	-14.69
224.104	-14.69
224.338	-5.69
224.573	-16.69
224.808	-2.69
225.042	2.31
225.277	-11.69
225.511	-10.69
225.746	-1.69
225.98	1.31
226.215	15.31
226.449	10.31
226.683	15.31
226.918	22.31
227.152	32.31
227.387	32.31
227.621	40.31
227.856	36.31
228.09	46.31
228.324	64.31
228.559	58.31
228.793	63.31
229.027	60.31
229.262	49.31
229.496	66.31
229.73	50.31
229.964	61.31
230.199	80.31
230.433	75.31
230.667	62.31
230.901	93.31
231.136	81.31
231.37	94.31
231.604	83.31
231.838	79.31
232.072	80.31
232.306	82.31
232.541	74.31
232.775	77.31
233.009	81.31
233.243	68.31
233.477	79.31
233.711	80.31
233.945	81.31
234.179	73.31
234.413	67.31
234.647	80.31
234.881	58.31
235.115	75.31
235.349	70.31
235.583	81.31
235.817	69.31
236.051	73.31
236.285	64.31
236.519	79.31
236.753	64.31
236.987	71.31
237.221	75.31
237.455	90.31
237.689	70.31
237.922	77.31
238.156	71.31
238.39	74.31
238.624	71.31
238.858	84.31
239.091	83.31
239.325	83.31
239.559	67.31
239.793	73.31
240.027	95.31
240.26	86.31
240.494	79.31
240.728	70.31
240.961	81.31
241.195	73.31
241.429	66.31
241.662	78.31
241.896	57.31
242.13	58.31
242.363	66.31
242.597	69.31
242.83	89.31
243.064	72.31
243.298	75.31
243.531	75.31
243.765	83.31
243.998	85.31
244.232	72.31
244.465	73.31
244.699	77.31
244.932	74.31
245.166	76.31
245.399	78.31
245.633	71.31
245.866	63.31
246.099	69.31
246.333	73.31
246.566	69.31
246.8	74.31
247.033	67.31
247.266	82.31
247.5	74.31
247.733	80.31
247.966	78.31
248.2	81.31
248.433	82.31
248.666	79.31
248.899	81.31
249.133	77.31
249.366	77.31
249.599	82.31
249.832	87.31
250.066	83.31
250.299	78.31
250.532	96.31
250.765	72.31
250.998	86.31
251.231	68.31
251.465	89.31
251.698	79.31
251.931	65.31
252.164	71.31
252.397	78.31
252.63	76.31
252.863	81.31
253.096	70.31
253.329	86.31
253.562	79.31
253.795	79.31
254.028	89.31
254.261	81.31
254.494	63.31
254.727	71.31
254.96	80.31
255.193	87.31
255.426	71.31
255.659	79.31
255.892	71.31
256.124	70.31
256.357	78.31
256.59	84.31
256.823	86.31
257.056	73.31
257.289	77.31
257.521	88.31
257.754	83.31
257.987	85.31
258.22	85.31
258.452	83.31
258.685	75.31
258.918	71.31
259.151	84.31
259.383	83.31
259.616	79.31
259.849	70.31
260.081	68.31
260.314	86.31
260.547	86.31
260.779	72.31
261.012	73.31
261.244	83.31
261.477	85.31
261.71	90.31
261.942	87.31
262.175	87.31
262.407	77.31
262.64	56.31
262.872	69.31
263.105	86.31
263.337	87.31
263.57	86.31
263.802	82.31
264.035	86.31
264.267	95.31
264.499	86.31
264.732	98.31
264.964	93.31
265.197	81.31
265.429	70.31
265.661	63.31
265.894	80.31
266.126	75.31
266.358	74.31
266.591	92.31
266.823	73.31
267.055	85.31
267.287	70.31
267.52	77.31
267.752	77.31
267.984	70.31
268.216	80.31
268.448	77.31
268.681	91.31
268.913	88.31
269.145	88.31
269.377	72.31
269.609	83.31
269.841	87.31
270.073	81.31
270.306	93.31
270.538	72.31
270.77	84.31
271.002	87.31
271.234	74.31
271.466	74.31
271.698	91.31
271.93	67.31
272.162	87.31
272.394	94.31
272.626	92.31
272.858	85.31
273.09	91.31
273.322	72.31
273.553	86.31
273.785	74.31
274.017	101.31
274.249	87.31
274.481	75.31
274.713	85.31
274.945	99.31
275.176	91.31
275.408	89.31
275.64	74.31
275.872	79.31
276.104	74.31
276.335	74.31
276.567	81.31
276.799	88.31
277.031	84.31
277.262	86.31
277.494	82.31
277.726	90.31
277.957	89.31
278.189	76.31
278.421	85.31
278.652	84.31
278.884	82.31
279.115	81.31
279.347	89.31
279.579	79.31
279.81	93.31
280.042	94.31
280.273	84.31
280.505	85.31
280.736	86.31
280.968	94.31
281.199	85.31
281.431	86.31
281.662	90.31
281.894	82.31
282.125	73.31
282.356	94.31
282.588	87.31
282.819	97.31
283.051	69.31
283.282	73.31
283.513	94.31
283.745	89.31
283.976	70.31
284.207	75.31
284.439	91.31
284.67	84.31
284.901	74.31
285.132	90.31
285.364	87.31
285.595	81.31
285.826	81.31
286.057	75.31
286.288	84.31
286.52	79.31
286.751	82.31
286.982	83.31
287.213	86.31
287.444	84.31
287.675	85.31
287.906	88.31
288.138	90.31
288.369	92.31
288.6	78.31
288.831	86.31
289.062	81.31
289.293	97.31
289.524	80.31
289.755	64.31
289.986	87.31
290.217	80.31
290.448	81.31
290.679	89.31
290.91	84.31
291.141	90.31
291.371	84.31
291.602	77.31
291.833	83.31
292.064	87.31
292.295	74.31
292.526	90.31
292.757	89.31
292.987	69.31
293.218	79.31
293.449	84.31
293.68	81.31
293.91	88.31
294.141	83.31
294.372	80.31
294.603	75.31
294.833	85.31
295.064	95.31
295.295	85.31
295.525	77.31
295.756	66.31
295.987	96.31
296.217	82.31
296.448	82.31
296.679	78.31
296.909	87.31
297.14	77.31
297.37	87.31
297.601	90.31
297.831	83.31
298.062	90.31
298.292	92.31
298.523	78.31
298.753	78.31
298.984	93.31
299.214	83.31
299.445	95.31
299.675	91.31
299.905	73.31
300.136	73.31
300.366	89.31
300.597	84.31
300.827	83.31
301.057	81.31
301.288	85.31
301.518	84.31
301.748	83.31
301.979	95.31
302.209	82.31
302.439	81.31
302.669	73.31
302.9	94.31
303.13	93.31
303.36	72.31
303.59	84.31
303.82	95.31
304.051	73.31
304.281	87.31
304.511	93.31
304.741	93.31
304.971	82.31
305.201	75.31
305.431	74.31
305.661	92.31
305.891	83.31
306.121	94.31
306.352	76.31
306.582	90.31
306.812	91.31
307.042	89.31
307.272	83.31
307.502	97.31
307.731	84.31
307.961	93.31
308.191	88.31
308.421	86.31
308.651	80.31
308.881	87.31
309.111	84.31
309.341	113.31
309.571	93.31
309.8	88.31
310.03	89.31
310.26	74.31
310.49	105.31
310.72	76.31
310.949	72.31
311.179	67.31
311.409	90.31
311.639	87.31
311.868	102.31
312.098	82.31
312.328	88.31
312.557	86.31
312.787	74.31
313.017	86.31
313.246	81.31
313.476	75.31
313.706	87.31
313.935	85.31
314.165	89.31
314.394	73.31
314.624	84.31
314.853	97.31
315.083	69.31
315.312	79.31
315.542	93.31
315.771	99.31
316.001	94.31
316.23	89.31
316.46	82.31
316.689	84.31
316.919	97.31
317.148	91.31
317.377	89.31
317.607	67.31
317.836	73.31
318.065	106.31
318.295	111.31
318.524	91.31
318.753	80.31
318.983	95.31
319.212	100.31
319.441	101.31
319.67	70.31
319.9	92.31
320.129	81.31
320.358	87.31
320.587	71.31
320.816	99.31
321.046	79.31
321.275	73.31
321.504	82.31
321.733	75.31
321.962	94.31
322.191	80.31
322.42	85.31
322.649	91.31
322.878	75.31
323.108	86.31
323.337	83.31
323.566	89.31
323.795	95.31
324.024	81.31
324.253	76.31
324.482	75.31
324.71	67.31
324.939	90.31
325.168	79.31
325.397	95.31
325.626	84.31
325.855	85.31
326.084	103.31
326.313	89.31
326.542	71.31
326.77	83.31
326.999	76.31
327.228	83.31
327.457	77.31
327.686	81.31
327.914	80.31
328.143	86.31
328.372	89.31
328.6	85.31
328.829	83.31
329.058	83.31
329.287	78.31
329.515	72.31
329.744	84.31
329.972	89.31
330.201	99.31
330.43	94.31
330.658	82.31
330.887	90.31
331.115	94.31
331.344	97.31
331.572	92.31
331.801	90.31
332.03	87.31
332.258	93.31
332.486	90.31
332.715	92.31
332.943	88.31
333.172	81.31
333.4	84.31
333.629	94.31
333.857	80.31
334.085	74.31
334.314	83.31
334.542	81.31
334.771	104.31
334.999	99.31
335.227	87.31
335.455	75.31
335.684	92.31
335.912	82.31
336.14	85.31
336.369	86.31
336.597	93.31
336.825	78.31
337.053	86.31
337.281	99.31
337.51	89.31
337.738	87.31
337.966	78.31
338.194	79.31
338.422	76.31
338.65	70.31
338.878	75.31
339.106	87.31
339.334	96.31
339.562	81.31
339.79	76.31
340.018	87.31
340.246	84.31
340.474	74.31
340.702	83.31
340.93	85.31
341.158	82.31
341.386	93.31
341.614	73.31
341.842	74.31
342.07	86.31
342.298	76.31
342.526	78.31
342.754	73.31
342.981	97.31
343.209	75.31
343.437	86.31
343.665	81.31
343.893	72.31
344.12	87.31
344.348	90.31
344.576	85.31
344.804	81.31
345.031	82.31
345.259	81.31
345.487	71.31
345.714	83.31
345.942	97.31
346.17	87.31
346.397	69.31
346.625	88.31
346.853	72.31
347.08	89.31
347.308	82.31
347.535	96.31
347.763	80.31
347.99	95.31
348.218	75.31
348.445	85.31
348.673	84.31
348.9	83.31
349.128	78.31
349.355	81.31
349.583	83.31
349.81	99.31
350.037	97.31
350.265	84.31
350.492	83.31
350.72	72.31
350.947	80.31
351.174	82.31
351.402	88.31
351.629	89.31
351.856	97.31
352.083	82.31
352.311	91.31
352.538	90.31
352.765	83.31
352.992	81.31
353.22	90.31
353.447	78.31
353.674	74.31
353.901	88.31
354.128	93.31
354.355	83.31
354.583	75.31
354.81	87.31
355.037	81.31
355.264	73.31
355.491	102.31
355.718	82.31
355.945	74.31
356.172	93.31
356.399	84.31
356.626	82.31
356.853	86.31
357.08	86.31
357.307	81.31
357.534	87.31
357.761	91.31
357.988	99.31
358.215	98.31
358.441	84.31
358.668	79.31
358.895	95.31
359.122	84.31
359.349	90.31
359.576	77.31
359.802	80.31
360.029	95.31
360.256	94.31
360.483	85.31
360.709	95.31
360.936	91.31
361.163	83.31
361.39	88.31
361.616	94.31
361.843	85.31
362.07	99.31
362.296	85.31
362.523	105.31
362.749	109.31
362.976	116.31
363.203	109.31
363.429	93.31
363.656	92.31
363.882	104.31
364.109	99.31
364.335	105.31
364.562	117.31
364.788	109.31
365.015	107.31
365.241	81.31
365.468	83.31
365.694	82.31
365.92	89.31
366.147	86.31
366.373	99.31
366.599	89.31
366.826	85.31
367.052	74.31
367.278	85.31
367.505	83.31
367.731	95.31
367.957	90.31
368.184	84.31
368.41	92.31
368.636	102.31
368.862	88.31
369.089	87.31
369.315	88.31
369.541	75.31
369.767	95.31
369.993	90.31
370.219	88.31
370.445	103.31
370.672	85.31
370.898	82.31
371.124	83.31
371.35	73.31
371.576	90.31
371.802	89.31
372.028	86.31
372.254	87.31
372.48	84.31
372.706	72.31
372.932	89.31
373.158	93.31
373.384	93.31
373.61	106.31
373.835	113.31
374.061	89.31
374.287	93.31
374.513	103.31
374.739	103.31
374.965	100.31
375.191	98.31
375.416	90.31
375.642	98.31
375.868	96.31
376.094	109.31
376.319	91.31
376.545	99.31
376.771	97.31
376.997	95.31
377.222	79.31
377.448	86.31
377.674	83.31
377.899	68.31
378.125	97.31
378.35	94.31
378.576	96.31
378.802	89.31
379.027	88.31
379.253	90.31
379.478	81.31
379.704	74.31
379.929	82.31
380.155	81.31
380.38	85.31
380.606	72.31
380.831	88.31
381.057	87.31
381.282	90.31
381.507	83.31
381.733	93.31
381.958	90.31
382.184	94.31
382.409	101.31
382.634	92.31
382.86	94.31
383.085	79.31
383.31	96.31
383.535	85.31
383.761	99.31
383.986	109.31
384.211	85.31
384.436	74.31
384.662	76.31
384.887	98.31
385.112	81.31
385.337	81.31
385.562	101.31
385.787	94.31
386.013	85.31
386.238	90.31
386.463	102.31
386.688	106.31
386.913	100.31
387.138	85.31
387.363	102.31
387.588	92.31
387.813	85.31
388.038	97.31
388.263	97.31
388.488	91.31
388.713	91.31
388.938	86.31
389.163	89.31
389.387	94.31
389.612	99.31
389.837	98.31
390.062	90.31
390.287	83.31
390.512	90.31
390.736	96.31
390.961	91.31
391.186	92.31
391.411	99.31
391.636	86.31
391.86	97.31
392.085	98.31
392.31	94.31
392.534	90.31
392.759	119.31
392.984	168.31
393.208	285.31
393.433	415.31
393.658	323.31
393.882	144.31
394.107	115.31
394.331	110.31
394.556	131.31
394.78	95.31
395.005	90.31
395.229	93.31
395.454	99.31
395.678	95.31
395.903	122.31
396.127	131.31
396.352	161.31
396.576	186.31
396.801	301.31
397.025	327.31
397.249	179.31
397.474	106.31
397.698	94.31
397.922	95.31
398.147	105.31
398.371	75.31
398.595	117.31
398.82	87.31
399.044	86.31
399.268	80.31
399.492	87.31
399.717	77.31
399.941	92.31
400.165	62.31
400.389	85.31
400.613	75.31
400.837	86.31
401.062	73.31
401.286	105.31
401.51	84.31
401.734	83.31
401.958	86.31
402.182	85.31
402.406	82.31
402.63	81.31
402.854	60.31
403.078	88.31
403.302	77.31
403.526	83.31
403.75	91.31
403.974	82.31
404.198	103.31
404.422	121.31
404.645	137.31
404.869	99.31
405.093	98.31
405.317	80.31
405.541	99.31
405.765	79.31
405.988	81.31
406.212	80.31
406.436	86.31
406.66	69.31
406.883	83.31
407.107	82.31
407.331	88.31
407.555	116.31
407.778	124.31
408.002	106.31
408.226	90.31
408.449	96.31
408.673	88.31
408.896	91.31
409.12	95.31
409.344	94.31
409.567	83.31
409.791	88.31
410.014	88.31
410.238	99.31
410.461	77.31
410.685	77.31
410.908	82.31
411.132	98.31
411.355	94.31
411.578	98.31
411.802	89.31
412.025	95.31
412.249	85.31
412.472	84.31
412.695	96.31
412.919	78.31
413.142	75.31
413.365	90.31
413.589	89.31
413.812	93.31
414.035	79.31
414.258	73.31
414.482	84.31
414.705	83.31
414.928	87.31
415.151	87.31
415.374	95.31
415.597	83.31
415.821	97.31
416.044	83.31
416.267	88.31
416.49	80.31
416.713	89.31
416.936	90.31
417.159	81.31
417.382	82.31
417.605	81.31
417.828	88.31
418.051	94.31
418.274	86.31
418.497	94.31
418.72	84.31
418.943	89.31
419.166	74.31
419.389	83.31
419.611	90.31
419.834	96.31
420.057	73.31
420.28	79.31
420.503	88.31
420.726	72.31
420.948	86.31
421.171	77.31
421.394	99.31
421.617	130.31
421.839	115.31
422.062	116.31
422.285	134.31
422.507	255.31
422.73	384.31
422.953	337.31
423.175	160.31
423.398	106.31
423.621	92.31
423.843	100.31
424.066	91.31
424.288	81.31
424.511	91.31
424.733	85.31
424.956	88.31
425.178	89.31
425.401	81.31
425.623	94.31
425.846	76.31
426.068	83.31
426.291	89.31
426.513	78.31
426.735	89.31
426.958	81.31
427.18	101.31
427.402	89.31
427.625	89.31
427.847	85.31
428.069	110.31
428.292	147.31
428.514	145.31
428.736	115.31
428.958	125.31
429.181	119.31
429.403	85.31
429.625	97.31
429.847	145.31
430.069	162.31
430.292	187.31
430.514	180.31
430.736	118.31
430.958	138.31
431.18	108.31
431.402	101.31
431.624	101.31
431.846	133.31
432.068	136.31
432.29	96.31
432.512	102.31
432.734	87.31
432.956	83.31
433.178	88.31
433.4	80.31
433.622	85.31
433.844	73.31
434.066	77.31
434.287	91.31
434.509	84.31
434.731	62.31
434.953	71.31
435.175	84.31
435.397	91.31
435.618	91.31
435.84	102.31
436.062	97.31
436.284	92.31
436.505	76.31
436.727	101.31
436.949	84.31
437.17	80.31
437.392	86.31
437.614	88.31
437.835	83.31
438.057	84.31
438.278	92.31
438.5	82.31
438.721	79.31
438.943	90.31
439.165	94.31
439.386	86.31
439.608	90.31
439.829	88.31
440.05	81.31
440.272	81.31
440.493	75.31
440.715	100.31
440.936	89.31
441.158	82.31
441.379	74.31
441.6	90.31
441.822	80.31
442.043	86.31
442.264	96.31
442.486	121.31
442.707	154.31
442.928	118.31
443.149	107.31
443.371	139.31
443.592	247.31
443.813	198.31
444.034	106.31
444.255	94.31
444.476	98.31
444.698	84.31
444.919	89.31
445.14	183.31
445.361	211.31
445.582	309.31
445.803	245.31
446.024	118.31
446.245	96.31
446.466	85.31
446.687	71.31
446.908	88.31
447.129	72.31
447.35	90.31
447.571	87.31
447.792	90.31
448.013	71.31
448.234	80.31
448.455	81.31
448.675	80.31
448.896	71.31
449.117	81.31
449.338	88.31
449.559	79.31
449.779	82.31
450	93.31
450.221	90.31
450.442	83.31
450.662	83.31
450.883	80.31
451.104	86.31
451.324	76.31
451.545	91.31
451.766	78.31
451.986	81.31
452.207	91.31
452.428	100.31
452.648	91.31
452.869	89.31
453.089	94.31
453.31	89.31
453.53	89.31
453.751	74.31
453.971	79.31
454.192	89.31
454.412	77.31
454.633	83.31
454.853	82.31
455.073	83.31
455.294	84.31
455.514	87.31
455.734	88.31
455.955	75.31
456.175	93.31
456.395	79.31
456.616	96.31
456.836	89.31
457.056	78.31
457.276	94.31
457.497	80.31
457.717	84.31
457.937	100.31
458.157	114.31
458.377	102.31
458.598	112.31
458.818	104.31
459.038	92.31
459.258	84.31
459.478	83.31
459.698	75.31
459.918	83.31
460.138	80.31
460.358	77.31
460.578	95.31
460.798	118.31
461.018	117.31
461.238	78.31
461.458	89.31
461.678	91.31
461.898	94.31
462.118	87.31
462.338	81.31
462.558	96.31
462.777	72.31
462.997	83.31
463.217	89.31
463.437	77.31
463.657	82.31
463.876	83.31
464.096	91.31
464.316	97.31
464.536	76.31
464.755	90.31
464.975	85.31
465.195	82.31
465.414	81.31
465.634	73.31
465.854	81.31
466.073	74.31
466.293	79.31
466.512	65.31
466.732	91.31
466.951	85.31
467.171	73.31
467.391	79.31
467.61	76.31
467.829	81.31
468.049	95.31
468.268	77.31
468.488	93.31
468.707	79.31
468.927	70.31
469.146	81.31
469.365	66.31
469.585	88.31
469.804	75.31
470.023	86.31
470.243	77.31
470.462	88.31
470.681	92.31
470.901	77.31
471.12	83.31
471.339	78.31
471.558	95.31
471.777	85.31
471.997	83.31
472.216	105.31
472.435	97.31
472.654	74.31
472.873	95.31
473.092	81.31
473.311	81.31
473.53	76.31
473.749	96.31
473.968	75.31
474.187	82.31
474.406	81.31
474.625	97.31
474.844	82.31
475.063	84.31
475.282	85.31
475.501	80.31
475.72	91.31
475.939	75.31
476.158	88.31
476.377	88.31
476.596	78.31
476.814	86.31
477.033	75.31
477.252	90.31
477.471	88.31
477.69	83.31
477.908	87.31
478.127	76.31
478.346	81.31
478.564	83.31
478.783	64.31
479.002	84.31
479.22	90.31
479.439	69.31
479.658	74.31
479.876	87.31
480.095	88.31
480.313	93.31
480.532	72.31
480.751	87.31
480.969	76.31
481.188	81.31
481.406	81.31
481.624	79.31
481.843	81.31
482.061	81.31
482.28	87.31
482.498	96.31
482.717	83.31
482.935	91.31
483.153	81.31
483.372	86.31
483.59	89.31
483.808	83.31
484.027	95.31
484.245	101.31
484.463	86.31
484.681	88.31
484.9	100.31
485.118	86.31
485.336	75.31
485.554	76.31
485.772	82.31
485.99	87.31
486.209	95.31
486.427	89.31
486.645	96.31
486.863	86.31
487.081	99.31
487.299	93.31
487.517	89.31
487.735	113.31
487.953	144.31
488.171	126.31
488.389	92.31
488.607	102.31
488.825	91.31
489.043	87.31
489.261	92.31
489.479	87.31
489.696	88.31
489.914	76.31
490.132	82.31
490.35	82.31
490.568	83.31
490.786	89.31
491.003	83.31
491.221	80.31
491.439	77.31
491.657	76.31
491.874	75.31
492.092	81.31
492.31	84.31
492.527	82.31
492.745	85.31
492.963	97.31
493.18	83.31
493.398	81.31
493.615	80.31
493.833	86.31
494.05	101.31
494.268	89.31
494.485	99.31
494.703	83.31
494.92	70.31
495.138	87.31
495.355	88.31
495.573	87.31
495.79	103.31
496.008	86.31
496.225	85.31
496.442	88.31
496.66	94.31
496.877	89.31
497.094	87.31
497.312	83.31
497.529	87.31
497.746	89.31
497.963	88.31
498.181	82.31
498.398	94.31
498.615	91.31
498.832	87.31
499.049	91.31
499.267	95.31
499.484	81.31
499.701	94.31
499.918	93.31
500.135	98.31
500.352	82.31
500.569	71.31
500.786	77.31
501.003	88.31
501.22	82.31
501.437	91.31
501.654	83.31
501.871	92.31
502.088	73.31
502.305	81.31
502.522	99.31
502.739	80.31
502.956	77.31
503.172	88.31
503.389	81.31
503.606	86.31
503.823	76.31
504.04	94.31
504.256	137.31
504.473	121.31
504.69	101.31
504.907	99.31
505.123	90.31
505.34	77.31
505.557	83.31
505.773	88.31
505.99	80.31
506.207	76.31
506.423	82.31
506.64	91.31
506.856	75.31
507.073	79.31
507.289	72.31
507.506	84.31
507.722	99.31
507.939	94.31
508.155	98.31
508.372	81.31
508.588	83.31
508.805	98.31
509.021	89.31
509.238	81.31
509.454	83.31
509.67	92.31
509.887	89.31
510.103	87.31
510.319	85.31
510.536	73.31
510.752	81.31
510.968	76.31
511.184	79.31
511.401	81.31
511.617	85.31
511.833	81.31
512.049	79.31
512.265	73.31
512.481	73.31
512.698	86.31
512.914	69.31
513.13	86.31
513.346	81.31
513.562	83.31
513.778	92.31
513.994	89.31
514.21	82.31
514.426	77.31
514.642	84.31
514.858	84.31
515.074	67.31
515.29	81.31
515.506	73.31
515.721	82.31
515.937	89.31
516.153	87.31
516.369	101.31
516.585	93.31
516.801	81.31
517.016	91.31
517.232	71.31
517.448	97.31
517.664	83.31
517.879	72.31
518.095	89.31
518.311	89.31
518.527	97.31
