Data from 17600_1_HRD10591_00003.txt Node
Date: Mon Jan 19 14:07:25 EST 2026
User: Yrep
Spectrometer: HR+D1059
Trigger mode: 1
Integration Time (sec): 1.000000E-1
Scans to average: 1
Electric dark correction enabled: true
Nonlinearity correction enabled: false
Boxcar width: 0
XAxis mode: Wavelengths
Number of Pixels in Spectrum: 2048
>>>>>Begin Spectral Data<<<<<
223.165	-20.44
223.4	-20.44
223.635	-20.44
223.869	-26.44
224.104	-16.44
224.338	-24.44
224.573	-19.44
224.808	-16.44
225.042	-6.44
225.277	1.56
225.511	-7.44
225.746	10.56
225.98	10.56
226.215	12.56
226.449	9.56
226.683	27.56
226.918	24.56
227.152	40.56
227.387	38.56
227.621	33.56
227.856	44.56
228.09	40.56
228.324	50.56
228.559	63.56
228.793	50.56
229.027	70.56
229.262	70.56
229.496	64.56
229.73	68.56
229.964	76.56
230.199	67.56
230.433	77.56
230.667	76.56
230.901	71.56
231.136	74.56
231.37	84.56
231.604	84.56
231.838	88.56
232.072	60.56
232.306	77.56
232.541	84.56
232.775	90.56
233.009	82.56
233.243	76.56
233.477	88.56
233.711	78.56
233.945	88.56
234.179	87.56
234.413	84.56
234.647	87.56
234.881	71.56
235.115	85.56
235.349	83.56
235.583	77.56
235.817	81.56
236.051	92.56
236.285	83.56
236.519	79.56
236.753	81.56
236.987	89.56
237.221	88.56
237.455	71.56
237.689	74.56
237.922	82.56
238.156	69.56
238.39	68.56
238.624	63.56
238.858	69.56
239.091	82.56
239.325	88.56
239.559	83.56
239.793	73.56
240.027	65.56
240.26	77.56
240.494	85.56
240.728	73.56
240.961	82.56
241.195	84.56
241.429	83.56
241.662	76.56
241.896	73.56
242.13	69.56
242.363	84.56
242.597	88.56
242.83	73.56
243.064	75.56
243.298	76.56
243.531	67.56
243.765	65.56
243.998	88.56
244.232	78.56
244.465	84.56
244.699	81.56
244.932	77.56
245.166	72.56
245.399	74.56
245.633	71.56
245.866	93.56
246.099	68.56
246.333	83.56
246.566	76.56
246.8	77.56
247.033	71.56
247.266	71.56
247.5	77.56
247.733	65.56
247.966	73.56
248.2	77.56
248.433	76.56
248.666	75.56
248.899	78.56
249.133	76.56
249.366	87.56
249.599	77.56
249.832	87.56
250.066	89.56
250.299	98.56
250.532	86.56
250.765	80.56
250.998	83.56
251.231	88.56
251.465	87.56
251.698	76.56
251.931	82.56
252.164	76.56
252.397	91.56
252.63	102.56
252.863	72.56
253.096	85.56
253.329	65.56
253.562	79.56
253.795	88.56
254.028	89.56
254.261	75.56
254.494	82.56
254.727	77.56
254.96	84.56
255.193	96.56
255.426	84.56
255.659	81.56
255.892	90.56
256.124	89.56
256.357	68.56
256.59	71.56
256.823	80.56
257.056	72.56
257.289	86.56
257.521	81.56
257.754	88.56
257.987	99.56
258.22	80.56
258.452	85.56
258.685	80.56
258.918	84.56
259.151	81.56
259.383	80.56
259.616	87.56
259.849	85.56
260.081	88.56
260.314	71.56
260.547	86.56
260.779	95.56
261.012	81.56
261.244	72.56
261.477	76.56
261.71	76.56
261.942	84.56
262.175	72.56
262.407	77.56
262.64	93.56
262.872	85.56
263.105	78.56
263.337	75.56
263.57	81.56
263.802	90.56
264.035	81.56
264.267	80.56
264.499	90.56
264.732	91.56
264.964	89.56
265.197	85.56
265.429	102.56
265.661	79.56
265.894	81.56
266.126	90.56
266.358	81.56
266.591	77.56
266.823	85.56
267.055	74.56
267.287	81.56
267.52	87.56
267.752	90.56
267.984	83.56
268.216	88.56
268.448	92.56
268.681	78.56
268.913	93.56
269.145	102.56
269.377	97.56
269.609	86.56
269.841	72.56
270.073	78.56
270.306	83.56
270.538	65.56
270.77	84.56
271.002	90.56
271.234	83.56
271.466	76.56
271.698	89.56
271.93	78.56
272.162	83.56
272.394	95.56
272.626	78.56
272.858	91.56
273.09	73.56
273.322	92.56
273.553	79.56
273.785	81.56
274.017	80.56
274.249	77.56
274.481	84.56
274.713	99.56
274.945	102.56
275.176	96.56
275.408	82.56
275.64	80.56
275.872	94.56
276.104	83.56
276.335	73.56
276.567	76.56
276.799	97.56
277.031	84.56
277.262	77.56
277.494	90.56
277.726	91.56
277.957	85.56
278.189	84.56
278.421	73.56
278.652	74.56
278.884	88.56
279.115	91.56
279.347	85.56
279.579	89.56
279.81	88.56
280.042	88.56
280.273	86.56
280.505	84.56
280.736	76.56
280.968	79.56
281.199	76.56
281.431	92.56
281.662	85.56
281.894	77.56
282.125	89.56
282.356	80.56
282.588	76.56
282.819	76.56
283.051	99.56
283.282	85.56
283.513	92.56
283.745	96.56
283.976	82.56
284.207	74.56
284.439	85.56
284.67	73.56
284.901	81.56
285.132	74.56
285.364	88.56
285.595	91.56
285.826	89.56
286.057	80.56
286.288	87.56
286.52	83.56
286.751	84.56
286.982	84.56
287.213	77.56
287.444	86.56
287.675	87.56
287.906	77.56
288.138	85.56
288.369	95.56
288.6	90.56
288.831	77.56
289.062	81.56
289.293	85.56
289.524	83.56
289.755	95.56
289.986	91.56
290.217	86.56
290.448	91.56
290.679	89.56
290.91	92.56
291.141	82.56
291.371	91.56
291.602	91.56
291.833	81.56
292.064	83.56
292.295	84.56
292.526	99.56
292.757	87.56
292.987	73.56
293.218	87.56
293.449	71.56
293.68	93.56
293.91	89.56
294.141	83.56
294.372	93.56
294.603	80.56
294.833	85.56
295.064	93.56
295.295	91.56
295.525	80.56
295.756	98.56
295.987	84.56
296.217	89.56
296.448	83.56
296.679	75.56
296.909	91.56
297.14	84.56
297.37	89.56
297.601	80.56
297.831	80.56
298.062	83.56
298.292	88.56
298.523	97.56
298.753	90.56
298.984	88.56
299.214	104.56
299.445	92.56
299.675	102.56
299.905	89.56
300.136	83.56
300.366	76.56
300.597	99.56
300.827	83.56
301.057	77.56
301.288	84.56
301.518	92.56
301.748	89.56
301.979	90.56
302.209	88.56
302.439	89.56
302.669	92.56
302.9	92.56
303.13	84.56
303.36	83.56
303.59	90.56
303.82	87.56
304.051	79.56
304.281	98.56
304.511	93.56
304.741	90.56
304.971	95.56
305.201	89.56
305.431	89.56
305.661	100.56
305.891	79.56
306.121	90.56
306.352	93.56
306.582	84.56
306.812	98.56
307.042	93.56
307.272	77.56
307.502	91.56
307.731	96.56
307.961	91.56
308.191	91.56
308.421	94.56
308.651	95.56
308.881	83.56
309.111	104.56
309.341	98.56
309.571	93.56
309.8	96.56
310.03	99.56
310.26	83.56
310.49	97.56
310.72	90.56
310.949	78.56
311.179	87.56
311.409	93.56
311.639	71.56
311.868	83.56
312.098	89.56
312.328	87.56
312.557	81.56
312.787	85.56
313.017	93.56
313.246	91.56
313.476	76.56
313.706	86.56
313.935	81.56
314.165	79.56
314.394	84.56
314.624	68.56
314.853	99.56
315.083	75.56
315.312	95.56
315.542	97.56
315.771	91.56
316.001	91.56
316.23	82.56
316.46	85.56
316.689	97.56
316.919	78.56
317.148	99.56
317.377	82.56
317.607	81.56
317.836	93.56
318.065	93.56
318.295	87.56
318.524	100.56
318.753	89.56
318.983	95.56
319.212	95.56
319.441	73.56
319.67	88.56
319.9	104.56
320.129	78.56
320.358	100.56
320.587	89.56
320.816	91.56
321.046	80.56
321.275	88.56
321.504	100.56
321.733	94.56
321.962	79.56
322.191	79.56
322.42	88.56
322.649	86.56
322.878	100.56
323.108	87.56
323.337	78.56
323.566	89.56
323.795	77.56
324.024	84.56
324.253	84.56
324.482	85.56
324.71	82.56
324.939	85.56
325.168	85.56
325.397	87.56
325.626	83.56
325.855	92.56
326.084	81.56
326.313	80.56
326.542	82.56
326.77	87.56
326.999	86.56
327.228	87.56
327.457	75.56
327.686	98.56
327.914	92.56
328.143	95.56
328.372	85.56
328.6	77.56
328.829	87.56
329.058	87.56
329.287	83.56
329.515	75.56
329.744	97.56
329.972	86.56
330.201	100.56
330.43	90.56
330.658	77.56
330.887	98.56
331.115	95.56
331.344	81.56
331.572	84.56
331.801	81.56
332.03	87.56
332.258	87.56
332.486	87.56
332.715	86.56
332.943	90.56
333.172	88.56
333.4	93.56
333.629	87.56
333.857	95.56
334.085	104.56
334.314	92.56
334.542	93.56
334.771	112.56
334.999	90.56
335.227	89.56
335.455	86.56
335.684	87.56
335.912	86.56
336.14	100.56
336.369	102.56
336.597	86.56
336.825	84.56
337.053	90.56
337.281	82.56
337.51	91.56
337.738	92.56
337.966	85.56
338.194	100.56
338.422	98.56
338.65	97.56
338.878	93.56
339.106	87.56
339.334	98.56
339.562	101.56
339.79	93.56
340.018	82.56
340.246	87.56
340.474	81.56
340.702	90.56
340.93	89.56
341.158	75.56
341.386	83.56
341.614	77.56
341.842	91.56
342.07	83.56
342.298	90.56
342.526	80.56
342.754	88.56
342.981	100.56
343.209	81.56
343.437	91.56
343.665	79.56
343.893	85.56
344.12	102.56
344.348	87.56
344.576	89.56
344.804	95.56
345.031	92.56
345.259	77.56
345.487	90.56
345.714	91.56
345.942	89.56
346.17	87.56
346.397	78.56
346.625	95.56
346.853	97.56
347.08	82.56
347.308	92.56
347.535	84.56
347.763	89.56
347.99	74.56
348.218	84.56
348.445	72.56
348.673	85.56
348.9	85.56
349.128	98.56
349.355	91.56
349.583	87.56
349.81	88.56
350.037	85.56
350.265	76.56
350.492	87.56
350.72	81.56
350.947	95.56
351.174	95.56
351.402	84.56
351.629	78.56
351.856	93.56
352.083	91.56
352.311	89.56
352.538	85.56
352.765	84.56
352.992	91.56
353.22	76.56
353.447	75.56
353.674	76.56
353.901	84.56
354.128	88.56
354.355	84.56
354.583	72.56
354.81	76.56
355.037	96.56
355.264	99.56
355.491	100.56
355.718	87.56
355.945	79.56
356.172	85.56
356.399	76.56
356.626	97.56
356.853	89.56
357.08	99.56
357.307	87.56
357.534	91.56
357.761	104.56
357.988	90.56
358.215	91.56
358.441	101.56
358.668	117.56
358.895	85.56
359.122	93.56
359.349	84.56
359.576	100.56
359.802	86.56
360.029	84.56
360.256	76.56
360.483	95.56
360.709	75.56
360.936	95.56
361.163	77.56
361.39	97.56
361.616	91.56
361.843	93.56
362.07	92.56
362.296	92.56
362.523	105.56
362.749	107.56
362.976	115.56
363.203	121.56
363.429	87.56
363.656	96.56
363.882	83.56
364.109	95.56
364.335	106.56
364.562	125.56
364.788	94.56
365.015	102.56
365.241	89.56
365.468	97.56
365.694	88.56
365.92	86.56
366.147	86.56
366.373	104.56
366.599	94.56
366.826	100.56
367.052	88.56
367.278	87.56
367.505	91.56
367.731	106.56
367.957	103.56
368.184	96.56
368.41	91.56
368.636	83.56
368.862	89.56
369.089	101.56
369.315	80.56
369.541	99.56
369.767	84.56
369.993	93.56
370.219	92.56
370.445	89.56
370.672	83.56
370.898	84.56
371.124	89.56
371.35	88.56
371.576	93.56
371.802	92.56
372.028	89.56
372.254	90.56
372.48	102.56
372.706	100.56
372.932	93.56
373.158	86.56
373.384	87.56
373.61	118.56
373.835	96.56
374.061	98.56
374.287	103.56
374.513	91.56
374.739	109.56
374.965	112.56
375.191	115.56
375.416	98.56
375.642	93.56
375.868	93.56
376.094	105.56
376.319	105.56
376.545	79.56
376.771	91.56
376.997	90.56
377.222	83.56
377.448	91.56
377.674	85.56
377.899	96.56
378.125	96.56
378.35	101.56
378.576	90.56
378.802	84.56
379.027	88.56
379.253	97.56
379.478	99.56
379.704	84.56
379.929	101.56
380.155	81.56
380.38	89.56
380.606	81.56
380.831	89.56
381.057	72.56
381.282	95.56
381.507	103.56
381.733	86.56
381.958	97.56
382.184	93.56
382.409	94.56
382.634	92.56
382.86	92.56
383.085	100.56
383.31	92.56
383.535	102.56
383.761	97.56
383.986	101.56
384.211	101.56
384.436	95.56
384.662	98.56
384.887	98.56
385.112	89.56
385.337	92.56
385.562	103.56
385.787	93.56
386.013	105.56
386.238	112.56
386.463	106.56
386.688	101.56
386.913	97.56
387.138	99.56
387.363	90.56
387.588	102.56
387.813	102.56
388.038	101.56
388.263	95.56
388.488	100.56
388.713	99.56
388.938	91.56
389.163	75.56
389.387	93.56
389.612	84.56
389.837	77.56
390.062	95.56
390.287	84.56
390.512	85.56
390.736	81.56
390.961	98.56
391.186	92.56
391.411	95.56
391.636	81.56
391.86	85.56
392.085	103.56
392.31	98.56
392.534	102.56
392.759	114.56
392.984	139.56
393.208	204.56
393.433	293.56
393.658	229.56
393.882	143.56
394.107	95.56
394.331	117.56
394.556	123.56
394.78	93.56
395.005	95.56
395.229	90.56
395.454	81.56
395.678	105.56
395.903	120.56
396.127	125.56
396.352	140.56
396.576	156.56
396.801	220.56
397.025	247.56
397.249	150.56
397.474	107.56
397.698	96.56
397.922	84.56
398.147	104.56
398.371	76.56
398.595	92.56
398.82	83.56
399.044	85.56
399.268	92.56
399.492	81.56
399.717	86.56
399.941	89.56
400.165	89.56
400.389	89.56
400.613	92.56
400.837	91.56
401.062	98.56
401.286	76.56
401.51	95.56
401.734	94.56
401.958	79.56
402.182	76.56
402.406	92.56
402.63	83.56
402.854	91.56
403.078	99.56
403.302	91.56
403.526	92.56
403.75	91.56
403.974	88.56
404.198	78.56
404.422	89.56
404.645	107.56
404.869	104.56
405.093	89.56
405.317	91.56
405.541	86.56
405.765	81.56
405.988	81.56
406.212	85.56
406.436	79.56
406.66	95.56
406.883	94.56
407.107	89.56
407.331	78.56
407.555	84.56
407.778	108.56
408.002	104.56
408.226	81.56
408.449	97.56
408.673	97.56
408.896	99.56
409.12	100.56
409.344	87.56
409.567	104.56
409.791	100.56
410.014	112.56
410.238	98.56
410.461	89.56
410.685	74.56
410.908	92.56
411.132	81.56
411.355	85.56
411.578	85.56
411.802	95.56
412.025	81.56
412.249	85.56
412.472	93.56
412.695	68.56
412.919	94.56
413.142	88.56
413.365	90.56
413.589	95.56
413.812	83.56
414.035	84.56
414.258	80.56
414.482	77.56
414.705	97.56
414.928	95.56
415.151	81.56
415.374	80.56
415.597	91.56
415.821	87.56
416.044	90.56
416.267	103.56
416.49	89.56
416.713	83.56
416.936	88.56
417.159	87.56
417.382	95.56
417.605	69.56
417.828	85.56
418.051	84.56
418.274	81.56
418.497	84.56
418.72	93.56
418.943	88.56
419.166	98.56
419.389	109.56
419.611	92.56
419.834	83.56
420.057	91.56
420.28	86.56
420.503	92.56
420.726	80.56
420.948	96.56
421.171	104.56
421.394	114.56
421.617	113.56
421.839	127.56
422.062	143.56
422.285	177.56
422.507	281.56
422.73	418.56
422.953	396.56
423.175	215.56
423.398	132.56
423.621	122.56
423.843	106.56
424.066	112.56
424.288	111.56
424.511	88.56
424.733	88.56
424.956	92.56
425.178	111.56
425.401	95.56
425.623	85.56
425.846	89.56
426.068	80.56
426.291	96.56
426.513	88.56
426.735	99.56
426.958	100.56
427.18	91.56
427.402	105.56
427.625	109.56
427.847	96.56
428.069	91.56
428.292	129.56
428.514	138.56
428.736	114.56
428.958	114.56
429.181	131.56
429.403	95.56
429.625	105.56
429.847	98.56
430.069	142.56
430.292	167.56
430.514	142.56
430.736	139.56
430.958	137.56
431.18	104.56
431.402	85.56
431.624	93.56
431.846	114.56
432.068	139.56
432.29	90.56
432.512	83.56
432.734	90.56
432.956	89.56
433.178	88.56
433.4	97.56
433.622	98.56
433.844	96.56
434.066	92.56
434.287	81.56
434.509	78.56
434.731	81.56
434.953	96.56
435.175	91.56
435.397	87.56
435.618	90.56
435.84	89.56
436.062	92.56
436.284	83.56
436.505	83.56
436.727	88.56
436.949	109.56
437.17	93.56
437.392	103.56
437.614	83.56
437.835	87.56
438.057	75.56
438.278	88.56
438.5	95.56
438.721	88.56
438.943	82.56
439.165	85.56
439.386	97.56
439.608	89.56
439.829	97.56
440.05	87.56
440.272	87.56
440.493	104.56
440.715	82.56
440.936	106.56
441.158	96.56
441.379	96.56
441.6	84.56
441.822	88.56
442.043	91.56
442.264	89.56
442.486	108.56
442.707	156.56
442.928	115.56
443.149	109.56
443.371	137.56
443.592	229.56
443.813	201.56
444.034	111.56
444.255	91.56
444.476	82.56
444.698	99.56
444.919	100.56
445.14	172.56
445.361	184.56
445.582	255.56
445.803	221.56
446.024	117.56
446.245	108.56
446.466	102.56
446.687	82.56
446.908	91.56
447.129	93.56
447.35	91.56
447.571	87.56
447.792	95.56
448.013	103.56
448.234	81.56
448.455	79.56
448.675	83.56
448.896	90.56
449.117	93.56
449.338	94.56
449.559	91.56
449.779	84.56
450	85.56
450.221	86.56
450.442	88.56
450.662	91.56
450.883	83.56
451.104	86.56
451.324	97.56
451.545	78.56
451.766	81.56
451.986	83.56
452.207	100.56
452.428	78.56
452.648	88.56
452.869	91.56
453.089	93.56
453.31	88.56
453.53	96.56
453.751	95.56
453.971	85.56
454.192	83.56
454.412	84.56
454.633	80.56
454.853	71.56
455.073	87.56
455.294	91.56
455.514	93.56
455.734	86.56
455.955	84.56
456.175	86.56
456.395	104.56
456.616	77.56
456.836	85.56
457.056	73.56
457.276	94.56
457.497	83.56
457.717	91.56
457.937	100.56
458.157	120.56
458.377	114.56
458.598	135.56
458.818	118.56
459.038	106.56
459.258	92.56
459.478	83.56
459.698	85.56
459.918	92.56
460.138	79.56
460.358	90.56
460.578	113.56
460.798	143.56
461.018	137.56
461.238	82.56
461.458	82.56
461.678	87.56
461.898	83.56
462.118	86.56
462.338	84.56
462.558	87.56
462.777	78.56
462.997	71.56
463.217	82.56
463.437	87.56
463.657	90.56
463.876	92.56
464.096	74.56
464.316	99.56
464.536	95.56
464.755	84.56
464.975	86.56
465.195	93.56
465.414	90.56
465.634	84.56
465.854	82.56
466.073	76.56
466.293	87.56
466.512	89.56
466.732	99.56
466.951	82.56
467.171	73.56
467.391	87.56
467.61	93.56
467.829	101.56
468.049	78.56
468.268	84.56
468.488	97.56
468.707	91.56
468.927	89.56
469.146	81.56
469.365	78.56
469.585	83.56
469.804	90.56
470.023	87.56
470.243	90.56
470.462	87.56
470.681	86.56
470.901	85.56
471.12	88.56
471.339	78.56
471.558	93.56
471.777	84.56
471.997	83.56
472.216	92.56
472.435	80.56
472.654	78.56
472.873	75.56
473.092	92.56
473.311	95.56
473.53	84.56
473.749	82.56
473.968	96.56
474.187	92.56
474.406	84.56
474.625	89.56
474.844	92.56
475.063	94.56
475.282	79.56
475.501	90.56
475.72	86.56
475.939	88.56
476.158	86.56
476.377	89.56
476.596	79.56
476.814	88.56
477.033	89.56
477.252	74.56
477.471	74.56
477.69	90.56
477.908	88.56
478.127	85.56
478.346	79.56
478.564	86.56
478.783	91.56
479.002	100.56
479.22	92.56
479.439	93.56
479.658	92.56
479.876	93.56
480.095	81.56
480.313	84.56
480.532	82.56
480.751	92.56
480.969	96.56
481.188	84.56
481.406	86.56
481.624	76.56
481.843	87.56
482.061	97.56
482.28	88.56
482.498	85.56
482.717	78.56
482.935	102.56
483.153	93.56
483.372	93.56
483.59	104.56
483.808	84.56
484.027	82.56
484.245	91.56
484.463	86.56
484.681	91.56
484.9	85.56
485.118	84.56
485.336	94.56
485.554	97.56
485.772	100.56
485.99	88.56
486.209	91.56
486.427	93.56
486.645	83.56
486.863	92.56
487.081	101.56
487.299	100.56
487.517	102.56
487.735	129.56
487.953	151.56
488.171	144.56
488.389	99.56
488.607	96.56
488.825	87.56
489.043	91.56
489.261	91.56
489.479	93.56
489.696	99.56
489.914	97.56
490.132	77.56
490.35	81.56
490.568	100.56
490.786	99.56
491.003	88.56
491.221	89.56
491.439	77.56
491.657	88.56
491.874	95.56
492.092	78.56
492.31	82.56
492.527	97.56
492.745	111.56
492.963	99.56
493.18	91.56
493.398	95.56
493.615	81.56
493.833	84.56
494.05	90.56
494.268	89.56
494.485	77.56
494.703	107.56
494.92	92.56
495.138	98.56
495.355	92.56
495.573	107.56
495.79	91.56
496.008	95.56
496.225	95.56
496.442	112.56
496.66	90.56
496.877	81.56
497.094	77.56
497.312	79.56
497.529	75.56
497.746	91.56
497.963	88.56
498.181	91.56
498.398	98.56
498.615	82.56
498.832	94.56
499.049	83.56
499.267	96.56
499.484	91.56
499.701	97.56
499.918	85.56
500.135	97.56
500.352	78.56
500.569	82.56
500.786	99.56
501.003	99.56
501.22	76.56
501.437	103.56
501.654	88.56
501.871	76.56
502.088	90.56
502.305	99.56
502.522	83.56
502.739	96.56
502.956	77.56
503.172	88.56
503.389	91.56
503.606	87.56
503.823	100.56
504.04	98.56
504.256	155.56
504.473	134.56
504.69	111.56
504.907	90.56
505.123	103.56
505.34	105.56
505.557	81.56
505.773	89.56
505.99	88.56
506.207	96.56
506.423	94.56
506.64	96.56
506.856	103.56
507.073	100.56
507.289	77.56
507.506	98.56
507.722	95.56
507.939	95.56
508.155	105.56
508.372	77.56
508.588	95.56
508.805	104.56
509.021	85.56
509.238	97.56
509.454	90.56
509.67	91.56
509.887	90.56
510.103	81.56
510.319	81.56
510.536	84.56
510.752	72.56
510.968	78.56
511.184	79.56
511.401	88.56
511.617	88.56
511.833	97.56
512.049	94.56
512.265	99.56
512.481	97.56
512.698	91.56
512.914	85.56
513.13	105.56
513.346	100.56
513.562	88.56
513.778	86.56
513.994	84.56
514.21	85.56
514.426	86.56
514.642	86.56
514.858	99.56
515.074	95.56
515.29	94.56
515.506	96.56
515.721	94.56
515.937	97.56
516.153	108.56
516.369	88.56
516.585	85.56
516.801	97.56
517.016	100.56
517.232	105.56
517.448	91.56
