Data from 17600_1_HRD10591_00047.txt Node
Date: Mon Jan 19 14:07:47 EST 2026
User: Yrep
Spectrometer: HR+D1059
Trigger mode: 1
Integration Time (sec): 1.000000E-1
Scans to average: 1
Electric dark correction enabled: true
Nonlinearity correction enabled: false
Boxcar width: 0
XAxis mode: Wavelengths
Number of Pixels in Spectrum: 2048
>>>>>Begin Spectral Data<<<<<
223.165	-25.31
223.4	-25.31
223.635	-25.31
223.869	-3.31
224.104	-12.31
224.338	-11.31
224.573	-26.31
224.808	-8.31
225.042	-12.31
225.277	-0.31
225.511	4.69
225.746	2.69
225.98	7.69
226.215	1.69
226.449	13.69
226.683	23.69
226.918	22.69
227.152	22.69
227.387	35.69
227.621	42.69
227.856	53.69
228.09	64.69
228.324	44.69
228.559	46.69
228.793	62.69
229.027	63.69
229.262	56.69
229.496	58.69
229.73	72.69
229.964	80.69
230.199	69.69
230.433	82.69
230.667	84.69
230.901	77.69
231.136	83.69
231.37	70.69
231.604	72.69
231.838	79.69
232.072	73.69
232.306	74.69
232.541	87.69
232.775	82.69
233.009	87.69
233.243	74.69
233.477	63.69
233.711	84.69
233.945	86.69
234.179	81.69
234.413	71.69
234.647	63.69
234.881	81.69
235.115	82.69
235.349	84.69
235.583	80.69
235.817	59.69
236.051	72.69
236.285	72.69
236.519	68.69
236.753	74.69
236.987	67.69
237.221	73.69
237.455	71.69
237.689	65.69
237.922	75.69
238.156	85.69
238.39	74.69
238.624	80.69
238.858	74.69
239.091	74.69
239.325	75.69
239.559	84.69
239.793	70.69
240.027	68.69
240.26	84.69
240.494	70.69
240.728	78.69
240.961	82.69
241.195	82.69
241.429	72.69
241.662	73.69
241.896	64.69
242.13	64.69
242.363	71.69
242.597	62.69
242.83	75.69
243.064	88.69
243.298	73.69
243.531	90.69
243.765	76.69
243.998	64.69
244.232	74.69
244.465	62.69
244.699	82.69
244.932	74.69
245.166	79.69
245.399	76.69
245.633	80.69
245.866	75.69
246.099	65.69
246.333	84.69
246.566	78.69
246.8	85.69
247.033	73.69
247.266	81.69
247.5	79.69
247.733	71.69
247.966	85.69
248.2	70.69
248.433	73.69
248.666	78.69
248.899	74.69
249.133	79.69
249.366	75.69
249.599	72.69
249.832	76.69
250.066	81.69
250.299	76.69
250.532	86.69
250.765	80.69
250.998	89.69
251.231	77.69
251.465	78.69
251.698	82.69
251.931	78.69
252.164	80.69
252.397	96.69
252.63	80.69
252.863	70.69
253.096	75.69
253.329	86.69
253.562	80.69
253.795	83.69
254.028	94.69
254.261	84.69
254.494	83.69
254.727	85.69
254.96	68.69
255.193	70.69
255.426	89.69
255.659	72.69
255.892	72.69
256.124	74.69
256.357	86.69
256.59	78.69
256.823	90.69
257.056	76.69
257.289	86.69
257.521	80.69
257.754	89.69
257.987	83.69
258.22	83.69
258.452	74.69
258.685	81.69
258.918	84.69
259.151	76.69
259.383	87.69
259.616	70.69
259.849	72.69
260.081	89.69
260.314	64.69
260.547	74.69
260.779	76.69
261.012	80.69
261.244	92.69
261.477	79.69
261.71	82.69
261.942	85.69
262.175	81.69
262.407	78.69
262.64	96.69
262.872	89.69
263.105	76.69
263.337	75.69
263.57	88.69
263.802	78.69
264.035	94.69
264.267	73.69
264.499	82.69
264.732	80.69
264.964	85.69
265.197	82.69
265.429	76.69
265.661	80.69
265.894	85.69
266.126	85.69
266.358	83.69
266.591	91.69
266.823	80.69
267.055	78.69
267.287	84.69
267.52	68.69
267.752	81.69
267.984	78.69
268.216	82.69
268.448	84.69
268.681	80.69
268.913	80.69
269.145	80.69
269.377	83.69
269.609	75.69
269.841	69.69
270.073	92.69
270.306	75.69
270.538	95.69
270.77	94.69
271.002	90.69
271.234	81.69
271.466	72.69
271.698	86.69
271.93	76.69
272.162	77.69
272.394	92.69
272.626	78.69
272.858	74.69
273.09	78.69
273.322	79.69
273.553	97.69
273.785	92.69
274.017	92.69
274.249	88.69
274.481	81.69
274.713	71.69
274.945	88.69
275.176	90.69
275.408	87.69
275.64	81.69
275.872	72.69
276.104	76.69
276.335	84.69
276.567	84.69
276.799	82.69
277.031	84.69
277.262	78.69
277.494	68.69
277.726	81.69
277.957	81.69
278.189	75.69
278.421	89.69
278.652	84.69
278.884	78.69
279.115	89.69
279.347	85.69
279.579	96.69
279.81	93.69
280.042	80.69
280.273	74.69
280.505	76.69
280.736	86.69
280.968	84.69
281.199	67.69
281.431	85.69
281.662	92.69
281.894	92.69
282.125	71.69
282.356	76.69
282.588	87.69
282.819	90.69
283.051	69.69
283.282	87.69
283.513	84.69
283.745	96.69
283.976	88.69
284.207	63.69
284.439	83.69
284.67	85.69
284.901	73.69
285.132	94.69
285.364	103.69
285.595	90.69
285.826	84.69
286.057	87.69
286.288	84.69
286.52	69.69
286.751	84.69
286.982	87.69
287.213	87.69
287.444	88.69
287.675	81.69
287.906	84.69
288.138	91.69
288.369	80.69
288.6	78.69
288.831	86.69
289.062	86.69
289.293	81.69
289.524	75.69
289.755	79.69
289.986	92.69
290.217	79.69
290.448	86.69
290.679	62.69
290.91	83.69
291.141	85.69
291.371	90.69
291.602	73.69
291.833	71.69
292.064	86.69
292.295	100.69
292.526	88.69
292.757	79.69
292.987	90.69
293.218	83.69
293.449	87.69
293.68	89.69
293.91	88.69
294.141	71.69
294.372	92.69
294.603	84.69
294.833	80.69
295.064	93.69
295.295	87.69
295.525	76.69
295.756	88.69
295.987	82.69
296.217	72.69
296.448	69.69
296.679	88.69
296.909	86.69
297.14	92.69
297.37	93.69
297.601	87.69
297.831	81.69
298.062	92.69
298.292	83.69
298.523	88.69
298.753	85.69
298.984	83.69
299.214	95.69
299.445	79.69
299.675	99.69
299.905	89.69
300.136	76.69
300.366	75.69
300.597	96.69
300.827	87.69
301.057	90.69
301.288	105.69
301.518	81.69
301.748	85.69
301.979	106.69
302.209	75.69
302.439	82.69
302.669	96.69
302.9	77.69
303.13	87.69
303.36	79.69
303.59	72.69
303.82	83.69
304.051	90.69
304.281	80.69
304.511	83.69
304.741	86.69
304.971	88.69
305.201	71.69
305.431	75.69
305.661	71.69
305.891	81.69
306.121	83.69
306.352	69.69
306.582	80.69
306.812	98.69
307.042	93.69
307.272	94.69
307.502	82.69
307.731	84.69
307.961	89.69
308.191	92.69
308.421	98.69
308.651	89.69
308.881	98.69
309.111	90.69
309.341	89.69
309.571	85.69
309.8	80.69
310.03	75.69
310.26	89.69
310.49	86.69
310.72	83.69
310.949	72.69
311.179	73.69
311.409	88.69
311.639	90.69
311.868	84.69
312.098	90.69
312.328	72.69
312.557	86.69
312.787	73.69
313.017	70.69
313.246	81.69
313.476	85.69
313.706	78.69
313.935	74.69
314.165	81.69
314.394	89.69
314.624	71.69
314.853	89.69
315.083	83.69
315.312	83.69
315.542	99.69
315.771	97.69
316.001	103.69
316.23	96.69
316.46	93.69
316.689	71.69
316.919	92.69
317.148	100.69
317.377	71.69
317.607	104.69
317.836	122.69
318.065	116.69
318.295	103.69
318.524	85.69
318.753	92.69
318.983	85.69
319.212	93.69
319.441	80.69
319.67	90.69
319.9	89.69
320.129	83.69
320.358	87.69
320.587	76.69
320.816	102.69
321.046	91.69
321.275	83.69
321.504	76.69
321.733	74.69
321.962	102.69
322.191	84.69
322.42	92.69
322.649	73.69
322.878	87.69
323.108	87.69
323.337	82.69
323.566	91.69
323.795	108.69
324.024	85.69
324.253	83.69
324.482	84.69
324.71	87.69
324.939	91.69
325.168	79.69
325.397	91.69
325.626	82.69
325.855	90.69
326.084	86.69
326.313	74.69
326.542	80.69
326.77	74.69
326.999	88.69
327.228	79.69
327.457	82.69
327.686	87.69
327.914	92.69
328.143	90.69
328.372	89.69
328.6	71.69
328.829	85.69
329.058	80.69
329.287	89.69
329.515	82.69
329.744	101.69
329.972	92.69
330.201	81.69
330.43	88.69
330.658	79.69
330.887	77.69
331.115	75.69
331.344	79.69
331.572	86.69
331.801	73.69
332.03	86.69
332.258	76.69
332.486	78.69
332.715	84.69
332.943	77.69
333.172	80.69
333.4	97.69
333.629	86.69
333.857	69.69
334.085	71.69
334.314	82.69
334.542	90.69
334.771	74.69
334.999	87.69
335.227	89.69
335.455	86.69
335.684	81.69
335.912	82.69
336.14	78.69
336.369	73.69
336.597	87.69
336.825	66.69
337.053	81.69
337.281	86.69
337.51	86.69
337.738	68.69
337.966	77.69
338.194	91.69
338.422	94.69
338.65	77.69
338.878	88.69
339.106	75.69
339.334	81.69
339.562	84.69
339.79	81.69
340.018	75.69
340.246	75.69
340.474	94.69
340.702	80.69
340.93	90.69
341.158	82.69
341.386	80.69
341.614	98.69
341.842	97.69
342.07	91.69
342.298	89.69
342.526	79.69
342.754	88.69
342.981	63.69
343.209	58.69
343.437	89.69
343.665	75.69
343.893	95.69
344.12	84.69
344.348	84.69
344.576	79.69
344.804	82.69
345.031	85.69
345.259	87.69
345.487	82.69
345.714	96.69
345.942	80.69
346.17	95.69
346.397	88.69
346.625	78.69
346.853	85.69
347.08	78.69
347.308	75.69
347.535	82.69
347.763	80.69
347.99	73.69
348.218	81.69
348.445	80.69
348.673	84.69
348.9	101.69
349.128	84.69
349.355	78.69
349.583	81.69
349.81	86.69
350.037	87.69
350.265	82.69
350.492	87.69
350.72	93.69
350.947	80.69
351.174	77.69
351.402	78.69
351.629	79.69
351.856	82.69
352.083	86.69
352.311	93.69
352.538	92.69
352.765	83.69
352.992	98.69
353.22	85.69
353.447	97.69
353.674	79.69
353.901	84.69
354.128	73.69
354.355	88.69
354.583	89.69
354.81	87.69
355.037	89.69
355.264	97.69
355.491	74.69
355.718	78.69
355.945	74.69
356.172	80.69
356.399	87.69
356.626	78.69
356.853	74.69
357.08	88.69
357.307	72.69
357.534	95.69
357.761	78.69
357.988	88.69
358.215	88.69
358.441	88.69
358.668	83.69
358.895	101.69
359.122	86.69
359.349	64.69
359.576	82.69
359.802	76.69
360.029	80.69
360.256	74.69
360.483	74.69
360.709	74.69
360.936	80.69
361.163	94.69
361.39	103.69
361.616	85.69
361.843	73.69
362.07	80.69
362.296	85.69
362.523	94.69
362.749	96.69
362.976	97.69
363.203	100.69
363.429	78.69
363.656	78.69
363.882	78.69
364.109	87.69
364.335	89.69
364.562	102.69
364.788	98.69
365.015	75.69
365.241	74.69
365.468	81.69
365.694	82.69
365.92	87.69
366.147	95.69
366.373	74.69
366.599	82.69
366.826	73.69
367.052	100.69
367.278	78.69
367.505	75.69
367.731	76.69
367.957	82.69
368.184	97.69
368.41	96.69
368.636	89.69
368.862	88.69
369.089	75.69
369.315	67.69
369.541	87.69
369.767	73.69
369.993	69.69
370.219	75.69
370.445	95.69
370.672	109.69
370.898	86.69
371.124	78.69
371.35	80.69
371.576	74.69
371.802	89.69
372.028	94.69
372.254	78.69
372.48	85.69
372.706	89.69
372.932	75.69
373.158	95.69
373.384	97.69
373.61	101.69
373.835	125.69
374.061	92.69
374.287	85.69
374.513	84.69
374.739	94.69
374.965	94.69
375.191	84.69
375.416	77.69
375.642	89.69
375.868	72.69
376.094	84.69
376.319	82.69
376.545	87.69
376.771	98.69
376.997	84.69
377.222	80.69
377.448	95.69
377.674	91.69
377.899	90.69
378.125	84.69
378.35	71.69
378.576	85.69
378.802	76.69
379.027	80.69
379.253	76.69
379.478	78.69
379.704	76.69
379.929	88.69
380.155	77.69
380.38	80.69
380.606	93.69
380.831	94.69
381.057	81.69
381.282	98.69
381.507	88.69
381.733	94.69
381.958	88.69
382.184	77.69
382.409	79.69
382.634	75.69
382.86	78.69
383.085	93.69
383.31	97.69
383.535	91.69
383.761	99.69
383.986	86.69
384.211	86.69
384.436	83.69
384.662	90.69
384.887	87.69
385.112	86.69
385.337	113.69
385.562	88.69
385.787	83.69
386.013	88.69
386.238	93.69
386.463	92.69
386.688	103.69
386.913	83.69
387.138	90.69
387.363	83.69
387.588	100.69
387.813	89.69
388.038	97.69
388.263	106.69
388.488	88.69
388.713	79.69
388.938	83.69
389.163	84.69
389.387	86.69
389.612	72.69
389.837	82.69
390.062	84.69
390.287	69.69
390.512	81.69
390.736	78.69
390.961	74.69
391.186	80.69
391.411	75.69
391.636	86.69
391.86	78.69
392.085	81.69
392.31	95.69
392.534	103.69
392.759	130.69
392.984	208.69
393.208	421.69
393.433	643.69
393.658	462.69
393.882	177.69
394.107	118.69
394.331	102.69
394.556	116.69
394.78	102.69
395.005	96.69
395.229	89.69
395.454	99.69
395.678	86.69
395.903	101.69
396.127	149.69
396.352	166.69
396.576	235.69
396.801	428.69
397.025	474.69
397.249	204.69
397.474	112.69
397.698	90.69
397.922	94.69
398.147	80.69
398.371	90.69
398.595	68.69
398.82	82.69
399.044	77.69
399.268	86.69
399.492	86.69
399.717	85.69
399.941	68.69
400.165	72.69
400.389	85.69
400.613	90.69
400.837	90.69
401.062	73.69
401.286	70.69
401.51	80.69
401.734	77.69
401.958	77.69
402.182	89.69
402.406	87.69
402.63	82.69
402.854	78.69
403.078	72.69
403.302	78.69
403.526	84.69
403.75	86.69
403.974	76.69
404.198	92.69
404.422	100.69
404.645	88.69
404.869	78.69
405.093	75.69
405.317	79.69
405.541	88.69
405.765	80.69
405.988	77.69
406.212	78.69
406.436	98.69
406.66	82.69
406.883	69.69
407.107	92.69
407.331	84.69
407.555	107.69
407.778	140.69
408.002	140.69
408.226	84.69
408.449	79.69
408.673	72.69
408.896	85.69
409.12	69.69
409.344	84.69
409.567	85.69
409.791	89.69
410.014	88.69
410.238	81.69
410.461	87.69
410.685	85.69
410.908	74.69
411.132	86.69
411.355	71.69
411.578	92.69
411.802	88.69
412.025	83.69
412.249	87.69
412.472	83.69
412.695	86.69
412.919	80.69
413.142	82.69
413.365	81.69
413.589	72.69
413.812	86.69
414.035	89.69
414.258	80.69
414.482	82.69
414.705	78.69
414.928	94.69
415.151	79.69
415.374	64.69
415.597	73.69
415.821	81.69
416.044	91.69
416.267	84.69
416.49	87.69
416.713	95.69
416.936	93.69
417.159	74.69
417.382	74.69
417.605	80.69
417.828	77.69
418.051	83.69
418.274	80.69
418.497	76.69
418.72	65.69
418.943	87.69
419.166	78.69
419.389	88.69
419.611	73.69
419.834	87.69
420.057	92.69
420.28	84.69
420.503	86.69
420.726	77.69
420.948	84.69
421.171	75.69
421.394	94.69
421.617	138.69
421.839	123.69
422.062	96.69
422.285	132.69
422.507	206.69
422.73	367.69
422.953	321.69
423.175	148.69
423.398	105.69
423.621	90.69
423.843	74.69
424.066	89.69
424.288	78.69
424.511	83.69
424.733	103.69
424.956	86.69
425.178	85.69
425.401	84.69
425.623	85.69
425.846	65.69
426.068	65.69
426.291	93.69
426.513	80.69
426.735	79.69
426.958	90.69
427.18	78.69
427.402	80.69
427.625	75.69
427.847	74.69
428.069	86.69
428.292	98.69
428.514	125.69
428.736	105.69
428.958	124.69
429.181	108.69
429.403	80.69
429.625	90.69
429.847	98.69
430.069	124.69
430.292	140.69
430.514	157.69
430.736	121.69
430.958	122.69
431.18	84.69
431.402	90.69
431.624	99.69
431.846	109.69
432.068	97.69
432.29	96.69
432.512	83.69
432.734	90.69
432.956	80.69
433.178	83.69
433.4	85.69
433.622	87.69
433.844	82.69
434.066	84.69
434.287	80.69
434.509	73.69
434.731	86.69
434.953	78.69
435.175	87.69
435.397	85.69
435.618	80.69
435.84	84.69
436.062	88.69
436.284	58.69
436.505	73.69
436.727	84.69
436.949	89.69
437.17	79.69
437.392	81.69
437.614	82.69
437.835	71.69
438.057	76.69
438.278	81.69
438.5	80.69
438.721	82.69
438.943	88.69
439.165	83.69
439.386	82.69
439.608	64.69
439.829	84.69
440.05	81.69
440.272	79.69
440.493	74.69
440.715	93.69
440.936	72.69
441.158	92.69
441.379	89.69
441.6	73.69
441.822	85.69
442.043	68.69
442.264	105.69
442.486	111.69
442.707	124.69
442.928	89.69
443.149	93.69
443.371	121.69
443.592	162.69
443.813	169.69
444.034	98.69
444.255	84.69
444.476	82.69
444.698	84.69
444.919	80.69
445.14	184.69
445.361	181.69
445.582	226.69
445.803	169.69
446.024	94.69
446.245	70.69
446.466	89.69
446.687	77.69
446.908	86.69
447.129	85.69
447.35	75.69
447.571	67.69
447.792	78.69
448.013	88.69
448.234	79.69
448.455	79.69
448.675	87.69
448.896	72.69
449.117	79.69
449.338	90.69
449.559	73.69
449.779	90.69
450	91.69
450.221	87.69
450.442	98.69
450.662	82.69
450.883	83.69
451.104	84.69
451.324	89.69
451.545	82.69
451.766	80.69
451.986	74.69
452.207	80.69
452.428	80.69
452.648	71.69
452.869	83.69
453.089	75.69
453.31	92.69
453.53	66.69
453.751	85.69
453.971	85.69
454.192	75.69
454.412	100.69
454.633	80.69
454.853	82.69
455.073	92.69
455.294	82.69
455.514	74.69
455.734	70.69
455.955	76.69
456.175	74.69
456.395	80.69
456.616	88.69
456.836	90.69
457.056	89.69
457.276	79.69
457.497	68.69
457.717	87.69
457.937	80.69
458.157	95.69
458.377	94.69
458.598	101.69
458.818	84.69
459.038	95.69
459.258	81.69
459.478	75.69
459.698	75.69
459.918	74.69
460.138	81.69
460.358	90.69
460.578	103.69
460.798	112.69
461.018	112.69
461.238	94.69
461.458	87.69
461.678	78.69
461.898	82.69
462.118	73.69
462.338	65.69
462.558	72.69
462.777	75.69
462.997	85.69
463.217	84.69
463.437	90.69
463.657	79.69
463.876	94.69
464.096	74.69
464.316	85.69
464.536	68.69
464.755	89.69
464.975	77.69
465.195	83.69
465.414	80.69
465.634	84.69
465.854	72.69
466.073	67.69
466.293	81.69
466.512	88.69
466.732	70.69
466.951	86.69
467.171	69.69
467.391	86.69
467.61	77.69
467.829	88.69
468.049	79.69
468.268	78.69
468.488	73.69
468.707	77.69
468.927	76.69
469.146	93.69
469.365	79.69
469.585	86.69
469.804	74.69
470.023	94.69
470.243	70.69
470.462	80.69
470.681	82.69
470.901	62.69
471.12	72.69
471.339	84.69
471.558	80.69
471.777	74.69
471.997	66.69
472.216	73.69
472.435	87.69
472.654	80.69
472.873	82.69
473.092	79.69
473.311	87.69
473.53	87.69
473.749	73.69
473.968	85.69
474.187	89.69
474.406	81.69
474.625	82.69
474.844	84.69
475.063	82.69
475.282	78.69
475.501	96.69
475.72	79.69
475.939	84.69
476.158	84.69
476.377	93.69
476.596	88.69
476.814	86.69
477.033	67.69
477.252	86.69
477.471	82.69
477.69	82.69
477.908	76.69
478.127	98.69
478.346	83.69
478.564	82.69
478.783	83.69
479.002	87.69
479.22	84.69
479.439	83.69
479.658	90.69
479.876	85.69
480.095	83.69
480.313	82.69
480.532	87.69
480.751	82.69
480.969	82.69
481.188	80.69
481.406	74.69
481.624	80.69
481.843	82.69
482.061	74.69
482.28	90.69
482.498	76.69
482.717	92.69
482.935	84.69
483.153	95.69
483.372	82.69
483.59	64.69
483.808	82.69
484.027	88.69
484.245	90.69
484.463	81.69
484.681	86.69
484.9	81.69
485.118	85.69
485.336	87.69
485.554	86.69
485.772	82.69
485.99	84.69
486.209	86.69
486.427	84.69
486.645	71.69
486.863	84.69
487.081	80.69
487.299	82.69
487.517	85.69
487.735	84.69
487.953	119.69
488.171	114.69
488.389	84.69
488.607	82.69
488.825	95.69
489.043	84.69
489.261	87.69
489.479	83.69
489.696	77.69
489.914	80.69
490.132	74.69
490.35	96.69
490.568	72.69
490.786	76.69
491.003	89.69
491.221	82.69
491.439	83.69
491.657	86.69
491.874	84.69
492.092	83.69
492.31	86.69
492.527	84.69
492.745	82.69
492.963	67.69
493.18	90.69
493.398	97.69
493.615	93.69
493.833	90.69
494.05	75.69
494.268	88.69
494.485	91.69
494.703	85.69
494.92	87.69
495.138	88.69
495.355	82.69
495.573	84.69
495.79	102.69
496.008	74.69
496.225	94.69
496.442	85.69
496.66	101.69
496.877	76.69
497.094	80.69
497.312	63.69
497.529	77.69
497.746	86.69
497.963	83.69
498.181	92.69
498.398	92.69
498.615	93.69
498.832	67.69
499.049	82.69
499.267	97.69
499.484	86.69
499.701	96.69
499.918	95.69
500.135	88.69
500.352	79.69
500.569	89.69
500.786	75.69
501.003	86.69
501.22	80.69
501.437	81.69
501.654	83.69
501.871	73.69
502.088	81.69
502.305	81.69
502.522	73.69
502.739	84.69
502.956	80.69
503.172	89.69
503.389	75.69
503.606	78.69
503.823	84.69
504.04	91.69
504.256	108.69
504.473	99.69
504.69	103.69
504.907	88.69
505.123	91.69
505.34	83.69
505.557	80.69
505.773	82.69
505.99	82.69
506.207	72.69
506.423	84.69
506.64	74.69
506.856	95.69
507.073	77.69
507.289	88.69
507.506	77.69
507.722	85.69
507.939	80.69
508.155	83.69
508.372	78.69
508.588	92.69
508.805	66.69
509.021	96.69
509.238	79.69
509.454	78.69
509.67	86.69
509.887	75.69
510.103	80.69
510.319	86.69
510.536	73.69
510.752	78.69
510.968	85.69
511.184	96.69
511.401	77.69
511.617	95.69
511.833	96.69
512.049	75.69
512.265	84.69
512.481	84.69
512.698	82.69
512.914	84.69
513.13	82.69
513.346	74.69
513.562	90.69
513.778	86.69
513.994	79.69
514.21	92.69
514.426	84.69
514.642	72.69
514.858	86.69
515.074	82.69
515.29	89.69
515.506	75.69
515.721	76.69
515.937	85.69
516.153	83.69
516.369	90.69
516.585	80.69
516.801	81.69
517.016	77.69
517.232	86.69
517.448	84.69
517.664	71.69
517.879	92.69
518.095	76.69
518.311	96.69
518.527	96.69
518.742	86.69
518.958	113.69
