Data from 17600_1_HRD10591_00024.txt Node
Date: Mon Jan 19 14:07:36 EST 2026
User: Yrep
Spectrometer: HR+D1059
Trigger mode: 1
Integration Time (sec): 1.000000E-1
Scans to average: 1
Electric dark correction enabled: true
Nonlinearity correction enabled: false
Boxcar width: 0
XAxis mode: Wavelengths
Number of Pixels in Spectrum: 2048
>>>>>Begin Spectral Data<<<<<
223.165	-14.56
223.4	-14.56
223.635	-14.56
223.869	-27.56
224.104	-13.56
224.338	-17.56
224.573	-9.56
224.808	-7.56
225.042	-3.56
225.277	-22.56
225.511	6.44
225.746	10.44
225.98	4.44
226.215	14.44
226.449	5.44
226.683	6.44
226.918	32.44
227.152	36.44
227.387	37.44
227.621	42.44
227.856	38.44
228.09	36.44
228.324	35.44
228.559	55.44
228.793	55.44
229.027	57.44
229.262	75.44
229.496	49.44
229.73	78.44
229.964	67.44
230.199	62.44
230.433	70.44
230.667	66.44
230.901	87.44
231.136	83.44
231.37	85.44
231.604	88.44
231.838	71.44
232.072	71.44
232.306	94.44
232.541	89.44
232.775	71.44
233.009	91.44
233.243	84.44
233.477	65.44
233.711	82.44
233.945	71.44
234.179	83.44
234.413	94.44
234.647	63.44
234.881	57.44
235.115	73.44
235.349	87.44
235.583	69.44
235.817	82.44
236.051	82.44
236.285	79.44
236.519	69.44
236.753	91.44
236.987	78.44
237.221	75.44
237.455	82.44
237.689	80.44
237.922	87.44
238.156	90.44
238.39	82.44
238.624	75.44
238.858	67.44
239.091	59.44
239.325	82.44
239.559	81.44
239.793	74.44
240.027	71.44
240.26	72.44
240.494	66.44
240.728	84.44
240.961	92.44
241.195	71.44
241.429	77.44
241.662	82.44
241.896	78.44
242.13	85.44
242.363	65.44
242.597	63.44
242.83	69.44
243.064	73.44
243.298	77.44
243.531	72.44
243.765	78.44
243.998	88.44
244.232	74.44
244.465	73.44
244.699	76.44
244.932	77.44
245.166	81.44
245.399	70.44
245.633	76.44
245.866	79.44
246.099	72.44
246.333	80.44
246.566	71.44
246.8	88.44
247.033	80.44
247.266	82.44
247.5	70.44
247.733	92.44
247.966	86.44
248.2	78.44
248.433	97.44
248.666	72.44
248.899	69.44
249.133	83.44
249.366	73.44
249.599	72.44
249.832	76.44
250.066	81.44
250.299	67.44
250.532	88.44
250.765	76.44
250.998	75.44
251.231	70.44
251.465	72.44
251.698	84.44
251.931	76.44
252.164	67.44
252.397	79.44
252.63	98.44
252.863	70.44
253.096	88.44
253.329	94.44
253.562	86.44
253.795	85.44
254.028	96.44
254.261	74.44
254.494	78.44
254.727	73.44
254.96	80.44
255.193	86.44
255.426	87.44
255.659	75.44
255.892	85.44
256.124	84.44
256.357	82.44
256.59	84.44
256.823	91.44
257.056	81.44
257.289	95.44
257.521	83.44
257.754	65.44
257.987	78.44
258.22	79.44
258.452	65.44
258.685	90.44
258.918	84.44
259.151	81.44
259.383	88.44
259.616	84.44
259.849	83.44
260.081	76.44
260.314	86.44
260.547	79.44
260.779	82.44
261.012	80.44
261.244	67.44
261.477	86.44
261.71	84.44
261.942	82.44
262.175	74.44
262.407	85.44
262.64	82.44
262.872	88.44
263.105	68.44
263.337	87.44
263.57	82.44
263.802	76.44
264.035	90.44
264.267	66.44
264.499	71.44
264.732	81.44
264.964	88.44
265.197	76.44
265.429	91.44
265.661	88.44
265.894	88.44
266.126	94.44
266.358	73.44
266.591	74.44
266.823	64.44
267.055	74.44
267.287	76.44
267.52	90.44
267.752	86.44
267.984	83.44
268.216	77.44
268.448	84.44
268.681	77.44
268.913	84.44
269.145	91.44
269.377	89.44
269.609	86.44
269.841	92.44
270.073	95.44
270.306	86.44
270.538	86.44
270.77	87.44
271.002	82.44
271.234	80.44
271.466	85.44
271.698	87.44
271.93	73.44
272.162	78.44
272.394	76.44
272.626	86.44
272.858	74.44
273.09	83.44
273.322	85.44
273.553	87.44
273.785	75.44
274.017	72.44
274.249	76.44
274.481	91.44
274.713	84.44
274.945	89.44
275.176	70.44
275.408	75.44
275.64	76.44
275.872	76.44
276.104	74.44
276.335	96.44
276.567	75.44
276.799	95.44
277.031	94.44
277.262	82.44
277.494	84.44
277.726	86.44
277.957	89.44
278.189	79.44
278.421	94.44
278.652	78.44
278.884	75.44
279.115	86.44
279.347	90.44
279.579	95.44
279.81	88.44
280.042	80.44
280.273	95.44
280.505	92.44
280.736	86.44
280.968	95.44
281.199	92.44
281.431	79.44
281.662	73.44
281.894	84.44
282.125	82.44
282.356	79.44
282.588	73.44
282.819	93.44
283.051	95.44
283.282	67.44
283.513	87.44
283.745	86.44
283.976	91.44
284.207	92.44
284.439	88.44
284.67	94.44
284.901	97.44
285.132	83.44
285.364	82.44
285.595	82.44
285.826	98.44
286.057	73.44
286.288	76.44
286.52	83.44
286.751	94.44
286.982	84.44
287.213	79.44
287.444	78.44
287.675	82.44
287.906	94.44
288.138	81.44
288.369	100.44
288.6	101.44
288.831	76.44
289.062	78.44
289.293	86.44
289.524	79.44
289.755	68.44
289.986	86.44
290.217	77.44
290.448	88.44
290.679	82.44
290.91	89.44
291.141	84.44
291.371	76.44
291.602	86.44
291.833	92.44
292.064	75.44
292.295	83.44
292.526	68.44
292.757	80.44
292.987	82.44
293.218	94.44
293.449	84.44
293.68	101.44
293.91	80.44
294.141	82.44
294.372	74.44
294.603	84.44
294.833	75.44
295.064	67.44
295.295	78.44
295.525	98.44
295.756	79.44
295.987	80.44
296.217	87.44
296.448	94.44
296.679	89.44
296.909	78.44
297.14	91.44
297.37	104.44
297.601	108.44
297.831	84.44
298.062	90.44
298.292	63.44
298.523	89.44
298.753	98.44
298.984	84.44
299.214	80.44
299.445	102.44
299.675	89.44
299.905	86.44
300.136	83.44
300.366	84.44
300.597	92.44
300.827	115.44
301.057	87.44
301.288	64.44
301.518	98.44
301.748	88.44
301.979	98.44
302.209	91.44
302.439	89.44
302.669	88.44
302.9	91.44
303.13	79.44
303.36	73.44
303.59	82.44
303.82	80.44
304.051	94.44
304.281	90.44
304.511	78.44
304.741	89.44
304.971	92.44
305.201	82.44
305.431	76.44
305.661	85.44
305.891	82.44
306.121	85.44
306.352	70.44
306.582	72.44
306.812	87.44
307.042	91.44
307.272	90.44
307.502	84.44
307.731	97.44
307.961	86.44
308.191	92.44
308.421	93.44
308.651	103.44
308.881	98.44
309.111	99.44
309.341	102.44
309.571	93.44
309.8	76.44
310.03	86.44
310.26	79.44
310.49	77.44
310.72	89.44
310.949	72.44
311.179	88.44
311.409	89.44
311.639	87.44
311.868	95.44
312.098	81.44
312.328	80.44
312.557	97.44
312.787	82.44
313.017	88.44
313.246	76.44
313.476	90.44
313.706	82.44
313.935	89.44
314.165	86.44
314.394	88.44
314.624	101.44
314.853	74.44
315.083	81.44
315.312	86.44
315.542	91.44
315.771	69.44
316.001	84.44
316.23	86.44
316.46	102.44
316.689	89.44
316.919	90.44
317.148	82.44
317.377	97.44
317.607	87.44
317.836	94.44
318.065	93.44
318.295	93.44
318.524	85.44
318.753	84.44
318.983	86.44
319.212	82.44
319.441	86.44
319.67	77.44
319.9	88.44
320.129	94.44
320.358	78.44
320.587	87.44
320.816	91.44
321.046	82.44
321.275	86.44
321.504	95.44
321.733	89.44
321.962	91.44
322.191	92.44
322.42	83.44
322.649	91.44
322.878	88.44
323.108	92.44
323.337	70.44
323.566	103.44
323.795	86.44
324.024	92.44
324.253	84.44
324.482	71.44
324.71	86.44
324.939	86.44
325.168	89.44
325.397	74.44
325.626	82.44
325.855	92.44
326.084	75.44
326.313	85.44
326.542	91.44
326.77	98.44
326.999	71.44
327.228	81.44
327.457	89.44
327.686	100.44
327.914	79.44
328.143	102.44
328.372	83.44
328.6	102.44
328.829	72.44
329.058	82.44
329.287	73.44
329.515	83.44
329.744	80.44
329.972	84.44
330.201	99.44
330.43	82.44
330.658	86.44
330.887	79.44
331.115	96.44
331.344	78.44
331.572	87.44
331.801	83.44
332.03	76.44
332.258	93.44
332.486	86.44
332.715	104.44
332.943	81.44
333.172	75.44
333.4	91.44
333.629	89.44
333.857	94.44
334.085	95.44
334.314	85.44
334.542	92.44
334.771	102.44
334.999	83.44
335.227	80.44
335.455	84.44
335.684	91.44
335.912	97.44
336.14	102.44
336.369	91.44
336.597	92.44
336.825	84.44
337.053	77.44
337.281	82.44
337.51	76.44
337.738	89.44
337.966	73.44
338.194	79.44
338.422	71.44
338.65	68.44
338.878	83.44
339.106	96.44
339.334	89.44
339.562	81.44
339.79	81.44
340.018	92.44
340.246	85.44
340.474	86.44
340.702	91.44
340.93	91.44
341.158	92.44
341.386	85.44
341.614	77.44
341.842	84.44
342.07	88.44
342.298	82.44
342.526	88.44
342.754	88.44
342.981	81.44
343.209	87.44
343.437	88.44
343.665	76.44
343.893	79.44
344.12	82.44
344.348	77.44
344.576	73.44
344.804	84.44
345.031	70.44
345.259	87.44
345.487	79.44
345.714	88.44
345.942	82.44
346.17	77.44
346.397	87.44
346.625	91.44
346.853	85.44
347.08	74.44
347.308	88.44
347.535	92.44
347.763	82.44
347.99	98.44
348.218	94.44
348.445	84.44
348.673	79.44
348.9	81.44
349.128	88.44
349.355	86.44
349.583	84.44
349.81	91.44
350.037	79.44
350.265	83.44
350.492	72.44
350.72	78.44
350.947	93.44
351.174	83.44
351.402	70.44
351.629	82.44
351.856	83.44
352.083	84.44
352.311	91.44
352.538	85.44
352.765	91.44
352.992	86.44
353.22	92.44
353.447	80.44
353.674	87.44
353.901	81.44
354.128	79.44
354.355	80.44
354.583	88.44
354.81	87.44
355.037	98.44
355.264	89.44
355.491	88.44
355.718	84.44
355.945	81.44
356.172	92.44
356.399	80.44
356.626	88.44
356.853	96.44
357.08	90.44
357.307	83.44
357.534	92.44
357.761	93.44
357.988	83.44
358.215	99.44
358.441	85.44
358.668	85.44
358.895	81.44
359.122	66.44
359.349	87.44
359.576	92.44
359.802	75.44
360.029	75.44
360.256	89.44
360.483	94.44
360.709	76.44
360.936	85.44
361.163	82.44
361.39	87.44
361.616	84.44
361.843	95.44
362.07	84.44
362.296	86.44
362.523	89.44
362.749	101.44
362.976	96.44
363.203	94.44
363.429	82.44
363.656	89.44
363.882	98.44
364.109	102.44
364.335	98.44
364.562	87.44
364.788	104.44
365.015	94.44
365.241	83.44
365.468	88.44
365.694	91.44
365.92	84.44
366.147	94.44
366.373	91.44
366.599	81.44
366.826	87.44
367.052	104.44
367.278	84.44
367.505	91.44
367.731	87.44
367.957	90.44
368.184	69.44
368.41	91.44
368.636	97.44
368.862	86.44
369.089	79.44
369.315	78.44
369.541	97.44
369.767	75.44
369.993	90.44
370.219	88.44
370.445	81.44
370.672	80.44
370.898	84.44
371.124	82.44
371.35	87.44
371.576	90.44
371.802	79.44
372.028	88.44
372.254	95.44
372.48	69.44
372.706	89.44
372.932	75.44
373.158	95.44
373.384	93.44
373.61	106.44
373.835	91.44
374.061	92.44
374.287	91.44
374.513	85.44
374.739	78.44
374.965	89.44
375.191	83.44
375.416	95.44
375.642	91.44
375.868	83.44
376.094	83.44
376.319	87.44
376.545	82.44
376.771	87.44
376.997	90.44
377.222	91.44
377.448	83.44
377.674	92.44
377.899	76.44
378.125	95.44
378.35	79.44
378.576	95.44
378.802	84.44
379.027	94.44
379.253	84.44
379.478	78.44
379.704	80.44
379.929	92.44
380.155	84.44
380.38	81.44
380.606	87.44
380.831	79.44
381.057	79.44
381.282	83.44
381.507	79.44
381.733	94.44
381.958	93.44
382.184	88.44
382.409	85.44
382.634	87.44
382.86	96.44
383.085	90.44
383.31	86.44
383.535	94.44
383.761	90.44
383.986	73.44
384.211	87.44
384.436	84.44
384.662	93.44
384.887	86.44
385.112	92.44
385.337	74.44
385.562	80.44
385.787	91.44
386.013	91.44
386.238	89.44
386.463	98.44
386.688	91.44
386.913	84.44
387.138	91.44
387.363	81.44
387.588	96.44
387.813	79.44
388.038	90.44
388.263	89.44
388.488	92.44
388.713	98.44
388.938	98.44
389.163	90.44
389.387	91.44
389.612	100.44
389.837	80.44
390.062	86.44
390.287	79.44
390.512	86.44
390.736	88.44
390.961	82.44
391.186	92.44
391.411	71.44
391.636	94.44
391.86	83.44
392.085	76.44
392.31	91.44
392.534	93.44
392.759	112.44
392.984	106.44
393.208	186.44
393.433	256.44
393.658	192.44
393.882	97.44
394.107	86.44
394.331	106.44
394.556	107.44
394.78	93.44
395.005	93.44
395.229	94.44
395.454	88.44
395.678	84.44
395.903	116.44
396.127	120.44
396.352	123.44
396.576	126.44
396.801	198.44
397.025	208.44
397.249	134.44
397.474	110.44
397.698	96.44
397.922	82.44
398.147	72.44
398.371	83.44
398.595	91.44
398.82	90.44
399.044	76.44
399.268	88.44
399.492	88.44
399.717	82.44
399.941	86.44
400.165	82.44
400.389	85.44
400.613	86.44
400.837	86.44
401.062	92.44
401.286	80.44
401.51	70.44
401.734	91.44
401.958	90.44
402.182	76.44
402.406	88.44
402.63	82.44
402.854	95.44
403.078	76.44
403.302	75.44
403.526	88.44
403.75	88.44
403.974	94.44
404.198	99.44
404.422	92.44
404.645	118.44
404.869	110.44
405.093	100.44
405.317	84.44
405.541	83.44
405.765	77.44
405.988	77.44
406.212	98.44
406.436	89.44
406.66	83.44
406.883	86.44
407.107	90.44
407.331	105.44
407.555	94.44
407.778	98.44
408.002	92.44
408.226	82.44
408.449	79.44
408.673	73.44
408.896	72.44
409.12	74.44
409.344	106.44
409.567	81.44
409.791	104.44
410.014	81.44
410.238	70.44
410.461	86.44
410.685	91.44
410.908	81.44
411.132	82.44
411.355	77.44
411.578	76.44
411.802	81.44
412.025	80.44
412.249	61.44
412.472	87.44
412.695	79.44
412.919	92.44
413.142	85.44
413.365	84.44
413.589	94.44
413.812	90.44
414.035	93.44
414.258	68.44
414.482	88.44
414.705	94.44
414.928	83.44
415.151	78.44
415.374	87.44
415.597	85.44
415.821	96.44
416.044	91.44
416.267	67.44
416.49	95.44
416.713	87.44
416.936	85.44
417.159	88.44
417.382	94.44
417.605	70.44
417.828	87.44
418.051	82.44
418.274	82.44
418.497	79.44
418.72	76.44
418.943	80.44
419.166	82.44
419.389	90.44
419.611	93.44
419.834	97.44
420.057	84.44
420.28	82.44
420.503	80.44
420.726	95.44
420.948	83.44
421.171	70.44
421.394	90.44
421.617	95.44
421.839	119.44
422.062	121.44
422.285	126.44
422.507	174.44
422.73	280.44
422.953	242.44
423.175	149.44
423.398	118.44
423.621	91.44
423.843	94.44
424.066	88.44
424.288	79.44
424.511	97.44
424.733	86.44
424.956	80.44
425.178	85.44
425.401	79.44
425.623	72.44
425.846	92.44
426.068	89.44
426.291	89.44
426.513	80.44
426.735	87.44
426.958	89.44
427.18	89.44
427.402	88.44
427.625	96.44
427.847	93.44
428.069	91.44
428.292	103.44
428.514	120.44
428.736	114.44
428.958	120.44
429.181	115.44
429.403	89.44
429.625	91.44
429.847	116.44
430.069	113.44
430.292	138.44
430.514	137.44
430.736	94.44
430.958	110.44
431.18	102.44
431.402	84.44
431.624	93.44
431.846	92.44
432.068	108.44
432.29	100.44
432.512	90.44
432.734	91.44
432.956	75.44
433.178	98.44
433.4	91.44
433.622	80.44
433.844	102.44
434.066	86.44
434.287	82.44
434.509	85.44
434.731	76.44
434.953	94.44
435.175	86.44
435.397	90.44
435.618	83.44
435.84	84.44
436.062	93.44
436.284	82.44
436.505	72.44
436.727	81.44
436.949	96.44
437.17	91.44
437.392	86.44
437.614	86.44
437.835	77.44
438.057	91.44
438.278	83.44
438.5	76.44
438.721	83.44
438.943	72.44
439.165	86.44
439.386	77.44
439.608	77.44
439.829	83.44
440.05	76.44
440.272	80.44
440.493	85.44
440.715	74.44
440.936	89.44
441.158	98.44
441.379	78.44
441.6	95.44
441.822	86.44
442.043	88.44
442.264	100.44
442.486	107.44
442.707	125.44
442.928	102.44
443.149	102.44
443.371	132.44
443.592	163.44
443.813	163.44
444.034	86.44
444.255	83.44
444.476	76.44
444.698	72.44
444.919	86.44
445.14	157.44
445.361	164.44
445.582	212.44
445.803	184.44
446.024	100.44
446.245	85.44
446.466	103.44
446.687	77.44
446.908	84.44
447.129	74.44
447.35	84.44
447.571	74.44
447.792	74.44
448.013	85.44
448.234	88.44
448.455	91.44
448.675	88.44
448.896	75.44
449.117	83.44
449.338	88.44
449.559	88.44
449.779	84.44
450	91.44
450.221	72.44
450.442	75.44
450.662	81.44
450.883	80.44
451.104	70.44
451.324	78.44
451.545	81.44
451.766	72.44
451.986	84.44
452.207	88.44
452.428	94.44
452.648	96.44
452.869	77.44
453.089	81.44
453.31	99.44
453.53	84.44
453.751	80.44
453.971	84.44
454.192	90.44
454.412	84.44
454.633	87.44
454.853	79.44
455.073	72.44
455.294	83.44
455.514	96.44
455.734	91.44
455.955	86.44
456.175	79.44
456.395	79.44
456.616	79.44
456.836	83.44
457.056	94.44
457.276	88.44
457.497	84.44
457.717	87.44
457.937	106.44
458.157	104.44
458.377	110.44
458.598	90.44
458.818	105.44
459.038	83.44
459.258	87.44
459.478	74.44
459.698	86.44
459.918	72.44
460.138	85.44
460.358	86.44
460.578	97.44
460.798	103.44
461.018	106.44
461.238	95.44
461.458	67.44
461.678	83.44
461.898	90.44
462.118	89.44
462.338	85.44
462.558	80.44
462.777	71.44
462.997	90.44
463.217	80.44
463.437	82.44
463.657	83.44
463.876	81.44
464.096	76.44
464.316	88.44
464.536	89.44
464.755	83.44
464.975	71.44
465.195	84.44
465.414	80.44
465.634	81.44
465.854	92.44
466.073	88.44
466.293	81.44
466.512	86.44
466.732	85.44
466.951	95.44
467.171	82.44
467.391	79.44
467.61	79.44
467.829	81.44
468.049	80.44
468.268	86.44
468.488	77.44
468.707	89.44
468.927	76.44
469.146	82.44
469.365	92.44
469.585	81.44
469.804	74.44
470.023	82.44
470.243	96.44
470.462	98.44
470.681	90.44
470.901	68.44
471.12	94.44
471.339	77.44
471.558	68.44
471.777	84.44
471.997	84.44
472.216	73.44
472.435	87.44
472.654	78.44
472.873	67.44
473.092	82.44
473.311	79.44
473.53	76.44
473.749	87.44
473.968	94.44
474.187	89.44
474.406	82.44
474.625	75.44
474.844	88.44
475.063	77.44
475.282	87.44
475.501	75.44
475.72	96.44
475.939	78.44
476.158	87.44
476.377	114.44
476.596	72.44
476.814	64.44
477.033	87.44
477.252	92.44
477.471	79.44
477.69	88.44
477.908	88.44
478.127	75.44
478.346	83.44
478.564	81.44
478.783	81.44
479.002	71.44
479.22	73.44
479.439	81.44
479.658	81.44
479.876	85.44
480.095	81.44
480.313	73.44
480.532	77.44
480.751	68.44
480.969	66.44
481.188	85.44
481.406	89.44
481.624	88.44
481.843	77.44
482.061	66.44
482.28	88.44
482.498	86.44
482.717	93.44
482.935	88.44
483.153	80.44
483.372	93.44
483.59	99.44
483.808	86.44
484.027	81.44
484.245	86.44
484.463	73.44
484.681	105.44
484.9	103.44
485.118	83.44
485.336	75.44
485.554	94.44
485.772	89.44
485.99	85.44
486.209	92.44
486.427	88.44
486.645	89.44
486.863	78.44
487.081	84.44
487.299	75.44
487.517	91.44
487.735	111.44
487.953	137.44
488.171	106.44
488.389	84.44
488.607	88.44
488.825	88.44
489.043	74.44
489.261	82.44
489.479	69.44
489.696	60.44
489.914	70.44
490.132	73.44
490.35	80.44
490.568	81.44
490.786	74.44
491.003	94.44
491.221	77.44
491.439	86.44
491.657	79.44
491.874	87.44
492.092	83.44
492.31	90.44
492.527	90.44
492.745	94.44
492.963	81.44
493.18	75.44
493.398	94.44
493.615	74.44
493.833	67.44
494.05	86.44
494.268	84.44
494.485	75.44
494.703	80.44
494.92	91.44
495.138	84.44
495.355	95.44
495.573	92.44
495.79	82.44
496.008	86.44
496.225	82.44
496.442	76.44
496.66	82.44
496.877	77.44
497.094	96.44
497.312	80.44
497.529	74.44
497.746	94.44
497.963	65.44
498.181	87.44
498.398	88.44
498.615	88.44
498.832	82.44
499.049	86.44
499.267	90.44
499.484	94.44
499.701	104.44
499.918	99.44
500.135	91.44
500.352	102.44
500.569	78.44
500.786	88.44
501.003	96.44
501.22	65.44
501.437	91.44
501.654	82.44
501.871	90.44
502.088	87.44
502.305	90.44
502.522	84.44
502.739	88.44
502.956	98.44
503.172	85.44
503.389	82.44
503.606	70.44
503.823	91.44
504.04	82.44
504.256	89.44
504.473	124.44
504.69	90.44
504.907	81.44
505.123	92.44
505.34	79.44
505.557	69.44
505.773	86.44
505.99	86.44
506.207	85.44
506.423	88.44
506.64	77.44
506.856	90.44
507.073	87.44
507.289	84.44
507.506	84.44
507.722	82.44
507.939	91.44
508.155	84.44
508.372	90.44
508.588	78.44
508.805	81.44
509.021	84.44
509.238	96.44
509.454	82.44
509.67	82.44
509.887	75.44
510.103	86.44
510.319	78.44
510.536	74.44
510.752	84.44
510.968	74.44
511.184	78.44
511.401	87.44
511.617	96.44
511.833	75.44
512.049	72.44
512.265	82.44
512.481	83.44
512.698	100.44
512.914	84.44
513.13	86.44
513.346	79.44
513.562	99.44
513.778	76.44
513.994	83.44
514.21	82.44
514.426	79.44
514.642	107.44
514.858	95.44
515.074	82.44
515.29	88.44
515.506	95.44
515.721	84.44
515.937	97.44
516.153	73.44
516.369	92.44
516.585	90.44
516.801	89.44
517.016	86.44
517.232	98.44
517.448	99.44
517.664	64.44
517.879	85.44
518.095	79.44
518.311	86.44
518.527	90.44
518.742	103.44
518.958	124.44
