Data from 17600_1_HRD10591_00019.txt Node
Date: Mon Jan 19 14:07:33 EST 2026
User: Yrep
Spectrometer: HR+D1059
Trigger mode: 1
Integration Time (sec): 1.000000E-1
Scans to average: 1
Electric dark correction enabled: true
Nonlinearity correction enabled: false
Boxcar width: 0
XAxis mode: Wavelengths
Number of Pixels in Spectrum: 2048
>>>>>Begin Spectral Data<<<<<
223.165	-15.62
223.4	-15.62
223.635	-15.62
223.869	-21.62
224.104	-15.62
224.338	-15.62
224.573	-15.62
224.808	-15.62
225.042	-2.62
225.277	-9.62
225.511	-0.62
225.746	4.38
225.98	7.38
226.215	11.38
226.449	19.38
226.683	16.38
226.918	24.38
227.152	29.38
227.387	31.38
227.621	48.38
227.856	43.38
228.09	46.38
228.324	59.38
228.559	61.38
228.793	56.38
229.027	69.38
229.262	60.38
229.496	44.38
229.73	75.38
229.964	78.38
230.199	69.38
230.433	78.38
230.667	84.38
230.901	64.38
231.136	73.38
231.37	58.38
231.604	75.38
231.838	88.38
232.072	74.38
232.306	81.38
232.541	87.38
232.775	85.38
233.009	80.38
233.243	86.38
233.477	86.38
233.711	72.38
233.945	84.38
234.179	70.38
234.413	73.38
234.647	72.38
234.881	79.38
235.115	89.38
235.349	75.38
235.583	80.38
235.817	86.38
236.051	96.38
236.285	73.38
236.519	76.38
236.753	88.38
236.987	80.38
237.221	88.38
237.455	87.38
237.689	77.38
237.922	58.38
238.156	88.38
238.39	57.38
238.624	72.38
238.858	89.38
239.091	85.38
239.325	72.38
239.559	73.38
239.793	73.38
240.027	64.38
240.26	71.38
240.494	77.38
240.728	74.38
240.961	80.38
241.195	75.38
241.429	91.38
241.662	68.38
241.896	62.38
242.13	72.38
242.363	78.38
242.597	92.38
242.83	81.38
243.064	76.38
243.298	85.38
243.531	72.38
243.765	76.38
243.998	79.38
244.232	62.38
244.465	80.38
244.699	82.38
244.932	65.38
245.166	76.38
245.399	75.38
245.633	69.38
245.866	82.38
246.099	78.38
246.333	45.38
246.566	68.38
246.8	86.38
247.033	80.38
247.266	72.38
247.5	77.38
247.733	78.38
247.966	88.38
248.2	82.38
248.433	73.38
248.666	70.38
248.899	81.38
249.133	71.38
249.366	69.38
249.599	53.38
249.832	85.38
250.066	81.38
250.299	84.38
250.532	78.38
250.765	80.38
250.998	78.38
251.231	88.38
251.465	85.38
251.698	68.38
251.931	81.38
252.164	69.38
252.397	83.38
252.63	68.38
252.863	86.38
253.096	80.38
253.329	77.38
253.562	68.38
253.795	67.38
254.028	87.38
254.261	79.38
254.494	80.38
254.727	65.38
254.96	76.38
255.193	64.38
255.426	88.38
255.659	77.38
255.892	90.38
256.124	82.38
256.357	87.38
256.59	82.38
256.823	72.38
257.056	78.38
257.289	78.38
257.521	88.38
257.754	86.38
257.987	69.38
258.22	90.38
258.452	81.38
258.685	88.38
258.918	92.38
259.151	80.38
259.383	83.38
259.616	97.38
259.849	79.38
260.081	83.38
260.314	62.38
260.547	76.38
260.779	84.38
261.012	80.38
261.244	92.38
261.477	67.38
261.71	82.38
261.942	71.38
262.175	74.38
262.407	85.38
262.64	84.38
262.872	83.38
263.105	86.38
263.337	94.38
263.57	68.38
263.802	84.38
264.035	73.38
264.267	92.38
264.499	82.38
264.732	87.38
264.964	82.38
265.197	75.38
265.429	86.38
265.661	76.38
265.894	76.38
266.126	74.38
266.358	78.38
266.591	88.38
266.823	80.38
267.055	78.38
267.287	102.38
267.52	63.38
267.752	82.38
267.984	74.38
268.216	79.38
268.448	77.38
268.681	82.38
268.913	78.38
269.145	82.38
269.377	85.38
269.609	86.38
269.841	77.38
270.073	74.38
270.306	72.38
270.538	78.38
270.77	82.38
271.002	78.38
271.234	95.38
271.466	86.38
271.698	83.38
271.93	76.38
272.162	80.38
272.394	85.38
272.626	80.38
272.858	89.38
273.09	86.38
273.322	72.38
273.553	80.38
273.785	75.38
274.017	86.38
274.249	75.38
274.481	78.38
274.713	82.38
274.945	101.38
275.176	86.38
275.408	81.38
275.64	76.38
275.872	76.38
276.104	90.38
276.335	79.38
276.567	74.38
276.799	74.38
277.031	91.38
277.262	94.38
277.494	82.38
277.726	94.38
277.957	81.38
278.189	87.38
278.421	90.38
278.652	93.38
278.884	82.38
279.115	76.38
279.347	83.38
279.579	85.38
279.81	93.38
280.042	72.38
280.273	85.38
280.505	85.38
280.736	77.38
280.968	85.38
281.199	71.38
281.431	81.38
281.662	89.38
281.894	93.38
282.125	72.38
282.356	85.38
282.588	86.38
282.819	81.38
283.051	81.38
283.282	81.38
283.513	82.38
283.745	79.38
283.976	78.38
284.207	87.38
284.439	82.38
284.67	71.38
284.901	82.38
285.132	92.38
285.364	78.38
285.595	90.38
285.826	82.38
286.057	95.38
286.288	84.38
286.52	97.38
286.751	95.38
286.982	90.38
287.213	89.38
287.444	96.38
287.675	98.38
287.906	85.38
288.138	80.38
288.369	88.38
288.6	81.38
288.831	87.38
289.062	87.38
289.293	81.38
289.524	82.38
289.755	92.38
289.986	87.38
290.217	90.38
290.448	69.38
290.679	97.38
290.91	90.38
291.141	73.38
291.371	96.38
291.602	92.38
291.833	90.38
292.064	83.38
292.295	97.38
292.526	85.38
292.757	89.38
292.987	91.38
293.218	73.38
293.449	86.38
293.68	90.38
293.91	84.38
294.141	90.38
294.372	87.38
294.603	80.38
294.833	85.38
295.064	80.38
295.295	84.38
295.525	95.38
295.756	95.38
295.987	79.38
296.217	75.38
296.448	90.38
296.679	88.38
296.909	77.38
297.14	92.38
297.37	89.38
297.601	99.38
297.831	88.38
298.062	94.38
298.292	90.38
298.523	96.38
298.753	85.38
298.984	84.38
299.214	82.38
299.445	75.38
299.675	83.38
299.905	86.38
300.136	81.38
300.366	69.38
300.597	88.38
300.827	93.38
301.057	81.38
301.288	70.38
301.518	69.38
301.748	73.38
301.979	103.38
302.209	90.38
302.439	65.38
302.669	84.38
302.9	74.38
303.13	102.38
303.36	74.38
303.59	83.38
303.82	95.38
304.051	86.38
304.281	86.38
304.511	89.38
304.741	89.38
304.971	72.38
305.201	89.38
305.431	92.38
305.661	71.38
305.891	79.38
306.121	83.38
306.352	92.38
306.582	88.38
306.812	63.38
307.042	78.38
307.272	90.38
307.502	89.38
307.731	87.38
307.961	88.38
308.191	88.38
308.421	79.38
308.651	79.38
308.881	73.38
309.111	96.38
309.341	87.38
309.571	98.38
309.8	86.38
310.03	71.38
310.26	92.38
310.49	90.38
310.72	88.38
310.949	84.38
311.179	80.38
311.409	100.38
311.639	82.38
311.868	84.38
312.098	88.38
312.328	87.38
312.557	89.38
312.787	75.38
313.017	89.38
313.246	84.38
313.476	85.38
313.706	74.38
313.935	89.38
314.165	74.38
314.394	69.38
314.624	66.38
314.853	69.38
315.083	83.38
315.312	80.38
315.542	73.38
315.771	103.38
316.001	80.38
316.23	84.38
316.46	82.38
316.689	81.38
316.919	80.38
317.148	82.38
317.377	94.38
317.607	78.38
317.836	90.38
318.065	87.38
318.295	87.38
318.524	82.38
318.753	66.38
318.983	70.38
319.212	85.38
319.441	71.38
319.67	84.38
319.9	90.38
320.129	86.38
320.358	87.38
320.587	82.38
320.816	89.38
321.046	88.38
321.275	80.38
321.504	93.38
321.733	88.38
321.962	78.38
322.191	97.38
322.42	79.38
322.649	76.38
322.878	86.38
323.108	77.38
323.337	82.38
323.566	86.38
323.795	68.38
324.024	96.38
324.253	89.38
324.482	86.38
324.71	83.38
324.939	82.38
325.168	95.38
325.397	87.38
325.626	78.38
325.855	80.38
326.084	80.38
326.313	85.38
326.542	73.38
326.77	78.38
326.999	78.38
327.228	75.38
327.457	78.38
327.686	86.38
327.914	84.38
328.143	84.38
328.372	83.38
328.6	77.38
328.829	71.38
329.058	85.38
329.287	94.38
329.515	94.38
329.744	86.38
329.972	80.38
330.201	93.38
330.43	89.38
330.658	78.38
330.887	83.38
331.115	89.38
331.344	85.38
331.572	84.38
331.801	63.38
332.03	84.38
332.258	84.38
332.486	80.38
332.715	72.38
332.943	75.38
333.172	80.38
333.4	87.38
333.629	74.38
333.857	105.38
334.085	82.38
334.314	95.38
334.542	92.38
334.771	95.38
334.999	74.38
335.227	81.38
335.455	82.38
335.684	98.38
335.912	81.38
336.14	103.38
336.369	80.38
336.597	80.38
336.825	83.38
337.053	73.38
337.281	70.38
337.51	79.38
337.738	87.38
337.966	74.38
338.194	84.38
338.422	84.38
338.65	76.38
338.878	89.38
339.106	88.38
339.334	87.38
339.562	72.38
339.79	87.38
340.018	77.38
340.246	84.38
340.474	91.38
340.702	84.38
340.93	82.38
341.158	79.38
341.386	84.38
341.614	80.38
341.842	80.38
342.07	86.38
342.298	78.38
342.526	74.38
342.754	82.38
342.981	82.38
343.209	79.38
343.437	72.38
343.665	82.38
343.893	92.38
344.12	83.38
344.348	83.38
344.576	85.38
344.804	82.38
345.031	80.38
345.259	84.38
345.487	81.38
345.714	85.38
345.942	78.38
346.17	92.38
346.397	89.38
346.625	76.38
346.853	79.38
347.08	100.38
347.308	82.38
347.535	73.38
347.763	82.38
347.99	72.38
348.218	88.38
348.445	96.38
348.673	83.38
348.9	91.38
349.128	86.38
349.355	85.38
349.583	83.38
349.81	72.38
350.037	76.38
350.265	68.38
350.492	93.38
350.72	74.38
350.947	80.38
351.174	82.38
351.402	77.38
351.629	86.38
351.856	82.38
352.083	87.38
352.311	80.38
352.538	87.38
352.765	86.38
352.992	102.38
353.22	69.38
353.447	71.38
353.674	89.38
353.901	68.38
354.128	73.38
354.355	88.38
354.583	82.38
354.81	84.38
355.037	80.38
355.264	89.38
355.491	90.38
355.718	82.38
355.945	69.38
356.172	98.38
356.399	65.38
356.626	92.38
356.853	82.38
357.08	91.38
357.307	91.38
357.534	90.38
357.761	88.38
357.988	96.38
358.215	70.38
358.441	82.38
358.668	84.38
358.895	77.38
359.122	96.38
359.349	84.38
359.576	81.38
359.802	68.38
360.029	90.38
360.256	74.38
360.483	63.38
360.709	81.38
360.936	87.38
361.163	90.38
361.39	87.38
361.616	72.38
361.843	73.38
362.07	84.38
362.296	76.38
362.523	75.38
362.749	86.38
362.976	89.38
363.203	88.38
363.429	74.38
363.656	80.38
363.882	79.38
364.109	88.38
364.335	86.38
364.562	99.38
364.788	82.38
365.015	91.38
365.241	82.38
365.468	91.38
365.694	93.38
365.92	80.38
366.147	70.38
366.373	92.38
366.599	75.38
366.826	71.38
367.052	82.38
367.278	90.38
367.505	80.38
367.731	94.38
367.957	83.38
368.184	85.38
368.41	81.38
368.636	81.38
368.862	74.38
369.089	96.38
369.315	85.38
369.541	71.38
369.767	67.38
369.993	86.38
370.219	82.38
370.445	83.38
370.672	73.38
370.898	77.38
371.124	81.38
371.35	84.38
371.576	76.38
371.802	58.38
372.028	90.38
372.254	98.38
372.48	85.38
372.706	81.38
372.932	95.38
373.158	87.38
373.384	85.38
373.61	78.38
373.835	89.38
374.061	80.38
374.287	91.38
374.513	91.38
374.739	96.38
374.965	75.38
375.191	85.38
375.416	97.38
375.642	92.38
375.868	84.38
376.094	83.38
376.319	72.38
376.545	86.38
376.771	89.38
376.997	81.38
377.222	83.38
377.448	75.38
377.674	79.38
377.899	73.38
378.125	78.38
378.35	90.38
378.576	78.38
378.802	80.38
379.027	72.38
379.253	74.38
379.478	84.38
379.704	92.38
379.929	97.38
380.155	87.38
380.38	91.38
380.606	64.38
380.831	97.38
381.057	92.38
381.282	77.38
381.507	96.38
381.733	72.38
381.958	91.38
382.184	88.38
382.409	94.38
382.634	74.38
382.86	83.38
383.085	76.38
383.31	74.38
383.535	85.38
383.761	94.38
383.986	97.38
384.211	102.38
384.436	96.38
384.662	76.38
384.887	84.38
385.112	88.38
385.337	79.38
385.562	93.38
385.787	72.38
386.013	90.38
386.238	91.38
386.463	92.38
386.688	91.38
386.913	77.38
387.138	85.38
387.363	90.38
387.588	80.38
387.813	78.38
388.038	88.38
388.263	98.38
388.488	78.38
388.713	88.38
388.938	70.38
389.163	85.38
389.387	88.38
389.612	82.38
389.837	82.38
390.062	106.38
390.287	78.38
390.512	79.38
390.736	83.38
390.961	71.38
391.186	85.38
391.411	80.38
391.636	73.38
391.86	90.38
392.085	97.38
392.31	83.38
392.534	93.38
392.759	84.38
392.984	108.38
393.208	140.38
393.433	168.38
393.658	147.38
393.882	92.38
394.107	90.38
394.331	91.38
394.556	92.38
394.78	104.38
395.005	92.38
395.229	73.38
395.454	78.38
395.678	88.38
395.903	101.38
396.127	116.38
396.352	104.38
396.576	108.38
396.801	145.38
397.025	142.38
397.249	108.38
397.474	86.38
397.698	94.38
397.922	81.38
398.147	76.38
398.371	88.38
398.595	78.38
398.82	66.38
399.044	76.38
399.268	86.38
399.492	82.38
399.717	78.38
399.941	90.38
400.165	105.38
400.389	76.38
400.613	78.38
400.837	95.38
401.062	74.38
401.286	79.38
401.51	80.38
401.734	86.38
401.958	80.38
402.182	83.38
402.406	84.38
402.63	80.38
402.854	74.38
403.078	79.38
403.302	82.38
403.526	88.38
403.75	76.38
403.974	90.38
404.198	70.38
404.422	81.38
404.645	88.38
404.869	76.38
405.093	63.38
405.317	84.38
405.541	82.38
405.765	83.38
405.988	80.38
406.212	82.38
406.436	81.38
406.66	94.38
406.883	80.38
407.107	75.38
407.331	76.38
407.555	80.38
407.778	94.38
408.002	100.38
408.226	88.38
408.449	82.38
408.673	90.38
408.896	87.38
409.12	64.38
409.344	96.38
409.567	89.38
409.791	74.38
410.014	67.38
410.238	56.38
410.461	69.38
410.685	89.38
410.908	93.38
411.132	73.38
411.355	75.38
411.578	79.38
411.802	74.38
412.025	90.38
412.249	73.38
412.472	84.38
412.695	75.38
412.919	93.38
413.142	78.38
413.365	64.38
413.589	66.38
413.812	80.38
414.035	108.38
414.258	94.38
414.482	80.38
414.705	68.38
414.928	84.38
415.151	73.38
415.374	89.38
415.597	100.38
415.821	78.38
416.044	85.38
416.267	75.38
416.49	81.38
416.713	80.38
416.936	68.38
417.159	76.38
417.382	77.38
417.605	72.38
417.828	84.38
418.051	71.38
418.274	88.38
418.497	86.38
418.72	77.38
418.943	86.38
419.166	77.38
419.389	86.38
419.611	70.38
419.834	77.38
420.057	72.38
420.28	88.38
420.503	84.38
420.726	87.38
420.948	96.38
421.171	73.38
421.394	85.38
421.617	91.38
421.839	94.38
422.062	85.38
422.285	96.38
422.507	124.38
422.73	188.38
422.953	149.38
423.175	108.38
423.398	92.38
423.621	83.38
423.843	90.38
424.066	89.38
424.288	83.38
424.511	81.38
424.733	87.38
424.956	77.38
425.178	75.38
425.401	81.38
425.623	83.38
425.846	76.38
426.068	75.38
426.291	84.38
426.513	80.38
426.735	86.38
426.958	71.38
427.18	82.38
427.402	82.38
427.625	71.38
427.847	70.38
428.069	100.38
428.292	81.38
428.514	98.38
428.736	84.38
428.958	91.38
429.181	99.38
429.403	81.38
429.625	80.38
429.847	82.38
430.069	102.38
430.292	118.38
430.514	106.38
430.736	99.38
430.958	104.38
431.18	80.38
431.402	80.38
431.624	73.38
431.846	88.38
432.068	93.38
432.29	84.38
432.512	78.38
432.734	73.38
432.956	74.38
433.178	83.38
433.4	83.38
433.622	75.38
433.844	85.38
434.066	75.38
434.287	81.38
434.509	77.38
434.731	80.38
434.953	76.38
435.175	83.38
435.397	71.38
435.618	89.38
435.84	82.38
436.062	94.38
436.284	79.38
436.505	68.38
436.727	84.38
436.949	92.38
437.17	89.38
437.392	73.38
437.614	76.38
437.835	66.38
438.057	65.38
438.278	86.38
438.5	81.38
438.721	79.38
438.943	72.38
439.165	93.38
439.386	87.38
439.608	88.38
439.829	64.38
440.05	79.38
440.272	85.38
440.493	78.38
440.715	81.38
440.936	89.38
441.158	87.38
441.379	97.38
441.6	78.38
441.822	73.38
442.043	98.38
442.264	92.38
442.486	84.38
442.707	86.38
442.928	99.38
443.149	87.38
443.371	116.38
443.592	104.38
443.813	111.38
444.034	92.38
444.255	80.38
444.476	91.38
444.698	92.38
444.919	95.38
445.14	142.38
445.361	116.38
445.582	126.38
445.803	115.38
446.024	94.38
446.245	98.38
446.466	92.38
446.687	84.38
446.908	78.38
447.129	73.38
447.35	83.38
447.571	76.38
447.792	74.38
448.013	78.38
448.234	70.38
448.455	78.38
448.675	85.38
448.896	72.38
449.117	80.38
449.338	92.38
449.559	80.38
449.779	83.38
450	85.38
450.221	78.38
450.442	75.38
450.662	74.38
450.883	80.38
451.104	101.38
451.324	84.38
451.545	83.38
451.766	78.38
451.986	73.38
452.207	78.38
452.428	86.38
452.648	80.38
452.869	99.38
453.089	90.38
453.31	80.38
453.53	82.38
453.751	92.38
453.971	92.38
454.192	72.38
454.412	93.38
454.633	75.38
454.853	82.38
455.073	73.38
455.294	83.38
455.514	89.38
455.734	75.38
455.955	67.38
456.175	82.38
456.395	82.38
456.616	93.38
456.836	83.38
457.056	73.38
457.276	88.38
457.497	83.38
457.717	90.38
457.937	68.38
458.157	86.38
458.377	95.38
458.598	97.38
458.818	82.38
459.038	89.38
459.258	81.38
459.478	88.38
459.698	80.38
459.918	74.38
460.138	73.38
460.358	70.38
460.578	88.38
460.798	88.38
461.018	95.38
461.238	88.38
461.458	79.38
461.678	78.38
461.898	81.38
462.118	94.38
462.338	82.38
462.558	79.38
462.777	85.38
462.997	91.38
463.217	94.38
463.437	77.38
463.657	102.38
463.876	74.38
464.096	86.38
464.316	85.38
464.536	68.38
464.755	80.38
464.975	87.38
465.195	87.38
465.414	81.38
465.634	77.38
465.854	85.38
466.073	74.38
466.293	74.38
466.512	85.38
466.732	92.38
466.951	77.38
467.171	86.38
467.391	69.38
467.61	86.38
467.829	69.38
468.049	73.38
468.268	74.38
468.488	78.38
468.707	73.38
468.927	81.38
469.146	83.38
469.365	80.38
469.585	74.38
469.804	87.38
470.023	77.38
470.243	86.38
470.462	83.38
470.681	80.38
470.901	88.38
471.12	86.38
471.339	76.38
471.558	78.38
471.777	80.38
471.997	92.38
472.216	74.38
472.435	81.38
472.654	89.38
472.873	65.38
473.092	64.38
473.311	76.38
473.53	74.38
473.749	81.38
473.968	81.38
474.187	80.38
474.406	87.38
474.625	83.38
474.844	78.38
475.063	90.38
475.282	77.38
475.501	79.38
475.72	67.38
475.939	72.38
476.158	68.38
476.377	76.38
476.596	88.38
476.814	92.38
477.033	86.38
477.252	86.38
477.471	82.38
477.69	78.38
477.908	87.38
478.127	78.38
478.346	89.38
478.564	89.38
478.783	89.38
479.002	82.38
479.22	83.38
479.439	79.38
479.658	87.38
479.876	103.38
480.095	81.38
480.313	88.38
480.532	88.38
480.751	85.38
480.969	84.38
481.188	91.38
481.406	98.38
481.624	82.38
481.843	91.38
482.061	81.38
482.28	77.38
482.498	91.38
482.717	70.38
482.935	80.38
483.153	78.38
483.372	78.38
483.59	74.38
483.808	99.38
484.027	82.38
484.245	101.38
484.463	90.38
484.681	101.38
484.9	90.38
485.118	82.38
485.336	83.38
485.554	92.38
485.772	85.38
485.99	80.38
486.209	62.38
486.427	76.38
486.645	96.38
486.863	92.38
487.081	92.38
487.299	98.38
487.517	94.38
487.735	93.38
487.953	98.38
488.171	105.38
488.389	79.38
488.607	78.38
488.825	84.38
489.043	78.38
489.261	88.38
489.479	78.38
489.696	75.38
489.914	78.38
490.132	73.38
490.35	85.38
490.568	72.38
490.786	73.38
491.003	81.38
491.221	88.38
491.439	88.38
491.657	87.38
491.874	79.38
492.092	81.38
492.31	92.38
492.527	82.38
492.745	73.38
492.963	80.38
493.18	84.38
493.398	86.38
493.615	87.38
493.833	76.38
494.05	75.38
494.268	74.38
494.485	82.38
494.703	89.38
494.92	92.38
495.138	71.38
495.355	71.38
495.573	81.38
495.79	78.38
496.008	90.38
496.225	88.38
496.442	89.38
496.66	86.38
496.877	89.38
497.094	80.38
497.312	94.38
497.529	80.38
497.746	84.38
497.963	82.38
498.181	86.38
498.398	77.38
498.615	74.38
498.832	74.38
499.049	73.38
499.267	96.38
499.484	92.38
499.701	96.38
499.918	84.38
500.135	79.38
500.352	73.38
500.569	83.38
500.786	89.38
501.003	92.38
501.22	94.38
501.437	69.38
501.654	71.38
501.871	78.38
502.088	90.38
502.305	75.38
502.522	80.38
502.739	93.38
502.956	70.38
503.172	90.38
503.389	91.38
503.606	78.38
503.823	80.38
504.04	86.38
504.256	94.38
504.473	92.38
504.69	87.38
504.907	81.38
505.123	85.38
505.34	99.38
505.557	58.38
505.773	69.38
505.99	80.38
506.207	84.38
506.423	95.38
506.64	90.38
506.856	81.38
507.073	92.38
507.289	72.38
507.506	83.38
507.722	92.38
507.939	80.38
508.155	79.38
508.372	92.38
508.588	96.38
508.805	87.38
509.021	84.38
509.238	83.38
509.454	81.38
509.67	82.38
509.887	79.38
510.103	79.38
510.319	83.38
510.536	80.38
510.752	75.38
510.968	81.38
511.184	83.38
511.401	79.38
511.617	91.38
511.833	88.38
512.049	91.38
512.265	96.38
512.481	90.38
512.698	81.38
512.914	86.38
513.13	80.38
513.346	68.38
513.562	87.38
513.778	92.38
513.994	81.38
514.21	88.38
514.426	81.38
514.642	80.38
514.858	88.38
515.074	85.38
515.29	94.38
515.506	82.38
515.721	79.38
515.937	96.38
516.153	85.38
516.369	82.38
516.585	78.38
516.801	103.38
517.016	96.38
517.232	89.38
517.448	90.38
517.664	86.38
517.879	79.38
518.095	89.38
518.311	90.38
518.527	90.38
518.742	70.38
518.958	102.38
519.173	88.38
519.389	81.38
519.605	81.38
