Data from 17600_1_HRD10591_00005.txt Node
Date: Mon Jan 19 14:07:26 EST 2026
User: Yrep
Spectrometer: HR+D1059
Trigger mode: 1
Integration Time (sec): 1.000000E-1
Scans to average: 1
Electric dark correction enabled: true
Nonlinearity correction enabled: false
Boxcar width: 0
XAxis mode: Wavelengths
Number of Pixels in Spectrum: 2048
>>>>>Begin Spectral Data<<<<<
223.165	-14.94
223.4	-14.94
223.635	-14.94
223.869	-5.94
224.104	-12.94
224.338	-20.94
224.573	-23.94
224.808	-4.94
225.042	-4.94
225.277	-5.94
225.511	-12.94
225.746	8.06
225.98	5.06
226.215	19.06
226.449	10.06
226.683	25.06
226.918	19.06
227.152	21.06
227.387	40.06
227.621	49.06
227.856	33.06
228.09	60.06
228.324	58.06
228.559	60.06
228.793	59.06
229.027	57.06
229.262	73.06
229.496	63.06
229.73	75.06
229.964	80.06
230.199	76.06
230.433	78.06
230.667	81.06
230.901	78.06
231.136	91.06
231.37	89.06
231.604	87.06
231.838	94.06
232.072	85.06
232.306	93.06
232.541	74.06
232.775	79.06
233.009	85.06
233.243	75.06
233.477	95.06
233.711	68.06
233.945	80.06
234.179	80.06
234.413	86.06
234.647	84.06
234.881	86.06
235.115	78.06
235.349	76.06
235.583	80.06
235.817	60.06
236.051	87.06
236.285	69.06
236.519	76.06
236.753	79.06
236.987	79.06
237.221	73.06
237.455	78.06
237.689	90.06
237.922	91.06
238.156	96.06
238.39	89.06
238.624	78.06
238.858	75.06
239.091	76.06
239.325	78.06
239.559	73.06
239.793	79.06
240.027	80.06
240.26	71.06
240.494	74.06
240.728	68.06
240.961	77.06
241.195	84.06
241.429	85.06
241.662	75.06
241.896	76.06
242.13	81.06
242.363	74.06
242.597	80.06
242.83	75.06
243.064	83.06
243.298	73.06
243.531	60.06
243.765	83.06
243.998	91.06
244.232	72.06
244.465	75.06
244.699	81.06
244.932	76.06
245.166	98.06
245.399	65.06
245.633	79.06
245.866	89.06
246.099	73.06
246.333	69.06
246.566	77.06
246.8	83.06
247.033	72.06
247.266	76.06
247.5	65.06
247.733	85.06
247.966	69.06
248.2	86.06
248.433	58.06
248.666	76.06
248.899	96.06
249.133	83.06
249.366	81.06
249.599	91.06
249.832	77.06
250.066	83.06
250.299	71.06
250.532	87.06
250.765	75.06
250.998	91.06
251.231	75.06
251.465	76.06
251.698	79.06
251.931	83.06
252.164	85.06
252.397	84.06
252.63	74.06
252.863	83.06
253.096	83.06
253.329	87.06
253.562	59.06
253.795	90.06
254.028	82.06
254.261	79.06
254.494	78.06
254.727	80.06
254.96	77.06
255.193	87.06
255.426	91.06
255.659	85.06
255.892	80.06
256.124	65.06
256.357	68.06
256.59	77.06
256.823	76.06
257.056	81.06
257.289	81.06
257.521	71.06
257.754	92.06
257.987	84.06
258.22	87.06
258.452	83.06
258.685	95.06
258.918	77.06
259.151	71.06
259.383	83.06
259.616	77.06
259.849	75.06
260.081	79.06
260.314	76.06
260.547	78.06
260.779	95.06
261.012	83.06
261.244	82.06
261.477	89.06
261.71	99.06
261.942	81.06
262.175	80.06
262.407	91.06
262.64	90.06
262.872	81.06
263.105	82.06
263.337	83.06
263.57	66.06
263.802	87.06
264.035	84.06
264.267	92.06
264.499	86.06
264.732	90.06
264.964	67.06
265.197	80.06
265.429	98.06
265.661	89.06
265.894	84.06
266.126	80.06
266.358	93.06
266.591	75.06
266.823	93.06
267.055	88.06
267.287	73.06
267.52	79.06
267.752	84.06
267.984	81.06
268.216	84.06
268.448	84.06
268.681	83.06
268.913	80.06
269.145	79.06
269.377	76.06
269.609	105.06
269.841	81.06
270.073	86.06
270.306	87.06
270.538	96.06
270.77	101.06
271.002	90.06
271.234	84.06
271.466	84.06
271.698	88.06
271.93	85.06
272.162	76.06
272.394	94.06
272.626	96.06
272.858	69.06
273.09	89.06
273.322	76.06
273.553	87.06
273.785	100.06
274.017	85.06
274.249	93.06
274.481	92.06
274.713	71.06
274.945	79.06
275.176	89.06
275.408	82.06
275.64	81.06
275.872	72.06
276.104	84.06
276.335	74.06
276.567	84.06
276.799	80.06
277.031	69.06
277.262	83.06
277.494	87.06
277.726	83.06
277.957	85.06
278.189	90.06
278.421	84.06
278.652	83.06
278.884	88.06
279.115	83.06
279.347	93.06
279.579	87.06
279.81	94.06
280.042	89.06
280.273	95.06
280.505	85.06
280.736	87.06
280.968	90.06
281.199	78.06
281.431	100.06
281.662	102.06
281.894	83.06
282.125	85.06
282.356	86.06
282.588	91.06
282.819	85.06
283.051	93.06
283.282	71.06
283.513	89.06
283.745	89.06
283.976	89.06
284.207	79.06
284.439	84.06
284.67	74.06
284.901	96.06
285.132	106.06
285.364	91.06
285.595	104.06
285.826	88.06
286.057	84.06
286.288	79.06
286.52	99.06
286.751	91.06
286.982	101.06
287.213	92.06
287.444	85.06
287.675	88.06
287.906	95.06
288.138	89.06
288.369	83.06
288.6	92.06
288.831	97.06
289.062	91.06
289.293	84.06
289.524	90.06
289.755	93.06
289.986	77.06
290.217	82.06
290.448	87.06
290.679	82.06
290.91	87.06
291.141	77.06
291.371	96.06
291.602	71.06
291.833	87.06
292.064	93.06
292.295	84.06
292.526	87.06
292.757	90.06
292.987	71.06
293.218	91.06
293.449	81.06
293.68	86.06
293.91	98.06
294.141	87.06
294.372	81.06
294.603	83.06
294.833	86.06
295.064	92.06
295.295	82.06
295.525	87.06
295.756	87.06
295.987	101.06
296.217	87.06
296.448	87.06
296.679	86.06
296.909	92.06
297.14	96.06
297.37	89.06
297.601	89.06
297.831	85.06
298.062	85.06
298.292	88.06
298.523	98.06
298.753	93.06
298.984	76.06
299.214	81.06
299.445	95.06
299.675	109.06
299.905	90.06
300.136	94.06
300.366	96.06
300.597	84.06
300.827	93.06
301.057	109.06
301.288	96.06
301.518	99.06
301.748	82.06
301.979	94.06
302.209	92.06
302.439	98.06
302.669	88.06
302.9	81.06
303.13	73.06
303.36	93.06
303.59	90.06
303.82	81.06
304.051	101.06
304.281	91.06
304.511	91.06
304.741	84.06
304.971	88.06
305.201	111.06
305.431	105.06
305.661	89.06
305.891	94.06
306.121	99.06
306.352	83.06
306.582	83.06
306.812	88.06
307.042	77.06
307.272	87.06
307.502	85.06
307.731	99.06
307.961	92.06
308.191	92.06
308.421	104.06
308.651	86.06
308.881	97.06
309.111	104.06
309.341	111.06
309.571	111.06
309.8	89.06
310.03	98.06
310.26	91.06
310.49	90.06
310.72	88.06
310.949	105.06
311.179	93.06
311.409	83.06
311.639	88.06
311.868	80.06
312.098	88.06
312.328	84.06
312.557	96.06
312.787	87.06
313.017	104.06
313.246	88.06
313.476	91.06
313.706	101.06
313.935	87.06
314.165	98.06
314.394	100.06
314.624	76.06
314.853	76.06
315.083	84.06
315.312	89.06
315.542	99.06
315.771	85.06
316.001	99.06
316.23	111.06
316.46	94.06
316.689	100.06
316.919	81.06
317.148	80.06
317.377	97.06
317.607	75.06
317.836	97.06
318.065	119.06
318.295	92.06
318.524	102.06
318.753	89.06
318.983	95.06
319.212	95.06
319.441	82.06
319.67	85.06
319.9	95.06
320.129	87.06
320.358	81.06
320.587	87.06
320.816	89.06
321.046	83.06
321.275	96.06
321.504	96.06
321.733	94.06
321.962	85.06
322.191	82.06
322.42	90.06
322.649	115.06
322.878	102.06
323.108	97.06
323.337	111.06
323.566	93.06
323.795	89.06
324.024	89.06
324.253	80.06
324.482	92.06
324.71	95.06
324.939	97.06
325.168	103.06
325.397	93.06
325.626	80.06
325.855	92.06
326.084	85.06
326.313	86.06
326.542	73.06
326.77	103.06
326.999	95.06
327.228	91.06
327.457	96.06
327.686	81.06
327.914	83.06
328.143	97.06
328.372	80.06
328.6	91.06
328.829	111.06
329.058	86.06
329.287	105.06
329.515	101.06
329.744	94.06
329.972	92.06
330.201	95.06
330.43	98.06
330.658	82.06
330.887	74.06
331.115	82.06
331.344	84.06
331.572	95.06
331.801	95.06
332.03	89.06
332.258	80.06
332.486	92.06
332.715	90.06
332.943	88.06
333.172	99.06
333.4	81.06
333.629	92.06
333.857	101.06
334.085	95.06
334.314	98.06
334.542	80.06
334.771	102.06
334.999	104.06
335.227	113.06
335.455	95.06
335.684	95.06
335.912	92.06
336.14	95.06
336.369	97.06
336.597	84.06
336.825	91.06
337.053	94.06
337.281	86.06
337.51	80.06
337.738	94.06
337.966	75.06
338.194	90.06
338.422	85.06
338.65	87.06
338.878	84.06
339.106	95.06
339.334	87.06
339.562	89.06
339.79	79.06
340.018	93.06
340.246	76.06
340.474	83.06
340.702	92.06
340.93	87.06
341.158	97.06
341.386	90.06
341.614	97.06
341.842	96.06
342.07	87.06
342.298	89.06
342.526	101.06
342.754	73.06
342.981	70.06
343.209	96.06
343.437	115.06
343.665	87.06
343.893	95.06
344.12	88.06
344.348	102.06
344.576	100.06
344.804	94.06
345.031	81.06
345.259	85.06
345.487	84.06
345.714	88.06
345.942	87.06
346.17	93.06
346.397	86.06
346.625	81.06
346.853	78.06
347.08	91.06
347.308	93.06
347.535	108.06
347.763	97.06
347.99	93.06
348.218	90.06
348.445	99.06
348.673	95.06
348.9	105.06
349.128	105.06
349.355	81.06
349.583	86.06
349.81	91.06
350.037	76.06
350.265	96.06
350.492	95.06
350.72	88.06
350.947	96.06
351.174	90.06
351.402	80.06
351.629	91.06
351.856	97.06
352.083	87.06
352.311	87.06
352.538	101.06
352.765	92.06
352.992	97.06
353.22	86.06
353.447	86.06
353.674	93.06
353.901	117.06
354.128	89.06
354.355	79.06
354.583	105.06
354.81	93.06
355.037	86.06
355.264	92.06
355.491	90.06
355.718	76.06
355.945	91.06
356.172	85.06
356.399	99.06
356.626	98.06
356.853	95.06
357.08	89.06
357.307	98.06
357.534	73.06
357.761	87.06
357.988	95.06
358.215	107.06
358.441	93.06
358.668	99.06
358.895	93.06
359.122	95.06
359.349	93.06
359.576	84.06
359.802	83.06
360.029	100.06
360.256	83.06
360.483	101.06
360.709	89.06
360.936	96.06
361.163	95.06
361.39	103.06
361.616	91.06
361.843	93.06
362.07	107.06
362.296	101.06
362.523	114.06
362.749	127.06
362.976	115.06
363.203	148.06
363.429	108.06
363.656	99.06
363.882	102.06
364.109	119.06
364.335	166.06
364.562	161.06
364.788	123.06
365.015	89.06
365.241	93.06
365.468	80.06
365.694	92.06
365.92	100.06
366.147	92.06
366.373	89.06
366.599	95.06
366.826	92.06
367.052	88.06
367.278	84.06
367.505	96.06
367.731	80.06
367.957	98.06
368.184	95.06
368.41	95.06
368.636	95.06
368.862	103.06
369.089	93.06
369.315	89.06
369.541	91.06
369.767	97.06
369.993	76.06
370.219	89.06
370.445	109.06
370.672	90.06
370.898	100.06
371.124	99.06
371.35	80.06
371.576	92.06
371.802	104.06
372.028	113.06
372.254	105.06
372.48	92.06
372.706	92.06
372.932	99.06
373.158	84.06
373.384	116.06
373.61	119.06
373.835	117.06
374.061	116.06
374.287	105.06
374.513	121.06
374.739	115.06
374.965	112.06
375.191	99.06
375.416	90.06
375.642	106.06
375.868	107.06
376.094	106.06
376.319	98.06
376.545	99.06
376.771	89.06
376.997	93.06
377.222	103.06
377.448	92.06
377.674	95.06
377.899	81.06
378.125	92.06
378.35	89.06
378.576	89.06
378.802	80.06
379.027	89.06
379.253	82.06
379.478	101.06
379.704	85.06
379.929	87.06
380.155	85.06
380.38	87.06
380.606	75.06
380.831	81.06
381.057	96.06
381.282	97.06
381.507	93.06
381.733	103.06
381.958	94.06
382.184	105.06
382.409	114.06
382.634	113.06
382.86	115.06
383.085	115.06
383.31	114.06
383.535	107.06
383.761	114.06
383.986	99.06
384.211	91.06
384.436	113.06
384.662	94.06
384.887	108.06
385.112	98.06
385.337	101.06
385.562	95.06
385.787	105.06
386.013	111.06
386.238	103.06
386.463	103.06
386.688	108.06
386.913	96.06
387.138	107.06
387.363	106.06
387.588	101.06
387.813	102.06
388.038	102.06
388.263	117.06
388.488	92.06
388.713	99.06
388.938	107.06
389.163	93.06
389.387	104.06
389.612	98.06
389.837	105.06
390.062	119.06
390.287	106.06
390.512	86.06
390.736	89.06
390.961	106.06
391.186	78.06
391.411	104.06
391.636	103.06
391.86	103.06
392.085	109.06
392.31	114.06
392.534	118.06
392.759	154.06
392.984	211.06
393.208	390.06
393.433	549.06
393.658	430.06
393.882	186.06
394.107	140.06
394.331	148.06
394.556	172.06
394.78	133.06
395.005	107.06
395.229	91.06
395.454	98.06
395.678	128.06
395.903	160.06
396.127	179.06
396.352	231.06
396.576	228.06
396.801	394.06
397.025	457.06
397.249	236.06
397.474	171.06
397.698	124.06
397.922	96.06
398.147	100.06
398.371	99.06
398.595	97.06
398.82	83.06
399.044	96.06
399.268	91.06
399.492	73.06
399.717	100.06
399.941	108.06
400.165	106.06
400.389	97.06
400.613	75.06
400.837	87.06
401.062	95.06
401.286	101.06
401.51	87.06
401.734	88.06
401.958	95.06
402.182	75.06
402.406	92.06
402.63	82.06
402.854	92.06
403.078	108.06
403.302	96.06
403.526	95.06
403.75	102.06
403.974	96.06
404.198	89.06
404.422	93.06
404.645	104.06
404.869	99.06
405.093	84.06
405.317	112.06
405.541	101.06
405.765	98.06
405.988	94.06
406.212	99.06
406.436	93.06
406.66	100.06
406.883	89.06
407.107	97.06
407.331	103.06
407.555	97.06
407.778	168.06
408.002	156.06
408.226	91.06
408.449	77.06
408.673	95.06
408.896	87.06
409.12	96.06
409.344	104.06
409.567	105.06
409.791	105.06
410.014	106.06
410.238	112.06
410.461	106.06
410.685	99.06
410.908	98.06
411.132	98.06
411.355	90.06
411.578	101.06
411.802	93.06
412.025	79.06
412.249	97.06
412.472	81.06
412.695	87.06
412.919	96.06
413.142	94.06
413.365	92.06
413.589	100.06
413.812	84.06
414.035	96.06
414.258	95.06
414.482	95.06
414.705	95.06
414.928	84.06
415.151	83.06
415.374	87.06
415.597	96.06
415.821	105.06
416.044	97.06
416.267	100.06
416.49	88.06
416.713	81.06
416.936	85.06
417.159	80.06
417.382	87.06
417.605	81.06
417.828	95.06
418.051	74.06
418.274	86.06
418.497	91.06
418.72	102.06
418.943	75.06
419.166	89.06
419.389	84.06
419.611	100.06
419.834	94.06
420.057	105.06
420.28	93.06
420.503	98.06
420.726	95.06
420.948	108.06
421.171	106.06
421.394	146.06
421.617	172.06
421.839	163.06
422.062	183.06
422.285	244.06
422.507	443.06
422.73	718.06
422.953	639.06
423.175	313.06
423.398	179.06
423.621	132.06
423.843	115.06
424.066	119.06
424.288	101.06
424.511	94.06
424.733	75.06
424.956	121.06
425.178	98.06
425.401	72.06
425.623	105.06
425.846	92.06
426.068	99.06
426.291	94.06
426.513	88.06
426.735	108.06
426.958	103.06
427.18	105.06
427.402	96.06
427.625	104.06
427.847	100.06
428.069	118.06
428.292	187.06
428.514	185.06
428.736	133.06
428.958	163.06
429.181	170.06
429.403	137.06
429.625	106.06
429.847	154.06
430.069	209.06
430.292	236.06
430.514	237.06
430.736	187.06
430.958	191.06
431.18	124.06
431.402	92.06
431.624	124.06
431.846	155.06
432.068	180.06
432.29	109.06
432.512	91.06
432.734	87.06
432.956	94.06
433.178	99.06
433.4	95.06
433.622	97.06
433.844	82.06
434.066	91.06
434.287	94.06
434.509	78.06
434.731	86.06
434.953	83.06
435.175	81.06
435.397	95.06
435.618	100.06
435.84	108.06
436.062	99.06
436.284	97.06
436.505	85.06
436.727	97.06
436.949	89.06
437.17	91.06
437.392	77.06
437.614	96.06
437.835	81.06
438.057	70.06
438.278	83.06
438.5	107.06
438.721	93.06
438.943	108.06
439.165	83.06
439.386	77.06
439.608	87.06
439.829	77.06
440.05	85.06
440.272	93.06
440.493	89.06
440.715	116.06
440.936	99.06
441.158	95.06
441.379	103.06
441.6	104.06
441.822	84.06
442.043	88.06
442.264	113.06
442.486	172.06
442.707	250.06
442.928	146.06
443.149	141.06
443.371	215.06
443.592	361.06
443.813	346.06
444.034	145.06
444.255	104.06
444.476	106.06
444.698	96.06
444.919	113.06
445.14	197.06
445.361	267.06
445.582	474.06
445.803	355.06
446.024	147.06
446.245	103.06
446.466	97.06
446.687	89.06
446.908	94.06
447.129	92.06
447.35	93.06
447.571	80.06
447.792	84.06
448.013	89.06
448.234	81.06
448.455	98.06
448.675	93.06
448.896	92.06
449.117	92.06
449.338	73.06
449.559	96.06
449.779	83.06
450	86.06
450.221	78.06
450.442	80.06
450.662	81.06
450.883	83.06
451.104	86.06
451.324	95.06
451.545	83.06
451.766	77.06
451.986	96.06
452.207	101.06
452.428	87.06
452.648	111.06
452.869	113.06
453.089	109.06
453.31	107.06
453.53	109.06
453.751	108.06
453.971	92.06
454.192	89.06
454.412	91.06
454.633	90.06
454.853	80.06
455.073	83.06
455.294	100.06
455.514	101.06
455.734	95.06
455.955	100.06
456.175	90.06
456.395	77.06
456.616	74.06
456.836	89.06
457.056	95.06
457.276	102.06
457.497	96.06
457.717	91.06
457.937	135.06
458.157	145.06
458.377	157.06
458.598	150.06
458.818	169.06
459.038	106.06
459.258	101.06
459.478	95.06
459.698	92.06
459.918	106.06
460.138	92.06
460.358	100.06
460.578	123.06
460.798	172.06
461.018	164.06
461.238	105.06
461.458	99.06
461.678	85.06
461.898	95.06
462.118	104.06
462.338	81.06
462.558	91.06
462.777	78.06
462.997	100.06
463.217	81.06
463.437	86.06
463.657	88.06
463.876	96.06
464.096	81.06
464.316	77.06
464.536	90.06
464.755	85.06
464.975	85.06
465.195	87.06
465.414	85.06
465.634	91.06
465.854	90.06
466.073	91.06
466.293	90.06
466.512	97.06
466.732	87.06
466.951	88.06
467.171	92.06
467.391	84.06
467.61	96.06
467.829	85.06
468.049	98.06
468.268	95.06
468.488	108.06
468.707	101.06
468.927	83.06
469.146	99.06
469.365	85.06
469.585	89.06
469.804	97.06
470.023	92.06
470.243	107.06
470.462	101.06
470.681	70.06
470.901	100.06
471.12	102.06
471.339	99.06
471.558	87.06
471.777	87.06
471.997	92.06
472.216	91.06
472.435	86.06
472.654	95.06
472.873	98.06
473.092	93.06
473.311	90.06
473.53	82.06
473.749	92.06
473.968	100.06
474.187	103.06
474.406	94.06
474.625	90.06
474.844	82.06
475.063	115.06
475.282	82.06
475.501	92.06
475.72	96.06
475.939	92.06
476.158	92.06
476.377	94.06
476.596	95.06
476.814	83.06
477.033	89.06
477.252	80.06
477.471	100.06
477.69	103.06
477.908	95.06
478.127	108.06
478.346	94.06
478.564	88.06
478.783	97.06
479.002	92.06
479.22	81.06
479.439	96.06
479.658	101.06
479.876	97.06
480.095	88.06
480.313	106.06
480.532	79.06
480.751	97.06
480.969	102.06
481.188	85.06
481.406	104.06
481.624	77.06
481.843	93.06
482.061	105.06
482.28	105.06
482.498	83.06
482.717	108.06
482.935	93.06
483.153	95.06
483.372	112.06
483.59	98.06
483.808	96.06
484.027	89.06
484.245	93.06
484.463	94.06
484.681	111.06
484.9	119.06
485.118	99.06
485.336	99.06
485.554	77.06
485.772	92.06
485.99	96.06
486.209	109.06
486.427	94.06
486.645	99.06
486.863	89.06
487.081	86.06
487.299	113.06
487.517	117.06
487.735	137.06
487.953	257.06
488.171	180.06
488.389	113.06
488.607	86.06
488.825	91.06
489.043	94.06
489.261	92.06
489.479	86.06
489.696	91.06
489.914	101.06
490.132	105.06
490.35	97.06
490.568	101.06
490.786	94.06
491.003	99.06
491.221	104.06
491.439	101.06
491.657	80.06
491.874	98.06
492.092	103.06
492.31	93.06
492.527	95.06
492.745	92.06
492.963	96.06
493.18	105.06
493.398	99.06
493.615	97.06
493.833	87.06
494.05	92.06
494.268	99.06
494.485	105.06
494.703	98.06
494.92	92.06
495.138	88.06
495.355	93.06
495.573	89.06
495.79	99.06
496.008	112.06
496.225	115.06
496.442	111.06
496.66	95.06
496.877	104.06
497.094	106.06
497.312	88.06
497.529	104.06
497.746	102.06
497.963	88.06
498.181	105.06
498.398	114.06
498.615	96.06
498.832	93.06
499.049	94.06
499.267	113.06
499.484	93.06
499.701	88.06
499.918	106.06
500.135	100.06
500.352	106.06
500.569	92.06
500.786	105.06
501.003	105.06
501.22	90.06
501.437	90.06
501.654	100.06
501.871	93.06
502.088	115.06
502.305	87.06
502.522	113.06
502.739	96.06
502.956	86.06
503.172	104.06
503.389	103.06
503.606	104.06
503.823	99.06
504.04	131.06
504.256	185.06
504.473	180.06
504.69	115.06
504.907	98.06
505.123	107.06
505.34	87.06
505.557	95.06
505.773	93.06
505.99	98.06
506.207	103.06
506.423	104.06
506.64	87.06
506.856	92.06
507.073	96.06
507.289	97.06
507.506	99.06
507.722	76.06
507.939	86.06
508.155	85.06
508.372	100.06
508.588	92.06
508.805	96.06
509.021	111.06
509.238	91.06
509.454	97.06
509.67	93.06
509.887	97.06
510.103	89.06
510.319	97.06
510.536	83.06
510.752	89.06
510.968	81.06
511.184	88.06
511.401	88.06
511.617	106.06
511.833	83.06
512.049	96.06
512.265	83.06
512.481	88.06
512.698	99.06
512.914	82.06
513.13	104.06
513.346	101.06
513.562	93.06
513.778	103.06
513.994	108.06
514.21	108.06
514.426	107.06
514.642	128.06
514.858	109.06
515.074	106.06
515.29	102.06
515.506	89.06
