Data from 17600_1_HRD10591_00038.txt Node
Date: Mon Jan 19 14:07:43 EST 2026
User: Yrep
Spectrometer: HR+D1059
Trigger mode: 1
Integration Time (sec): 1.000000E-1
Scans to average: 1
Electric dark correction enabled: true
Nonlinearity correction enabled: false
Boxcar width: 0
XAxis mode: Wavelengths
Number of Pixels in Spectrum: 2048
>>>>>Begin Spectral Data<<<<<
223.165	-14.06
223.4	-14.06
223.635	-14.06
223.869	-21.06
224.104	-23.06
224.338	-19.06
224.573	-6.06
224.808	-27.06
225.042	-11.06
225.277	-8.06
225.511	10.94
225.746	11.94
225.98	3.94
226.215	15.94
226.449	8.94
226.683	26.94
226.918	30.94
227.152	19.94
227.387	26.94
227.621	38.94
227.856	33.94
228.09	46.94
228.324	48.94
228.559	54.94
228.793	78.94
229.027	58.94
229.262	63.94
229.496	68.94
229.73	73.94
229.964	91.94
230.199	76.94
230.433	55.94
230.667	84.94
230.901	78.94
231.136	78.94
231.37	99.94
231.604	93.94
231.838	76.94
232.072	80.94
232.306	90.94
232.541	90.94
232.775	75.94
233.009	65.94
233.243	83.94
233.477	75.94
233.711	84.94
233.945	70.94
234.179	75.94
234.413	82.94
234.647	86.94
234.881	77.94
235.115	71.94
235.349	64.94
235.583	75.94
235.817	65.94
236.051	75.94
236.285	81.94
236.519	56.94
236.753	65.94
236.987	68.94
237.221	77.94
237.455	60.94
237.689	84.94
237.922	73.94
238.156	73.94
238.39	67.94
238.624	94.94
238.858	72.94
239.091	86.94
239.325	86.94
239.559	85.94
239.793	71.94
240.027	78.94
240.26	79.94
240.494	67.94
240.728	71.94
240.961	78.94
241.195	79.94
241.429	75.94
241.662	64.94
241.896	77.94
242.13	69.94
242.363	66.94
242.597	66.94
242.83	75.94
243.064	67.94
243.298	74.94
243.531	74.94
243.765	89.94
243.998	94.94
244.232	78.94
244.465	87.94
244.699	66.94
244.932	73.94
245.166	77.94
245.399	74.94
245.633	82.94
245.866	77.94
246.099	76.94
246.333	86.94
246.566	77.94
246.8	86.94
247.033	86.94
247.266	63.94
247.5	71.94
247.733	75.94
247.966	68.94
248.2	72.94
248.433	81.94
248.666	92.94
248.899	91.94
249.133	84.94
249.366	82.94
249.599	66.94
249.832	71.94
250.066	78.94
250.299	91.94
250.532	97.94
250.765	72.94
250.998	87.94
251.231	87.94
251.465	92.94
251.698	77.94
251.931	76.94
252.164	86.94
252.397	73.94
252.63	69.94
252.863	87.94
253.096	71.94
253.329	78.94
253.562	75.94
253.795	88.94
254.028	80.94
254.261	73.94
254.494	84.94
254.727	88.94
254.96	80.94
255.193	89.94
255.426	80.94
255.659	86.94
255.892	85.94
256.124	76.94
256.357	83.94
256.59	90.94
256.823	90.94
257.056	92.94
257.289	80.94
257.521	71.94
257.754	75.94
257.987	86.94
258.22	85.94
258.452	90.94
258.685	72.94
258.918	70.94
259.151	83.94
259.383	74.94
259.616	94.94
259.849	80.94
260.081	84.94
260.314	75.94
260.547	79.94
260.779	83.94
261.012	96.94
261.244	72.94
261.477	76.94
261.71	88.94
261.942	75.94
262.175	80.94
262.407	84.94
262.64	81.94
262.872	82.94
263.105	81.94
263.337	82.94
263.57	72.94
263.802	87.94
264.035	82.94
264.267	78.94
264.499	87.94
264.732	72.94
264.964	76.94
265.197	86.94
265.429	82.94
265.661	76.94
265.894	74.94
266.126	78.94
266.358	94.94
266.591	72.94
266.823	74.94
267.055	86.94
267.287	71.94
267.52	60.94
267.752	75.94
267.984	62.94
268.216	74.94
268.448	87.94
268.681	76.94
268.913	77.94
269.145	77.94
269.377	88.94
269.609	79.94
269.841	89.94
270.073	81.94
270.306	85.94
270.538	82.94
270.77	63.94
271.002	91.94
271.234	94.94
271.466	72.94
271.698	77.94
271.93	95.94
272.162	82.94
272.394	96.94
272.626	95.94
272.858	72.94
273.09	78.94
273.322	80.94
273.553	85.94
273.785	86.94
274.017	87.94
274.249	94.94
274.481	88.94
274.713	78.94
274.945	82.94
275.176	81.94
275.408	82.94
275.64	84.94
275.872	92.94
276.104	96.94
276.335	96.94
276.567	91.94
276.799	97.94
277.031	67.94
277.262	89.94
277.494	85.94
277.726	81.94
277.957	82.94
278.189	80.94
278.421	60.94
278.652	91.94
278.884	86.94
279.115	90.94
279.347	93.94
279.579	84.94
279.81	106.94
280.042	91.94
280.273	90.94
280.505	74.94
280.736	94.94
280.968	93.94
281.199	84.94
281.431	82.94
281.662	75.94
281.894	86.94
282.125	75.94
282.356	82.94
282.588	83.94
282.819	87.94
283.051	83.94
283.282	86.94
283.513	72.94
283.745	89.94
283.976	86.94
284.207	84.94
284.439	90.94
284.67	72.94
284.901	82.94
285.132	76.94
285.364	76.94
285.595	80.94
285.826	70.94
286.057	95.94
286.288	88.94
286.52	86.94
286.751	80.94
286.982	98.94
287.213	87.94
287.444	89.94
287.675	73.94
287.906	85.94
288.138	74.94
288.369	85.94
288.6	86.94
288.831	72.94
289.062	91.94
289.293	87.94
289.524	88.94
289.755	87.94
289.986	92.94
290.217	89.94
290.448	82.94
290.679	79.94
290.91	81.94
291.141	82.94
291.371	77.94
291.602	79.94
291.833	84.94
292.064	81.94
292.295	85.94
292.526	89.94
292.757	90.94
292.987	89.94
293.218	73.94
293.449	85.94
293.68	94.94
293.91	78.94
294.141	89.94
294.372	78.94
294.603	76.94
294.833	89.94
295.064	84.94
295.295	78.94
295.525	90.94
295.756	77.94
295.987	88.94
296.217	82.94
296.448	73.94
296.679	84.94
296.909	86.94
297.14	87.94
297.37	82.94
297.601	85.94
297.831	86.94
298.062	85.94
298.292	77.94
298.523	80.94
298.753	80.94
298.984	75.94
299.214	77.94
299.445	82.94
299.675	82.94
299.905	80.94
300.136	83.94
300.366	73.94
300.597	85.94
300.827	99.94
301.057	87.94
301.288	72.94
301.518	84.94
301.748	74.94
301.979	96.94
302.209	94.94
302.439	85.94
302.669	78.94
302.9	82.94
303.13	86.94
303.36	71.94
303.59	77.94
303.82	80.94
304.051	87.94
304.281	82.94
304.511	96.94
304.741	82.94
304.971	89.94
305.201	76.94
305.431	64.94
305.661	81.94
305.891	73.94
306.121	82.94
306.352	75.94
306.582	73.94
306.812	85.94
307.042	89.94
307.272	73.94
307.502	92.94
307.731	77.94
307.961	75.94
308.191	84.94
308.421	94.94
308.651	90.94
308.881	95.94
309.111	82.94
309.341	93.94
309.571	86.94
309.8	88.94
310.03	77.94
310.26	92.94
310.49	78.94
310.72	78.94
310.949	85.94
311.179	78.94
311.409	94.94
311.639	79.94
311.868	90.94
312.098	92.94
312.328	92.94
312.557	85.94
312.787	67.94
313.017	69.94
313.246	90.94
313.476	80.94
313.706	84.94
313.935	80.94
314.165	87.94
314.394	96.94
314.624	83.94
314.853	80.94
315.083	88.94
315.312	102.94
315.542	90.94
315.771	92.94
316.001	82.94
316.23	92.94
316.46	93.94
316.689	94.94
316.919	79.94
317.148	86.94
317.377	94.94
317.607	80.94
317.836	77.94
318.065	118.94
318.295	100.94
318.524	87.94
318.753	82.94
318.983	86.94
319.212	96.94
319.441	89.94
319.67	88.94
319.9	90.94
320.129	88.94
320.358	92.94
320.587	84.94
320.816	83.94
321.046	76.94
321.275	88.94
321.504	83.94
321.733	82.94
321.962	91.94
322.191	84.94
322.42	82.94
322.649	88.94
322.878	90.94
323.108	91.94
323.337	86.94
323.566	86.94
323.795	89.94
324.024	79.94
324.253	72.94
324.482	82.94
324.71	88.94
324.939	95.94
325.168	82.94
325.397	72.94
325.626	80.94
325.855	83.94
326.084	88.94
326.313	79.94
326.542	75.94
326.77	83.94
326.999	84.94
327.228	83.94
327.457	85.94
327.686	94.94
327.914	97.94
328.143	82.94
328.372	99.94
328.6	93.94
328.829	84.94
329.058	92.94
329.287	85.94
329.515	87.94
329.744	88.94
329.972	92.94
330.201	83.94
330.43	83.94
330.658	98.94
330.887	85.94
331.115	93.94
331.344	83.94
331.572	96.94
331.801	92.94
332.03	76.94
332.258	81.94
332.486	94.94
332.715	72.94
332.943	98.94
333.172	88.94
333.4	86.94
333.629	92.94
333.857	90.94
334.085	94.94
334.314	91.94
334.542	80.94
334.771	96.94
334.999	94.94
335.227	79.94
335.455	87.94
335.684	59.94
335.912	74.94
336.14	80.94
336.369	82.94
336.597	92.94
336.825	87.94
337.053	87.94
337.281	80.94
337.51	89.94
337.738	80.94
337.966	77.94
338.194	79.94
338.422	96.94
338.65	98.94
338.878	78.94
339.106	89.94
339.334	78.94
339.562	91.94
339.79	91.94
340.018	73.94
340.246	83.94
340.474	98.94
340.702	84.94
340.93	93.94
341.158	95.94
341.386	84.94
341.614	95.94
341.842	101.94
342.07	71.94
342.298	89.94
342.526	92.94
342.754	82.94
342.981	89.94
343.209	87.94
343.437	101.94
343.665	88.94
343.893	80.94
344.12	75.94
344.348	89.94
344.576	88.94
344.804	84.94
345.031	67.94
345.259	75.94
345.487	83.94
345.714	88.94
345.942	98.94
346.17	83.94
346.397	88.94
346.625	74.94
346.853	89.94
347.08	91.94
347.308	89.94
347.535	97.94
347.763	89.94
347.99	81.94
348.218	83.94
348.445	87.94
348.673	82.94
348.9	84.94
349.128	68.94
349.355	76.94
349.583	90.94
349.81	78.94
350.037	82.94
350.265	88.94
350.492	79.94
350.72	79.94
350.947	73.94
351.174	77.94
351.402	84.94
351.629	89.94
351.856	96.94
352.083	75.94
352.311	98.94
352.538	83.94
352.765	91.94
352.992	76.94
353.22	77.94
353.447	90.94
353.674	71.94
353.901	75.94
354.128	100.94
354.355	89.94
354.583	96.94
354.81	85.94
355.037	84.94
355.264	83.94
355.491	77.94
355.718	88.94
355.945	89.94
356.172	82.94
356.399	86.94
356.626	84.94
356.853	97.94
357.08	80.94
357.307	75.94
357.534	84.94
357.761	83.94
357.988	91.94
358.215	105.94
358.441	82.94
358.668	86.94
358.895	82.94
359.122	94.94
359.349	78.94
359.576	81.94
359.802	84.94
360.029	89.94
360.256	76.94
360.483	84.94
360.709	75.94
360.936	84.94
361.163	98.94
361.39	82.94
361.616	77.94
361.843	81.94
362.07	91.94
362.296	80.94
362.523	88.94
362.749	93.94
362.976	94.94
363.203	92.94
363.429	93.94
363.656	91.94
363.882	97.94
364.109	98.94
364.335	94.94
364.562	116.94
364.788	93.94
365.015	92.94
365.241	76.94
365.468	86.94
365.694	80.94
365.92	96.94
366.147	77.94
366.373	84.94
366.599	83.94
366.826	86.94
367.052	70.94
367.278	91.94
367.505	76.94
367.731	93.94
367.957	98.94
368.184	85.94
368.41	82.94
368.636	88.94
368.862	89.94
369.089	80.94
369.315	76.94
369.541	73.94
369.767	74.94
369.993	83.94
370.219	106.94
370.445	86.94
370.672	95.94
370.898	78.94
371.124	64.94
371.35	83.94
371.576	69.94
371.802	84.94
372.028	75.94
372.254	96.94
372.48	80.94
372.706	77.94
372.932	94.94
373.158	91.94
373.384	96.94
373.61	113.94
373.835	104.94
374.061	86.94
374.287	84.94
374.513	89.94
374.739	85.94
374.965	86.94
375.191	83.94
375.416	98.94
375.642	93.94
375.868	91.94
376.094	87.94
376.319	99.94
376.545	93.94
376.771	90.94
376.997	78.94
377.222	87.94
377.448	84.94
377.674	83.94
377.899	86.94
378.125	89.94
378.35	84.94
378.576	92.94
378.802	102.94
379.027	84.94
379.253	76.94
379.478	83.94
379.704	79.94
379.929	75.94
380.155	82.94
380.38	88.94
380.606	82.94
380.831	98.94
381.057	83.94
381.282	70.94
381.507	87.94
381.733	88.94
381.958	86.94
382.184	106.94
382.409	87.94
382.634	95.94
382.86	82.94
383.085	93.94
383.31	88.94
383.535	87.94
383.761	94.94
383.986	84.94
384.211	88.94
384.436	95.94
384.662	96.94
384.887	95.94
385.112	89.94
385.337	92.94
385.562	105.94
385.787	80.94
386.013	95.94
386.238	88.94
386.463	92.94
386.688	92.94
386.913	98.94
387.138	119.94
387.363	84.94
387.588	98.94
387.813	88.94
388.038	95.94
388.263	97.94
388.488	99.94
388.713	83.94
388.938	83.94
389.163	81.94
389.387	74.94
389.612	82.94
389.837	75.94
390.062	87.94
390.287	76.94
390.512	90.94
390.736	81.94
390.961	82.94
391.186	79.94
391.411	75.94
391.636	86.94
391.86	83.94
392.085	102.94
392.31	86.94
392.534	102.94
392.759	108.94
392.984	162.94
393.208	293.94
393.433	425.94
393.658	321.94
393.882	119.94
394.107	103.94
394.331	103.94
394.556	99.94
394.78	102.94
395.005	92.94
395.229	95.94
395.454	107.94
395.678	83.94
395.903	113.94
396.127	132.94
396.352	148.94
396.576	175.94
396.801	289.94
397.025	331.94
397.249	168.94
397.474	118.94
397.698	105.94
397.922	84.94
398.147	96.94
398.371	70.94
398.595	90.94
398.82	86.94
399.044	89.94
399.268	86.94
399.492	91.94
399.717	90.94
399.941	71.94
400.165	81.94
400.389	83.94
400.613	86.94
400.837	79.94
401.062	88.94
401.286	68.94
401.51	76.94
401.734	84.94
401.958	82.94
402.182	86.94
402.406	72.94
402.63	87.94
402.854	76.94
403.078	80.94
403.302	82.94
403.526	80.94
403.75	100.94
403.974	77.94
404.198	81.94
404.422	111.94
404.645	112.94
404.869	98.94
405.093	97.94
405.317	78.94
405.541	80.94
405.765	77.94
405.988	78.94
406.212	84.94
406.436	82.94
406.66	79.94
406.883	80.94
407.107	78.94
407.331	82.94
407.555	105.94
407.778	131.94
408.002	124.94
408.226	98.94
408.449	73.94
408.673	90.94
408.896	106.94
409.12	92.94
409.344	90.94
409.567	84.94
409.791	88.94
410.014	90.94
410.238	88.94
410.461	90.94
410.685	98.94
410.908	94.94
411.132	75.94
411.355	82.94
411.578	88.94
411.802	68.94
412.025	82.94
412.249	65.94
412.472	76.94
412.695	92.94
412.919	88.94
413.142	82.94
413.365	78.94
413.589	90.94
413.812	91.94
414.035	75.94
414.258	82.94
414.482	76.94
414.705	72.94
414.928	94.94
415.151	88.94
415.374	88.94
415.597	91.94
415.821	94.94
416.044	92.94
416.267	88.94
416.49	89.94
416.713	78.94
416.936	80.94
417.159	71.94
417.382	101.94
417.605	82.94
417.828	80.94
418.051	87.94
418.274	85.94
418.497	75.94
418.72	69.94
418.943	78.94
419.166	96.94
419.389	79.94
419.611	81.94
419.834	82.94
420.057	79.94
420.28	82.94
420.503	81.94
420.726	85.94
420.948	92.94
421.171	88.94
421.394	98.94
421.617	123.94
421.839	106.94
422.062	99.94
422.285	121.94
422.507	222.94
422.73	347.94
422.953	312.94
423.175	146.94
423.398	100.94
423.621	96.94
423.843	80.94
424.066	82.94
424.288	91.94
424.511	88.94
424.733	65.94
424.956	82.94
425.178	82.94
425.401	85.94
425.623	72.94
425.846	83.94
426.068	94.94
426.291	85.94
426.513	88.94
426.735	80.94
426.958	91.94
427.18	80.94
427.402	94.94
427.625	83.94
427.847	72.94
428.069	79.94
428.292	118.94
428.514	118.94
428.736	96.94
428.958	118.94
429.181	110.94
429.403	108.94
429.625	92.94
429.847	101.94
430.069	120.94
430.292	142.94
430.514	147.94
430.736	101.94
430.958	119.94
431.18	98.94
431.402	98.94
431.624	88.94
431.846	113.94
432.068	131.94
432.29	106.94
432.512	83.94
432.734	75.94
432.956	81.94
433.178	90.94
433.4	73.94
433.622	72.94
433.844	84.94
434.066	86.94
434.287	91.94
434.509	79.94
434.731	80.94
434.953	81.94
435.175	91.94
435.397	99.94
435.618	90.94
435.84	84.94
436.062	86.94
436.284	77.94
436.505	84.94
436.727	90.94
436.949	72.94
437.17	92.94
437.392	95.94
437.614	80.94
437.835	82.94
438.057	89.94
438.278	94.94
438.5	84.94
438.721	101.94
438.943	105.94
439.165	82.94
439.386	85.94
439.608	92.94
439.829	87.94
440.05	80.94
440.272	70.94
440.493	64.94
440.715	78.94
440.936	84.94
441.158	86.94
441.379	92.94
441.6	66.94
441.822	65.94
442.043	96.94
442.264	102.94
442.486	101.94
442.707	129.94
442.928	106.94
443.149	106.94
443.371	117.94
443.592	182.94
443.813	181.94
444.034	90.94
444.255	84.94
444.476	79.94
444.698	99.94
444.919	86.94
445.14	168.94
445.361	164.94
445.582	229.94
445.803	170.94
446.024	110.94
446.245	103.94
446.466	76.94
446.687	83.94
446.908	77.94
447.129	89.94
447.35	74.94
447.571	101.94
447.792	103.94
448.013	99.94
448.234	94.94
448.455	89.94
448.675	87.94
448.896	71.94
449.117	84.94
449.338	88.94
449.559	99.94
449.779	75.94
450	68.94
450.221	84.94
450.442	81.94
450.662	99.94
450.883	84.94
451.104	77.94
451.324	74.94
451.545	86.94
451.766	83.94
451.986	82.94
452.207	81.94
452.428	97.94
452.648	103.94
452.869	93.94
453.089	74.94
453.31	87.94
453.53	76.94
453.751	89.94
453.971	94.94
454.192	74.94
454.412	89.94
454.633	82.94
454.853	86.94
455.073	75.94
455.294	83.94
455.514	84.94
455.734	90.94
455.955	88.94
456.175	72.94
456.395	64.94
456.616	85.94
456.836	77.94
457.056	85.94
457.276	86.94
457.497	91.94
457.717	78.94
457.937	91.94
458.157	107.94
458.377	99.94
458.598	98.94
458.818	96.94
459.038	98.94
459.258	92.94
459.478	70.94
459.698	90.94
459.918	85.94
460.138	86.94
460.358	80.94
460.578	90.94
460.798	114.94
461.018	111.94
461.238	98.94
461.458	88.94
461.678	86.94
461.898	79.94
462.118	79.94
462.338	85.94
462.558	78.94
462.777	73.94
462.997	82.94
463.217	96.94
463.437	82.94
463.657	71.94
463.876	90.94
464.096	76.94
464.316	82.94
464.536	75.94
464.755	82.94
464.975	78.94
465.195	97.94
465.414	88.94
465.634	82.94
465.854	77.94
466.073	93.94
466.293	82.94
466.512	80.94
466.732	76.94
466.951	74.94
467.171	74.94
467.391	91.94
467.61	92.94
467.829	90.94
468.049	86.94
468.268	88.94
468.488	73.94
468.707	89.94
468.927	93.94
469.146	80.94
469.365	78.94
469.585	89.94
469.804	74.94
470.023	92.94
470.243	95.94
470.462	89.94
470.681	88.94
470.901	75.94
471.12	81.94
471.339	64.94
471.558	80.94
471.777	77.94
471.997	81.94
472.216	84.94
472.435	81.94
472.654	84.94
472.873	94.94
473.092	84.94
473.311	90.94
473.53	88.94
473.749	85.94
473.968	90.94
474.187	75.94
474.406	78.94
474.625	72.94
474.844	90.94
475.063	81.94
475.282	82.94
475.501	86.94
475.72	89.94
475.939	75.94
476.158	79.94
476.377	74.94
476.596	90.94
476.814	86.94
477.033	77.94
477.252	80.94
477.471	76.94
477.69	84.94
477.908	76.94
478.127	81.94
478.346	83.94
478.564	79.94
478.783	86.94
479.002	77.94
479.22	87.94
479.439	96.94
479.658	82.94
479.876	86.94
480.095	88.94
480.313	76.94
480.532	85.94
480.751	98.94
480.969	84.94
481.188	88.94
481.406	87.94
481.624	65.94
481.843	85.94
482.061	82.94
482.28	91.94
482.498	83.94
482.717	91.94
482.935	73.94
483.153	85.94
483.372	91.94
483.59	83.94
483.808	73.94
484.027	87.94
484.245	78.94
484.463	72.94
484.681	98.94
484.9	90.94
485.118	74.94
485.336	73.94
485.554	82.94
485.772	90.94
485.99	76.94
486.209	71.94
486.427	85.94
486.645	83.94
486.863	89.94
487.081	72.94
487.299	94.94
487.517	116.94
487.735	107.94
487.953	123.94
488.171	100.94
488.389	90.94
488.607	73.94
488.825	71.94
489.043	82.94
489.261	76.94
489.479	91.94
489.696	98.94
489.914	78.94
490.132	79.94
490.35	83.94
490.568	87.94
490.786	82.94
491.003	76.94
491.221	81.94
491.439	82.94
491.657	80.94
491.874	107.94
492.092	95.94
492.31	81.94
492.527	86.94
492.745	82.94
492.963	87.94
493.18	80.94
493.398	90.94
493.615	78.94
493.833	92.94
494.05	87.94
494.268	83.94
494.485	76.94
494.703	88.94
494.92	97.94
495.138	75.94
495.355	86.94
495.573	82.94
495.79	97.94
496.008	80.94
496.225	82.94
496.442	79.94
496.66	73.94
496.877	89.94
497.094	88.94
497.312	84.94
497.529	83.94
497.746	87.94
497.963	83.94
498.181	76.94
498.398	84.94
498.615	90.94
498.832	92.94
499.049	77.94
499.267	82.94
499.484	78.94
499.701	102.94
499.918	81.94
500.135	86.94
500.352	91.94
500.569	85.94
500.786	99.94
501.003	82.94
501.22	85.94
501.437	85.94
501.654	95.94
501.871	74.94
502.088	69.94
502.305	76.94
502.522	92.94
502.739	97.94
502.956	97.94
503.172	96.94
503.389	101.94
503.606	89.94
503.823	100.94
504.04	91.94
504.256	108.94
504.473	103.94
504.69	83.94
504.907	88.94
505.123	91.94
505.34	90.94
505.557	98.94
505.773	101.94
505.99	79.94
506.207	94.94
506.423	84.94
506.64	85.94
506.856	85.94
507.073	98.94
507.289	79.94
507.506	88.94
507.722	85.94
507.939	101.94
508.155	78.94
508.372	77.94
508.588	83.94
508.805	98.94
509.021	97.94
509.238	67.94
509.454	86.94
509.67	87.94
509.887	92.94
510.103	92.94
510.319	75.94
510.536	85.94
510.752	90.94
510.968	89.94
511.184	77.94
511.401	87.94
511.617	83.94
511.833	85.94
512.049	90.94
512.265	83.94
512.481	80.94
512.698	93.94
512.914	90.94
513.13	88.94
513.346	78.94
513.562	88.94
513.778	92.94
513.994	85.94
514.21	86.94
514.426	80.94
514.642	80.94
514.858	90.94
515.074	85.94
515.29	97.94
515.506	83.94
515.721	71.94
515.937	72.94
516.153	95.94
516.369	87.94
516.585	89.94
516.801	96.94
517.016	83.94
517.232	84.94
517.448	99.94
517.664	102.94
517.879	88.94
518.095	76.94
518.311	96.94
518.527	86.94
518.742	86.94
