Data from 17600_1_HRD10591_00027.txt Node
Date: Mon Jan 19 14:07:37 EST 2026
User: Yrep
Spectrometer: HR+D1059
Trigger mode: 1
Integration Time (sec): 1.000000E-1
Scans to average: 1
Electric dark correction enabled: true
Nonlinearity correction enabled: false
Boxcar width: 0
XAxis mode: Wavelengths
Number of Pixels in Spectrum: 2048
>>>>>Begin Spectral Data<<<<<
223.165	-14.81
223.4	-14.81
223.635	-14.81
223.869	-23.81
224.104	-10.81
224.338	-18.81
224.573	-18.81
224.808	-18.81
225.042	-3.81
225.277	0.19
225.511	-2.81
225.746	11.19
225.98	-1.81
226.215	13.19
226.449	10.19
226.683	16.19
226.918	36.19
227.152	27.19
227.387	26.19
227.621	43.19
227.856	47.19
228.09	65.19
228.324	50.19
228.559	43.19
228.793	65.19
229.027	55.19
229.262	57.19
229.496	51.19
229.73	76.19
229.964	59.19
230.199	63.19
230.433	73.19
230.667	77.19
230.901	73.19
231.136	74.19
231.37	78.19
231.604	74.19
231.838	85.19
232.072	89.19
232.306	82.19
232.541	77.19
232.775	78.19
233.009	87.19
233.243	85.19
233.477	85.19
233.711	77.19
233.945	77.19
234.179	73.19
234.413	93.19
234.647	67.19
234.881	78.19
235.115	73.19
235.349	70.19
235.583	69.19
235.817	79.19
236.051	79.19
236.285	76.19
236.519	99.19
236.753	85.19
236.987	63.19
237.221	62.19
237.455	69.19
237.689	80.19
237.922	78.19
238.156	72.19
238.39	66.19
238.624	80.19
238.858	68.19
239.091	61.19
239.325	87.19
239.559	85.19
239.793	61.19
240.027	73.19
240.26	83.19
240.494	71.19
240.728	78.19
240.961	73.19
241.195	75.19
241.429	72.19
241.662	69.19
241.896	80.19
242.13	71.19
242.363	79.19
242.597	59.19
242.83	71.19
243.064	79.19
243.298	73.19
243.531	69.19
243.765	67.19
243.998	71.19
244.232	86.19
244.465	69.19
244.699	86.19
244.932	61.19
245.166	67.19
245.399	70.19
245.633	71.19
245.866	77.19
246.099	78.19
246.333	72.19
246.566	76.19
246.8	81.19
247.033	79.19
247.266	80.19
247.5	82.19
247.733	88.19
247.966	79.19
248.2	71.19
248.433	72.19
248.666	76.19
248.899	79.19
249.133	71.19
249.366	72.19
249.599	71.19
249.832	84.19
250.066	84.19
250.299	70.19
250.532	73.19
250.765	77.19
250.998	70.19
251.231	69.19
251.465	73.19
251.698	79.19
251.931	73.19
252.164	75.19
252.397	83.19
252.63	52.19
252.863	65.19
253.096	76.19
253.329	85.19
253.562	73.19
253.795	89.19
254.028	80.19
254.261	83.19
254.494	65.19
254.727	85.19
254.96	72.19
255.193	64.19
255.426	84.19
255.659	84.19
255.892	72.19
256.124	81.19
256.357	75.19
256.59	83.19
256.823	67.19
257.056	81.19
257.289	83.19
257.521	92.19
257.754	79.19
257.987	73.19
258.22	82.19
258.452	81.19
258.685	71.19
258.918	84.19
259.151	69.19
259.383	88.19
259.616	80.19
259.849	77.19
260.081	71.19
260.314	84.19
260.547	72.19
260.779	78.19
261.012	85.19
261.244	77.19
261.477	83.19
261.71	78.19
261.942	65.19
262.175	79.19
262.407	85.19
262.64	59.19
262.872	77.19
263.105	71.19
263.337	82.19
263.57	77.19
263.802	66.19
264.035	89.19
264.267	88.19
264.499	81.19
264.732	82.19
264.964	86.19
265.197	71.19
265.429	71.19
265.661	67.19
265.894	81.19
266.126	74.19
266.358	69.19
266.591	88.19
266.823	80.19
267.055	73.19
267.287	85.19
267.52	82.19
267.752	88.19
267.984	82.19
268.216	68.19
268.448	79.19
268.681	77.19
268.913	81.19
269.145	74.19
269.377	77.19
269.609	78.19
269.841	90.19
270.073	70.19
270.306	81.19
270.538	77.19
270.77	88.19
271.002	80.19
271.234	81.19
271.466	72.19
271.698	72.19
271.93	79.19
272.162	91.19
272.394	74.19
272.626	73.19
272.858	83.19
273.09	71.19
273.322	87.19
273.553	81.19
273.785	83.19
274.017	78.19
274.249	81.19
274.481	75.19
274.713	89.19
274.945	100.19
275.176	81.19
275.408	87.19
275.64	78.19
275.872	78.19
276.104	92.19
276.335	81.19
276.567	68.19
276.799	75.19
277.031	85.19
277.262	88.19
277.494	78.19
277.726	59.19
277.957	80.19
278.189	83.19
278.421	85.19
278.652	79.19
278.884	79.19
279.115	81.19
279.347	84.19
279.579	78.19
279.81	77.19
280.042	86.19
280.273	93.19
280.505	80.19
280.736	72.19
280.968	94.19
281.199	69.19
281.431	74.19
281.662	81.19
281.894	91.19
282.125	76.19
282.356	85.19
282.588	89.19
282.819	75.19
283.051	89.19
283.282	87.19
283.513	83.19
283.745	78.19
283.976	76.19
284.207	74.19
284.439	82.19
284.67	64.19
284.901	88.19
285.132	83.19
285.364	73.19
285.595	72.19
285.826	70.19
286.057	85.19
286.288	64.19
286.52	72.19
286.751	87.19
286.982	81.19
287.213	83.19
287.444	93.19
287.675	84.19
287.906	90.19
288.138	70.19
288.369	73.19
288.6	67.19
288.831	71.19
289.062	82.19
289.293	81.19
289.524	81.19
289.755	100.19
289.986	91.19
290.217	90.19
290.448	92.19
290.679	104.19
290.91	86.19
291.141	85.19
291.371	82.19
291.602	75.19
291.833	94.19
292.064	79.19
292.295	79.19
292.526	84.19
292.757	80.19
292.987	66.19
293.218	82.19
293.449	88.19
293.68	64.19
293.91	79.19
294.141	90.19
294.372	79.19
294.603	69.19
294.833	85.19
295.064	79.19
295.295	68.19
295.525	70.19
295.756	79.19
295.987	77.19
296.217	84.19
296.448	68.19
296.679	86.19
296.909	69.19
297.14	77.19
297.37	83.19
297.601	64.19
297.831	87.19
298.062	91.19
298.292	71.19
298.523	81.19
298.753	79.19
298.984	85.19
299.214	64.19
299.445	80.19
299.675	88.19
299.905	85.19
300.136	83.19
300.366	87.19
300.597	75.19
300.827	90.19
301.057	78.19
301.288	69.19
301.518	79.19
301.748	87.19
301.979	78.19
302.209	86.19
302.439	69.19
302.669	71.19
302.9	91.19
303.13	68.19
303.36	80.19
303.59	79.19
303.82	94.19
304.051	80.19
304.281	93.19
304.511	85.19
304.741	82.19
304.971	94.19
305.201	88.19
305.431	84.19
305.661	80.19
305.891	94.19
306.121	76.19
306.352	70.19
306.582	81.19
306.812	82.19
307.042	83.19
307.272	89.19
307.502	79.19
307.731	69.19
307.961	85.19
308.191	79.19
308.421	74.19
308.651	97.19
308.881	73.19
309.111	88.19
309.341	84.19
309.571	78.19
309.8	77.19
310.03	73.19
310.26	89.19
310.49	67.19
310.72	86.19
310.949	81.19
311.179	84.19
311.409	77.19
311.639	64.19
311.868	87.19
312.098	79.19
312.328	88.19
312.557	91.19
312.787	68.19
313.017	79.19
313.246	78.19
313.476	84.19
313.706	79.19
313.935	78.19
314.165	74.19
314.394	80.19
314.624	79.19
314.853	68.19
315.083	73.19
315.312	73.19
315.542	67.19
315.771	88.19
316.001	71.19
316.23	85.19
316.46	92.19
316.689	88.19
316.919	73.19
317.148	79.19
317.377	81.19
317.607	85.19
317.836	86.19
318.065	81.19
318.295	91.19
318.524	95.19
318.753	90.19
318.983	76.19
319.212	68.19
319.441	77.19
319.67	74.19
319.9	91.19
320.129	71.19
320.358	92.19
320.587	81.19
320.816	88.19
321.046	79.19
321.275	77.19
321.504	72.19
321.733	59.19
321.962	91.19
322.191	94.19
322.42	69.19
322.649	87.19
322.878	74.19
323.108	85.19
323.337	80.19
323.566	74.19
323.795	72.19
324.024	75.19
324.253	72.19
324.482	82.19
324.71	80.19
324.939	88.19
325.168	90.19
325.397	85.19
325.626	89.19
325.855	80.19
326.084	92.19
326.313	88.19
326.542	79.19
326.77	83.19
326.999	89.19
327.228	102.19
327.457	70.19
327.686	78.19
327.914	75.19
328.143	90.19
328.372	70.19
328.6	74.19
328.829	84.19
329.058	71.19
329.287	94.19
329.515	77.19
329.744	74.19
329.972	72.19
330.201	92.19
330.43	94.19
330.658	87.19
330.887	76.19
331.115	95.19
331.344	83.19
331.572	80.19
331.801	72.19
332.03	65.19
332.258	70.19
332.486	88.19
332.715	84.19
332.943	73.19
333.172	82.19
333.4	62.19
333.629	91.19
333.857	72.19
334.085	83.19
334.314	90.19
334.542	93.19
334.771	75.19
334.999	83.19
335.227	88.19
335.455	101.19
335.684	86.19
335.912	90.19
336.14	81.19
336.369	75.19
336.597	80.19
336.825	78.19
337.053	67.19
337.281	98.19
337.51	91.19
337.738	79.19
337.966	81.19
338.194	84.19
338.422	73.19
338.65	70.19
338.878	86.19
339.106	84.19
339.334	82.19
339.562	74.19
339.79	87.19
340.018	77.19
340.246	77.19
340.474	95.19
340.702	73.19
340.93	75.19
341.158	81.19
341.386	74.19
341.614	75.19
341.842	86.19
342.07	89.19
342.298	72.19
342.526	79.19
342.754	77.19
342.981	86.19
343.209	102.19
343.437	95.19
343.665	84.19
343.893	95.19
344.12	77.19
344.348	87.19
344.576	77.19
344.804	73.19
345.031	79.19
345.259	91.19
345.487	71.19
345.714	73.19
345.942	88.19
346.17	82.19
346.397	87.19
346.625	83.19
346.853	77.19
347.08	80.19
347.308	87.19
347.535	63.19
347.763	89.19
347.99	77.19
348.218	78.19
348.445	87.19
348.673	79.19
348.9	80.19
349.128	81.19
349.355	60.19
349.583	89.19
349.81	83.19
350.037	83.19
350.265	84.19
350.492	89.19
350.72	85.19
350.947	81.19
351.174	86.19
351.402	85.19
351.629	95.19
351.856	76.19
352.083	85.19
352.311	84.19
352.538	68.19
352.765	89.19
352.992	81.19
353.22	77.19
353.447	95.19
353.674	93.19
353.901	82.19
354.128	79.19
354.355	69.19
354.583	73.19
354.81	79.19
355.037	88.19
355.264	92.19
355.491	68.19
355.718	69.19
355.945	79.19
356.172	87.19
356.399	87.19
356.626	88.19
356.853	83.19
357.08	81.19
357.307	68.19
357.534	70.19
357.761	73.19
357.988	83.19
358.215	97.19
358.441	68.19
358.668	77.19
358.895	75.19
359.122	79.19
359.349	79.19
359.576	73.19
359.802	93.19
360.029	77.19
360.256	78.19
360.483	76.19
360.709	94.19
360.936	89.19
361.163	96.19
361.39	74.19
361.616	80.19
361.843	85.19
362.07	82.19
362.296	87.19
362.523	72.19
362.749	94.19
362.976	83.19
363.203	74.19
363.429	83.19
363.656	83.19
363.882	96.19
364.109	81.19
364.335	91.19
364.562	84.19
364.788	71.19
365.015	91.19
365.241	71.19
365.468	80.19
365.694	80.19
365.92	79.19
366.147	80.19
366.373	84.19
366.599	77.19
366.826	83.19
367.052	83.19
367.278	83.19
367.505	84.19
367.731	77.19
367.957	68.19
368.184	73.19
368.41	75.19
368.636	83.19
368.862	94.19
369.089	69.19
369.315	91.19
369.541	95.19
369.767	78.19
369.993	98.19
370.219	81.19
370.445	99.19
370.672	87.19
370.898	84.19
371.124	80.19
371.35	68.19
371.576	67.19
371.802	78.19
372.028	74.19
372.254	87.19
372.48	84.19
372.706	81.19
372.932	83.19
373.158	79.19
373.384	86.19
373.61	76.19
373.835	79.19
374.061	83.19
374.287	82.19
374.513	78.19
374.739	78.19
374.965	94.19
375.191	79.19
375.416	71.19
375.642	69.19
375.868	82.19
376.094	83.19
376.319	85.19
376.545	68.19
376.771	70.19
376.997	70.19
377.222	89.19
377.448	83.19
377.674	76.19
377.899	70.19
378.125	86.19
378.35	71.19
378.576	61.19
378.802	79.19
379.027	77.19
379.253	77.19
379.478	76.19
379.704	76.19
379.929	70.19
380.155	79.19
380.38	74.19
380.606	86.19
380.831	91.19
381.057	91.19
381.282	90.19
381.507	76.19
381.733	80.19
381.958	88.19
382.184	98.19
382.409	87.19
382.634	79.19
382.86	90.19
383.085	72.19
383.31	71.19
383.535	70.19
383.761	65.19
383.986	64.19
384.211	82.19
384.436	77.19
384.662	78.19
384.887	79.19
385.112	64.19
385.337	64.19
385.562	79.19
385.787	85.19
386.013	79.19
386.238	84.19
386.463	75.19
386.688	86.19
386.913	83.19
387.138	70.19
387.363	81.19
387.588	85.19
387.813	81.19
388.038	79.19
388.263	78.19
388.488	71.19
388.713	91.19
388.938	75.19
389.163	76.19
389.387	90.19
389.612	84.19
389.837	82.19
390.062	82.19
390.287	95.19
390.512	73.19
390.736	80.19
390.961	84.19
391.186	77.19
391.411	81.19
391.636	95.19
391.86	82.19
392.085	78.19
392.31	79.19
392.534	75.19
392.759	103.19
392.984	87.19
393.208	116.19
393.433	175.19
393.658	119.19
393.882	97.19
394.107	72.19
394.331	97.19
394.556	79.19
394.78	80.19
395.005	83.19
395.229	86.19
395.454	70.19
395.678	69.19
395.903	73.19
396.127	79.19
396.352	95.19
396.576	94.19
396.801	136.19
397.025	152.19
397.249	94.19
397.474	87.19
397.698	70.19
397.922	72.19
398.147	69.19
398.371	74.19
398.595	87.19
398.82	81.19
399.044	88.19
399.268	82.19
399.492	83.19
399.717	76.19
399.941	75.19
400.165	73.19
400.389	74.19
400.613	83.19
400.837	83.19
401.062	86.19
401.286	79.19
401.51	92.19
401.734	77.19
401.958	95.19
402.182	70.19
402.406	57.19
402.63	80.19
402.854	77.19
403.078	86.19
403.302	81.19
403.526	86.19
403.75	70.19
403.974	74.19
404.198	92.19
404.422	87.19
404.645	85.19
404.869	78.19
405.093	91.19
405.317	75.19
405.541	70.19
405.765	90.19
405.988	88.19
406.212	78.19
406.436	92.19
406.66	88.19
406.883	92.19
407.107	74.19
407.331	73.19
407.555	91.19
407.778	84.19
408.002	69.19
408.226	70.19
408.449	68.19
408.673	75.19
408.896	83.19
409.12	84.19
409.344	82.19
409.567	67.19
409.791	73.19
410.014	69.19
410.238	83.19
410.461	83.19
410.685	81.19
410.908	75.19
411.132	85.19
411.355	71.19
411.578	78.19
411.802	75.19
412.025	81.19
412.249	83.19
412.472	93.19
412.695	73.19
412.919	83.19
413.142	76.19
413.365	83.19
413.589	79.19
413.812	72.19
414.035	75.19
414.258	89.19
414.482	83.19
414.705	76.19
414.928	69.19
415.151	83.19
415.374	74.19
415.597	52.19
415.821	80.19
416.044	86.19
416.267	87.19
416.49	77.19
416.713	76.19
416.936	72.19
417.159	59.19
417.382	71.19
417.605	78.19
417.828	82.19
418.051	68.19
418.274	76.19
418.497	91.19
418.72	83.19
418.943	86.19
419.166	81.19
419.389	79.19
419.611	57.19
419.834	67.19
420.057	78.19
420.28	77.19
420.503	88.19
420.726	84.19
420.948	83.19
421.171	67.19
421.394	86.19
421.617	68.19
421.839	93.19
422.062	83.19
422.285	76.19
422.507	92.19
422.73	130.19
422.953	122.19
423.175	93.19
423.398	74.19
423.621	84.19
423.843	81.19
424.066	65.19
424.288	83.19
424.511	88.19
424.733	71.19
424.956	72.19
425.178	77.19
425.401	88.19
425.623	75.19
425.846	88.19
426.068	71.19
426.291	75.19
426.513	77.19
426.735	79.19
426.958	71.19
427.18	92.19
427.402	85.19
427.625	80.19
427.847	88.19
428.069	80.19
428.292	85.19
428.514	79.19
428.736	78.19
428.958	88.19
429.181	76.19
429.403	74.19
429.625	65.19
429.847	80.19
430.069	82.19
430.292	86.19
430.514	88.19
430.736	72.19
430.958	88.19
431.18	73.19
431.402	70.19
431.624	62.19
431.846	81.19
432.068	75.19
432.29	78.19
432.512	82.19
432.734	76.19
432.956	88.19
433.178	77.19
433.4	95.19
433.622	93.19
433.844	83.19
434.066	65.19
434.287	89.19
434.509	70.19
434.731	85.19
434.953	76.19
435.175	81.19
435.397	84.19
435.618	69.19
435.84	83.19
436.062	81.19
436.284	82.19
436.505	88.19
436.727	59.19
436.949	75.19
437.17	76.19
437.392	72.19
437.614	74.19
437.835	77.19
438.057	76.19
438.278	87.19
438.5	74.19
438.721	85.19
438.943	79.19
439.165	81.19
439.386	68.19
439.608	81.19
439.829	77.19
440.05	87.19
440.272	89.19
440.493	82.19
440.715	90.19
440.936	91.19
441.158	78.19
441.379	77.19
441.6	79.19
441.822	97.19
442.043	84.19
442.264	85.19
442.486	86.19
442.707	81.19
442.928	76.19
443.149	67.19
443.371	85.19
443.592	81.19
443.813	92.19
444.034	72.19
444.255	72.19
444.476	70.19
444.698	80.19
444.919	83.19
445.14	136.19
445.361	115.19
445.582	97.19
445.803	80.19
446.024	89.19
446.245	87.19
446.466	76.19
446.687	79.19
446.908	85.19
447.129	86.19
447.35	83.19
447.571	96.19
447.792	88.19
448.013	73.19
448.234	72.19
448.455	79.19
448.675	81.19
448.896	76.19
449.117	79.19
449.338	79.19
449.559	82.19
449.779	81.19
450	75.19
450.221	77.19
450.442	79.19
450.662	83.19
450.883	64.19
451.104	73.19
451.324	79.19
451.545	76.19
451.766	81.19
451.986	88.19
452.207	91.19
452.428	61.19
452.648	89.19
452.869	75.19
453.089	91.19
453.31	84.19
453.53	73.19
453.751	79.19
453.971	71.19
454.192	91.19
454.412	89.19
454.633	80.19
454.853	83.19
455.073	79.19
455.294	90.19
455.514	77.19
455.734	73.19
455.955	72.19
456.175	84.19
456.395	84.19
456.616	63.19
456.836	85.19
457.056	88.19
457.276	72.19
457.497	76.19
457.717	85.19
457.937	70.19
458.157	83.19
458.377	70.19
458.598	78.19
458.818	87.19
459.038	90.19
459.258	77.19
459.478	73.19
459.698	73.19
459.918	86.19
460.138	80.19
460.358	82.19
460.578	90.19
460.798	97.19
461.018	79.19
461.238	80.19
461.458	73.19
461.678	73.19
461.898	85.19
462.118	84.19
462.338	92.19
462.558	75.19
462.777	70.19
462.997	76.19
463.217	86.19
463.437	79.19
463.657	91.19
463.876	85.19
464.096	76.19
464.316	81.19
464.536	81.19
464.755	57.19
464.975	73.19
465.195	79.19
465.414	88.19
465.634	87.19
465.854	68.19
466.073	81.19
466.293	81.19
466.512	71.19
466.732	72.19
466.951	84.19
467.171	82.19
467.391	95.19
467.61	92.19
467.829	79.19
468.049	96.19
468.268	74.19
468.488	73.19
468.707	61.19
468.927	78.19
469.146	76.19
469.365	89.19
469.585	78.19
469.804	87.19
470.023	75.19
470.243	74.19
470.462	86.19
470.681	83.19
470.901	81.19
471.12	85.19
471.339	74.19
471.558	74.19
471.777	73.19
471.997	91.19
472.216	70.19
472.435	86.19
472.654	81.19
472.873	87.19
473.092	73.19
473.311	90.19
473.53	84.19
473.749	89.19
473.968	85.19
474.187	85.19
474.406	85.19
474.625	84.19
474.844	64.19
475.063	76.19
475.282	79.19
475.501	86.19
475.72	80.19
475.939	101.19
476.158	77.19
476.377	86.19
476.596	76.19
476.814	81.19
477.033	92.19
477.252	85.19
477.471	78.19
477.69	76.19
477.908	77.19
478.127	83.19
478.346	71.19
478.564	83.19
478.783	81.19
479.002	63.19
479.22	73.19
479.439	84.19
479.658	75.19
479.876	85.19
480.095	84.19
480.313	72.19
480.532	70.19
480.751	77.19
480.969	96.19
481.188	85.19
481.406	93.19
481.624	88.19
481.843	87.19
482.061	73.19
482.28	77.19
482.498	78.19
482.717	82.19
482.935	83.19
483.153	80.19
483.372	85.19
483.59	96.19
483.808	83.19
484.027	74.19
484.245	75.19
484.463	92.19
484.681	82.19
484.9	74.19
485.118	85.19
485.336	71.19
485.554	72.19
485.772	72.19
485.99	71.19
486.209	94.19
486.427	88.19
486.645	75.19
486.863	82.19
487.081	72.19
487.299	96.19
487.517	95.19
487.735	74.19
487.953	88.19
488.171	84.19
488.389	74.19
488.607	74.19
488.825	87.19
489.043	85.19
489.261	84.19
489.479	73.19
489.696	77.19
489.914	88.19
490.132	87.19
490.35	72.19
490.568	88.19
490.786	85.19
491.003	76.19
491.221	72.19
491.439	82.19
491.657	86.19
491.874	83.19
492.092	91.19
492.31	86.19
492.527	80.19
492.745	83.19
492.963	67.19
493.18	75.19
493.398	84.19
493.615	78.19
493.833	77.19
494.05	81.19
494.268	80.19
494.485	90.19
494.703	88.19
494.92	85.19
495.138	81.19
495.355	77.19
495.573	83.19
495.79	81.19
496.008	92.19
496.225	71.19
496.442	82.19
496.66	87.19
496.877	69.19
497.094	75.19
497.312	73.19
497.529	97.19
497.746	85.19
497.963	73.19
498.181	85.19
498.398	87.19
498.615	87.19
498.832	68.19
499.049	74.19
499.267	86.19
499.484	74.19
499.701	83.19
499.918	80.19
500.135	83.19
500.352	71.19
500.569	99.19
500.786	78.19
501.003	87.19
501.22	79.19
501.437	87.19
501.654	99.19
501.871	68.19
502.088	74.19
502.305	87.19
502.522	80.19
502.739	81.19
502.956	87.19
503.172	78.19
503.389	76.19
503.606	77.19
503.823	81.19
504.04	71.19
504.256	87.19
504.473	89.19
504.69	76.19
504.907	84.19
505.123	78.19
505.34	80.19
505.557	77.19
505.773	80.19
505.99	56.19
506.207	74.19
506.423	74.19
506.64	80.19
506.856	84.19
507.073	95.19
507.289	70.19
507.506	92.19
507.722	80.19
507.939	88.19
508.155	78.19
508.372	78.19
508.588	66.19
508.805	68.19
509.021	74.19
509.238	75.19
509.454	87.19
509.67	69.19
509.887	66.19
510.103	83.19
510.319	81.19
510.536	79.19
510.752	96.19
510.968	93.19
511.184	93.19
511.401	81.19
511.617	80.19
511.833	71.19
512.049	94.19
512.265	87.19
512.481	81.19
512.698	81.19
512.914	76.19
513.13	77.19
513.346	71.19
513.562	81.19
513.778	75.19
513.994	89.19
514.21	79.19
514.426	83.19
514.642	83.19
514.858	80.19
515.074	85.19
515.29	86.19
515.506	71.19
515.721	71.19
515.937	84.19
516.153	86.19
516.369	95.19
516.585	79.19
516.801	88.19
517.016	103.19
517.232	77.19
517.448	77.19
517.664	82.19
517.879	73.19
518.095	81.19
518.311	80.19
518.527	98.19
518.742	81.19
518.958	93.19
519.173	84.19
519.389	64.19
519.605	82.19
519.82	100.19
520.036	72.19
