Data from 17600_1_HRD10591_00014.txt Node
Date: Mon Jan 19 14:07:31 EST 2026
User: Yrep
Spectrometer: HR+D1059
Trigger mode: 1
Integration Time (sec): 1.000000E-1
Scans to average: 1
Electric dark correction enabled: true
Nonlinearity correction enabled: false
Boxcar width: 0
XAxis mode: Wavelengths
Number of Pixels in Spectrum: 2048
>>>>>Begin Spectral Data<<<<<
223.165	-24.94
223.4	-24.94
223.635	-24.94
223.869	-18.94
224.104	-17.94
224.338	-15.94
224.573	-15.94
224.808	-10.94
225.042	-8.94
225.277	-2.94
225.511	7.06
225.746	15.06
225.98	2.06
226.215	9.06
226.449	14.06
226.683	10.06
226.918	22.06
227.152	37.06
227.387	47.06
227.621	54.06
227.856	42.06
228.09	58.06
228.324	60.06
228.559	56.06
228.793	63.06
229.027	74.06
229.262	57.06
229.496	72.06
229.73	60.06
229.964	56.06
230.199	65.06
230.433	77.06
230.667	92.06
230.901	68.06
231.136	76.06
231.37	65.06
231.604	84.06
231.838	88.06
232.072	83.06
232.306	78.06
232.541	77.06
232.775	89.06
233.009	96.06
233.243	84.06
233.477	82.06
233.711	77.06
233.945	75.06
234.179	83.06
234.413	94.06
234.647	84.06
234.881	77.06
235.115	73.06
235.349	74.06
235.583	83.06
235.817	73.06
236.051	72.06
236.285	83.06
236.519	80.06
236.753	75.06
236.987	74.06
237.221	73.06
237.455	88.06
237.689	75.06
237.922	77.06
238.156	65.06
238.39	59.06
238.624	81.06
238.858	64.06
239.091	68.06
239.325	77.06
239.559	85.06
239.793	72.06
240.027	91.06
240.26	94.06
240.494	74.06
240.728	73.06
240.961	77.06
241.195	86.06
241.429	73.06
241.662	78.06
241.896	66.06
242.13	74.06
242.363	78.06
242.597	57.06
242.83	78.06
243.064	72.06
243.298	70.06
243.531	82.06
243.765	73.06
243.998	77.06
244.232	67.06
244.465	62.06
244.699	80.06
244.932	65.06
245.166	81.06
245.399	81.06
245.633	77.06
245.866	82.06
246.099	55.06
246.333	86.06
246.566	78.06
246.8	71.06
247.033	60.06
247.266	64.06
247.5	80.06
247.733	83.06
247.966	78.06
248.2	61.06
248.433	66.06
248.666	60.06
248.899	56.06
249.133	74.06
249.366	66.06
249.599	72.06
249.832	66.06
250.066	86.06
250.299	68.06
250.532	79.06
250.765	73.06
250.998	73.06
251.231	85.06
251.465	90.06
251.698	79.06
251.931	79.06
252.164	89.06
252.397	72.06
252.63	75.06
252.863	84.06
253.096	75.06
253.329	96.06
253.562	86.06
253.795	69.06
254.028	80.06
254.261	62.06
254.494	78.06
254.727	91.06
254.96	76.06
255.193	82.06
255.426	75.06
255.659	81.06
255.892	90.06
256.124	81.06
256.357	74.06
256.59	80.06
256.823	88.06
257.056	77.06
257.289	65.06
257.521	72.06
257.754	64.06
257.987	70.06
258.22	94.06
258.452	85.06
258.685	82.06
258.918	87.06
259.151	70.06
259.383	90.06
259.616	72.06
259.849	83.06
260.081	86.06
260.314	75.06
260.547	70.06
260.779	88.06
261.012	82.06
261.244	74.06
261.477	77.06
261.71	73.06
261.942	84.06
262.175	83.06
262.407	77.06
262.64	82.06
262.872	74.06
263.105	68.06
263.337	91.06
263.57	82.06
263.802	71.06
264.035	82.06
264.267	62.06
264.499	91.06
264.732	88.06
264.964	85.06
265.197	73.06
265.429	79.06
265.661	72.06
265.894	78.06
266.126	84.06
266.358	78.06
266.591	74.06
266.823	80.06
267.055	84.06
267.287	78.06
267.52	78.06
267.752	88.06
267.984	84.06
268.216	70.06
268.448	83.06
268.681	79.06
268.913	81.06
269.145	85.06
269.377	88.06
269.609	86.06
269.841	99.06
270.073	78.06
270.306	69.06
270.538	93.06
270.77	73.06
271.002	74.06
271.234	78.06
271.466	78.06
271.698	87.06
271.93	82.06
272.162	80.06
272.394	89.06
272.626	87.06
272.858	91.06
273.09	94.06
273.322	81.06
273.553	87.06
273.785	88.06
274.017	93.06
274.249	86.06
274.481	82.06
274.713	63.06
274.945	83.06
275.176	74.06
275.408	74.06
275.64	85.06
275.872	72.06
276.104	92.06
276.335	95.06
276.567	78.06
276.799	65.06
277.031	85.06
277.262	84.06
277.494	92.06
277.726	79.06
277.957	80.06
278.189	77.06
278.421	74.06
278.652	78.06
278.884	82.06
279.115	79.06
279.347	79.06
279.579	92.06
279.81	92.06
280.042	96.06
280.273	70.06
280.505	101.06
280.736	81.06
280.968	74.06
281.199	87.06
281.431	85.06
281.662	73.06
281.894	83.06
282.125	70.06
282.356	89.06
282.588	83.06
282.819	67.06
283.051	81.06
283.282	82.06
283.513	84.06
283.745	92.06
283.976	88.06
284.207	84.06
284.439	97.06
284.67	84.06
284.901	81.06
285.132	64.06
285.364	84.06
285.595	70.06
285.826	86.06
286.057	97.06
286.288	84.06
286.52	79.06
286.751	68.06
286.982	74.06
287.213	92.06
287.444	90.06
287.675	75.06
287.906	92.06
288.138	91.06
288.369	83.06
288.6	82.06
288.831	96.06
289.062	85.06
289.293	91.06
289.524	88.06
289.755	83.06
289.986	86.06
290.217	86.06
290.448	86.06
290.679	78.06
290.91	91.06
291.141	88.06
291.371	81.06
291.602	82.06
291.833	90.06
292.064	101.06
292.295	84.06
292.526	81.06
292.757	95.06
292.987	81.06
293.218	93.06
293.449	87.06
293.68	85.06
293.91	94.06
294.141	78.06
294.372	79.06
294.603	73.06
294.833	88.06
295.064	72.06
295.295	73.06
295.525	85.06
295.756	82.06
295.987	84.06
296.217	87.06
296.448	85.06
296.679	87.06
296.909	72.06
297.14	72.06
297.37	74.06
297.601	86.06
297.831	79.06
298.062	92.06
298.292	73.06
298.523	74.06
298.753	63.06
298.984	82.06
299.214	84.06
299.445	87.06
299.675	70.06
299.905	87.06
300.136	88.06
300.366	98.06
300.597	85.06
300.827	75.06
301.057	82.06
301.288	84.06
301.518	68.06
301.748	86.06
301.979	90.06
302.209	88.06
302.439	61.06
302.669	75.06
302.9	86.06
303.13	102.06
303.36	87.06
303.59	83.06
303.82	90.06
304.051	87.06
304.281	88.06
304.511	90.06
304.741	78.06
304.971	69.06
305.201	82.06
305.431	88.06
305.661	82.06
305.891	92.06
306.121	75.06
306.352	93.06
306.582	87.06
306.812	78.06
307.042	92.06
307.272	85.06
307.502	87.06
307.731	91.06
307.961	74.06
308.191	77.06
308.421	80.06
308.651	76.06
308.881	79.06
309.111	88.06
309.341	93.06
309.571	84.06
309.8	87.06
310.03	84.06
310.26	72.06
310.49	90.06
310.72	87.06
310.949	81.06
311.179	82.06
311.409	89.06
311.639	96.06
311.868	88.06
312.098	77.06
312.328	80.06
312.557	71.06
312.787	86.06
313.017	72.06
313.246	70.06
313.476	82.06
313.706	87.06
313.935	95.06
314.165	81.06
314.394	81.06
314.624	91.06
314.853	82.06
315.083	85.06
315.312	87.06
315.542	82.06
315.771	96.06
316.001	97.06
316.23	93.06
316.46	86.06
316.689	82.06
316.919	78.06
317.148	90.06
317.377	100.06
317.607	100.06
317.836	88.06
318.065	104.06
318.295	101.06
318.524	84.06
318.753	85.06
318.983	74.06
319.212	98.06
319.441	68.06
319.67	78.06
319.9	87.06
320.129	81.06
320.358	90.06
320.587	80.06
320.816	84.06
321.046	88.06
321.275	85.06
321.504	93.06
321.733	92.06
321.962	79.06
322.191	86.06
322.42	85.06
322.649	88.06
322.878	94.06
323.108	82.06
323.337	66.06
323.566	91.06
323.795	93.06
324.024	89.06
324.253	91.06
324.482	69.06
324.71	85.06
324.939	74.06
325.168	95.06
325.397	89.06
325.626	83.06
325.855	95.06
326.084	85.06
326.313	78.06
326.542	87.06
326.77	100.06
326.999	88.06
327.228	77.06
327.457	92.06
327.686	94.06
327.914	89.06
328.143	83.06
328.372	84.06
328.6	72.06
328.829	72.06
329.058	92.06
329.287	85.06
329.515	80.06
329.744	81.06
329.972	87.06
330.201	82.06
330.43	94.06
330.658	87.06
330.887	86.06
331.115	81.06
331.344	90.06
331.572	98.06
331.801	86.06
332.03	80.06
332.258	71.06
332.486	86.06
332.715	88.06
332.943	69.06
333.172	76.06
333.4	80.06
333.629	82.06
333.857	87.06
334.085	72.06
334.314	86.06
334.542	88.06
334.771	78.06
334.999	72.06
335.227	88.06
335.455	91.06
335.684	80.06
335.912	92.06
336.14	80.06
336.369	87.06
336.597	82.06
336.825	89.06
337.053	89.06
337.281	71.06
337.51	102.06
337.738	86.06
337.966	84.06
338.194	88.06
338.422	78.06
338.65	77.06
338.878	69.06
339.106	78.06
339.334	82.06
339.562	85.06
339.79	83.06
340.018	85.06
340.246	78.06
340.474	89.06
340.702	74.06
340.93	75.06
341.158	81.06
341.386	84.06
341.614	78.06
341.842	84.06
342.07	83.06
342.298	87.06
342.526	69.06
342.754	76.06
342.981	94.06
343.209	85.06
343.437	90.06
343.665	82.06
343.893	88.06
344.12	88.06
344.348	79.06
344.576	80.06
344.804	70.06
345.031	82.06
345.259	87.06
345.487	98.06
345.714	75.06
345.942	73.06
346.17	87.06
346.397	82.06
346.625	88.06
346.853	85.06
347.08	79.06
347.308	70.06
347.535	82.06
347.763	92.06
347.99	74.06
348.218	79.06
348.445	83.06
348.673	79.06
348.9	89.06
349.128	88.06
349.355	78.06
349.583	87.06
349.81	89.06
350.037	86.06
350.265	79.06
350.492	87.06
350.72	86.06
350.947	93.06
351.174	81.06
351.402	81.06
351.629	94.06
351.856	89.06
352.083	71.06
352.311	90.06
352.538	67.06
352.765	93.06
352.992	102.06
353.22	85.06
353.447	74.06
353.674	73.06
353.901	84.06
354.128	84.06
354.355	91.06
354.583	85.06
354.81	78.06
355.037	81.06
355.264	86.06
355.491	94.06
355.718	98.06
355.945	94.06
356.172	88.06
356.399	91.06
356.626	72.06
356.853	86.06
357.08	87.06
357.307	65.06
357.534	88.06
357.761	78.06
357.988	83.06
358.215	92.06
358.441	91.06
358.668	88.06
358.895	86.06
359.122	81.06
359.349	78.06
359.576	88.06
359.802	81.06
360.029	88.06
360.256	90.06
360.483	79.06
360.709	77.06
360.936	91.06
361.163	81.06
361.39	64.06
361.616	88.06
361.843	72.06
362.07	82.06
362.296	85.06
362.523	86.06
362.749	83.06
362.976	83.06
363.203	100.06
363.429	83.06
363.656	82.06
363.882	84.06
364.109	90.06
364.335	101.06
364.562	89.06
364.788	83.06
365.015	111.06
365.241	108.06
365.468	73.06
365.694	87.06
365.92	78.06
366.147	70.06
366.373	96.06
366.599	80.06
366.826	73.06
367.052	85.06
367.278	97.06
367.505	80.06
367.731	76.06
367.957	86.06
368.184	77.06
368.41	90.06
368.636	70.06
368.862	78.06
369.089	81.06
369.315	89.06
369.541	77.06
369.767	73.06
369.993	80.06
370.219	80.06
370.445	81.06
370.672	102.06
370.898	78.06
371.124	89.06
371.35	90.06
371.576	93.06
371.802	72.06
372.028	80.06
372.254	68.06
372.48	88.06
372.706	100.06
372.932	95.06
373.158	87.06
373.384	84.06
373.61	106.06
373.835	100.06
374.061	72.06
374.287	86.06
374.513	86.06
374.739	92.06
374.965	81.06
375.191	96.06
375.416	82.06
375.642	90.06
375.868	97.06
376.094	78.06
376.319	84.06
376.545	81.06
376.771	85.06
376.997	99.06
377.222	75.06
377.448	82.06
377.674	84.06
377.899	93.06
378.125	84.06
378.35	85.06
378.576	80.06
378.802	70.06
379.027	76.06
379.253	80.06
379.478	92.06
379.704	74.06
379.929	70.06
380.155	94.06
380.38	76.06
380.606	77.06
380.831	99.06
381.057	87.06
381.282	81.06
381.507	87.06
381.733	74.06
381.958	84.06
382.184	81.06
382.409	81.06
382.634	90.06
382.86	88.06
383.085	85.06
383.31	82.06
383.535	106.06
383.761	95.06
383.986	92.06
384.211	78.06
384.436	84.06
384.662	85.06
384.887	89.06
385.112	97.06
385.337	97.06
385.562	90.06
385.787	100.06
386.013	117.06
386.238	97.06
386.463	85.06
386.688	89.06
386.913	89.06
387.138	82.06
387.363	86.06
387.588	102.06
387.813	78.06
388.038	85.06
388.263	84.06
388.488	72.06
388.713	79.06
388.938	70.06
389.163	86.06
389.387	86.06
389.612	82.06
389.837	94.06
390.062	83.06
390.287	78.06
390.512	69.06
390.736	75.06
390.961	80.06
391.186	82.06
391.411	76.06
391.636	78.06
391.86	85.06
392.085	89.06
392.31	82.06
392.534	94.06
392.759	94.06
392.984	138.06
393.208	258.06
393.433	337.06
393.658	257.06
393.882	124.06
394.107	88.06
394.331	96.06
394.556	97.06
394.78	90.06
395.005	75.06
395.229	89.06
395.454	86.06
395.678	100.06
395.903	97.06
396.127	118.06
396.352	132.06
396.576	153.06
396.801	231.06
397.025	264.06
397.249	137.06
397.474	99.06
397.698	78.06
397.922	84.06
398.147	74.06
398.371	94.06
398.595	80.06
398.82	99.06
399.044	79.06
399.268	92.06
399.492	80.06
399.717	72.06
399.941	85.06
400.165	70.06
400.389	74.06
400.613	88.06
400.837	82.06
401.062	78.06
401.286	81.06
401.51	74.06
401.734	75.06
401.958	90.06
402.182	82.06
402.406	77.06
402.63	78.06
402.854	80.06
403.078	72.06
403.302	86.06
403.526	85.06
403.75	80.06
403.974	88.06
404.198	93.06
404.422	80.06
404.645	68.06
404.869	84.06
405.093	75.06
405.317	82.06
405.541	77.06
405.765	71.06
405.988	74.06
406.212	79.06
406.436	80.06
406.66	94.06
406.883	89.06
407.107	84.06
407.331	78.06
407.555	94.06
407.778	110.06
408.002	117.06
408.226	89.06
408.449	88.06
408.673	70.06
408.896	80.06
409.12	84.06
409.344	86.06
409.567	81.06
409.791	72.06
410.014	80.06
410.238	80.06
410.461	73.06
410.685	80.06
410.908	64.06
411.132	79.06
411.355	73.06
411.578	88.06
411.802	74.06
412.025	73.06
412.249	83.06
412.472	90.06
412.695	72.06
412.919	77.06
413.142	90.06
413.365	92.06
413.589	86.06
413.812	84.06
414.035	89.06
414.258	86.06
414.482	79.06
414.705	69.06
414.928	79.06
415.151	86.06
415.374	76.06
415.597	88.06
415.821	81.06
416.044	70.06
416.267	85.06
416.49	74.06
416.713	87.06
416.936	79.06
417.159	85.06
417.382	70.06
417.605	88.06
417.828	86.06
418.051	74.06
418.274	72.06
418.497	69.06
418.72	74.06
418.943	78.06
419.166	88.06
419.389	92.06
419.611	86.06
419.834	76.06
420.057	95.06
420.28	63.06
420.503	76.06
420.726	91.06
420.948	78.06
421.171	81.06
421.394	96.06
421.617	126.06
421.839	103.06
422.062	84.06
422.285	104.06
422.507	170.06
422.73	260.06
422.953	245.06
423.175	118.06
423.398	80.06
423.621	84.06
423.843	83.06
424.066	89.06
424.288	85.06
424.511	76.06
424.733	79.06
424.956	86.06
425.178	86.06
425.401	88.06
425.623	84.06
425.846	92.06
426.068	69.06
426.291	82.06
426.513	92.06
426.735	76.06
426.958	93.06
427.18	77.06
427.402	86.06
427.625	97.06
427.847	85.06
428.069	84.06
428.292	117.06
428.514	106.06
428.736	92.06
428.958	103.06
429.181	109.06
429.403	84.06
429.625	86.06
429.847	102.06
430.069	134.06
430.292	131.06
430.514	127.06
430.736	100.06
430.958	100.06
431.18	84.06
431.402	77.06
431.624	86.06
431.846	101.06
432.068	114.06
432.29	84.06
432.512	104.06
432.734	86.06
432.956	77.06
433.178	80.06
433.4	83.06
433.622	84.06
433.844	73.06
434.066	94.06
434.287	83.06
434.509	71.06
434.731	101.06
434.953	88.06
435.175	80.06
435.397	78.06
435.618	81.06
435.84	94.06
436.062	74.06
436.284	81.06
436.505	86.06
436.727	86.06
436.949	70.06
437.17	88.06
437.392	78.06
437.614	86.06
437.835	93.06
438.057	89.06
438.278	72.06
438.5	91.06
438.721	85.06
438.943	70.06
439.165	82.06
439.386	85.06
439.608	93.06
439.829	79.06
440.05	92.06
440.272	84.06
440.493	79.06
440.715	86.06
440.936	88.06
441.158	78.06
441.379	65.06
441.6	84.06
441.822	90.06
442.043	72.06
442.264	94.06
442.486	100.06
442.707	112.06
442.928	101.06
443.149	84.06
443.371	117.06
443.592	151.06
443.813	143.06
444.034	84.06
444.255	71.06
444.476	86.06
444.698	81.06
444.919	87.06
445.14	152.06
445.361	138.06
445.582	175.06
445.803	148.06
446.024	104.06
446.245	82.06
446.466	81.06
446.687	86.06
446.908	78.06
447.129	86.06
447.35	70.06
447.571	61.06
447.792	85.06
448.013	73.06
448.234	82.06
448.455	74.06
448.675	88.06
448.896	84.06
449.117	79.06
449.338	70.06
449.559	80.06
449.779	84.06
450	73.06
450.221	86.06
450.442	89.06
450.662	93.06
450.883	76.06
451.104	94.06
451.324	76.06
451.545	76.06
451.766	75.06
451.986	71.06
452.207	77.06
452.428	86.06
452.648	90.06
452.869	90.06
453.089	75.06
453.31	68.06
453.53	78.06
453.751	72.06
453.971	89.06
454.192	78.06
454.412	72.06
454.633	69.06
454.853	74.06
455.073	72.06
455.294	64.06
455.514	86.06
455.734	100.06
455.955	82.06
456.175	66.06
456.395	79.06
456.616	78.06
456.836	80.06
457.056	85.06
457.276	72.06
457.497	61.06
457.717	84.06
457.937	80.06
458.157	99.06
458.377	85.06
458.598	96.06
458.818	94.06
459.038	93.06
459.258	81.06
459.478	74.06
459.698	82.06
459.918	82.06
460.138	85.06
460.358	85.06
460.578	97.06
460.798	101.06
461.018	99.06
461.238	82.06
461.458	74.06
461.678	64.06
461.898	81.06
462.118	90.06
462.338	72.06
462.558	83.06
462.777	70.06
462.997	86.06
463.217	80.06
463.437	83.06
463.657	88.06
463.876	77.06
464.096	85.06
464.316	73.06
464.536	78.06
464.755	72.06
464.975	81.06
465.195	74.06
465.414	75.06
465.634	71.06
465.854	72.06
466.073	85.06
466.293	75.06
466.512	81.06
466.732	99.06
466.951	70.06
467.171	66.06
467.391	82.06
467.61	87.06
467.829	77.06
468.049	76.06
468.268	76.06
468.488	72.06
468.707	90.06
468.927	79.06
469.146	87.06
469.365	73.06
469.585	64.06
469.804	72.06
470.023	82.06
470.243	74.06
470.462	85.06
470.681	82.06
470.901	75.06
471.12	87.06
471.339	73.06
471.558	74.06
471.777	77.06
471.997	72.06
472.216	86.06
472.435	76.06
472.654	89.06
472.873	80.06
473.092	73.06
473.311	76.06
473.53	84.06
473.749	94.06
473.968	88.06
474.187	89.06
474.406	82.06
474.625	74.06
474.844	73.06
475.063	73.06
475.282	84.06
475.501	82.06
475.72	71.06
475.939	74.06
476.158	80.06
476.377	84.06
476.596	83.06
476.814	76.06
477.033	85.06
477.252	74.06
477.471	83.06
477.69	70.06
477.908	69.06
478.127	81.06
478.346	80.06
478.564	80.06
478.783	69.06
479.002	76.06
479.22	81.06
479.439	83.06
479.658	76.06
479.876	88.06
480.095	90.06
480.313	86.06
480.532	75.06
480.751	87.06
480.969	87.06
481.188	80.06
481.406	88.06
481.624	104.06
481.843	88.06
482.061	77.06
482.28	76.06
482.498	80.06
482.717	87.06
482.935	89.06
483.153	73.06
483.372	70.06
483.59	78.06
483.808	86.06
484.027	81.06
484.245	76.06
484.463	89.06
484.681	97.06
484.9	81.06
485.118	83.06
485.336	86.06
485.554	89.06
485.772	98.06
485.99	85.06
486.209	66.06
486.427	80.06
486.645	94.06
486.863	84.06
487.081	85.06
487.299	92.06
487.517	90.06
487.735	84.06
487.953	105.06
488.171	109.06
488.389	88.06
488.607	88.06
488.825	91.06
489.043	78.06
489.261	92.06
489.479	83.06
489.696	87.06
489.914	93.06
490.132	83.06
490.35	76.06
490.568	87.06
490.786	92.06
491.003	80.06
491.221	80.06
491.439	84.06
491.657	86.06
491.874	67.06
492.092	86.06
492.31	90.06
492.527	86.06
492.745	88.06
492.963	89.06
493.18	88.06
493.398	83.06
493.615	87.06
493.833	81.06
494.05	78.06
494.268	80.06
494.485	78.06
494.703	99.06
494.92	103.06
495.138	87.06
495.355	85.06
495.573	88.06
495.79	72.06
496.008	84.06
496.225	73.06
496.442	88.06
496.66	72.06
496.877	89.06
497.094	73.06
497.312	77.06
497.529	93.06
497.746	85.06
497.963	106.06
498.181	75.06
498.398	84.06
498.615	82.06
498.832	84.06
499.049	70.06
499.267	73.06
499.484	75.06
499.701	82.06
499.918	94.06
500.135	90.06
500.352	90.06
500.569	94.06
500.786	77.06
501.003	85.06
501.22	74.06
501.437	87.06
501.654	82.06
501.871	96.06
502.088	73.06
502.305	80.06
502.522	84.06
502.739	84.06
502.956	81.06
503.172	72.06
503.389	82.06
503.606	78.06
503.823	84.06
504.04	87.06
504.256	103.06
504.473	97.06
504.69	83.06
504.907	92.06
505.123	86.06
505.34	77.06
505.557	91.06
505.773	95.06
505.99	92.06
506.207	88.06
506.423	85.06
506.64	95.06
506.856	69.06
507.073	77.06
507.289	83.06
507.506	84.06
507.722	94.06
507.939	85.06
508.155	83.06
508.372	87.06
508.588	90.06
508.805	95.06
509.021	87.06
509.238	100.06
509.454	82.06
509.67	79.06
509.887	80.06
510.103	82.06
510.319	80.06
510.536	87.06
510.752	84.06
510.968	87.06
511.184	84.06
511.401	81.06
511.617	81.06
511.833	86.06
512.049	70.06
512.265	86.06
512.481	77.06
512.698	80.06
512.914	93.06
513.13	69.06
513.346	77.06
513.562	89.06
513.778	79.06
513.994	80.06
514.21	81.06
514.426	81.06
514.642	78.06
514.858	83.06
515.074	81.06
515.29	89.06
515.506	85.06
515.721	81.06
515.937	84.06
516.153	83.06
516.369	74.06
516.585	80.06
516.801	87.06
517.016	87.06
517.232	82.06
517.448	78.06
517.664	89.06
517.879	87.06
518.095	95.06
518.311	86.06
518.527	94.06
518.742	95.06
518.958	113.06
519.173	116.06
