Data from 17600_1_HRD10591_00017.txt Node
Date: Mon Jan 19 14:07:32 EST 2026
User: Yrep
Spectrometer: HR+D1059
Trigger mode: 1
Integration Time (sec): 1.000000E-1
Scans to average: 1
Electric dark correction enabled: true
Nonlinearity correction enabled: false
Boxcar width: 0
XAxis mode: Wavelengths
Number of Pixels in Spectrum: 2048
>>>>>Begin Spectral Data<<<<<
223.165	-13.69
223.4	-13.69
223.635	-13.69
223.869	-28.69
224.104	-22.69
224.338	-7.69
224.573	-17.69
224.808	-7.69
225.042	-17.69
225.277	-10.69
225.511	-1.69
225.746	1.31
225.98	23.31
226.215	1.31
226.449	17.31
226.683	21.31
226.918	26.31
227.152	37.31
227.387	48.31
227.621	39.31
227.856	58.31
228.09	42.31
228.324	45.31
228.559	56.31
228.793	45.31
229.027	55.31
229.262	71.31
229.496	77.31
229.73	73.31
229.964	83.31
230.199	70.31
230.433	64.31
230.667	70.31
230.901	77.31
231.136	86.31
231.37	91.31
231.604	87.31
231.838	88.31
232.072	82.31
232.306	87.31
232.541	83.31
232.775	74.31
233.009	80.31
233.243	65.31
233.477	82.31
233.711	89.31
233.945	83.31
234.179	78.31
234.413	76.31
234.647	86.31
234.881	92.31
235.115	67.31
235.349	87.31
235.583	98.31
235.817	67.31
236.051	60.31
236.285	74.31
236.519	66.31
236.753	65.31
236.987	85.31
237.221	75.31
237.455	67.31
237.689	68.31
237.922	72.31
238.156	66.31
238.39	78.31
238.624	61.31
238.858	76.31
239.091	62.31
239.325	82.31
239.559	74.31
239.793	83.31
240.027	82.31
240.26	70.31
240.494	67.31
240.728	76.31
240.961	66.31
241.195	80.31
241.429	75.31
241.662	74.31
241.896	75.31
242.13	68.31
242.363	75.31
242.597	80.31
242.83	81.31
243.064	75.31
243.298	75.31
243.531	74.31
243.765	67.31
243.998	86.31
244.232	75.31
244.465	70.31
244.699	64.31
244.932	66.31
245.166	87.31
245.399	74.31
245.633	71.31
245.866	72.31
246.099	58.31
246.333	81.31
246.566	67.31
246.8	86.31
247.033	81.31
247.266	72.31
247.5	82.31
247.733	65.31
247.966	66.31
248.2	62.31
248.433	71.31
248.666	85.31
248.899	81.31
249.133	72.31
249.366	80.31
249.599	71.31
249.832	82.31
250.066	65.31
250.299	80.31
250.532	81.31
250.765	65.31
250.998	87.31
251.231	88.31
251.465	80.31
251.698	63.31
251.931	77.31
252.164	68.31
252.397	82.31
252.63	81.31
252.863	71.31
253.096	80.31
253.329	86.31
253.562	71.31
253.795	82.31
254.028	81.31
254.261	67.31
254.494	82.31
254.727	79.31
254.96	75.31
255.193	72.31
255.426	74.31
255.659	86.31
255.892	77.31
256.124	76.31
256.357	82.31
256.59	90.31
256.823	79.31
257.056	83.31
257.289	72.31
257.521	72.31
257.754	79.31
257.987	85.31
258.22	79.31
258.452	77.31
258.685	74.31
258.918	74.31
259.151	76.31
259.383	80.31
259.616	71.31
259.849	84.31
260.081	74.31
260.314	84.31
260.547	71.31
260.779	69.31
261.012	81.31
261.244	76.31
261.477	85.31
261.71	75.31
261.942	84.31
262.175	68.31
262.407	56.31
262.64	78.31
262.872	82.31
263.105	88.31
263.337	90.31
263.57	77.31
263.802	80.31
264.035	92.31
264.267	89.31
264.499	83.31
264.732	83.31
264.964	68.31
265.197	69.31
265.429	74.31
265.661	81.31
265.894	70.31
266.126	88.31
266.358	86.31
266.591	86.31
266.823	88.31
267.055	92.31
267.287	80.31
267.52	92.31
267.752	90.31
267.984	78.31
268.216	73.31
268.448	84.31
268.681	75.31
268.913	88.31
269.145	87.31
269.377	88.31
269.609	77.31
269.841	90.31
270.073	80.31
270.306	73.31
270.538	83.31
270.77	63.31
271.002	81.31
271.234	95.31
271.466	84.31
271.698	83.31
271.93	88.31
272.162	67.31
272.394	77.31
272.626	95.31
272.858	86.31
273.09	82.31
273.322	77.31
273.553	72.31
273.785	80.31
274.017	74.31
274.249	84.31
274.481	74.31
274.713	84.31
274.945	83.31
275.176	75.31
275.408	75.31
275.64	74.31
275.872	82.31
276.104	67.31
276.335	96.31
276.567	80.31
276.799	84.31
277.031	66.31
277.262	89.31
277.494	89.31
277.726	88.31
277.957	79.31
278.189	86.31
278.421	65.31
278.652	80.31
278.884	77.31
279.115	80.31
279.347	77.31
279.579	88.31
279.81	82.31
280.042	77.31
280.273	81.31
280.505	84.31
280.736	77.31
280.968	83.31
281.199	92.31
281.431	89.31
281.662	72.31
281.894	78.31
282.125	66.31
282.356	72.31
282.588	76.31
282.819	78.31
283.051	85.31
283.282	79.31
283.513	82.31
283.745	82.31
283.976	77.31
284.207	77.31
284.439	82.31
284.67	81.31
284.901	69.31
285.132	82.31
285.364	92.31
285.595	88.31
285.826	81.31
286.057	80.31
286.288	67.31
286.52	92.31
286.751	84.31
286.982	80.31
287.213	79.31
287.444	83.31
287.675	76.31
287.906	85.31
288.138	88.31
288.369	78.31
288.6	78.31
288.831	73.31
289.062	70.31
289.293	80.31
289.524	74.31
289.755	88.31
289.986	75.31
290.217	81.31
290.448	77.31
290.679	84.31
290.91	74.31
291.141	98.31
291.371	84.31
291.602	75.31
291.833	93.31
292.064	65.31
292.295	84.31
292.526	68.31
292.757	78.31
292.987	74.31
293.218	84.31
293.449	85.31
293.68	89.31
293.91	73.31
294.141	88.31
294.372	89.31
294.603	74.31
294.833	82.31
295.064	78.31
295.295	89.31
295.525	75.31
295.756	80.31
295.987	83.31
296.217	66.31
296.448	95.31
296.679	90.31
296.909	82.31
297.14	86.31
297.37	82.31
297.601	61.31
297.831	67.31
298.062	78.31
298.292	81.31
298.523	88.31
298.753	78.31
298.984	77.31
299.214	79.31
299.445	84.31
299.675	85.31
299.905	68.31
300.136	83.31
300.366	80.31
300.597	84.31
300.827	83.31
301.057	85.31
301.288	73.31
301.518	84.31
301.748	69.31
301.979	94.31
302.209	76.31
302.439	80.31
302.669	75.31
302.9	86.31
303.13	84.31
303.36	84.31
303.59	89.31
303.82	75.31
304.051	96.31
304.281	74.31
304.511	79.31
304.741	94.31
304.971	74.31
305.201	88.31
305.431	79.31
305.661	86.31
305.891	80.31
306.121	82.31
306.352	92.31
306.582	78.31
306.812	82.31
307.042	84.31
307.272	86.31
307.502	85.31
307.731	95.31
307.961	80.31
308.191	92.31
308.421	63.31
308.651	81.31
308.881	75.31
309.111	77.31
309.341	80.31
309.571	80.31
309.8	92.31
310.03	88.31
310.26	96.31
310.49	84.31
310.72	81.31
310.949	75.31
311.179	91.31
311.409	84.31
311.639	82.31
311.868	87.31
312.098	78.31
312.328	95.31
312.557	83.31
312.787	79.31
313.017	75.31
313.246	68.31
313.476	70.31
313.706	80.31
313.935	82.31
314.165	76.31
314.394	84.31
314.624	99.31
314.853	71.31
315.083	68.31
315.312	71.31
315.542	83.31
315.771	94.31
316.001	72.31
316.23	74.31
316.46	77.31
316.689	72.31
316.919	86.31
317.148	81.31
317.377	83.31
317.607	73.31
317.836	86.31
318.065	89.31
318.295	80.31
318.524	88.31
318.753	82.31
318.983	80.31
319.212	88.31
319.441	81.31
319.67	86.31
319.9	76.31
320.129	87.31
320.358	78.31
320.587	81.31
320.816	74.31
321.046	84.31
321.275	84.31
321.504	92.31
321.733	82.31
321.962	88.31
322.191	79.31
322.42	80.31
322.649	94.31
322.878	81.31
323.108	75.31
323.337	68.31
323.566	86.31
323.795	87.31
324.024	76.31
324.253	70.31
324.482	104.31
324.71	77.31
324.939	80.31
325.168	72.31
325.397	69.31
325.626	65.31
325.855	87.31
326.084	85.31
326.313	77.31
326.542	69.31
326.77	91.31
326.999	92.31
327.228	82.31
327.457	82.31
327.686	72.31
327.914	85.31
328.143	94.31
328.372	96.31
328.6	79.31
328.829	98.31
329.058	81.31
329.287	74.31
329.515	80.31
329.744	75.31
329.972	89.31
330.201	80.31
330.43	70.31
330.658	89.31
330.887	85.31
331.115	82.31
331.344	82.31
331.572	80.31
331.801	79.31
332.03	74.31
332.258	70.31
332.486	68.31
332.715	74.31
332.943	77.31
333.172	76.31
333.4	75.31
333.629	92.31
333.857	90.31
334.085	90.31
334.314	76.31
334.542	75.31
334.771	82.31
334.999	85.31
335.227	83.31
335.455	73.31
335.684	82.31
335.912	72.31
336.14	84.31
336.369	86.31
336.597	88.31
336.825	83.31
337.053	82.31
337.281	85.31
337.51	60.31
337.738	65.31
337.966	73.31
338.194	71.31
338.422	83.31
338.65	76.31
338.878	97.31
339.106	81.31
339.334	77.31
339.562	81.31
339.79	82.31
340.018	80.31
340.246	82.31
340.474	85.31
340.702	83.31
340.93	80.31
341.158	77.31
341.386	74.31
341.614	78.31
341.842	73.31
342.07	74.31
342.298	84.31
342.526	78.31
342.754	78.31
342.981	82.31
343.209	78.31
343.437	99.31
343.665	87.31
343.893	75.31
344.12	76.31
344.348	80.31
344.576	77.31
344.804	82.31
345.031	76.31
345.259	94.31
345.487	77.31
345.714	80.31
345.942	69.31
346.17	68.31
346.397	70.31
346.625	88.31
346.853	72.31
347.08	85.31
347.308	89.31
347.535	77.31
347.763	75.31
347.99	85.31
348.218	79.31
348.445	80.31
348.673	81.31
348.9	93.31
349.128	92.31
349.355	76.31
349.583	79.31
349.81	67.31
350.037	81.31
350.265	68.31
350.492	83.31
350.72	70.31
350.947	71.31
351.174	82.31
351.402	70.31
351.629	74.31
351.856	94.31
352.083	74.31
352.311	84.31
352.538	71.31
352.765	82.31
352.992	86.31
353.22	86.31
353.447	80.31
353.674	88.31
353.901	80.31
354.128	98.31
354.355	82.31
354.583	90.31
354.81	75.31
355.037	95.31
355.264	72.31
355.491	83.31
355.718	85.31
355.945	80.31
356.172	80.31
356.399	88.31
356.626	80.31
356.853	97.31
357.08	92.31
357.307	78.31
357.534	73.31
357.761	81.31
357.988	83.31
358.215	70.31
358.441	74.31
358.668	95.31
358.895	71.31
359.122	74.31
359.349	80.31
359.576	82.31
359.802	80.31
360.029	100.31
360.256	78.31
360.483	105.31
360.709	81.31
360.936	82.31
361.163	65.31
361.39	70.31
361.616	77.31
361.843	73.31
362.07	69.31
362.296	83.31
362.523	81.31
362.749	74.31
362.976	66.31
363.203	86.31
363.429	80.31
363.656	77.31
363.882	81.31
364.109	73.31
364.335	91.31
364.562	81.31
364.788	94.31
365.015	80.31
365.241	86.31
365.468	84.31
365.694	85.31
365.92	82.31
366.147	66.31
366.373	74.31
366.599	79.31
366.826	86.31
367.052	61.31
367.278	78.31
367.505	78.31
367.731	85.31
367.957	81.31
368.184	83.31
368.41	78.31
368.636	89.31
368.862	71.31
369.089	68.31
369.315	71.31
369.541	86.31
369.767	79.31
369.993	72.31
370.219	82.31
370.445	80.31
370.672	75.31
370.898	90.31
371.124	84.31
371.35	87.31
371.576	67.31
371.802	74.31
372.028	78.31
372.254	86.31
372.48	74.31
372.706	93.31
372.932	86.31
373.158	81.31
373.384	86.31
373.61	93.31
373.835	93.31
374.061	87.31
374.287	84.31
374.513	76.31
374.739	80.31
374.965	88.31
375.191	73.31
375.416	74.31
375.642	79.31
375.868	85.31
376.094	84.31
376.319	78.31
376.545	70.31
376.771	94.31
376.997	76.31
377.222	69.31
377.448	85.31
377.674	81.31
377.899	92.31
378.125	83.31
378.35	85.31
378.576	77.31
378.802	81.31
379.027	84.31
379.253	80.31
379.478	86.31
379.704	78.31
379.929	81.31
380.155	88.31
380.38	81.31
380.606	80.31
380.831	86.31
381.057	88.31
381.282	69.31
381.507	71.31
381.733	84.31
381.958	82.31
382.184	82.31
382.409	89.31
382.634	94.31
382.86	85.31
383.085	85.31
383.31	77.31
383.535	87.31
383.761	77.31
383.986	75.31
384.211	86.31
384.436	76.31
384.662	83.31
384.887	93.31
385.112	76.31
385.337	84.31
385.562	89.31
385.787	75.31
386.013	86.31
386.238	83.31
386.463	74.31
386.688	96.31
386.913	82.31
387.138	75.31
387.363	74.31
387.588	80.31
387.813	84.31
388.038	86.31
388.263	87.31
388.488	84.31
388.713	91.31
388.938	88.31
389.163	83.31
389.387	65.31
389.612	80.31
389.837	75.31
390.062	88.31
390.287	71.31
390.512	85.31
390.736	78.31
390.961	77.31
391.186	81.31
391.411	86.31
391.636	87.31
391.86	70.31
392.085	78.31
392.31	97.31
392.534	78.31
392.759	93.31
392.984	93.31
393.208	129.31
393.433	171.31
393.658	142.31
393.882	79.31
394.107	93.31
394.331	83.31
394.556	93.31
394.78	83.31
395.005	80.31
395.229	81.31
395.454	73.31
395.678	77.31
395.903	80.31
396.127	88.31
396.352	85.31
396.576	113.31
396.801	140.31
397.025	153.31
397.249	96.31
397.474	85.31
397.698	75.31
397.922	77.31
398.147	81.31
398.371	80.31
398.595	84.31
398.82	65.31
399.044	85.31
399.268	72.31
399.492	86.31
399.717	87.31
399.941	77.31
400.165	80.31
400.389	80.31
400.613	74.31
400.837	83.31
401.062	74.31
401.286	78.31
401.51	75.31
401.734	67.31
401.958	62.31
402.182	92.31
402.406	88.31
402.63	97.31
402.854	99.31
403.078	93.31
403.302	66.31
403.526	85.31
403.75	80.31
403.974	72.31
404.198	89.31
404.422	86.31
404.645	89.31
404.869	95.31
405.093	88.31
405.317	81.31
405.541	80.31
405.765	80.31
405.988	76.31
406.212	77.31
406.436	90.31
406.66	85.31
406.883	81.31
407.107	78.31
407.331	75.31
407.555	84.31
407.778	98.31
408.002	81.31
408.226	87.31
408.449	87.31
408.673	65.31
408.896	77.31
409.12	84.31
409.344	85.31
409.567	92.31
409.791	77.31
410.014	82.31
410.238	78.31
410.461	68.31
410.685	74.31
410.908	92.31
411.132	73.31
411.355	75.31
411.578	96.31
411.802	84.31
412.025	77.31
412.249	68.31
412.472	85.31
412.695	85.31
412.919	89.31
413.142	78.31
413.365	81.31
413.589	76.31
413.812	70.31
414.035	80.31
414.258	92.31
414.482	63.31
414.705	64.31
414.928	75.31
415.151	68.31
415.374	80.31
415.597	80.31
415.821	69.31
416.044	74.31
416.267	88.31
416.49	72.31
416.713	71.31
416.936	77.31
417.159	82.31
417.382	85.31
417.605	81.31
417.828	74.31
418.051	69.31
418.274	74.31
418.497	79.31
418.72	72.31
418.943	73.31
419.166	70.31
419.389	71.31
419.611	87.31
419.834	90.31
420.057	90.31
420.28	75.31
420.503	75.31
420.726	78.31
420.948	87.31
421.171	66.31
421.394	73.31
421.617	84.31
421.839	104.31
422.062	91.31
422.285	88.31
422.507	116.31
422.73	136.31
422.953	136.31
423.175	88.31
423.398	77.31
423.621	94.31
423.843	78.31
424.066	75.31
424.288	97.31
424.511	77.31
424.733	62.31
424.956	64.31
425.178	85.31
425.401	80.31
425.623	75.31
425.846	74.31
426.068	77.31
426.291	85.31
426.513	75.31
426.735	79.31
426.958	87.31
427.18	87.31
427.402	78.31
427.625	80.31
427.847	77.31
428.069	97.31
428.292	88.31
428.514	92.31
428.736	84.31
428.958	78.31
429.181	86.31
429.403	88.31
429.625	70.31
429.847	84.31
430.069	81.31
430.292	92.31
430.514	80.31
430.736	86.31
430.958	79.31
431.18	85.31
431.402	93.31
431.624	71.31
431.846	88.31
432.068	77.31
432.29	83.31
432.512	78.31
432.734	73.31
432.956	87.31
433.178	84.31
433.4	68.31
433.622	99.31
433.844	75.31
434.066	81.31
434.287	84.31
434.509	82.31
434.731	79.31
434.953	78.31
435.175	74.31
435.397	84.31
435.618	82.31
435.84	78.31
436.062	75.31
436.284	87.31
436.505	74.31
436.727	83.31
436.949	80.31
437.17	86.31
437.392	82.31
437.614	58.31
437.835	74.31
438.057	77.31
438.278	71.31
438.5	83.31
438.721	76.31
438.943	72.31
439.165	86.31
439.386	78.31
439.608	75.31
439.829	75.31
440.05	75.31
440.272	77.31
440.493	87.31
440.715	81.31
440.936	75.31
441.158	72.31
441.379	70.31
441.6	74.31
441.822	69.31
442.043	86.31
442.264	78.31
442.486	66.31
442.707	83.31
442.928	76.31
443.149	76.31
443.371	96.31
443.592	96.31
443.813	110.31
444.034	93.31
444.255	76.31
444.476	76.31
444.698	73.31
444.919	85.31
445.14	148.31
445.361	101.31
445.582	96.31
445.803	94.31
446.024	82.31
446.245	76.31
446.466	85.31
446.687	78.31
446.908	68.31
447.129	83.31
447.35	74.31
447.571	78.31
447.792	85.31
448.013	72.31
448.234	78.31
448.455	68.31
448.675	77.31
448.896	86.31
449.117	74.31
449.338	77.31
449.559	82.31
449.779	77.31
450	74.31
450.221	78.31
450.442	86.31
450.662	95.31
450.883	80.31
451.104	86.31
451.324	83.31
451.545	82.31
451.766	88.31
451.986	88.31
452.207	78.31
452.428	64.31
452.648	88.31
452.869	73.31
453.089	72.31
453.31	73.31
453.53	85.31
453.751	84.31
453.971	85.31
454.192	88.31
454.412	79.31
454.633	78.31
454.853	78.31
455.073	69.31
455.294	73.31
455.514	85.31
455.734	90.31
455.955	74.31
456.175	80.31
456.395	75.31
456.616	80.31
456.836	77.31
457.056	75.31
457.276	78.31
457.497	86.31
457.717	81.31
457.937	81.31
458.157	81.31
458.377	96.31
458.598	69.31
458.818	76.31
459.038	83.31
459.258	82.31
459.478	78.31
459.698	79.31
459.918	80.31
460.138	80.31
460.358	97.31
460.578	100.31
460.798	62.31
461.018	77.31
461.238	88.31
461.458	70.31
461.678	63.31
461.898	90.31
462.118	66.31
462.338	83.31
462.558	74.31
462.777	72.31
462.997	77.31
463.217	78.31
463.437	68.31
463.657	66.31
463.876	77.31
464.096	74.31
464.316	64.31
464.536	93.31
464.755	86.31
464.975	81.31
465.195	82.31
465.414	78.31
465.634	93.31
465.854	80.31
466.073	82.31
466.293	74.31
466.512	82.31
466.732	75.31
466.951	74.31
467.171	76.31
467.391	76.31
467.61	87.31
467.829	86.31
468.049	86.31
468.268	81.31
468.488	88.31
468.707	80.31
468.927	73.31
469.146	63.31
469.365	61.31
469.585	72.31
469.804	82.31
470.023	86.31
470.243	75.31
470.462	81.31
470.681	82.31
470.901	86.31
471.12	81.31
471.339	90.31
471.558	80.31
471.777	68.31
471.997	70.31
472.216	83.31
472.435	86.31
472.654	85.31
472.873	81.31
473.092	88.31
473.311	80.31
473.53	89.31
473.749	79.31
473.968	90.31
474.187	86.31
474.406	68.31
474.625	80.31
474.844	80.31
475.063	77.31
475.282	85.31
475.501	69.31
475.72	90.31
475.939	79.31
476.158	89.31
476.377	80.31
476.596	66.31
476.814	80.31
477.033	87.31
477.252	73.31
477.471	83.31
477.69	94.31
477.908	73.31
478.127	87.31
478.346	82.31
478.564	62.31
478.783	92.31
479.002	70.31
479.22	89.31
479.439	74.31
479.658	68.31
479.876	88.31
480.095	75.31
480.313	89.31
480.532	96.31
480.751	72.31
480.969	69.31
481.188	89.31
481.406	80.31
481.624	80.31
481.843	84.31
482.061	74.31
482.28	78.31
482.498	80.31
482.717	77.31
482.935	73.31
483.153	81.31
483.372	92.31
483.59	77.31
483.808	67.31
484.027	80.31
484.245	83.31
484.463	96.31
484.681	92.31
484.9	76.31
485.118	73.31
485.336	82.31
485.554	72.31
485.772	86.31
485.99	86.31
486.209	85.31
486.427	72.31
486.645	87.31
486.863	80.31
487.081	83.31
487.299	80.31
487.517	97.31
487.735	86.31
487.953	82.31
488.171	87.31
488.389	78.31
488.607	98.31
488.825	82.31
489.043	79.31
489.261	86.31
489.479	78.31
489.696	87.31
489.914	88.31
490.132	92.31
490.35	85.31
490.568	76.31
490.786	78.31
491.003	73.31
491.221	79.31
491.439	89.31
491.657	84.31
491.874	87.31
492.092	82.31
492.31	74.31
492.527	80.31
492.745	85.31
492.963	84.31
493.18	88.31
493.398	79.31
493.615	88.31
493.833	81.31
494.05	84.31
494.268	86.31
494.485	80.31
494.703	75.31
494.92	83.31
495.138	79.31
495.355	78.31
495.573	75.31
495.79	81.31
496.008	95.31
496.225	89.31
496.442	70.31
496.66	75.31
496.877	82.31
497.094	74.31
497.312	68.31
497.529	86.31
497.746	71.31
497.963	80.31
498.181	77.31
498.398	81.31
498.615	73.31
498.832	70.31
499.049	77.31
499.267	72.31
499.484	72.31
499.701	89.31
499.918	79.31
500.135	89.31
500.352	81.31
500.569	79.31
500.786	79.31
501.003	87.31
501.22	73.31
501.437	83.31
501.654	90.31
501.871	68.31
502.088	80.31
502.305	75.31
502.522	73.31
502.739	68.31
502.956	90.31
503.172	84.31
503.389	83.31
503.606	77.31
503.823	85.31
504.04	90.31
504.256	80.31
504.473	78.31
504.69	87.31
504.907	92.31
505.123	80.31
505.34	82.31
505.557	88.31
505.773	86.31
505.99	76.31
506.207	86.31
506.423	81.31
506.64	83.31
506.856	69.31
507.073	83.31
507.289	78.31
507.506	75.31
507.722	80.31
507.939	88.31
508.155	90.31
508.372	70.31
508.588	76.31
508.805	76.31
509.021	84.31
509.238	86.31
509.454	81.31
509.67	75.31
509.887	78.31
510.103	90.31
510.319	64.31
510.536	70.31
510.752	72.31
510.968	71.31
511.184	83.31
511.401	78.31
511.617	78.31
511.833	85.31
512.049	88.31
512.265	78.31
512.481	79.31
512.698	78.31
512.914	78.31
513.13	83.31
513.346	96.31
513.562	73.31
513.778	80.31
513.994	82.31
514.21	93.31
514.426	72.31
514.642	89.31
514.858	73.31
515.074	82.31
515.29	68.31
515.506	80.31
515.721	79.31
515.937	99.31
516.153	62.31
516.369	82.31
516.585	78.31
516.801	77.31
517.016	80.31
517.232	96.31
517.448	85.31
517.664	84.31
517.879	97.31
518.095	74.31
518.311	80.31
518.527	70.31
518.742	78.31
518.958	79.31
519.173	83.31
519.389	79.31
519.605	89.31
519.82	72.31
520.036	80.31
