Data from 17600_1_HRD10591_00041.txt Node
Date: Mon Jan 19 14:07:44 EST 2026
User: Yrep
Spectrometer: HR+D1059
Trigger mode: 1
Integration Time (sec): 1.000000E-1
Scans to average: 1
Electric dark correction enabled: true
Nonlinearity correction enabled: false
Boxcar width: 0
XAxis mode: Wavelengths
Number of Pixels in Spectrum: 2048
>>>>>Begin Spectral Data<<<<<
223.165	-21.44
223.4	-21.44
223.635	-21.44
223.869	-20.44
224.104	-22.44
224.338	-30.44
224.573	-12.44
224.808	-13.44
225.042	-14.44
225.277	-18.44
225.511	-3.44
225.746	11.56
225.98	16.56
226.215	8.56
226.449	26.56
226.683	27.56
226.918	31.56
227.152	34.56
227.387	21.56
227.621	40.56
227.856	36.56
228.09	46.56
228.324	52.56
228.559	60.56
228.793	49.56
229.027	62.56
229.262	61.56
229.496	59.56
229.73	63.56
229.964	59.56
230.199	72.56
230.433	60.56
230.667	72.56
230.901	61.56
231.136	66.56
231.37	74.56
231.604	69.56
231.838	66.56
232.072	76.56
232.306	72.56
232.541	84.56
232.775	88.56
233.009	82.56
233.243	80.56
233.477	77.56
233.711	76.56
233.945	73.56
234.179	84.56
234.413	85.56
234.647	84.56
234.881	69.56
235.115	72.56
235.349	70.56
235.583	67.56
235.817	72.56
236.051	69.56
236.285	74.56
236.519	74.56
236.753	64.56
236.987	72.56
237.221	87.56
237.455	66.56
237.689	58.56
237.922	75.56
238.156	82.56
238.39	57.56
238.624	76.56
238.858	68.56
239.091	69.56
239.325	74.56
239.559	69.56
239.793	68.56
240.027	60.56
240.26	70.56
240.494	68.56
240.728	68.56
240.961	69.56
241.195	89.56
241.429	60.56
241.662	55.56
241.896	73.56
242.13	78.56
242.363	73.56
242.597	72.56
242.83	81.56
243.064	83.56
243.298	61.56
243.531	60.56
243.765	83.56
243.998	84.56
244.232	65.56
244.465	86.56
244.699	69.56
244.932	62.56
245.166	62.56
245.399	76.56
245.633	73.56
245.866	76.56
246.099	68.56
246.333	77.56
246.566	67.56
246.8	64.56
247.033	89.56
247.266	69.56
247.5	76.56
247.733	77.56
247.966	70.56
248.2	82.56
248.433	76.56
248.666	62.56
248.899	67.56
249.133	89.56
249.366	73.56
249.599	81.56
249.832	91.56
250.066	82.56
250.299	77.56
250.532	78.56
250.765	62.56
250.998	76.56
251.231	77.56
251.465	75.56
251.698	73.56
251.931	63.56
252.164	64.56
252.397	60.56
252.63	76.56
252.863	71.56
253.096	67.56
253.329	64.56
253.562	70.56
253.795	70.56
254.028	68.56
254.261	60.56
254.494	76.56
254.727	85.56
254.96	71.56
255.193	76.56
255.426	72.56
255.659	78.56
255.892	72.56
256.124	73.56
256.357	74.56
256.59	80.56
256.823	80.56
257.056	73.56
257.289	69.56
257.521	83.56
257.754	76.56
257.987	72.56
258.22	89.56
258.452	78.56
258.685	74.56
258.918	84.56
259.151	62.56
259.383	90.56
259.616	74.56
259.849	71.56
260.081	70.56
260.314	81.56
260.547	95.56
260.779	71.56
261.012	66.56
261.244	70.56
261.477	62.56
261.71	68.56
261.942	76.56
262.175	70.56
262.407	64.56
262.64	61.56
262.872	85.56
263.105	77.56
263.337	77.56
263.57	76.56
263.802	60.56
264.035	58.56
264.267	58.56
264.499	85.56
264.732	81.56
264.964	70.56
265.197	76.56
265.429	83.56
265.661	84.56
265.894	77.56
266.126	85.56
266.358	89.56
266.591	82.56
266.823	74.56
267.055	73.56
267.287	83.56
267.52	76.56
267.752	74.56
267.984	67.56
268.216	69.56
268.448	76.56
268.681	79.56
268.913	74.56
269.145	76.56
269.377	81.56
269.609	80.56
269.841	75.56
270.073	70.56
270.306	74.56
270.538	66.56
270.77	91.56
271.002	82.56
271.234	78.56
271.466	83.56
271.698	84.56
271.93	65.56
272.162	82.56
272.394	70.56
272.626	69.56
272.858	69.56
273.09	82.56
273.322	74.56
273.553	77.56
273.785	79.56
274.017	62.56
274.249	74.56
274.481	66.56
274.713	88.56
274.945	89.56
275.176	95.56
275.408	83.56
275.64	68.56
275.872	69.56
276.104	71.56
276.335	78.56
276.567	86.56
276.799	71.56
277.031	70.56
277.262	58.56
277.494	60.56
277.726	87.56
277.957	72.56
278.189	79.56
278.421	76.56
278.652	78.56
278.884	70.56
279.115	79.56
279.347	74.56
279.579	75.56
279.81	79.56
280.042	81.56
280.273	77.56
280.505	70.56
280.736	75.56
280.968	80.56
281.199	82.56
281.431	83.56
281.662	76.56
281.894	84.56
282.125	82.56
282.356	90.56
282.588	84.56
282.819	74.56
283.051	85.56
283.282	66.56
283.513	80.56
283.745	73.56
283.976	73.56
284.207	78.56
284.439	81.56
284.67	69.56
284.901	82.56
285.132	79.56
285.364	76.56
285.595	74.56
285.826	72.56
286.057	73.56
286.288	82.56
286.52	70.56
286.751	81.56
286.982	80.56
287.213	71.56
287.444	74.56
287.675	68.56
287.906	68.56
288.138	77.56
288.369	80.56
288.6	77.56
288.831	91.56
289.062	76.56
289.293	78.56
289.524	76.56
289.755	77.56
289.986	69.56
290.217	72.56
290.448	72.56
290.679	91.56
290.91	68.56
291.141	75.56
291.371	72.56
291.602	70.56
291.833	70.56
292.064	78.56
292.295	93.56
292.526	72.56
292.757	84.56
292.987	80.56
293.218	68.56
293.449	60.56
293.68	82.56
293.91	74.56
294.141	85.56
294.372	70.56
294.603	69.56
294.833	72.56
295.064	75.56
295.295	88.56
295.525	77.56
295.756	66.56
295.987	83.56
296.217	84.56
296.448	81.56
296.679	88.56
296.909	72.56
297.14	68.56
297.37	89.56
297.601	102.56
297.831	73.56
298.062	76.56
298.292	66.56
298.523	64.56
298.753	77.56
298.984	84.56
299.214	88.56
299.445	70.56
299.675	73.56
299.905	70.56
300.136	61.56
300.366	69.56
300.597	74.56
300.827	82.56
301.057	75.56
301.288	77.56
301.518	87.56
301.748	92.56
301.979	93.56
302.209	85.56
302.439	70.56
302.669	86.56
302.9	75.56
303.13	96.56
303.36	92.56
303.59	76.56
303.82	64.56
304.051	65.56
304.281	76.56
304.511	86.56
304.741	76.56
304.971	77.56
305.201	81.56
305.431	87.56
305.661	75.56
305.891	69.56
306.121	53.56
306.352	85.56
306.582	82.56
306.812	63.56
307.042	74.56
307.272	55.56
307.502	69.56
307.731	73.56
307.961	80.56
308.191	76.56
308.421	74.56
308.651	81.56
308.881	98.56
309.111	80.56
309.341	93.56
309.571	80.56
309.8	74.56
310.03	85.56
310.26	88.56
310.49	76.56
310.72	76.56
310.949	82.56
311.179	85.56
311.409	95.56
311.639	84.56
311.868	65.56
312.098	69.56
312.328	78.56
312.557	73.56
312.787	92.56
313.017	88.56
313.246	73.56
313.476	88.56
313.706	92.56
313.935	71.56
314.165	75.56
314.394	61.56
314.624	79.56
314.853	80.56
315.083	82.56
315.312	76.56
315.542	85.56
315.771	84.56
316.001	78.56
316.23	83.56
316.46	61.56
316.689	76.56
316.919	70.56
317.148	73.56
317.377	88.56
317.607	89.56
317.836	89.56
318.065	82.56
318.295	68.56
318.524	83.56
318.753	83.56
318.983	69.56
319.212	51.56
319.441	75.56
319.67	83.56
319.9	76.56
320.129	67.56
320.358	85.56
320.587	69.56
320.816	88.56
321.046	80.56
321.275	88.56
321.504	76.56
321.733	62.56
321.962	58.56
322.191	74.56
322.42	71.56
322.649	80.56
322.878	87.56
323.108	76.56
323.337	70.56
323.566	99.56
323.795	82.56
324.024	90.56
324.253	70.56
324.482	77.56
324.71	66.56
324.939	71.56
325.168	73.56
325.397	80.56
325.626	70.56
325.855	76.56
326.084	62.56
326.313	92.56
326.542	83.56
326.77	89.56
326.999	76.56
327.228	71.56
327.457	67.56
327.686	74.56
327.914	74.56
328.143	81.56
328.372	70.56
328.6	76.56
328.829	62.56
329.058	62.56
329.287	66.56
329.515	77.56
329.744	79.56
329.972	82.56
330.201	83.56
330.43	82.56
330.658	72.56
330.887	60.56
331.115	84.56
331.344	90.56
331.572	77.56
331.801	83.56
332.03	83.56
332.258	90.56
332.486	80.56
332.715	70.56
332.943	62.56
333.172	74.56
333.4	68.56
333.629	97.56
333.857	86.56
334.085	80.56
334.314	62.56
334.542	85.56
334.771	78.56
334.999	73.56
335.227	81.56
335.455	82.56
335.684	78.56
335.912	65.56
336.14	90.56
336.369	74.56
336.597	85.56
336.825	72.56
337.053	58.56
337.281	81.56
337.51	78.56
337.738	78.56
337.966	70.56
338.194	69.56
338.422	72.56
338.65	86.56
338.878	89.56
339.106	82.56
339.334	94.56
339.562	72.56
339.79	78.56
340.018	74.56
340.246	77.56
340.474	85.56
340.702	87.56
340.93	80.56
341.158	74.56
341.386	76.56
341.614	76.56
341.842	69.56
342.07	88.56
342.298	77.56
342.526	62.56
342.754	76.56
342.981	84.56
343.209	67.56
343.437	85.56
343.665	70.56
343.893	82.56
344.12	89.56
344.348	71.56
344.576	89.56
344.804	84.56
345.031	80.56
345.259	94.56
345.487	76.56
345.714	76.56
345.942	80.56
346.17	79.56
346.397	70.56
346.625	80.56
346.853	76.56
347.08	82.56
347.308	79.56
347.535	84.56
347.763	68.56
347.99	74.56
348.218	65.56
348.445	88.56
348.673	82.56
348.9	82.56
349.128	70.56
349.355	74.56
349.583	81.56
349.81	70.56
350.037	83.56
350.265	86.56
350.492	66.56
350.72	75.56
350.947	78.56
351.174	77.56
351.402	73.56
351.629	80.56
351.856	74.56
352.083	72.56
352.311	86.56
352.538	81.56
352.765	77.56
352.992	78.56
353.22	68.56
353.447	78.56
353.674	70.56
353.901	80.56
354.128	79.56
354.355	79.56
354.583	70.56
354.81	71.56
355.037	81.56
355.264	67.56
355.491	84.56
355.718	88.56
355.945	80.56
356.172	71.56
356.399	77.56
356.626	62.56
356.853	63.56
357.08	80.56
357.307	78.56
357.534	70.56
357.761	83.56
357.988	71.56
358.215	70.56
358.441	82.56
358.668	86.56
358.895	87.56
359.122	88.56
359.349	75.56
359.576	84.56
359.802	86.56
360.029	81.56
360.256	86.56
360.483	67.56
360.709	72.56
360.936	89.56
361.163	76.56
361.39	72.56
361.616	74.56
361.843	80.56
362.07	84.56
362.296	75.56
362.523	90.56
362.749	83.56
362.976	76.56
363.203	92.56
363.429	78.56
363.656	89.56
363.882	72.56
364.109	74.56
364.335	93.56
364.562	86.56
364.788	85.56
365.015	77.56
365.241	80.56
365.468	78.56
365.694	81.56
365.92	94.56
366.147	74.56
366.373	70.56
366.599	61.56
366.826	82.56
367.052	74.56
367.278	85.56
367.505	80.56
367.731	85.56
367.957	83.56
368.184	71.56
368.41	77.56
368.636	70.56
368.862	94.56
369.089	56.56
369.315	76.56
369.541	82.56
369.767	84.56
369.993	78.56
370.219	67.56
370.445	78.56
370.672	68.56
370.898	64.56
371.124	88.56
371.35	83.56
371.576	71.56
371.802	76.56
372.028	86.56
372.254	76.56
372.48	70.56
372.706	77.56
372.932	61.56
373.158	86.56
373.384	78.56
373.61	76.56
373.835	82.56
374.061	94.56
374.287	69.56
374.513	81.56
374.739	54.56
374.965	63.56
375.191	80.56
375.416	76.56
375.642	80.56
375.868	90.56
376.094	65.56
376.319	63.56
376.545	75.56
376.771	80.56
376.997	70.56
377.222	84.56
377.448	80.56
377.674	78.56
377.899	78.56
378.125	81.56
378.35	84.56
378.576	85.56
378.802	76.56
379.027	60.56
379.253	82.56
379.478	79.56
379.704	95.56
379.929	80.56
380.155	78.56
380.38	79.56
380.606	74.56
380.831	75.56
381.057	102.56
381.282	72.56
381.507	83.56
381.733	70.56
381.958	82.56
382.184	77.56
382.409	73.56
382.634	79.56
382.86	68.56
383.085	83.56
383.31	73.56
383.535	83.56
383.761	86.56
383.986	76.56
384.211	71.56
384.436	82.56
384.662	66.56
384.887	76.56
385.112	86.56
385.337	65.56
385.562	81.56
385.787	81.56
386.013	80.56
386.238	83.56
386.463	81.56
386.688	85.56
386.913	76.56
387.138	67.56
387.363	62.56
387.588	84.56
387.813	76.56
388.038	83.56
388.263	88.56
388.488	75.56
388.713	88.56
388.938	76.56
389.163	89.56
389.387	75.56
389.612	65.56
389.837	66.56
390.062	85.56
390.287	98.56
390.512	77.56
390.736	89.56
390.961	69.56
391.186	75.56
391.411	80.56
391.636	92.56
391.86	84.56
392.085	80.56
392.31	79.56
392.534	82.56
392.759	76.56
392.984	112.56
393.208	139.56
393.433	173.56
393.658	152.56
393.882	91.56
394.107	74.56
394.331	90.56
394.556	73.56
394.78	60.56
395.005	82.56
395.229	78.56
395.454	86.56
395.678	86.56
395.903	96.56
396.127	83.56
396.352	97.56
396.576	108.56
396.801	144.56
397.025	145.56
397.249	101.56
397.474	80.56
397.698	77.56
397.922	60.56
398.147	85.56
398.371	72.56
398.595	85.56
398.82	76.56
399.044	65.56
399.268	82.56
399.492	76.56
399.717	79.56
399.941	70.56
400.165	88.56
400.389	91.56
400.613	83.56
400.837	87.56
401.062	76.56
401.286	82.56
401.51	68.56
401.734	71.56
401.958	67.56
402.182	76.56
402.406	69.56
402.63	86.56
402.854	64.56
403.078	74.56
403.302	91.56
403.526	68.56
403.75	79.56
403.974	75.56
404.198	76.56
404.422	89.56
404.645	93.56
404.869	85.56
405.093	78.56
405.317	64.56
405.541	80.56
405.765	70.56
405.988	80.56
406.212	72.56
406.436	68.56
406.66	87.56
406.883	84.56
407.107	80.56
407.331	86.56
407.555	73.56
407.778	78.56
408.002	101.56
408.226	79.56
408.449	84.56
408.673	74.56
408.896	68.56
409.12	72.56
409.344	76.56
409.567	66.56
409.791	72.56
410.014	79.56
410.238	87.56
410.461	83.56
410.685	70.56
410.908	81.56
411.132	82.56
411.355	76.56
411.578	80.56
411.802	76.56
412.025	58.56
412.249	62.56
412.472	77.56
412.695	83.56
412.919	71.56
413.142	89.56
413.365	80.56
413.589	58.56
413.812	58.56
414.035	67.56
414.258	80.56
414.482	86.56
414.705	64.56
414.928	67.56
415.151	78.56
415.374	64.56
415.597	83.56
415.821	94.56
416.044	90.56
416.267	83.56
416.49	78.56
416.713	73.56
416.936	79.56
417.159	70.56
417.382	68.56
417.605	70.56
417.828	86.56
418.051	86.56
418.274	77.56
418.497	77.56
418.72	75.56
418.943	81.56
419.166	68.56
419.389	76.56
419.611	76.56
419.834	73.56
420.057	81.56
420.28	77.56
420.503	92.56
420.726	76.56
420.948	64.56
421.171	78.56
421.394	77.56
421.617	89.56
421.839	81.56
422.062	85.56
422.285	90.56
422.507	132.56
422.73	174.56
422.953	157.56
423.175	108.56
423.398	78.56
423.621	93.56
423.843	86.56
424.066	81.56
424.288	80.56
424.511	76.56
424.733	65.56
424.956	72.56
425.178	88.56
425.401	79.56
425.623	67.56
425.846	76.56
426.068	66.56
426.291	91.56
426.513	68.56
426.735	86.56
426.958	84.56
427.18	76.56
427.402	88.56
427.625	75.56
427.847	80.56
428.069	68.56
428.292	80.56
428.514	88.56
428.736	72.56
428.958	84.56
429.181	91.56
429.403	76.56
429.625	68.56
429.847	86.56
430.069	99.56
430.292	124.56
430.514	97.56
430.736	92.56
430.958	93.56
431.18	84.56
431.402	69.56
431.624	78.56
431.846	86.56
432.068	91.56
432.29	89.56
432.512	90.56
432.734	61.56
432.956	78.56
433.178	73.56
433.4	79.56
433.622	70.56
433.844	76.56
434.066	70.56
434.287	84.56
434.509	78.56
434.731	82.56
434.953	74.56
435.175	80.56
435.397	76.56
435.618	83.56
435.84	78.56
436.062	84.56
436.284	83.56
436.505	67.56
436.727	74.56
436.949	80.56
437.17	88.56
437.392	64.56
437.614	62.56
437.835	76.56
438.057	80.56
438.278	76.56
438.5	72.56
438.721	76.56
438.943	78.56
439.165	91.56
439.386	72.56
439.608	72.56
439.829	79.56
440.05	68.56
440.272	66.56
440.493	80.56
440.715	75.56
440.936	89.56
441.158	92.56
441.379	78.56
441.6	76.56
441.822	78.56
442.043	69.56
442.264	81.56
442.486	91.56
442.707	86.56
442.928	77.56
443.149	90.56
443.371	108.56
443.592	114.56
443.813	96.56
444.034	66.56
444.255	94.56
444.476	81.56
444.698	92.56
444.919	90.56
445.14	168.56
445.361	136.56
445.582	138.56
445.803	109.56
446.024	86.56
446.245	75.56
446.466	82.56
446.687	76.56
446.908	73.56
447.129	86.56
447.35	90.56
447.571	76.56
447.792	86.56
448.013	65.56
448.234	64.56
448.455	85.56
448.675	72.56
448.896	75.56
449.117	65.56
449.338	73.56
449.559	79.56
449.779	70.56
450	76.56
450.221	80.56
450.442	67.56
450.662	85.56
450.883	68.56
451.104	88.56
451.324	67.56
451.545	74.56
451.766	78.56
451.986	58.56
452.207	93.56
452.428	74.56
452.648	66.56
452.869	72.56
453.089	78.56
453.31	70.56
453.53	84.56
453.751	85.56
453.971	89.56
454.192	76.56
454.412	75.56
454.633	63.56
454.853	80.56
455.073	80.56
455.294	73.56
455.514	84.56
455.734	74.56
455.955	75.56
456.175	60.56
456.395	70.56
456.616	74.56
456.836	82.56
457.056	68.56
457.276	89.56
457.497	64.56
457.717	78.56
457.937	67.56
458.157	90.56
458.377	76.56
458.598	77.56
458.818	82.56
459.038	85.56
459.258	81.56
459.478	88.56
459.698	79.56
459.918	82.56
460.138	84.56
460.358	90.56
460.578	84.56
460.798	90.56
461.018	78.56
461.238	68.56
461.458	79.56
461.678	77.56
461.898	83.56
462.118	78.56
462.338	67.56
462.558	66.56
462.777	76.56
462.997	85.56
463.217	66.56
463.437	74.56
463.657	85.56
463.876	78.56
464.096	67.56
464.316	74.56
464.536	74.56
464.755	72.56
464.975	90.56
465.195	76.56
465.414	76.56
465.634	92.56
465.854	65.56
466.073	65.56
466.293	86.56
466.512	71.56
466.732	61.56
466.951	70.56
467.171	67.56
467.391	63.56
467.61	75.56
467.829	70.56
468.049	83.56
468.268	84.56
468.488	81.56
468.707	80.56
468.927	76.56
469.146	73.56
469.365	81.56
469.585	84.56
469.804	83.56
470.023	69.56
470.243	78.56
470.462	84.56
470.681	74.56
470.901	64.56
471.12	68.56
471.339	86.56
471.558	76.56
471.777	85.56
471.997	70.56
472.216	80.56
472.435	76.56
472.654	90.56
472.873	63.56
473.092	86.56
473.311	78.56
473.53	66.56
473.749	70.56
473.968	86.56
474.187	77.56
474.406	76.56
474.625	88.56
474.844	77.56
475.063	88.56
475.282	76.56
475.501	83.56
475.72	61.56
475.939	58.56
476.158	70.56
476.377	80.56
476.596	81.56
476.814	73.56
477.033	80.56
477.252	77.56
477.471	55.56
477.69	75.56
477.908	70.56
478.127	67.56
478.346	77.56
478.564	67.56
478.783	78.56
479.002	76.56
479.22	71.56
479.439	72.56
479.658	71.56
479.876	78.56
480.095	73.56
480.313	81.56
480.532	77.56
480.751	84.56
480.969	86.56
481.188	64.56
481.406	86.56
481.624	78.56
481.843	83.56
482.061	97.56
482.28	77.56
482.498	70.56
482.717	80.56
482.935	76.56
483.153	81.56
483.372	73.56
483.59	82.56
483.808	77.56
484.027	76.56
484.245	65.56
484.463	75.56
484.681	68.56
484.9	90.56
485.118	74.56
485.336	70.56
485.554	69.56
485.772	79.56
485.99	81.56
486.209	84.56
486.427	68.56
486.645	80.56
486.863	73.56
487.081	73.56
487.299	65.56
487.517	79.56
487.735	74.56
487.953	88.56
488.171	82.56
488.389	61.56
488.607	71.56
488.825	78.56
489.043	87.56
489.261	76.56
489.479	96.56
489.696	82.56
489.914	68.56
490.132	79.56
490.35	62.56
490.568	69.56
490.786	76.56
491.003	91.56
491.221	72.56
491.439	75.56
491.657	74.56
491.874	84.56
492.092	76.56
492.31	58.56
492.527	68.56
492.745	67.56
492.963	74.56
493.18	96.56
493.398	85.56
493.615	60.56
493.833	74.56
494.05	70.56
494.268	70.56
494.485	88.56
494.703	72.56
494.92	76.56
495.138	76.56
495.355	88.56
495.573	87.56
495.79	69.56
496.008	88.56
496.225	81.56
496.442	80.56
496.66	71.56
496.877	83.56
497.094	86.56
497.312	83.56
497.529	85.56
497.746	76.56
497.963	84.56
498.181	74.56
498.398	73.56
498.615	84.56
498.832	86.56
499.049	69.56
499.267	86.56
499.484	93.56
499.701	80.56
499.918	89.56
500.135	80.56
500.352	71.56
500.569	83.56
500.786	78.56
501.003	92.56
501.22	78.56
501.437	84.56
501.654	87.56
501.871	70.56
502.088	73.56
502.305	70.56
502.522	91.56
502.739	76.56
502.956	73.56
503.172	88.56
503.389	77.56
503.606	77.56
503.823	85.56
504.04	61.56
504.256	79.56
504.473	83.56
504.69	78.56
504.907	79.56
505.123	94.56
505.34	73.56
505.557	75.56
505.773	79.56
505.99	65.56
506.207	76.56
506.423	68.56
506.64	85.56
506.856	81.56
507.073	74.56
507.289	80.56
507.506	67.56
507.722	70.56
507.939	69.56
508.155	90.56
508.372	80.56
508.588	85.56
508.805	74.56
509.021	76.56
509.238	92.56
509.454	78.56
509.67	76.56
509.887	81.56
510.103	82.56
510.319	71.56
510.536	70.56
510.752	77.56
510.968	94.56
511.184	78.56
511.401	72.56
511.617	80.56
511.833	81.56
512.049	81.56
512.265	70.56
512.481	93.56
512.698	76.56
512.914	87.56
513.13	74.56
513.346	82.56
513.562	87.56
513.778	71.56
513.994	77.56
514.21	66.56
514.426	66.56
514.642	79.56
514.858	68.56
515.074	67.56
515.29	73.56
515.506	92.56
515.721	74.56
515.937	71.56
516.153	70.56
516.369	67.56
516.585	68.56
516.801	89.56
517.016	68.56
517.232	65.56
517.448	94.56
517.664	79.56
517.879	78.56
518.095	93.56
518.311	77.56
518.527	77.56
518.742	68.56
518.958	70.56
519.173	93.56
519.389	82.56
519.605	70.56
519.82	83.56
520.036	92.56
