Data from 17600_1_HRD10591_00013.txt Node
Date: Mon Jan 19 14:07:30 EST 2026
User: Yrep
Spectrometer: HR+D1059
Trigger mode: 1
Integration Time (sec): 1.000000E-1
Scans to average: 1
Electric dark correction enabled: true
Nonlinearity correction enabled: false
Boxcar width: 0
XAxis mode: Wavelengths
Number of Pixels in Spectrum: 2048
>>>>>Begin Spectral Data<<<<<
223.165	-12.56
223.4	-12.56
223.635	-12.56
223.869	-22.56
224.104	-19.56
224.338	-10.56
224.573	-21.56
224.808	-16.56
225.042	-8.56
225.277	4.44
225.511	7.44
225.746	2.44
225.98	4.44
226.215	4.44
226.449	13.44
226.683	18.44
226.918	16.44
227.152	40.44
227.387	48.44
227.621	34.44
227.856	55.44
228.09	47.44
228.324	62.44
228.559	59.44
228.793	68.44
229.027	58.44
229.262	59.44
229.496	64.44
229.73	77.44
229.964	75.44
230.199	76.44
230.433	78.44
230.667	83.44
230.901	86.44
231.136	80.44
231.37	92.44
231.604	80.44
231.838	76.44
232.072	77.44
232.306	86.44
232.541	78.44
232.775	85.44
233.009	83.44
233.243	99.44
233.477	79.44
233.711	80.44
233.945	82.44
234.179	80.44
234.413	75.44
234.647	72.44
234.881	74.44
235.115	84.44
235.349	85.44
235.583	76.44
235.817	89.44
236.051	76.44
236.285	73.44
236.519	77.44
236.753	80.44
236.987	71.44
237.221	73.44
237.455	72.44
237.689	87.44
237.922	68.44
238.156	74.44
238.39	77.44
238.624	67.44
238.858	84.44
239.091	72.44
239.325	63.44
239.559	74.44
239.793	76.44
240.027	78.44
240.26	63.44
240.494	75.44
240.728	70.44
240.961	78.44
241.195	79.44
241.429	74.44
241.662	78.44
241.896	72.44
242.13	78.44
242.363	71.44
242.597	79.44
242.83	71.44
243.064	86.44
243.298	58.44
243.531	88.44
243.765	95.44
243.998	84.44
244.232	73.44
244.465	87.44
244.699	76.44
244.932	70.44
245.166	77.44
245.399	99.44
245.633	93.44
245.866	85.44
246.099	67.44
246.333	79.44
246.566	80.44
246.8	64.44
247.033	75.44
247.266	96.44
247.5	70.44
247.733	78.44
247.966	70.44
248.2	84.44
248.433	76.44
248.666	76.44
248.899	92.44
249.133	76.44
249.366	78.44
249.599	83.44
249.832	81.44
250.066	91.44
250.299	73.44
250.532	99.44
250.765	82.44
250.998	91.44
251.231	78.44
251.465	93.44
251.698	66.44
251.931	82.44
252.164	84.44
252.397	92.44
252.63	92.44
252.863	72.44
253.096	79.44
253.329	99.44
253.562	86.44
253.795	73.44
254.028	70.44
254.261	72.44
254.494	81.44
254.727	84.44
254.96	88.44
255.193	94.44
255.426	78.44
255.659	84.44
255.892	82.44
256.124	90.44
256.357	83.44
256.59	70.44
256.823	82.44
257.056	72.44
257.289	88.44
257.521	87.44
257.754	77.44
257.987	78.44
258.22	79.44
258.452	79.44
258.685	75.44
258.918	64.44
259.151	87.44
259.383	76.44
259.616	84.44
259.849	89.44
260.081	90.44
260.314	87.44
260.547	89.44
260.779	81.44
261.012	81.44
261.244	78.44
261.477	96.44
261.71	77.44
261.942	97.44
262.175	96.44
262.407	74.44
262.64	78.44
262.872	99.44
263.105	85.44
263.337	91.44
263.57	80.44
263.802	98.44
264.035	78.44
264.267	91.44
264.499	81.44
264.732	84.44
264.964	91.44
265.197	74.44
265.429	89.44
265.661	76.44
265.894	89.44
266.126	83.44
266.358	82.44
266.591	68.44
266.823	78.44
267.055	83.44
267.287	79.44
267.52	87.44
267.752	78.44
267.984	82.44
268.216	82.44
268.448	84.44
268.681	66.44
268.913	89.44
269.145	92.44
269.377	72.44
269.609	78.44
269.841	81.44
270.073	86.44
270.306	81.44
270.538	67.44
270.77	74.44
271.002	79.44
271.234	74.44
271.466	81.44
271.698	90.44
271.93	81.44
272.162	80.44
272.394	98.44
272.626	88.44
272.858	69.44
273.09	81.44
273.322	99.44
273.553	83.44
273.785	88.44
274.017	85.44
274.249	84.44
274.481	75.44
274.713	81.44
274.945	85.44
275.176	82.44
275.408	80.44
275.64	81.44
275.872	79.44
276.104	91.44
276.335	85.44
276.567	84.44
276.799	63.44
277.031	86.44
277.262	105.44
277.494	78.44
277.726	85.44
277.957	87.44
278.189	83.44
278.421	82.44
278.652	80.44
278.884	90.44
279.115	91.44
279.347	82.44
279.579	101.44
279.81	75.44
280.042	90.44
280.273	77.44
280.505	85.44
280.736	83.44
280.968	83.44
281.199	99.44
281.431	95.44
281.662	73.44
281.894	84.44
282.125	111.44
282.356	96.44
282.588	75.44
282.819	69.44
283.051	72.44
283.282	75.44
283.513	79.44
283.745	84.44
283.976	90.44
284.207	71.44
284.439	83.44
284.67	77.44
284.901	92.44
285.132	96.44
285.364	96.44
285.595	89.44
285.826	91.44
286.057	88.44
286.288	83.44
286.52	88.44
286.751	71.44
286.982	83.44
287.213	80.44
287.444	83.44
287.675	91.44
287.906	75.44
288.138	77.44
288.369	82.44
288.6	88.44
288.831	91.44
289.062	78.44
289.293	83.44
289.524	74.44
289.755	93.44
289.986	101.44
290.217	80.44
290.448	95.44
290.679	79.44
290.91	82.44
291.141	75.44
291.371	89.44
291.602	74.44
291.833	81.44
292.064	87.44
292.295	89.44
292.526	88.44
292.757	80.44
292.987	98.44
293.218	92.44
293.449	88.44
293.68	85.44
293.91	75.44
294.141	84.44
294.372	73.44
294.603	90.44
294.833	73.44
295.064	83.44
295.295	84.44
295.525	79.44
295.756	87.44
295.987	89.44
296.217	75.44
296.448	79.44
296.679	89.44
296.909	75.44
297.14	95.44
297.37	94.44
297.601	99.44
297.831	89.44
298.062	77.44
298.292	83.44
298.523	81.44
298.753	85.44
298.984	89.44
299.214	82.44
299.445	85.44
299.675	77.44
299.905	84.44
300.136	73.44
300.366	91.44
300.597	91.44
300.827	88.44
301.057	76.44
301.288	85.44
301.518	87.44
301.748	93.44
301.979	98.44
302.209	80.44
302.439	100.44
302.669	90.44
302.9	80.44
303.13	82.44
303.36	88.44
303.59	74.44
303.82	95.44
304.051	81.44
304.281	95.44
304.511	91.44
304.741	96.44
304.971	77.44
305.201	80.44
305.431	90.44
305.661	90.44
305.891	78.44
306.121	80.44
306.352	86.44
306.582	84.44
306.812	89.44
307.042	75.44
307.272	86.44
307.502	89.44
307.731	83.44
307.961	78.44
308.191	79.44
308.421	92.44
308.651	87.44
308.881	96.44
309.111	81.44
309.341	82.44
309.571	85.44
309.8	89.44
310.03	89.44
310.26	77.44
310.49	61.44
310.72	82.44
310.949	84.44
311.179	83.44
311.409	85.44
311.639	87.44
311.868	96.44
312.098	92.44
312.328	94.44
312.557	85.44
312.787	83.44
313.017	82.44
313.246	80.44
313.476	87.44
313.706	95.44
313.935	81.44
314.165	76.44
314.394	75.44
314.624	76.44
314.853	99.44
315.083	83.44
315.312	85.44
315.542	105.44
315.771	80.44
316.001	82.44
316.23	86.44
316.46	85.44
316.689	82.44
316.919	78.44
317.148	95.44
317.377	80.44
317.607	99.44
317.836	87.44
318.065	89.44
318.295	91.44
318.524	93.44
318.753	80.44
318.983	85.44
319.212	75.44
319.441	84.44
319.67	90.44
319.9	84.44
320.129	73.44
320.358	93.44
320.587	75.44
320.816	83.44
321.046	87.44
321.275	83.44
321.504	88.44
321.733	95.44
321.962	83.44
322.191	84.44
322.42	89.44
322.649	78.44
322.878	87.44
323.108	77.44
323.337	87.44
323.566	81.44
323.795	85.44
324.024	99.44
324.253	84.44
324.482	93.44
324.71	95.44
324.939	83.44
325.168	86.44
325.397	88.44
325.626	74.44
325.855	91.44
326.084	85.44
326.313	83.44
326.542	91.44
326.77	87.44
326.999	74.44
327.228	93.44
327.457	71.44
327.686	89.44
327.914	80.44
328.143	80.44
328.372	86.44
328.6	62.44
328.829	77.44
329.058	91.44
329.287	76.44
329.515	86.44
329.744	95.44
329.972	89.44
330.201	84.44
330.43	94.44
330.658	101.44
330.887	87.44
331.115	91.44
331.344	78.44
331.572	85.44
331.801	84.44
332.03	108.44
332.258	95.44
332.486	81.44
332.715	108.44
332.943	91.44
333.172	70.44
333.4	86.44
333.629	89.44
333.857	77.44
334.085	86.44
334.314	104.44
334.542	69.44
334.771	84.44
334.999	104.44
335.227	87.44
335.455	89.44
335.684	93.44
335.912	86.44
336.14	90.44
336.369	89.44
336.597	93.44
336.825	92.44
337.053	81.44
337.281	76.44
337.51	86.44
337.738	93.44
337.966	78.44
338.194	81.44
338.422	78.44
338.65	90.44
338.878	95.44
339.106	89.44
339.334	77.44
339.562	88.44
339.79	68.44
340.018	72.44
340.246	84.44
340.474	74.44
340.702	92.44
340.93	91.44
341.158	71.44
341.386	77.44
341.614	68.44
341.842	65.44
342.07	74.44
342.298	85.44
342.526	101.44
342.754	87.44
342.981	82.44
343.209	83.44
343.437	93.44
343.665	74.44
343.893	85.44
344.12	84.44
344.348	85.44
344.576	89.44
344.804	104.44
345.031	98.44
345.259	85.44
345.487	87.44
345.714	80.44
345.942	74.44
346.17	83.44
346.397	86.44
346.625	85.44
346.853	82.44
347.08	88.44
347.308	90.44
347.535	87.44
347.763	75.44
347.99	77.44
348.218	92.44
348.445	88.44
348.673	76.44
348.9	78.44
349.128	95.44
349.355	93.44
349.583	94.44
349.81	87.44
350.037	88.44
350.265	81.44
350.492	84.44
350.72	80.44
350.947	98.44
351.174	98.44
351.402	84.44
351.629	75.44
351.856	97.44
352.083	75.44
352.311	85.44
352.538	103.44
352.765	78.44
352.992	95.44
353.22	96.44
353.447	83.44
353.674	85.44
353.901	82.44
354.128	82.44
354.355	79.44
354.583	76.44
354.81	77.44
355.037	92.44
355.264	101.44
355.491	90.44
355.718	94.44
355.945	67.44
356.172	87.44
356.399	77.44
356.626	92.44
356.853	92.44
357.08	96.44
357.307	85.44
357.534	89.44
357.761	108.44
357.988	98.44
358.215	84.44
358.441	71.44
358.668	91.44
358.895	87.44
359.122	71.44
359.349	88.44
359.576	81.44
359.802	103.44
360.029	79.44
360.256	92.44
360.483	88.44
360.709	82.44
360.936	83.44
361.163	82.44
361.39	84.44
361.616	96.44
361.843	84.44
362.07	84.44
362.296	85.44
362.523	87.44
362.749	85.44
362.976	88.44
363.203	89.44
363.429	76.44
363.656	81.44
363.882	95.44
364.109	101.44
364.335	85.44
364.562	92.44
364.788	80.44
365.015	97.44
365.241	79.44
365.468	88.44
365.694	84.44
365.92	74.44
366.147	79.44
366.373	88.44
366.599	89.44
366.826	84.44
367.052	89.44
367.278	76.44
367.505	87.44
367.731	93.44
367.957	73.44
368.184	96.44
368.41	104.44
368.636	73.44
368.862	72.44
369.089	80.44
369.315	73.44
369.541	84.44
369.767	80.44
369.993	83.44
370.219	90.44
370.445	87.44
370.672	98.44
370.898	82.44
371.124	90.44
371.35	82.44
371.576	72.44
371.802	69.44
372.028	78.44
372.254	81.44
372.48	85.44
372.706	83.44
372.932	83.44
373.158	98.44
373.384	77.44
373.61	85.44
373.835	95.44
374.061	93.44
374.287	75.44
374.513	80.44
374.739	66.44
374.965	76.44
375.191	81.44
375.416	89.44
375.642	88.44
375.868	86.44
376.094	95.44
376.319	80.44
376.545	88.44
376.771	84.44
376.997	64.44
377.222	74.44
377.448	83.44
377.674	89.44
377.899	90.44
378.125	94.44
378.35	75.44
378.576	87.44
378.802	91.44
379.027	79.44
379.253	86.44
379.478	84.44
379.704	93.44
379.929	82.44
380.155	80.44
380.38	85.44
380.606	93.44
380.831	80.44
381.057	84.44
381.282	90.44
381.507	83.44
381.733	99.44
381.958	95.44
382.184	89.44
382.409	84.44
382.634	90.44
382.86	73.44
383.085	83.44
383.31	91.44
383.535	90.44
383.761	76.44
383.986	82.44
384.211	88.44
384.436	80.44
384.662	84.44
384.887	82.44
385.112	79.44
385.337	77.44
385.562	81.44
385.787	96.44
386.013	77.44
386.238	81.44
386.463	75.44
386.688	91.44
386.913	83.44
387.138	76.44
387.363	89.44
387.588	76.44
387.813	93.44
388.038	88.44
388.263	91.44
388.488	84.44
388.713	91.44
388.938	67.44
389.163	81.44
389.387	81.44
389.612	80.44
389.837	96.44
390.062	80.44
390.287	88.44
390.512	71.44
390.736	91.44
390.961	84.44
391.186	63.44
391.411	95.44
391.636	95.44
391.86	78.44
392.085	93.44
392.31	87.44
392.534	92.44
392.759	98.44
392.984	103.44
393.208	131.44
393.433	178.44
393.658	149.44
393.882	103.44
394.107	92.44
394.331	86.44
394.556	81.44
394.78	91.44
395.005	89.44
395.229	78.44
395.454	85.44
395.678	92.44
395.903	92.44
396.127	93.44
396.352	93.44
396.576	99.44
396.801	148.44
397.025	144.44
397.249	103.44
397.474	87.44
397.698	97.44
397.922	86.44
398.147	82.44
398.371	86.44
398.595	89.44
398.82	100.44
399.044	85.44
399.268	74.44
399.492	75.44
399.717	68.44
399.941	74.44
400.165	68.44
400.389	91.44
400.613	83.44
400.837	85.44
401.062	78.44
401.286	83.44
401.51	79.44
401.734	82.44
401.958	83.44
402.182	85.44
402.406	84.44
402.63	82.44
402.854	74.44
403.078	82.44
403.302	89.44
403.526	83.44
403.75	88.44
403.974	87.44
404.198	74.44
404.422	83.44
404.645	85.44
404.869	93.44
405.093	76.44
405.317	76.44
405.541	81.44
405.765	90.44
405.988	72.44
406.212	94.44
406.436	90.44
406.66	74.44
406.883	98.44
407.107	88.44
407.331	65.44
407.555	85.44
407.778	82.44
408.002	95.44
408.226	81.44
408.449	91.44
408.673	88.44
408.896	91.44
409.12	75.44
409.344	91.44
409.567	91.44
409.791	90.44
410.014	83.44
410.238	84.44
410.461	71.44
410.685	64.44
410.908	80.44
411.132	85.44
411.355	79.44
411.578	85.44
411.802	68.44
412.025	76.44
412.249	70.44
412.472	85.44
412.695	90.44
412.919	83.44
413.142	74.44
413.365	81.44
413.589	84.44
413.812	88.44
414.035	88.44
414.258	82.44
414.482	81.44
414.705	77.44
414.928	85.44
415.151	84.44
415.374	83.44
415.597	75.44
415.821	83.44
416.044	85.44
416.267	83.44
416.49	81.44
416.713	86.44
416.936	98.44
417.159	71.44
417.382	81.44
417.605	84.44
417.828	99.44
418.051	87.44
418.274	89.44
418.497	75.44
418.72	77.44
418.943	88.44
419.166	71.44
419.389	85.44
419.611	86.44
419.834	74.44
420.057	74.44
420.28	70.44
420.503	90.44
420.726	97.44
420.948	85.44
421.171	73.44
421.394	83.44
421.617	88.44
421.839	77.44
422.062	81.44
422.285	94.44
422.507	107.44
422.73	166.44
422.953	139.44
423.175	100.44
423.398	100.44
423.621	84.44
423.843	71.44
424.066	75.44
424.288	67.44
424.511	85.44
424.733	86.44
424.956	85.44
425.178	77.44
425.401	81.44
425.623	71.44
425.846	59.44
426.068	68.44
426.291	85.44
426.513	82.44
426.735	100.44
426.958	89.44
427.18	86.44
427.402	90.44
427.625	90.44
427.847	83.44
428.069	76.44
428.292	73.44
428.514	76.44
428.736	95.44
428.958	85.44
429.181	84.44
429.403	81.44
429.625	80.44
429.847	86.44
430.069	97.44
430.292	101.44
430.514	101.44
430.736	77.44
430.958	80.44
431.18	63.44
431.402	79.44
431.624	101.44
431.846	87.44
432.068	75.44
432.29	75.44
432.512	77.44
432.734	92.44
432.956	91.44
433.178	73.44
433.4	82.44
433.622	89.44
433.844	86.44
434.066	76.44
434.287	72.44
434.509	72.44
434.731	83.44
434.953	85.44
435.175	78.44
435.397	82.44
435.618	83.44
435.84	89.44
436.062	82.44
436.284	76.44
436.505	78.44
436.727	78.44
436.949	76.44
437.17	82.44
437.392	91.44
437.614	75.44
437.835	87.44
438.057	77.44
438.278	72.44
438.5	83.44
438.721	88.44
438.943	95.44
439.165	94.44
439.386	72.44
439.608	77.44
439.829	90.44
440.05	83.44
440.272	72.44
440.493	83.44
440.715	80.44
440.936	77.44
441.158	75.44
441.379	83.44
441.6	81.44
441.822	76.44
442.043	83.44
442.264	84.44
442.486	86.44
442.707	78.44
442.928	91.44
443.149	85.44
443.371	99.44
443.592	95.44
443.813	96.44
444.034	90.44
444.255	77.44
444.476	84.44
444.698	80.44
444.919	87.44
445.14	135.44
445.361	109.44
445.582	103.44
445.803	77.44
446.024	90.44
446.245	80.44
446.466	80.44
446.687	94.44
446.908	85.44
447.129	92.44
447.35	83.44
447.571	83.44
447.792	83.44
448.013	81.44
448.234	74.44
448.455	79.44
448.675	77.44
448.896	81.44
449.117	79.44
449.338	82.44
449.559	83.44
449.779	74.44
450	63.44
450.221	76.44
450.442	72.44
450.662	77.44
450.883	87.44
451.104	86.44
451.324	74.44
451.545	81.44
451.766	85.44
451.986	77.44
452.207	69.44
452.428	88.44
452.648	89.44
452.869	89.44
453.089	85.44
453.31	80.44
453.53	85.44
453.751	82.44
453.971	75.44
454.192	69.44
454.412	85.44
454.633	80.44
454.853	94.44
455.073	90.44
455.294	72.44
455.514	78.44
455.734	90.44
455.955	87.44
456.175	89.44
456.395	85.44
456.616	90.44
456.836	89.44
457.056	87.44
457.276	71.44
457.497	89.44
457.717	76.44
457.937	84.44
458.157	75.44
458.377	86.44
458.598	81.44
458.818	87.44
459.038	93.44
459.258	78.44
459.478	65.44
459.698	91.44
459.918	89.44
460.138	90.44
460.358	85.44
460.578	74.44
460.798	94.44
461.018	84.44
461.238	89.44
461.458	79.44
461.678	75.44
461.898	92.44
462.118	79.44
462.338	85.44
462.558	93.44
462.777	81.44
462.997	100.44
463.217	88.44
463.437	85.44
463.657	87.44
463.876	88.44
464.096	82.44
464.316	79.44
464.536	84.44
464.755	84.44
464.975	77.44
465.195	80.44
465.414	89.44
465.634	92.44
465.854	89.44
466.073	80.44
466.293	86.44
466.512	84.44
466.732	89.44
466.951	83.44
467.171	70.44
467.391	67.44
467.61	83.44
467.829	89.44
468.049	85.44
468.268	84.44
468.488	81.44
468.707	73.44
468.927	74.44
469.146	93.44
469.365	84.44
469.585	87.44
469.804	85.44
470.023	100.44
470.243	87.44
470.462	79.44
470.681	89.44
470.901	72.44
471.12	82.44
471.339	84.44
471.558	78.44
471.777	81.44
471.997	82.44
472.216	72.44
472.435	87.44
472.654	81.44
472.873	94.44
473.092	74.44
473.311	77.44
473.53	83.44
473.749	75.44
473.968	94.44
474.187	85.44
474.406	93.44
474.625	81.44
474.844	75.44
475.063	84.44
475.282	76.44
475.501	97.44
475.72	87.44
475.939	83.44
476.158	83.44
476.377	77.44
476.596	73.44
476.814	80.44
477.033	93.44
477.252	84.44
477.471	81.44
477.69	83.44
477.908	83.44
478.127	101.44
478.346	72.44
478.564	87.44
478.783	75.44
479.002	87.44
479.22	97.44
479.439	84.44
479.658	79.44
479.876	76.44
480.095	79.44
480.313	88.44
480.532	78.44
480.751	91.44
480.969	92.44
481.188	100.44
481.406	74.44
481.624	69.44
481.843	81.44
482.061	92.44
482.28	80.44
482.498	83.44
482.717	87.44
482.935	100.44
483.153	72.44
483.372	92.44
483.59	89.44
483.808	85.44
484.027	78.44
484.245	63.44
484.463	81.44
484.681	96.44
484.9	88.44
485.118	76.44
485.336	77.44
485.554	76.44
485.772	80.44
485.99	85.44
486.209	88.44
486.427	75.44
486.645	78.44
486.863	73.44
487.081	80.44
487.299	79.44
487.517	89.44
487.735	75.44
487.953	92.44
488.171	71.44
488.389	85.44
488.607	77.44
488.825	94.44
489.043	77.44
489.261	84.44
489.479	83.44
489.696	95.44
489.914	90.44
490.132	85.44
490.35	89.44
490.568	69.44
490.786	87.44
491.003	90.44
491.221	84.44
491.439	77.44
491.657	81.44
491.874	72.44
492.092	91.44
492.31	83.44
492.527	84.44
492.745	99.44
492.963	92.44
493.18	87.44
493.398	80.44
493.615	86.44
493.833	76.44
494.05	71.44
494.268	81.44
494.485	90.44
494.703	89.44
494.92	99.44
495.138	69.44
495.355	90.44
495.573	85.44
495.79	76.44
496.008	87.44
496.225	95.44
496.442	75.44
496.66	95.44
496.877	86.44
497.094	77.44
497.312	80.44
497.529	96.44
497.746	85.44
497.963	80.44
498.181	88.44
498.398	84.44
498.615	83.44
498.832	79.44
499.049	90.44
499.267	73.44
499.484	88.44
499.701	93.44
499.918	71.44
500.135	88.44
500.352	83.44
500.569	83.44
500.786	90.44
501.003	84.44
501.22	81.44
501.437	88.44
501.654	92.44
501.871	75.44
502.088	77.44
502.305	85.44
502.522	90.44
502.739	70.44
502.956	81.44
503.172	86.44
503.389	83.44
503.606	76.44
503.823	100.44
504.04	85.44
504.256	76.44
504.473	85.44
504.69	95.44
504.907	101.44
505.123	91.44
505.34	87.44
505.557	83.44
505.773	89.44
505.99	92.44
506.207	87.44
506.423	82.44
506.64	88.44
506.856	91.44
507.073	74.44
507.289	88.44
507.506	89.44
507.722	84.44
507.939	90.44
508.155	77.44
508.372	100.44
508.588	86.44
508.805	80.44
509.021	88.44
509.238	83.44
509.454	99.44
509.67	76.44
509.887	81.44
510.103	92.44
510.319	88.44
510.536	83.44
510.752	75.44
510.968	70.44
511.184	99.44
511.401	92.44
511.617	83.44
511.833	87.44
512.049	83.44
512.265	91.44
512.481	84.44
512.698	89.44
512.914	74.44
513.13	79.44
513.346	69.44
513.562	75.44
513.778	90.44
513.994	74.44
514.21	75.44
514.426	76.44
514.642	80.44
514.858	90.44
515.074	77.44
515.29	87.44
515.506	79.44
515.721	82.44
515.937	91.44
516.153	90.44
516.369	82.44
516.585	87.44
516.801	83.44
517.016	87.44
517.232	83.44
517.448	90.44
517.664	69.44
517.879	87.44
518.095	84.44
518.311	96.44
518.527	99.44
518.742	90.44
518.958	95.44
519.173	81.44
519.389	105.44
519.605	95.44
