Data from Uncirc_1982_H10_HRD10591_00068.txt Node
Date: Wed Jan 03 12:29:38 EST 2024
User: Yrep
Spectrometer: HR+D1059
Trigger mode: 1
Integration Time (sec): 1.000000E-1
Scans to average: 1
Electric dark correction enabled: true
Nonlinearity correction enabled: false
Boxcar width: 0
XAxis mode: Wavelengths
Number of Pixels in Spectrum: 2048
>>>>>Begin Spectral Data<<<<<
223.165	-25.5
223.4	-25.5
223.635	-25.5
223.869	-20.5
224.104	-15.5
224.338	-4.5
224.573	-22.5
224.808	-3.5
225.042	-10.5
225.277	-1.5
225.511	2.5
225.746	-5.5
225.98	8.5
226.215	-2.5
226.449	7.5
226.683	26.5
226.918	33.5
227.152	33.5
227.387	37.5
227.621	48.5
227.856	52.5
228.09	50.5
228.324	56.5
228.559	43.5
228.793	54.5
229.027	56.5
229.262	73.5
229.496	76.5
229.73	83.5
229.964	92.5
230.199	87.5
230.433	70.5
230.667	84.5
230.901	82.5
231.136	70.5
231.37	73.5
231.604	85.5
231.838	75.5
232.072	92.5
232.306	94.5
232.541	84.5
232.775	77.5
233.009	80.5
233.243	74.5
233.477	85.5
233.711	74.5
233.945	86.5
234.179	90.5
234.413	92.5
234.647	81.5
234.881	94.5
235.115	77.5
235.349	75.5
235.583	67.5
235.817	85.5
236.051	84.5
236.285	87.5
236.519	86.5
236.753	80.5
236.987	76.5
237.221	87.5
237.455	80.5
237.689	74.5
237.922	78.5
238.156	77.5
238.39	75.5
238.624	88.5
238.858	68.5
239.091	65.5
239.325	69.5
239.559	84.5
239.793	88.5
240.027	78.5
240.26	72.5
240.494	88.5
240.728	84.5
240.961	75.5
241.195	80.5
241.429	71.5
241.662	69.5
241.896	73.5
242.13	82.5
242.363	66.5
242.597	84.5
242.83	83.5
243.064	87.5
243.298	82.5
243.531	78.5
243.765	87.5
243.998	86.5
244.232	93.5
244.465	84.5
244.699	78.5
244.932	85.5
245.166	68.5
245.399	93.5
245.633	83.5
245.866	79.5
246.099	76.5
246.333	80.5
246.566	66.5
246.8	68.5
247.033	72.5
247.266	95.5
247.5	82.5
247.733	91.5
247.966	77.5
248.2	72.5
248.433	77.5
248.666	79.5
248.899	86.5
249.133	98.5
249.366	93.5
249.599	104.5
249.832	75.5
250.066	88.5
250.299	74.5
250.532	79.5
250.765	76.5
250.998	77.5
251.231	75.5
251.465	79.5
251.698	82.5
251.931	83.5
252.164	76.5
252.397	79.5
252.63	83.5
252.863	72.5
253.096	87.5
253.329	82.5
253.562	88.5
253.795	84.5
254.028	82.5
254.261	91.5
254.494	84.5
254.727	91.5
254.96	74.5
255.193	85.5
255.426	71.5
255.659	79.5
255.892	74.5
256.124	84.5
256.357	76.5
256.59	89.5
256.823	74.5
257.056	86.5
257.289	80.5
257.521	85.5
257.754	86.5
257.987	78.5
258.22	84.5
258.452	92.5
258.685	79.5
258.918	86.5
259.151	95.5
259.383	86.5
259.616	83.5
259.849	73.5
260.081	74.5
260.314	103.5
260.547	84.5
260.779	82.5
261.012	93.5
261.244	68.5
261.477	81.5
261.71	107.5
261.942	106.5
262.175	107.5
262.407	113.5
262.64	86.5
262.872	90.5
263.105	78.5
263.337	73.5
263.57	76.5
263.802	71.5
264.035	69.5
264.267	74.5
264.499	92.5
264.732	78.5
264.964	93.5
265.197	77.5
265.429	84.5
265.661	76.5
265.894	86.5
266.126	88.5
266.358	94.5
266.591	68.5
266.823	85.5
267.055	71.5
267.287	73.5
267.52	80.5
267.752	82.5
267.984	86.5
268.216	88.5
268.448	85.5
268.681	93.5
268.913	90.5
269.145	69.5
269.377	92.5
269.609	96.5
269.841	78.5
270.073	91.5
270.306	69.5
270.538	93.5
270.77	59.5
271.002	94.5
271.234	79.5
271.466	82.5
271.698	82.5
271.93	78.5
272.162	94.5
272.394	78.5
272.626	79.5
272.858	89.5
273.09	84.5
273.322	91.5
273.553	79.5
273.785	78.5
274.017	77.5
274.249	96.5
274.481	89.5
274.713	96.5
274.945	91.5
275.176	79.5
275.408	102.5
275.64	79.5
275.872	76.5
276.104	82.5
276.335	90.5
276.567	90.5
276.799	100.5
277.031	104.5
277.262	89.5
277.494	106.5
277.726	87.5
277.957	78.5
278.189	76.5
278.421	80.5
278.652	88.5
278.884	86.5
279.115	82.5
279.347	75.5
279.579	88.5
279.81	85.5
280.042	79.5
280.273	82.5
280.505	99.5
280.736	105.5
280.968	94.5
281.199	83.5
281.431	93.5
281.662	96.5
281.894	85.5
282.125	103.5
282.356	106.5
282.588	119.5
282.819	100.5
283.051	82.5
283.282	90.5
283.513	90.5
283.745	99.5
283.976	90.5
284.207	79.5
284.439	85.5
284.67	90.5
284.901	90.5
285.132	82.5
285.364	93.5
285.595	81.5
285.826	89.5
286.057	92.5
286.288	83.5
286.52	84.5
286.751	89.5
286.982	90.5
287.213	86.5
287.444	79.5
287.675	86.5
287.906	82.5
288.138	83.5
288.369	82.5
288.6	89.5
288.831	79.5
289.062	77.5
289.293	100.5
289.524	97.5
289.755	78.5
289.986	80.5
290.217	66.5
290.448	95.5
290.679	86.5
290.91	98.5
291.141	86.5
291.371	98.5
291.602	85.5
291.833	86.5
292.064	88.5
292.295	80.5
292.526	84.5
292.757	78.5
292.987	92.5
293.218	91.5
293.449	91.5
293.68	87.5
293.91	88.5
294.141	91.5
294.372	92.5
294.603	90.5
294.833	87.5
295.064	98.5
295.295	82.5
295.525	85.5
295.756	107.5
295.987	105.5
296.217	116.5
296.448	100.5
296.679	91.5
296.909	78.5
297.14	83.5
297.37	85.5
297.601	97.5
297.831	88.5
298.062	84.5
298.292	102.5
298.523	95.5
298.753	98.5
298.984	73.5
299.214	95.5
299.445	88.5
299.675	96.5
299.905	91.5
300.136	89.5
300.366	84.5
300.597	81.5
300.827	104.5
301.057	111.5
301.288	97.5
301.518	94.5
301.748	92.5
301.979	93.5
302.209	92.5
302.439	76.5
302.669	78.5
302.9	92.5
303.13	98.5
303.36	96.5
303.59	81.5
303.82	100.5
304.051	83.5
304.281	85.5
304.511	86.5
304.741	88.5
304.971	92.5
305.201	93.5
305.431	85.5
305.661	86.5
305.891	90.5
306.121	104.5
306.352	92.5
306.582	94.5
306.812	94.5
307.042	85.5
307.272	91.5
307.502	81.5
307.731	91.5
307.961	89.5
308.191	85.5
308.421	80.5
308.651	90.5
308.881	88.5
309.111	84.5
309.341	90.5
309.571	96.5
309.8	88.5
310.03	104.5
310.26	95.5
310.49	113.5
310.72	96.5
310.949	109.5
311.179	98.5
311.409	79.5
311.639	100.5
311.868	91.5
312.098	86.5
312.328	98.5
312.557	98.5
312.787	110.5
313.017	98.5
313.246	83.5
313.476	85.5
313.706	104.5
313.935	98.5
314.165	99.5
314.394	77.5
314.624	92.5
314.853	87.5
315.083	98.5
315.312	94.5
315.542	87.5
315.771	90.5
316.001	101.5
316.23	110.5
316.46	79.5
316.689	86.5
316.919	79.5
317.148	96.5
317.377	102.5
317.607	99.5
317.836	95.5
318.065	67.5
318.295	84.5
318.524	105.5
318.753	95.5
318.983	92.5
319.212	83.5
319.441	95.5
319.67	103.5
319.9	101.5
320.129	93.5
320.358	91.5
320.587	88.5
320.816	89.5
321.046	107.5
321.275	100.5
321.504	94.5
321.733	102.5
321.962	96.5
322.191	102.5
322.42	103.5
322.649	91.5
322.878	106.5
323.108	113.5
323.337	113.5
323.566	121.5
323.795	129.5
324.024	181.5
324.253	345.5
324.482	734.5
324.71	1462.5
324.939	1844.5
325.168	683.5
325.397	223.5
325.626	157.5
325.855	118.5
326.084	116.5
326.313	110.5
326.542	133.5
326.77	208.5
326.999	395.5
327.228	857.5
327.457	1484.5
327.686	1168.5
327.914	329.5
328.143	183.5
328.372	146.5
328.6	132.5
328.829	109.5
329.058	108.5
329.287	112.5
329.515	115.5
329.744	112.5
329.972	116.5
330.201	116.5
330.43	128.5
330.658	126.5
330.887	115.5
331.115	95.5
331.344	103.5
331.572	91.5
331.801	90.5
332.03	102.5
332.258	107.5
332.486	88.5
332.715	82.5
332.943	94.5
333.172	84.5
333.4	99.5
333.629	112.5
333.857	118.5
334.085	103.5
334.314	101.5
334.542	136.5
334.771	111.5
334.999	104.5
335.227	101.5
335.455	103.5
335.684	114.5
335.912	113.5
336.14	87.5
336.369	83.5
336.597	92.5
336.825	103.5
337.053	110.5
337.281	93.5
337.51	90.5
337.738	90.5
337.966	109.5
338.194	79.5
338.422	87.5
338.65	110.5
338.878	90.5
339.106	94.5
339.334	88.5
339.562	116.5
339.79	97.5
340.018	100.5
340.246	99.5
340.474	101.5
340.702	90.5
340.93	82.5
341.158	88.5
341.386	107.5
341.614	96.5
341.842	101.5
342.07	94.5
342.298	87.5
342.526	89.5
342.754	91.5
342.981	85.5
343.209	83.5
343.437	89.5
343.665	85.5
343.893	86.5
344.12	104.5
344.348	88.5
344.576	69.5
344.804	84.5
345.031	79.5
345.259	89.5
345.487	112.5
345.714	98.5
345.942	93.5
346.17	93.5
346.397	91.5
346.625	94.5
346.853	96.5
347.08	89.5
347.308	84.5
347.535	91.5
347.763	103.5
347.99	95.5
348.218	110.5
348.445	104.5
348.673	94.5
348.9	81.5
349.128	85.5
349.355	87.5
349.583	109.5
349.81	94.5
350.037	101.5
350.265	99.5
350.492	90.5
350.72	97.5
350.947	94.5
351.174	100.5
351.402	116.5
351.629	110.5
351.856	104.5
352.083	114.5
352.311	96.5
352.538	87.5
352.765	99.5
352.992	104.5
353.22	118.5
353.447	103.5
353.674	112.5
353.901	101.5
354.128	93.5
354.355	94.5
354.583	99.5
354.81	92.5
355.037	100.5
355.264	97.5
355.491	104.5
355.718	95.5
355.945	101.5
356.172	107.5
356.399	99.5
356.626	84.5
356.853	87.5
357.08	102.5
357.307	91.5
357.534	101.5
357.761	87.5
357.988	91.5
358.215	107.5
358.441	93.5
358.668	113.5
358.895	92.5
359.122	99.5
359.349	90.5
359.576	96.5
359.802	86.5
360.029	96.5
360.256	115.5
360.483	104.5
360.709	88.5
360.936	83.5
361.163	83.5
361.39	86.5
361.616	99.5
361.843	86.5
362.07	87.5
362.296	87.5
362.523	104.5
362.749	86.5
362.976	93.5
363.203	104.5
363.429	103.5
363.656	76.5
363.882	89.5
364.109	95.5
364.335	105.5
364.562	88.5
364.788	91.5
365.015	92.5
365.241	99.5
365.468	99.5
365.694	97.5
365.92	93.5
366.147	99.5
366.373	92.5
366.599	93.5
366.826	90.5
367.052	85.5
367.278	100.5
367.505	100.5
367.731	88.5
367.957	94.5
368.184	94.5
368.41	100.5
368.636	100.5
368.862	106.5
369.089	87.5
369.315	92.5
369.541	88.5
369.767	102.5
369.993	97.5
370.219	88.5
370.445	88.5
370.672	90.5
370.898	76.5
371.124	86.5
371.35	92.5
371.576	104.5
371.802	89.5
372.028	90.5
372.254	74.5
372.48	86.5
372.706	80.5
372.932	84.5
373.158	82.5
373.384	102.5
373.61	91.5
373.835	101.5
374.061	87.5
374.287	96.5
374.513	84.5
374.739	91.5
374.965	97.5
375.191	96.5
375.416	84.5
375.642	95.5
375.868	92.5
376.094	100.5
376.319	93.5
376.545	89.5
376.771	83.5
376.997	89.5
377.222	91.5
377.448	102.5
377.674	115.5
377.899	96.5
378.125	98.5
378.35	95.5
378.576	98.5
378.802	88.5
379.027	92.5
379.253	95.5
379.478	98.5
379.704	86.5
379.929	91.5
380.155	102.5
380.38	92.5
380.606	86.5
380.831	107.5
381.057	98.5
381.282	106.5
381.507	96.5
381.733	91.5
381.958	94.5
382.184	96.5
382.409	93.5
382.634	96.5
382.86	86.5
383.085	106.5
383.31	100.5
383.535	107.5
383.761	94.5
383.986	99.5
384.211	96.5
384.436	106.5
384.662	92.5
384.887	104.5
385.112	98.5
385.337	105.5
385.562	108.5
385.787	100.5
386.013	109.5
386.238	112.5
386.463	99.5
386.688	107.5
386.913	92.5
387.138	100.5
387.363	99.5
387.588	91.5
387.813	103.5
388.038	110.5
388.263	118.5
388.488	102.5
388.713	92.5
388.938	104.5
389.163	103.5
389.387	93.5
389.612	107.5
389.837	91.5
390.062	98.5
390.287	108.5
390.512	94.5
390.736	94.5
390.961	96.5
391.186	92.5
391.411	103.5
391.636	103.5
391.86	89.5
392.085	88.5
392.31	98.5
392.534	88.5
392.759	87.5
392.984	75.5
393.208	88.5
393.433	97.5
393.658	91.5
393.882	83.5
394.107	83.5
394.331	87.5
394.556	83.5
394.78	96.5
395.005	78.5
395.229	71.5
395.454	95.5
395.678	85.5
395.903	84.5
396.127	100.5
396.352	90.5
396.576	81.5
396.801	101.5
397.025	85.5
397.249	97.5
397.474	107.5
397.698	88.5
397.922	72.5
398.147	92.5
398.371	100.5
398.595	82.5
398.82	77.5
399.044	84.5
399.268	97.5
399.492	86.5
399.717	89.5
399.941	82.5
400.165	91.5
400.389	92.5
400.613	86.5
400.837	90.5
401.062	78.5
401.286	84.5
401.51	90.5
401.734	111.5
401.958	77.5
402.182	109.5
402.406	134.5
402.63	118.5
402.854	99.5
403.078	75.5
403.302	75.5
403.526	92.5
403.75	86.5
403.974	96.5
404.198	82.5
404.422	82.5
404.645	80.5
404.869	86.5
405.093	98.5
405.317	108.5
405.541	97.5
405.765	99.5
405.988	116.5
406.212	154.5
406.436	201.5
406.66	124.5
406.883	90.5
407.107	103.5
407.331	103.5
407.555	90.5
407.778	91.5
408.002	89.5
408.226	100.5
408.449	86.5
408.673	83.5
408.896	94.5
409.12	90.5
409.344	103.5
409.567	82.5
409.791	97.5
410.014	87.5
410.238	108.5
410.461	88.5
410.685	85.5
410.908	103.5
411.132	102.5
411.355	117.5
411.578	84.5
411.802	107.5
412.025	88.5
412.249	88.5
412.472	97.5
412.695	84.5
412.919	99.5
413.142	93.5
413.365	94.5
413.589	93.5
413.812	103.5
414.035	86.5
414.258	88.5
414.482	83.5
414.705	90.5
414.928	88.5
415.151	93.5
415.374	87.5
415.597	97.5
415.821	85.5
416.044	95.5
416.267	95.5
416.49	92.5
416.713	104.5
416.936	87.5
417.159	95.5
417.382	79.5
417.605	86.5
417.828	98.5
418.051	90.5
418.274	88.5
418.497	97.5
418.72	78.5
418.943	86.5
419.166	92.5
419.389	88.5
419.611	82.5
419.834	84.5
420.057	86.5
420.28	76.5
420.503	93.5
420.726	88.5
420.948	103.5
421.171	101.5
421.394	93.5
421.617	87.5
421.839	103.5
422.062	103.5
422.285	93.5
422.507	84.5
422.73	102.5
422.953	104.5
423.175	95.5
423.398	92.5
423.621	90.5
423.843	76.5
424.066	105.5
424.288	90.5
424.511	99.5
424.733	90.5
424.956	98.5
425.178	100.5
425.401	106.5
425.623	105.5
425.846	100.5
426.068	91.5
426.291	83.5
426.513	86.5
426.735	88.5
426.958	88.5
427.18	110.5
427.402	134.5
427.625	139.5
427.847	116.5
428.069	97.5
428.292	84.5
428.514	115.5
428.736	80.5
428.958	94.5
429.181	78.5
429.403	93.5
429.625	78.5
429.847	95.5
430.069	94.5
430.292	79.5
430.514	93.5
430.736	84.5
430.958	89.5
431.18	96.5
431.402	88.5
431.624	86.5
431.846	93.5
432.068	99.5
432.29	96.5
432.512	101.5
432.734	86.5
432.956	85.5
433.178	101.5
433.4	89.5
433.622	100.5
433.844	86.5
434.066	84.5
434.287	89.5
434.509	110.5
434.731	100.5
434.953	90.5
435.175	95.5
435.397	85.5
435.618	83.5
435.84	99.5
436.062	111.5
436.284	99.5
436.505	100.5
436.727	95.5
436.949	86.5
437.17	88.5
437.392	93.5
437.614	90.5
437.835	105.5
438.057	102.5
438.278	95.5
438.5	94.5
438.721	110.5
438.943	102.5
439.165	112.5
439.386	103.5
439.608	95.5
439.829	104.5
440.05	104.5
440.272	115.5
440.493	87.5
440.715	91.5
440.936	76.5
441.158	83.5
441.379	90.5
441.6	93.5
441.822	68.5
442.043	84.5
442.264	94.5
442.486	94.5
442.707	99.5
442.928	87.5
443.149	119.5
443.371	128.5
443.592	103.5
443.813	103.5
444.034	90.5
444.255	92.5
444.476	69.5
444.698	94.5
444.919	86.5
445.14	127.5
445.361	127.5
445.582	111.5
445.803	110.5
446.024	116.5
446.245	117.5
446.466	100.5
446.687	90.5
446.908	85.5
447.129	102.5
447.35	97.5
447.571	102.5
447.792	92.5
448.013	94.5
448.234	99.5
448.455	110.5
448.675	106.5
448.896	111.5
449.117	95.5
449.338	104.5
449.559	120.5
449.779	121.5
450	89.5
450.221	98.5
450.442	90.5
450.662	94.5
450.883	96.5
451.104	98.5
451.324	89.5
451.545	76.5
451.766	83.5
451.986	94.5
452.207	91.5
452.428	89.5
452.648	99.5
452.869	91.5
453.089	101.5
453.31	111.5
453.53	107.5
453.751	80.5
453.971	92.5
454.192	94.5
454.412	99.5
454.633	84.5
454.853	90.5
455.073	86.5
455.294	96.5
455.514	90.5
455.734	95.5
455.955	74.5
456.175	65.5
456.395	86.5
456.616	84.5
456.836	83.5
457.056	85.5
457.276	84.5
457.497	76.5
457.717	78.5
457.937	77.5
458.157	79.5
458.377	97.5
458.598	112.5
458.818	148.5
459.038	131.5
459.258	95.5
459.478	88.5
459.698	74.5
459.918	87.5
460.138	82.5
460.358	85.5
460.578	80.5
460.798	107.5
461.018	97.5
461.238	76.5
461.458	93.5
461.678	86.5
461.898	97.5
462.118	90.5
462.338	80.5
462.558	90.5
462.777	102.5
462.997	93.5
463.217	91.5
463.437	90.5
463.657	79.5
463.876	93.5
464.096	82.5
464.316	85.5
464.536	93.5
464.755	96.5
464.975	106.5
465.195	116.5
465.414	143.5
465.634	93.5
465.854	89.5
466.073	86.5
466.293	83.5
466.512	92.5
466.732	82.5
466.951	87.5
467.171	101.5
467.391	94.5
467.61	107.5
467.829	112.5
468.049	103.5
468.268	112.5
468.488	98.5
468.707	96.5
468.927	90.5
469.146	87.5
469.365	85.5
469.585	95.5
469.804	98.5
470.023	90.5
470.243	94.5
470.462	98.5
470.681	108.5
470.901	82.5
471.12	82.5
471.339	77.5
471.558	83.5
471.777	97.5
471.997	100.5
472.216	101.5
472.435	139.5
472.654	104.5
472.873	88.5
473.092	94.5
473.311	80.5
473.53	94.5
473.749	88.5
473.968	101.5
474.187	111.5
474.406	91.5
474.625	96.5
474.844	87.5
475.063	84.5
475.282	96.5
475.501	93.5
475.72	76.5
475.939	75.5
476.158	86.5
476.377	96.5
476.596	104.5
476.814	96.5
477.033	77.5
477.252	73.5
477.471	79.5
477.69	92.5
477.908	107.5
478.127	98.5
478.346	86.5
478.564	82.5
478.783	82.5
479.002	96.5
479.22	99.5
479.439	96.5
479.658	111.5
479.876	87.5
480.095	78.5
480.313	104.5
480.532	83.5
480.751	94.5
480.969	100.5
481.188	191.5
481.406	136.5
481.624	107.5
481.843	84.5
482.061	82.5
482.28	95.5
482.498	98.5
482.717	77.5
482.935	86.5
483.153	97.5
483.372	91.5
483.59	92.5
483.808	82.5
484.027	90.5
484.245	92.5
484.463	92.5
484.681	105.5
484.9	82.5
485.118	91.5
485.336	92.5
485.554	96.5
485.772	95.5
485.99	116.5
486.209	97.5
486.427	95.5
486.645	115.5
486.863	108.5
487.081	91.5
487.299	88.5
487.517	86.5
487.735	100.5
487.953	91.5
488.171	116.5
488.389	95.5
488.607	99.5
488.825	87.5
489.043	86.5
489.261	86.5
489.479	100.5
489.696	80.5
489.914	81.5
490.132	79.5
490.35	92.5
490.568	84.5
490.786	86.5
491.003	100.5
491.221	96.5
491.439	103.5
491.657	91.5
491.874	91.5
492.092	98.5
492.31	91.5
492.527	87.5
492.745	91.5
492.963	92.5
493.18	96.5
493.398	95.5
493.615	108.5
493.833	104.5
494.05	71.5
494.268	91.5
494.485	98.5
494.703	99.5
494.92	91.5
495.138	94.5
495.355	94.5
495.573	89.5
495.79	87.5
496.008	109.5
496.225	105.5
496.442	92.5
496.66	94.5
496.877	94.5
497.094	88.5
497.312	84.5
497.529	83.5
497.746	106.5
497.963	93.5
498.181	94.5
498.398	87.5
498.615	96.5
498.832	107.5
499.049	82.5
499.267	96.5
499.484	102.5
499.701	100.5
499.918	88.5
500.135	84.5
500.352	98.5
500.569	79.5
500.786	88.5
501.003	93.5
501.22	86.5
501.437	99.5
501.654	98.5
501.871	107.5
502.088	86.5
502.305	90.5
502.522	84.5
502.739	74.5
502.956	86.5
503.172	101.5
503.389	97.5
503.606	94.5
503.823	77.5
504.04	90.5
504.256	92.5
504.473	94.5
504.69	99.5
504.907	95.5
505.123	102.5
505.34	88.5
505.557	98.5
505.773	92.5
505.99	84.5
506.207	98.5
506.423	100.5
506.64	97.5
506.856	99.5
507.073	99.5
507.289	78.5
507.506	102.5
507.722	110.5
507.939	95.5
508.155	96.5
508.372	95.5
508.588	77.5
508.805	79.5
509.021	96.5
509.238	108.5
509.454	103.5
509.67	109.5
509.887	100.5
510.103	108.5
510.319	186.5
510.536	639.5
510.752	1882.5
510.968	532.5
511.184	145.5
511.401	99.5
511.617	105.5
511.833	85.5
512.049	94.5
512.265	89.5
512.481	98.5
512.698	91.5
512.914	101.5
513.13	95.5
513.346	96.5
513.562	84.5
513.778	97.5
513.994	97.5
514.21	111.5
514.426	109.5
514.642	119.5
514.858	119.5
515.074	147.5
515.29	357.5
515.506	1102.5
515.721	409.5
515.937	141.5
516.153	113.5
516.369	91.5
516.585	98.5
516.801	106.5
517.016	107.5
517.232	106.5
517.448	102.5
517.664	98.5
517.879	87.5
518.095	92.5
518.311	103.5
518.527	112.5
518.742	90.5
518.958	98.5
519.173	104.5
519.389	99.5
519.605	88.5
519.82	94.5
520.036	94.5
520.251	107.5
520.467	107.5
520.682	103.5
520.898	109.5
521.113	105.5
521.329	122.5
521.544	172.5
521.76	432.5
521.975	1806.5
522.19	1051.5
522.406	250.5
522.621	98.5
522.836	92.5
523.052	94.5
523.267	85.5
523.482	104.5
523.698	101.5
523.913	104.5
524.128	88.5
524.343	84.5
524.559	87.5
524.774	86.5
524.989	95.5
525.204	110.5
525.419	90.5
525.634	100.5
525.849	99.5
526.064	86.5
526.28	85.5
526.495	86.5
526.71	91.5
526.925	79.5
527.14	87.5
527.355	100.5
527.57	84.5
527.785	77.5
527.999	101.5
528.214	94.5
528.429	101.5
528.644	91.5
528.859	104.5
529.074	83.5
529.289	119.5
529.503	142.5
529.718	107.5
529.933	102.5
530.148	92.5
530.363	93.5
530.577	76.5
530.792	98.5
531.007	88.5
531.221	92.5
531.436	91.5
531.651	91.5
531.865	96.5
532.08	98.5
532.295	88.5
532.509	98.5
532.724	90.5
532.938	85.5
533.153	94.5
533.367	94.5
533.582	91.5
533.796	106.5
534.011	109.5
534.225	78.5
534.44	86.5
534.654	95.5
534.868	88.5
535.083	93.5
