Data from Uncirc_1982_H10_HRD10591_00057.txt Node
Date: Wed Jan 03 12:29:36 EST 2024
User: Yrep
Spectrometer: HR+D1059
Trigger mode: 1
Integration Time (sec): 1.000000E-1
Scans to average: 1
Electric dark correction enabled: true
Nonlinearity correction enabled: false
Boxcar width: 0
XAxis mode: Wavelengths
Number of Pixels in Spectrum: 2048
>>>>>Begin Spectral Data<<<<<
223.165	-11.44
223.4	-11.44
223.635	-11.44
223.869	-22.44
224.104	-22.44
224.338	-3.44
224.573	-20.44
224.808	-24.44
225.042	-18.44
225.277	-4.44
225.511	-1.44
225.746	5.56
225.98	6.56
226.215	7.56
226.449	26.56
226.683	26.56
226.918	23.56
227.152	32.56
227.387	30.56
227.621	52.56
227.856	32.56
228.09	46.56
228.324	46.56
228.559	53.56
228.793	66.56
229.027	65.56
229.262	59.56
229.496	79.56
229.73	65.56
229.964	92.56
230.199	71.56
230.433	76.56
230.667	90.56
230.901	95.56
231.136	94.56
231.37	71.56
231.604	84.56
231.838	73.56
232.072	80.56
232.306	78.56
232.541	81.56
232.775	82.56
233.009	84.56
233.243	83.56
233.477	91.56
233.711	103.56
233.945	86.56
234.179	82.56
234.413	86.56
234.647	79.56
234.881	90.56
235.115	83.56
235.349	85.56
235.583	78.56
235.817	72.56
236.051	95.56
236.285	79.56
236.519	79.56
236.753	84.56
236.987	78.56
237.221	79.56
237.455	72.56
237.689	77.56
237.922	88.56
238.156	79.56
238.39	79.56
238.624	76.56
238.858	64.56
239.091	83.56
239.325	80.56
239.559	78.56
239.793	87.56
240.027	76.56
240.26	78.56
240.494	79.56
240.728	74.56
240.961	74.56
241.195	76.56
241.429	83.56
241.662	82.56
241.896	72.56
242.13	86.56
242.363	57.56
242.597	84.56
242.83	84.56
243.064	81.56
243.298	75.56
243.531	98.56
243.765	87.56
243.998	80.56
244.232	87.56
244.465	78.56
244.699	98.56
244.932	92.56
245.166	81.56
245.399	85.56
245.633	78.56
245.866	78.56
246.099	80.56
246.333	86.56
246.566	82.56
246.8	77.56
247.033	92.56
247.266	82.56
247.5	72.56
247.733	80.56
247.966	88.56
248.2	83.56
248.433	80.56
248.666	85.56
248.899	86.56
249.133	89.56
249.366	91.56
249.599	91.56
249.832	91.56
250.066	68.56
250.299	79.56
250.532	87.56
250.765	84.56
250.998	93.56
251.231	80.56
251.465	76.56
251.698	79.56
251.931	72.56
252.164	100.56
252.397	87.56
252.63	82.56
252.863	76.56
253.096	78.56
253.329	86.56
253.562	81.56
253.795	75.56
254.028	78.56
254.261	66.56
254.494	74.56
254.727	87.56
254.96	86.56
255.193	81.56
255.426	78.56
255.659	63.56
255.892	94.56
256.124	86.56
256.357	86.56
256.59	84.56
256.823	84.56
257.056	90.56
257.289	77.56
257.521	78.56
257.754	83.56
257.987	68.56
258.22	90.56
258.452	95.56
258.685	82.56
258.918	77.56
259.151	86.56
259.383	80.56
259.616	83.56
259.849	85.56
260.081	79.56
260.314	96.56
260.547	77.56
260.779	84.56
261.012	89.56
261.244	80.56
261.477	96.56
261.71	92.56
261.942	97.56
262.175	97.56
262.407	111.56
262.64	78.56
262.872	98.56
263.105	107.56
263.337	95.56
263.57	94.56
263.802	80.56
264.035	82.56
264.267	92.56
264.499	90.56
264.732	98.56
264.964	82.56
265.197	99.56
265.429	81.56
265.661	82.56
265.894	77.56
266.126	104.56
266.358	81.56
266.591	79.56
266.823	89.56
267.055	82.56
267.287	74.56
267.52	71.56
267.752	86.56
267.984	84.56
268.216	94.56
268.448	90.56
268.681	92.56
268.913	78.56
269.145	82.56
269.377	82.56
269.609	82.56
269.841	90.56
270.073	84.56
270.306	91.56
270.538	97.56
270.77	90.56
271.002	88.56
271.234	80.56
271.466	98.56
271.698	86.56
271.93	87.56
272.162	87.56
272.394	84.56
272.626	88.56
272.858	88.56
273.09	94.56
273.322	83.56
273.553	63.56
273.785	83.56
274.017	91.56
274.249	91.56
274.481	94.56
274.713	79.56
274.945	96.56
275.176	82.56
275.408	80.56
275.64	85.56
275.872	85.56
276.104	90.56
276.335	98.56
276.567	73.56
276.799	93.56
277.031	97.56
277.262	88.56
277.494	82.56
277.726	82.56
277.957	80.56
278.189	92.56
278.421	93.56
278.652	94.56
278.884	86.56
279.115	71.56
279.347	88.56
279.579	88.56
279.81	84.56
280.042	88.56
280.273	102.56
280.505	87.56
280.736	87.56
280.968	93.56
281.199	77.56
281.431	86.56
281.662	97.56
281.894	93.56
282.125	93.56
282.356	110.56
282.588	124.56
282.819	122.56
283.051	89.56
283.282	76.56
283.513	86.56
283.745	79.56
283.976	81.56
284.207	98.56
284.439	84.56
284.67	81.56
284.901	89.56
285.132	80.56
285.364	94.56
285.595	100.56
285.826	93.56
286.057	100.56
286.288	101.56
286.52	91.56
286.751	83.56
286.982	86.56
287.213	78.56
287.444	85.56
287.675	83.56
287.906	86.56
288.138	102.56
288.369	96.56
288.6	107.56
288.831	86.56
289.062	85.56
289.293	83.56
289.524	92.56
289.755	80.56
289.986	84.56
290.217	94.56
290.448	84.56
290.679	94.56
290.91	98.56
291.141	76.56
291.371	94.56
291.602	80.56
291.833	86.56
292.064	81.56
292.295	94.56
292.526	99.56
292.757	104.56
292.987	82.56
293.218	78.56
293.449	95.56
293.68	78.56
293.91	78.56
294.141	76.56
294.372	88.56
294.603	90.56
294.833	107.56
295.064	96.56
295.295	77.56
295.525	104.56
295.756	95.56
295.987	104.56
296.217	112.56
296.448	114.56
296.679	88.56
296.909	68.56
297.14	92.56
297.37	102.56
297.601	93.56
297.831	78.56
298.062	84.56
298.292	99.56
298.523	83.56
298.753	97.56
298.984	77.56
299.214	93.56
299.445	102.56
299.675	92.56
299.905	102.56
300.136	89.56
300.366	94.56
300.597	92.56
300.827	85.56
301.057	96.56
301.288	111.56
301.518	104.56
301.748	78.56
301.979	98.56
302.209	94.56
302.439	84.56
302.669	99.56
302.9	108.56
303.13	95.56
303.36	104.56
303.59	99.56
303.82	109.56
304.051	88.56
304.281	90.56
304.511	99.56
304.741	86.56
304.971	100.56
305.201	109.56
305.431	97.56
305.661	87.56
305.891	92.56
306.121	85.56
306.352	99.56
306.582	96.56
306.812	96.56
307.042	84.56
307.272	80.56
307.502	94.56
307.731	107.56
307.961	101.56
308.191	95.56
308.421	100.56
308.651	86.56
308.881	102.56
309.111	80.56
309.341	100.56
309.571	91.56
309.8	90.56
310.03	99.56
310.26	82.56
310.49	88.56
310.72	93.56
310.949	98.56
311.179	105.56
311.409	97.56
311.639	95.56
311.868	97.56
312.098	104.56
312.328	107.56
312.557	96.56
312.787	91.56
313.017	105.56
313.246	110.56
313.476	87.56
313.706	83.56
313.935	86.56
314.165	100.56
314.394	104.56
314.624	95.56
314.853	76.56
315.083	100.56
315.312	109.56
315.542	94.56
315.771	94.56
316.001	105.56
316.23	78.56
316.46	88.56
316.689	92.56
316.919	82.56
317.148	112.56
317.377	116.56
317.607	110.56
317.836	108.56
318.065	76.56
318.295	87.56
318.524	99.56
318.753	86.56
318.983	93.56
319.212	97.56
319.441	108.56
319.67	102.56
319.9	88.56
320.129	103.56
320.358	95.56
320.587	92.56
320.816	84.56
321.046	100.56
321.275	96.56
321.504	104.56
321.733	99.56
321.962	92.56
322.191	101.56
322.42	94.56
322.649	97.56
322.878	94.56
323.108	102.56
323.337	110.56
323.566	137.56
323.795	121.56
324.024	167.56
324.253	336.56
324.482	670.56
324.71	1361.56
324.939	1778.56
325.168	683.56
325.397	218.56
325.626	160.56
325.855	112.56
326.084	111.56
326.313	119.56
326.542	134.56
326.77	201.56
326.999	399.56
327.228	804.56
327.457	1440.56
327.686	1120.56
327.914	300.56
328.143	178.56
328.372	150.56
328.6	112.56
328.829	106.56
329.058	129.56
329.287	127.56
329.515	104.56
329.744	117.56
329.972	102.56
330.201	114.56
330.43	120.56
330.658	109.56
330.887	126.56
331.115	110.56
331.344	95.56
331.572	103.56
331.801	113.56
332.03	94.56
332.258	100.56
332.486	98.56
332.715	99.56
332.943	96.56
333.172	92.56
333.4	90.56
333.629	94.56
333.857	95.56
334.085	116.56
334.314	114.56
334.542	99.56
334.771	111.56
334.999	106.56
335.227	100.56
335.455	96.56
335.684	92.56
335.912	104.56
336.14	93.56
336.369	112.56
336.597	109.56
336.825	104.56
337.053	89.56
337.281	85.56
337.51	86.56
337.738	94.56
337.966	102.56
338.194	97.56
338.422	103.56
338.65	93.56
338.878	89.56
339.106	102.56
339.334	94.56
339.562	94.56
339.79	98.56
340.018	88.56
340.246	91.56
340.474	95.56
340.702	96.56
340.93	85.56
341.158	82.56
341.386	98.56
341.614	100.56
341.842	101.56
342.07	86.56
342.298	103.56
342.526	94.56
342.754	93.56
342.981	82.56
343.209	107.56
343.437	100.56
343.665	104.56
343.893	88.56
344.12	81.56
344.348	92.56
344.576	95.56
344.804	94.56
345.031	86.56
345.259	90.56
345.487	95.56
345.714	86.56
345.942	77.56
346.17	93.56
346.397	94.56
346.625	86.56
346.853	100.56
347.08	92.56
347.308	88.56
347.535	80.56
347.763	98.56
347.99	104.56
348.218	104.56
348.445	89.56
348.673	82.56
348.9	95.56
349.128	99.56
349.355	96.56
349.583	90.56
349.81	113.56
350.037	85.56
350.265	99.56
350.492	91.56
350.72	95.56
350.947	87.56
351.174	93.56
351.402	101.56
351.629	98.56
351.856	96.56
352.083	119.56
352.311	109.56
352.538	100.56
352.765	109.56
352.992	118.56
353.22	114.56
353.447	91.56
353.674	116.56
353.901	90.56
354.128	96.56
354.355	98.56
354.583	96.56
354.81	101.56
355.037	100.56
355.264	98.56
355.491	94.56
355.718	91.56
355.945	102.56
356.172	100.56
356.399	93.56
356.626	86.56
356.853	92.56
357.08	96.56
357.307	97.56
357.534	82.56
357.761	80.56
357.988	102.56
358.215	108.56
358.441	83.56
358.668	101.56
358.895	87.56
359.122	86.56
359.349	98.56
359.576	98.56
359.802	99.56
360.029	107.56
360.256	102.56
360.483	93.56
360.709	82.56
360.936	93.56
361.163	96.56
361.39	76.56
361.616	95.56
361.843	93.56
362.07	87.56
362.296	77.56
362.523	87.56
362.749	93.56
362.976	84.56
363.203	98.56
363.429	88.56
363.656	84.56
363.882	94.56
364.109	86.56
364.335	84.56
364.562	82.56
364.788	108.56
365.015	86.56
365.241	100.56
365.468	115.56
365.694	94.56
365.92	89.56
366.147	92.56
366.373	78.56
366.599	91.56
366.826	90.56
367.052	95.56
367.278	95.56
367.505	99.56
367.731	99.56
367.957	93.56
368.184	99.56
368.41	93.56
368.636	97.56
368.862	110.56
369.089	101.56
369.315	86.56
369.541	99.56
369.767	73.56
369.993	78.56
370.219	90.56
370.445	89.56
370.672	79.56
370.898	75.56
371.124	97.56
371.35	103.56
371.576	78.56
371.802	105.56
372.028	92.56
372.254	90.56
372.48	70.56
372.706	85.56
372.932	94.56
373.158	88.56
373.384	79.56
373.61	106.56
373.835	90.56
374.061	86.56
374.287	92.56
374.513	99.56
374.739	88.56
374.965	94.56
375.191	95.56
375.416	85.56
375.642	94.56
375.868	104.56
376.094	102.56
376.319	98.56
376.545	99.56
376.771	93.56
376.997	80.56
377.222	85.56
377.448	84.56
377.674	103.56
377.899	79.56
378.125	89.56
378.35	87.56
378.576	106.56
378.802	98.56
379.027	90.56
379.253	101.56
379.478	103.56
379.704	89.56
379.929	97.56
380.155	92.56
380.38	94.56
380.606	84.56
380.831	91.56
381.057	100.56
381.282	82.56
381.507	105.56
381.733	103.56
381.958	107.56
382.184	115.56
382.409	104.56
382.634	99.56
382.86	92.56
383.085	100.56
383.31	98.56
383.535	107.56
383.761	101.56
383.986	111.56
384.211	87.56
384.436	96.56
384.662	97.56
384.887	108.56
385.112	119.56
385.337	114.56
385.562	113.56
385.787	107.56
386.013	110.56
386.238	108.56
386.463	105.56
386.688	107.56
386.913	116.56
387.138	93.56
387.363	102.56
387.588	103.56
387.813	105.56
388.038	95.56
388.263	118.56
388.488	113.56
388.713	91.56
388.938	100.56
389.163	109.56
389.387	98.56
389.612	99.56
389.837	96.56
390.062	92.56
390.287	86.56
390.512	91.56
390.736	84.56
390.961	107.56
391.186	98.56
391.411	103.56
391.636	103.56
391.86	100.56
392.085	88.56
392.31	76.56
392.534	79.56
392.759	93.56
392.984	99.56
393.208	92.56
393.433	96.56
393.658	101.56
393.882	86.56
394.107	94.56
394.331	90.56
394.556	90.56
394.78	101.56
395.005	86.56
395.229	83.56
395.454	82.56
395.678	81.56
395.903	88.56
396.127	90.56
396.352	95.56
396.576	66.56
396.801	95.56
397.025	84.56
397.249	79.56
397.474	82.56
397.698	96.56
397.922	87.56
398.147	99.56
398.371	88.56
398.595	76.56
398.82	96.56
399.044	94.56
399.268	105.56
399.492	86.56
399.717	90.56
399.941	104.56
400.165	95.56
400.389	91.56
400.613	73.56
400.837	104.56
401.062	86.56
401.286	75.56
401.51	90.56
401.734	89.56
401.958	93.56
402.182	129.56
402.406	131.56
402.63	112.56
402.854	90.56
403.078	91.56
403.302	87.56
403.526	74.56
403.75	88.56
403.974	80.56
404.198	87.56
404.422	82.56
404.645	83.56
404.869	88.56
405.093	106.56
405.317	104.56
405.541	95.56
405.765	91.56
405.988	108.56
406.212	149.56
406.436	189.56
406.66	116.56
406.883	102.56
407.107	83.56
407.331	108.56
407.555	91.56
407.778	88.56
408.002	89.56
408.226	92.56
408.449	85.56
408.673	92.56
408.896	93.56
409.12	83.56
409.344	102.56
409.567	97.56
409.791	99.56
410.014	97.56
410.238	94.56
410.461	83.56
410.685	104.56
410.908	97.56
411.132	101.56
411.355	102.56
411.578	90.56
411.802	96.56
412.025	75.56
412.249	103.56
412.472	89.56
412.695	92.56
412.919	85.56
413.142	86.56
413.365	91.56
413.589	86.56
413.812	93.56
414.035	106.56
414.258	82.56
414.482	85.56
414.705	93.56
414.928	89.56
415.151	103.56
415.374	82.56
415.597	78.56
415.821	76.56
416.044	110.56
416.267	101.56
416.49	92.56
416.713	95.56
416.936	76.56
417.159	88.56
417.382	86.56
417.605	101.56
417.828	106.56
418.051	94.56
418.274	73.56
418.497	82.56
418.72	83.56
418.943	77.56
419.166	70.56
419.389	106.56
419.611	91.56
419.834	92.56
420.057	89.56
420.28	96.56
420.503	89.56
420.726	74.56
420.948	94.56
421.171	96.56
421.394	93.56
421.617	85.56
421.839	76.56
422.062	83.56
422.285	96.56
422.507	103.56
422.73	100.56
422.953	93.56
423.175	88.56
423.398	95.56
423.621	86.56
423.843	68.56
424.066	77.56
424.288	91.56
424.511	93.56
424.733	102.56
424.956	95.56
425.178	91.56
425.401	99.56
425.623	112.56
425.846	84.56
426.068	100.56
426.291	97.56
426.513	84.56
426.735	93.56
426.958	82.56
427.18	120.56
427.402	124.56
427.625	140.56
427.847	126.56
428.069	105.56
428.292	89.56
428.514	86.56
428.736	79.56
428.958	88.56
429.181	94.56
429.403	83.56
429.625	82.56
429.847	86.56
430.069	100.56
430.292	89.56
430.514	91.56
430.736	75.56
430.958	72.56
431.18	88.56
431.402	92.56
431.624	101.56
431.846	95.56
432.068	87.56
432.29	85.56
432.512	100.56
432.734	89.56
432.956	75.56
433.178	88.56
433.4	99.56
433.622	104.56
433.844	97.56
434.066	88.56
434.287	90.56
434.509	92.56
434.731	90.56
434.953	84.56
435.175	93.56
435.397	96.56
435.618	108.56
435.84	103.56
436.062	110.56
436.284	116.56
436.505	104.56
436.727	105.56
436.949	100.56
437.17	94.56
437.392	89.56
437.614	97.56
437.835	80.56
438.057	98.56
438.278	100.56
438.5	88.56
438.721	100.56
438.943	105.56
439.165	94.56
439.386	86.56
439.608	96.56
439.829	90.56
440.05	105.56
440.272	131.56
440.493	106.56
440.715	94.56
440.936	86.56
441.158	83.56
441.379	93.56
441.6	95.56
441.822	80.56
442.043	85.56
442.264	84.56
442.486	92.56
442.707	103.56
442.928	93.56
443.149	112.56
443.371	114.56
443.592	97.56
443.813	104.56
444.034	106.56
444.255	87.56
444.476	78.56
444.698	78.56
444.919	83.56
445.14	134.56
445.361	110.56
445.582	98.56
445.803	112.56
446.024	109.56
446.245	133.56
446.466	97.56
446.687	76.56
446.908	88.56
447.129	102.56
447.35	90.56
447.571	104.56
447.792	93.56
448.013	100.56
448.234	98.56
448.455	86.56
448.675	108.56
448.896	97.56
449.117	90.56
449.338	104.56
449.559	127.56
449.779	112.56
450	94.56
450.221	79.56
450.442	88.56
450.662	86.56
450.883	97.56
451.104	107.56
451.324	89.56
451.545	91.56
451.766	80.56
451.986	89.56
452.207	93.56
452.428	92.56
452.648	76.56
452.869	108.56
453.089	103.56
453.31	106.56
453.53	96.56
453.751	92.56
453.971	98.56
454.192	91.56
454.412	93.56
454.633	84.56
454.853	86.56
455.073	88.56
455.294	93.56
455.514	82.56
455.734	75.56
455.955	96.56
456.175	93.56
456.395	91.56
456.616	92.56
456.836	92.56
457.056	87.56
457.276	80.56
457.497	90.56
457.717	89.56
457.937	94.56
458.157	93.56
458.377	101.56
458.598	99.56
458.818	127.56
459.038	131.56
459.258	98.56
459.478	82.56
459.698	84.56
459.918	82.56
460.138	90.56
460.358	87.56
460.578	82.56
460.798	86.56
461.018	87.56
461.238	98.56
461.458	92.56
461.678	101.56
461.898	78.56
462.118	90.56
462.338	98.56
462.558	93.56
462.777	82.56
462.997	83.56
463.217	90.56
463.437	93.56
463.657	90.56
463.876	76.56
464.096	89.56
464.316	92.56
464.536	86.56
464.755	91.56
464.975	105.56
465.195	128.56
465.414	138.56
465.634	94.56
465.854	97.56
466.073	97.56
466.293	98.56
466.512	77.56
466.732	74.56
466.951	87.56
467.171	100.56
467.391	101.56
467.61	107.56
467.829	86.56
468.049	85.56
468.268	100.56
468.488	79.56
468.707	80.56
468.927	91.56
469.146	84.56
469.365	88.56
469.585	83.56
469.804	90.56
470.023	85.56
470.243	109.56
470.462	96.56
470.681	88.56
470.901	98.56
471.12	89.56
471.339	100.56
471.558	75.56
471.777	74.56
471.997	76.56
472.216	112.56
472.435	137.56
472.654	102.56
472.873	93.56
473.092	93.56
473.311	99.56
473.53	90.56
473.749	86.56
473.968	105.56
474.187	83.56
474.406	93.56
474.625	98.56
474.844	86.56
475.063	89.56
475.282	87.56
475.501	94.56
475.72	100.56
475.939	93.56
476.158	75.56
476.377	90.56
476.596	86.56
476.814	98.56
477.033	100.56
477.252	83.56
477.471	83.56
477.69	91.56
477.908	91.56
478.127	94.56
478.346	92.56
478.564	91.56
478.783	95.56
479.002	86.56
479.22	97.56
479.439	84.56
479.658	96.56
479.876	95.56
480.095	107.56
480.313	94.56
480.532	92.56
480.751	86.56
480.969	98.56
481.188	170.56
481.406	132.56
481.624	83.56
481.843	94.56
482.061	99.56
482.28	96.56
482.498	90.56
482.717	90.56
482.935	88.56
483.153	95.56
483.372	87.56
483.59	91.56
483.808	103.56
484.027	84.56
484.245	97.56
484.463	100.56
484.681	105.56
484.9	96.56
485.118	91.56
485.336	100.56
485.554	102.56
485.772	115.56
485.99	98.56
486.209	100.56
486.427	101.56
486.645	108.56
486.863	102.56
487.081	105.56
487.299	113.56
487.517	104.56
487.735	108.56
487.953	98.56
488.171	94.56
488.389	87.56
488.607	78.56
488.825	95.56
489.043	92.56
489.261	87.56
489.479	86.56
489.696	85.56
489.914	81.56
490.132	90.56
490.35	63.56
490.568	80.56
490.786	88.56
491.003	85.56
491.221	96.56
491.439	96.56
491.657	99.56
491.874	88.56
492.092	102.56
492.31	81.56
492.527	90.56
492.745	89.56
492.963	88.56
493.18	86.56
493.398	93.56
493.615	97.56
493.833	103.56
494.05	103.56
494.268	87.56
494.485	92.56
494.703	104.56
494.92	92.56
495.138	95.56
495.355	93.56
495.573	90.56
495.79	105.56
496.008	86.56
496.225	94.56
496.442	93.56
496.66	83.56
496.877	76.56
497.094	100.56
497.312	92.56
497.529	100.56
497.746	78.56
497.963	76.56
498.181	82.56
498.398	100.56
498.615	107.56
498.832	108.56
499.049	90.56
499.267	100.56
499.484	79.56
499.701	79.56
499.918	97.56
500.135	88.56
500.352	102.56
500.569	88.56
500.786	94.56
501.003	89.56
501.22	97.56
501.437	84.56
501.654	88.56
501.871	98.56
502.088	99.56
502.305	92.56
502.522	90.56
502.739	95.56
502.956	107.56
503.172	98.56
503.389	107.56
503.606	100.56
503.823	103.56
504.04	89.56
504.256	100.56
504.473	93.56
504.69	85.56
504.907	102.56
505.123	86.56
505.34	88.56
505.557	95.56
505.773	86.56
505.99	75.56
506.207	93.56
506.423	98.56
506.64	77.56
506.856	96.56
507.073	98.56
507.289	80.56
507.506	84.56
507.722	99.56
507.939	103.56
508.155	70.56
508.372	93.56
508.588	93.56
508.805	97.56
509.021	95.56
509.238	100.56
509.454	100.56
509.67	107.56
509.887	96.56
510.103	127.56
510.319	199.56
510.536	615.56
510.752	1793.56
510.968	494.56
511.184	146.56
511.401	107.56
511.617	95.56
511.833	95.56
512.049	115.56
512.265	110.56
512.481	106.56
512.698	92.56
512.914	83.56
513.13	86.56
513.346	93.56
513.562	104.56
513.778	105.56
513.994	87.56
514.21	110.56
514.426	109.56
514.642	129.56
514.858	123.56
515.074	150.56
515.29	346.56
