Data from Uncirc_1982_H10_HRD10591_00082.txt Node
Date: Wed Jan 03 12:29:41 EST 2024
User: Yrep
Spectrometer: HR+D1059
Trigger mode: 1
Integration Time (sec): 1.000000E-1
Scans to average: 1
Electric dark correction enabled: true
Nonlinearity correction enabled: false
Boxcar width: 0
XAxis mode: Wavelengths
Number of Pixels in Spectrum: 2048
>>>>>Begin Spectral Data<<<<<
223.165	-23.31
223.4	-23.31
223.635	-23.31
223.869	-12.31
224.104	-17.31
224.338	-21.31
224.573	-10.31
224.808	-10.31
225.042	-5.31
225.277	-0.31
225.511	-2.31
225.746	0.69
225.98	11.69
226.215	28.69
226.449	6.69
226.683	10.69
226.918	22.69
227.152	21.69
227.387	42.69
227.621	37.69
227.856	59.69
228.09	32.69
228.324	53.69
228.559	60.69
228.793	58.69
229.027	60.69
229.262	73.69
229.496	57.69
229.73	94.69
229.964	79.69
230.199	62.69
230.433	72.69
230.667	80.69
230.901	78.69
231.136	83.69
231.37	63.69
231.604	67.69
231.838	82.69
232.072	81.69
232.306	99.69
232.541	77.69
232.775	85.69
233.009	87.69
233.243	100.69
233.477	82.69
233.711	73.69
233.945	73.69
234.179	78.69
234.413	83.69
234.647	84.69
234.881	70.69
235.115	76.69
235.349	74.69
235.583	76.69
235.817	62.69
236.051	74.69
236.285	76.69
236.519	71.69
236.753	98.69
236.987	77.69
237.221	82.69
237.455	72.69
237.689	74.69
237.922	77.69
238.156	78.69
238.39	81.69
238.624	75.69
238.858	77.69
239.091	65.69
239.325	82.69
239.559	77.69
239.793	86.69
240.027	85.69
240.26	83.69
240.494	76.69
240.728	68.69
240.961	76.69
241.195	77.69
241.429	82.69
241.662	77.69
241.896	84.69
242.13	74.69
242.363	85.69
242.597	87.69
242.83	89.69
243.064	90.69
243.298	84.69
243.531	82.69
243.765	86.69
243.998	76.69
244.232	86.69
244.465	76.69
244.699	85.69
244.932	81.69
245.166	83.69
245.399	93.69
245.633	75.69
245.866	89.69
246.099	84.69
246.333	84.69
246.566	86.69
246.8	74.69
247.033	83.69
247.266	89.69
247.5	73.69
247.733	67.69
247.966	80.69
248.2	81.69
248.433	87.69
248.666	74.69
248.899	90.69
249.133	81.69
249.366	89.69
249.599	90.69
249.832	75.69
250.066	74.69
250.299	84.69
250.532	74.69
250.765	84.69
250.998	71.69
251.231	81.69
251.465	84.69
251.698	80.69
251.931	78.69
252.164	61.69
252.397	77.69
252.63	85.69
252.863	73.69
253.096	85.69
253.329	86.69
253.562	77.69
253.795	81.69
254.028	97.69
254.261	87.69
254.494	83.69
254.727	92.69
254.96	85.69
255.193	82.69
255.426	74.69
255.659	71.69
255.892	88.69
256.124	83.69
256.357	76.69
256.59	92.69
256.823	79.69
257.056	89.69
257.289	81.69
257.521	93.69
257.754	74.69
257.987	72.69
258.22	81.69
258.452	84.69
258.685	80.69
258.918	82.69
259.151	85.69
259.383	92.69
259.616	87.69
259.849	96.69
260.081	71.69
260.314	67.69
260.547	85.69
260.779	87.69
261.012	84.69
261.244	73.69
261.477	92.69
261.71	92.69
261.942	104.69
262.175	93.69
262.407	98.69
262.64	81.69
262.872	84.69
263.105	85.69
263.337	78.69
263.57	87.69
263.802	70.69
264.035	73.69
264.267	85.69
264.499	91.69
264.732	88.69
264.964	90.69
265.197	87.69
265.429	85.69
265.661	67.69
265.894	96.69
266.126	88.69
266.358	70.69
266.591	79.69
266.823	79.69
267.055	78.69
267.287	90.69
267.52	68.69
267.752	89.69
267.984	88.69
268.216	78.69
268.448	89.69
268.681	95.69
268.913	78.69
269.145	97.69
269.377	83.69
269.609	94.69
269.841	76.69
270.073	98.69
270.306	68.69
270.538	78.69
270.77	93.69
271.002	79.69
271.234	90.69
271.466	99.69
271.698	88.69
271.93	85.69
272.162	74.69
272.394	81.69
272.626	83.69
272.858	79.69
273.09	81.69
273.322	91.69
273.553	102.69
273.785	94.69
274.017	84.69
274.249	96.69
274.481	76.69
274.713	86.69
274.945	82.69
275.176	74.69
275.408	85.69
275.64	97.69
275.872	85.69
276.104	91.69
276.335	99.69
276.567	91.69
276.799	85.69
277.031	79.69
277.262	83.69
277.494	87.69
277.726	85.69
277.957	90.69
278.189	78.69
278.421	97.69
278.652	85.69
278.884	71.69
279.115	89.69
279.347	84.69
279.579	86.69
279.81	78.69
280.042	99.69
280.273	103.69
280.505	92.69
280.736	81.69
280.968	101.69
281.199	95.69
281.431	89.69
281.662	99.69
281.894	85.69
282.125	105.69
282.356	113.69
282.588	107.69
282.819	107.69
283.051	99.69
283.282	79.69
283.513	79.69
283.745	83.69
283.976	83.69
284.207	81.69
284.439	76.69
284.67	93.69
284.901	82.69
285.132	81.69
285.364	87.69
285.595	79.69
285.826	93.69
286.057	94.69
286.288	94.69
286.52	86.69
286.751	73.69
286.982	83.69
287.213	83.69
287.444	99.69
287.675	93.69
287.906	88.69
288.138	96.69
288.369	90.69
288.6	95.69
288.831	87.69
289.062	92.69
289.293	83.69
289.524	83.69
289.755	101.69
289.986	85.69
290.217	82.69
290.448	97.69
290.679	89.69
290.91	81.69
291.141	86.69
291.371	86.69
291.602	74.69
291.833	93.69
292.064	83.69
292.295	81.69
292.526	94.69
292.757	91.69
292.987	76.69
293.218	88.69
293.449	92.69
293.68	90.69
293.91	98.69
294.141	95.69
294.372	93.69
294.603	99.69
294.833	92.69
295.064	83.69
295.295	95.69
295.525	82.69
295.756	97.69
295.987	104.69
296.217	122.69
296.448	96.69
296.679	90.69
296.909	76.69
297.14	89.69
297.37	95.69
297.601	85.69
297.831	88.69
298.062	92.69
298.292	87.69
298.523	79.69
298.753	90.69
298.984	106.69
299.214	78.69
299.445	99.69
299.675	101.69
299.905	90.69
300.136	89.69
300.366	89.69
300.597	82.69
300.827	101.69
301.057	102.69
301.288	89.69
301.518	87.69
301.748	91.69
301.979	115.69
302.209	72.69
302.439	93.69
302.669	68.69
302.9	89.69
303.13	97.69
303.36	93.69
303.59	91.69
303.82	103.69
304.051	106.69
304.281	81.69
304.511	93.69
304.741	74.69
304.971	94.69
305.201	83.69
305.431	97.69
305.661	103.69
305.891	85.69
306.121	79.69
306.352	92.69
306.582	85.69
306.812	93.69
307.042	88.69
307.272	90.69
307.502	89.69
307.731	106.69
307.961	93.69
308.191	104.69
308.421	97.69
308.651	102.69
308.881	88.69
309.111	93.69
309.341	93.69
309.571	87.69
309.8	104.69
310.03	89.69
310.26	89.69
310.49	90.69
310.72	107.69
310.949	88.69
311.179	88.69
311.409	75.69
311.639	91.69
311.868	95.69
312.098	102.69
312.328	81.69
312.557	90.69
312.787	100.69
313.017	105.69
313.246	98.69
313.476	101.69
313.706	89.69
313.935	104.69
314.165	107.69
314.394	85.69
314.624	93.69
314.853	93.69
315.083	95.69
315.312	96.69
315.542	89.69
315.771	88.69
316.001	96.69
316.23	97.69
316.46	84.69
316.689	91.69
316.919	83.69
317.148	110.69
317.377	82.69
317.607	99.69
317.836	94.69
318.065	86.69
318.295	95.69
318.524	98.69
318.753	88.69
318.983	91.69
319.212	101.69
319.441	112.69
319.67	101.69
319.9	84.69
320.129	100.69
320.358	99.69
320.587	106.69
320.816	108.69
321.046	94.69
321.275	98.69
321.504	85.69
321.733	93.69
321.962	91.69
322.191	89.69
322.42	93.69
322.649	98.69
322.878	104.69
323.108	119.69
323.337	117.69
323.566	116.69
323.795	132.69
324.024	167.69
324.253	330.69
324.482	691.69
324.71	1368.69
324.939	1790.69
325.168	649.69
325.397	210.69
325.626	132.69
325.855	106.69
326.084	106.69
326.313	122.69
326.542	137.69
326.77	201.69
326.999	376.69
327.228	764.69
327.457	1382.69
327.686	1106.69
327.914	306.69
328.143	155.69
328.372	134.69
328.6	101.69
328.829	105.69
329.058	111.69
329.287	117.69
329.515	104.69
329.744	97.69
329.972	98.69
330.201	118.69
330.43	116.69
330.658	115.69
330.887	119.69
331.115	99.69
331.344	106.69
331.572	98.69
331.801	101.69
332.03	99.69
332.258	98.69
332.486	104.69
332.715	86.69
332.943	94.69
333.172	101.69
333.4	88.69
333.629	92.69
333.857	101.69
334.085	97.69
334.314	124.69
334.542	133.69
334.771	113.69
334.999	104.69
335.227	90.69
335.455	99.69
335.684	88.69
335.912	89.69
336.14	87.69
336.369	104.69
336.597	94.69
336.825	94.69
337.053	93.69
337.281	102.69
337.51	87.69
337.738	89.69
337.966	87.69
338.194	82.69
338.422	89.69
338.65	75.69
338.878	94.69
339.106	92.69
339.334	92.69
339.562	111.69
339.79	75.69
340.018	85.69
340.246	100.69
340.474	102.69
340.702	91.69
340.93	78.69
341.158	90.69
341.386	91.69
341.614	98.69
341.842	84.69
342.07	89.69
342.298	101.69
342.526	90.69
342.754	99.69
342.981	91.69
343.209	97.69
343.437	122.69
343.665	80.69
343.893	83.69
344.12	89.69
344.348	86.69
344.576	95.69
344.804	92.69
345.031	100.69
345.259	101.69
345.487	96.69
345.714	100.69
345.942	84.69
346.17	106.69
346.397	72.69
346.625	92.69
346.853	84.69
347.08	86.69
347.308	82.69
347.535	87.69
347.763	106.69
347.99	96.69
348.218	102.69
348.445	100.69
348.673	101.69
348.9	107.69
349.128	90.69
349.355	87.69
349.583	87.69
349.81	83.69
350.037	87.69
350.265	90.69
350.492	83.69
350.72	102.69
350.947	89.69
351.174	115.69
351.402	91.69
351.629	96.69
351.856	100.69
352.083	87.69
352.311	96.69
352.538	110.69
352.765	118.69
352.992	111.69
353.22	112.69
353.447	108.69
353.674	108.69
353.901	103.69
354.128	96.69
354.355	96.69
354.583	79.69
354.81	94.69
355.037	104.69
355.264	97.69
355.491	93.69
355.718	89.69
355.945	105.69
356.172	94.69
356.399	95.69
356.626	98.69
356.853	92.69
357.08	99.69
357.307	96.69
357.534	93.69
357.761	106.69
357.988	89.69
358.215	93.69
358.441	93.69
358.668	98.69
358.895	86.69
359.122	93.69
359.349	89.69
359.576	96.69
359.802	95.69
360.029	100.69
360.256	102.69
360.483	85.69
360.709	92.69
360.936	89.69
361.163	95.69
361.39	82.69
361.616	99.69
361.843	82.69
362.07	94.69
362.296	81.69
362.523	95.69
362.749	91.69
362.976	86.69
363.203	97.69
363.429	88.69
363.656	100.69
363.882	84.69
364.109	90.69
364.335	98.69
364.562	87.69
364.788	94.69
365.015	102.69
365.241	89.69
365.468	100.69
365.694	90.69
365.92	84.69
366.147	95.69
366.373	89.69
366.599	77.69
366.826	87.69
367.052	88.69
367.278	74.69
367.505	98.69
367.731	95.69
367.957	86.69
368.184	85.69
368.41	101.69
368.636	112.69
368.862	111.69
369.089	102.69
369.315	93.69
369.541	81.69
369.767	86.69
369.993	107.69
370.219	94.69
370.445	85.69
370.672	86.69
370.898	95.69
371.124	85.69
371.35	97.69
371.576	70.69
371.802	81.69
372.028	91.69
372.254	93.69
372.48	82.69
372.706	93.69
372.932	98.69
373.158	81.69
373.384	94.69
373.61	87.69
373.835	94.69
374.061	95.69
374.287	93.69
374.513	86.69
374.739	90.69
374.965	90.69
375.191	87.69
375.416	82.69
375.642	82.69
375.868	91.69
376.094	87.69
376.319	89.69
376.545	81.69
376.771	86.69
376.997	95.69
377.222	94.69
377.448	89.69
377.674	88.69
377.899	74.69
378.125	100.69
378.35	95.69
378.576	86.69
378.802	88.69
379.027	75.69
379.253	98.69
379.478	81.69
379.704	88.69
379.929	89.69
380.155	83.69
380.38	92.69
380.606	81.69
380.831	99.69
381.057	92.69
381.282	99.69
381.507	77.69
381.733	89.69
381.958	99.69
382.184	99.69
382.409	86.69
382.634	95.69
382.86	95.69
383.085	89.69
383.31	103.69
383.535	89.69
383.761	108.69
383.986	95.69
384.211	84.69
384.436	89.69
384.662	74.69
384.887	87.69
385.112	91.69
385.337	98.69
385.562	86.69
385.787	102.69
386.013	100.69
386.238	120.69
386.463	103.69
386.688	100.69
386.913	110.69
387.138	99.69
387.363	104.69
387.588	94.69
387.813	101.69
388.038	88.69
388.263	113.69
388.488	109.69
388.713	94.69
388.938	86.69
389.163	102.69
389.387	98.69
389.612	95.69
389.837	82.69
390.062	106.69
390.287	90.69
390.512	78.69
390.736	90.69
390.961	99.69
391.186	103.69
391.411	101.69
391.636	85.69
391.86	99.69
392.085	92.69
392.31	82.69
392.534	86.69
392.759	84.69
392.984	78.69
393.208	88.69
393.433	90.69
393.658	78.69
393.882	89.69
394.107	90.69
394.331	74.69
394.556	83.69
394.78	83.69
395.005	96.69
395.229	91.69
395.454	74.69
395.678	93.69
395.903	92.69
396.127	75.69
396.352	89.69
396.576	86.69
396.801	85.69
397.025	71.69
397.249	90.69
397.474	106.69
397.698	98.69
397.922	86.69
398.147	92.69
398.371	102.69
398.595	105.69
398.82	73.69
399.044	77.69
399.268	92.69
399.492	85.69
399.717	79.69
399.941	93.69
400.165	104.69
400.389	91.69
400.613	101.69
400.837	92.69
401.062	77.69
401.286	107.69
401.51	85.69
401.734	111.69
401.958	103.69
402.182	112.69
402.406	136.69
402.63	99.69
402.854	85.69
403.078	90.69
403.302	72.69
403.526	86.69
403.75	86.69
403.974	87.69
404.198	88.69
404.422	83.69
404.645	87.69
404.869	97.69
405.093	72.69
405.317	92.69
405.541	94.69
405.765	92.69
405.988	117.69
406.212	129.69
406.436	190.69
406.66	125.69
406.883	110.69
407.107	87.69
407.331	92.69
407.555	105.69
407.778	85.69
408.002	87.69
408.226	90.69
408.449	86.69
408.673	95.69
408.896	79.69
409.12	119.69
409.344	88.69
409.567	98.69
409.791	89.69
410.014	97.69
410.238	88.69
410.461	103.69
410.685	88.69
410.908	101.69
411.132	116.69
411.355	101.69
411.578	97.69
411.802	89.69
412.025	93.69
412.249	94.69
412.472	93.69
412.695	90.69
412.919	100.69
413.142	74.69
413.365	84.69
413.589	85.69
413.812	83.69
414.035	90.69
414.258	109.69
414.482	102.69
414.705	91.69
414.928	95.69
415.151	97.69
415.374	90.69
415.597	85.69
415.821	86.69
416.044	95.69
416.267	96.69
416.49	81.69
416.713	85.69
416.936	98.69
417.159	88.69
417.382	88.69
417.605	91.69
417.828	101.69
418.051	94.69
418.274	81.69
418.497	93.69
418.72	74.69
418.943	85.69
419.166	85.69
419.389	86.69
419.611	87.69
419.834	92.69
420.057	82.69
420.28	86.69
420.503	98.69
420.726	96.69
420.948	95.69
421.171	90.69
421.394	82.69
421.617	93.69
421.839	81.69
422.062	87.69
422.285	93.69
422.507	96.69
422.73	89.69
422.953	100.69
423.175	90.69
423.398	87.69
423.621	78.69
423.843	74.69
424.066	96.69
424.288	76.69
424.511	90.69
424.733	99.69
424.956	97.69
425.178	98.69
425.401	82.69
425.623	102.69
425.846	87.69
426.068	86.69
426.291	95.69
426.513	87.69
426.735	100.69
426.958	87.69
427.18	94.69
427.402	109.69
427.625	134.69
427.847	121.69
428.069	106.69
428.292	74.69
428.514	82.69
428.736	95.69
428.958	95.69
429.181	79.69
429.403	93.69
429.625	89.69
429.847	80.69
430.069	89.69
430.292	102.69
430.514	81.69
430.736	89.69
430.958	86.69
431.18	77.69
431.402	79.69
431.624	95.69
431.846	90.69
432.068	74.69
432.29	95.69
432.512	87.69
432.734	90.69
432.956	90.69
433.178	104.69
433.4	90.69
433.622	97.69
433.844	81.69
434.066	90.69
434.287	72.69
434.509	99.69
434.731	98.69
434.953	86.69
435.175	97.69
435.397	100.69
435.618	97.69
435.84	93.69
436.062	112.69
436.284	116.69
436.505	87.69
436.727	97.69
436.949	90.69
437.17	94.69
437.392	86.69
437.614	95.69
437.835	97.69
438.057	100.69
438.278	107.69
438.5	108.69
438.721	110.69
438.943	94.69
439.165	87.69
439.386	96.69
439.608	100.69
439.829	98.69
440.05	110.69
440.272	125.69
440.493	106.69
440.715	78.69
440.936	76.69
441.158	102.69
441.379	89.69
441.6	88.69
441.822	103.69
442.043	90.69
442.264	103.69
442.486	95.69
442.707	87.69
442.928	95.69
443.149	121.69
443.371	111.69
443.592	104.69
443.813	107.69
444.034	102.69
444.255	90.69
444.476	72.69
444.698	90.69
444.919	74.69
445.14	137.69
445.361	108.69
445.582	100.69
445.803	121.69
446.024	112.69
446.245	118.69
446.466	89.69
446.687	98.69
446.908	84.69
447.129	92.69
447.35	93.69
447.571	90.69
447.792	83.69
448.013	111.69
448.234	113.69
448.455	101.69
448.675	118.69
448.896	101.69
449.117	91.69
449.338	100.69
449.559	115.69
449.779	102.69
450	89.69
450.221	91.69
450.442	88.69
450.662	101.69
450.883	107.69
451.104	106.69
451.324	85.69
451.545	76.69
451.766	81.69
451.986	87.69
452.207	90.69
452.428	84.69
452.648	87.69
452.869	101.69
453.089	91.69
453.31	108.69
453.53	85.69
453.751	89.69
453.971	88.69
454.192	97.69
454.412	88.69
454.633	89.69
454.853	105.69
455.073	67.69
455.294	85.69
455.514	85.69
455.734	92.69
455.955	84.69
456.175	91.69
456.395	84.69
456.616	81.69
456.836	93.69
457.056	94.69
457.276	85.69
457.497	83.69
457.717	85.69
457.937	90.69
458.157	72.69
458.377	90.69
458.598	101.69
458.818	121.69
459.038	130.69
459.258	90.69
459.478	89.69
459.698	90.69
459.918	84.69
460.138	78.69
460.358	89.69
460.578	99.69
460.798	96.69
461.018	93.69
461.238	101.69
461.458	79.69
461.678	89.69
461.898	90.69
462.118	91.69
462.338	91.69
462.558	79.69
462.777	89.69
462.997	80.69
463.217	101.69
463.437	77.69
463.657	90.69
463.876	95.69
464.096	90.69
464.316	92.69
464.536	91.69
464.755	92.69
464.975	99.69
465.195	133.69
465.414	124.69
465.634	84.69
465.854	87.69
466.073	82.69
466.293	84.69
466.512	95.69
466.732	89.69
466.951	93.69
467.171	86.69
467.391	97.69
467.61	97.69
467.829	95.69
468.049	92.69
468.268	97.69
468.488	77.69
468.707	91.69
468.927	98.69
469.146	81.69
469.365	97.69
469.585	87.69
469.804	97.69
470.023	93.69
470.243	103.69
470.462	107.69
470.681	104.69
470.901	102.69
471.12	87.69
471.339	86.69
471.558	85.69
471.777	82.69
471.997	108.69
472.216	114.69
472.435	134.69
472.654	104.69
472.873	97.69
473.092	85.69
473.311	89.69
473.53	83.69
473.749	94.69
473.968	98.69
474.187	101.69
474.406	95.69
474.625	83.69
474.844	74.69
475.063	78.69
475.282	96.69
475.501	91.69
475.72	102.69
475.939	91.69
476.158	86.69
476.377	91.69
476.596	92.69
476.814	79.69
477.033	93.69
477.252	70.69
477.471	74.69
477.69	96.69
477.908	81.69
478.127	81.69
478.346	79.69
478.564	101.69
478.783	98.69
479.002	102.69
479.22	92.69
479.439	86.69
479.658	101.69
479.876	101.69
480.095	95.69
480.313	92.69
480.532	94.69
480.751	78.69
480.969	98.69
481.188	183.69
481.406	143.69
481.624	84.69
481.843	95.69
482.061	87.69
482.28	98.69
482.498	93.69
482.717	89.69
482.935	90.69
483.153	74.69
483.372	103.69
483.59	97.69
483.808	92.69
484.027	91.69
484.245	111.69
484.463	102.69
484.681	107.69
484.9	104.69
485.118	94.69
485.336	88.69
485.554	93.69
485.772	96.69
485.99	104.69
486.209	94.69
486.427	115.69
486.645	113.69
486.863	111.69
487.081	106.69
487.299	97.69
487.517	105.69
487.735	103.69
487.953	100.69
488.171	83.69
488.389	98.69
488.607	95.69
488.825	90.69
489.043	108.69
489.261	94.69
489.479	78.69
489.696	87.69
489.914	91.69
490.132	88.69
490.35	97.69
490.568	95.69
490.786	87.69
491.003	90.69
491.221	89.69
491.439	86.69
491.657	103.69
491.874	107.69
492.092	94.69
492.31	86.69
492.527	94.69
492.745	88.69
492.963	82.69
493.18	93.69
493.398	98.69
493.615	93.69
493.833	87.69
494.05	93.69
494.268	78.69
494.485	96.69
494.703	96.69
494.92	89.69
495.138	92.69
495.355	89.69
495.573	89.69
495.79	90.69
496.008	86.69
496.225	96.69
496.442	91.69
496.66	71.69
496.877	78.69
497.094	89.69
497.312	94.69
497.529	91.69
497.746	91.69
497.963	78.69
498.181	104.69
498.398	98.69
498.615	96.69
498.832	107.69
499.049	78.69
499.267	83.69
499.484	97.69
499.701	97.69
499.918	84.69
500.135	88.69
500.352	76.69
500.569	95.69
500.786	87.69
501.003	97.69
501.22	83.69
501.437	88.69
501.654	85.69
501.871	108.69
502.088	86.69
502.305	88.69
502.522	99.69
502.739	88.69
502.956	101.69
503.172	94.69
503.389	92.69
503.606	94.69
503.823	87.69
504.04	89.69
504.256	91.69
504.473	79.69
504.69	91.69
504.907	99.69
505.123	85.69
505.34	82.69
505.557	92.69
505.773	93.69
505.99	98.69
506.207	96.69
506.423	86.69
506.64	108.69
506.856	105.69
507.073	93.69
507.289	79.69
507.506	92.69
507.722	114.69
507.939	104.69
508.155	89.69
508.372	86.69
508.588	94.69
508.805	89.69
509.021	74.69
509.238	92.69
509.454	106.69
509.67	86.69
509.887	106.69
510.103	123.69
510.319	183.69
510.536	583.69
510.752	1766.69
510.968	497.69
511.184	136.69
511.401	101.69
511.617	92.69
511.833	90.69
512.049	107.69
512.265	83.69
512.481	100.69
512.698	95.69
512.914	94.69
513.13	98.69
513.346	94.69
513.562	81.69
513.778	106.69
513.994	93.69
514.21	99.69
514.426	121.69
514.642	105.69
514.858	123.69
515.074	135.69
515.29	333.69
515.506	998.69
515.721	382.69
515.937	134.69
516.153	99.69
