Data from Uncirc_1982_H10_HRD10591_00020.txt Node
Date: Wed Jan 03 12:29:29 EST 2024
User: Yrep
Spectrometer: HR+D1059
Trigger mode: 1
Integration Time (sec): 1.000000E-1
Scans to average: 1
Electric dark correction enabled: true
Nonlinearity correction enabled: false
Boxcar width: 0
XAxis mode: Wavelengths
Number of Pixels in Spectrum: 2048
>>>>>Begin Spectral Data<<<<<
223.165	-19.12
223.4	-19.12
223.635	-19.12
223.869	-13.12
224.104	-31.12
224.338	-24.12
224.573	-20.12
224.808	-15.12
225.042	-4.12
225.277	0.88
225.511	-5.12
225.746	17.88
225.98	-4.12
226.215	31.88
226.449	13.88
226.683	19.88
226.918	25.88
227.152	25.88
227.387	26.88
227.621	41.88
227.856	39.88
228.09	54.88
228.324	49.88
228.559	45.88
228.793	49.88
229.027	44.88
229.262	66.88
229.496	54.88
229.73	81.88
229.964	73.88
230.199	67.88
230.433	85.88
230.667	67.88
230.901	59.88
231.136	72.88
231.37	65.88
231.604	78.88
231.838	77.88
232.072	73.88
232.306	72.88
232.541	82.88
232.775	63.88
233.009	77.88
233.243	85.88
233.477	77.88
233.711	84.88
233.945	62.88
234.179	75.88
234.413	69.88
234.647	70.88
234.881	70.88
235.115	67.88
235.349	82.88
235.583	83.88
235.817	65.88
236.051	70.88
236.285	79.88
236.519	70.88
236.753	75.88
236.987	79.88
237.221	73.88
237.455	89.88
237.689	90.88
237.922	65.88
238.156	66.88
238.39	81.88
238.624	63.88
238.858	81.88
239.091	61.88
239.325	72.88
239.559	69.88
239.793	65.88
240.027	81.88
240.26	67.88
240.494	49.88
240.728	67.88
240.961	74.88
241.195	76.88
241.429	71.88
241.662	57.88
241.896	81.88
242.13	88.88
242.363	77.88
242.597	59.88
242.83	68.88
243.064	57.88
243.298	77.88
243.531	72.88
243.765	75.88
243.998	64.88
244.232	67.88
244.465	92.88
244.699	79.88
244.932	65.88
245.166	71.88
245.399	80.88
245.633	72.88
245.866	81.88
246.099	77.88
246.333	71.88
246.566	67.88
246.8	51.88
247.033	64.88
247.266	77.88
247.5	68.88
247.733	70.88
247.966	73.88
248.2	71.88
248.433	73.88
248.666	63.88
248.899	74.88
249.133	76.88
249.366	75.88
249.599	93.88
249.832	73.88
250.066	82.88
250.299	68.88
250.532	75.88
250.765	96.88
250.998	74.88
251.231	73.88
251.465	75.88
251.698	75.88
251.931	85.88
252.164	81.88
252.397	70.88
252.63	65.88
252.863	87.88
253.096	77.88
253.329	77.88
253.562	78.88
253.795	72.88
254.028	89.88
254.261	79.88
254.494	54.88
254.727	77.88
254.96	77.88
255.193	63.88
255.426	78.88
255.659	70.88
255.892	79.88
256.124	75.88
256.357	76.88
256.59	75.88
256.823	79.88
257.056	77.88
257.289	69.88
257.521	81.88
257.754	77.88
257.987	80.88
258.22	81.88
258.452	79.88
258.685	76.88
258.918	83.88
259.151	63.88
259.383	85.88
259.616	79.88
259.849	77.88
260.081	75.88
260.314	60.88
260.547	83.88
260.779	67.88
261.012	93.88
261.244	75.88
261.477	73.88
261.71	79.88
261.942	93.88
262.175	96.88
262.407	79.88
262.64	83.88
262.872	101.88
263.105	93.88
263.337	89.88
263.57	83.88
263.802	83.88
264.035	85.88
264.267	83.88
264.499	75.88
264.732	75.88
264.964	82.88
265.197	80.88
265.429	68.88
265.661	77.88
265.894	78.88
266.126	91.88
266.358	85.88
266.591	77.88
266.823	84.88
267.055	73.88
267.287	81.88
267.52	61.88
267.752	83.88
267.984	83.88
268.216	88.88
268.448	83.88
268.681	70.88
268.913	82.88
269.145	79.88
269.377	71.88
269.609	81.88
269.841	72.88
270.073	82.88
270.306	81.88
270.538	73.88
270.77	75.88
271.002	82.88
271.234	77.88
271.466	79.88
271.698	81.88
271.93	86.88
272.162	78.88
272.394	85.88
272.626	79.88
272.858	78.88
273.09	78.88
273.322	80.88
273.553	74.88
273.785	78.88
274.017	90.88
274.249	77.88
274.481	62.88
274.713	91.88
274.945	79.88
275.176	80.88
275.408	100.88
275.64	91.88
275.872	87.88
276.104	79.88
276.335	80.88
276.567	94.88
276.799	96.88
277.031	96.88
277.262	62.88
277.494	89.88
277.726	68.88
277.957	69.88
278.189	80.88
278.421	78.88
278.652	80.88
278.884	83.88
279.115	79.88
279.347	80.88
279.579	88.88
279.81	75.88
280.042	79.88
280.273	81.88
280.505	86.88
280.736	79.88
280.968	84.88
281.199	84.88
281.431	83.88
281.662	82.88
281.894	72.88
282.125	83.88
282.356	91.88
282.588	125.88
282.819	99.88
283.051	82.88
283.282	80.88
283.513	91.88
283.745	79.88
283.976	71.88
284.207	81.88
284.439	79.88
284.67	80.88
284.901	83.88
285.132	76.88
285.364	81.88
285.595	82.88
285.826	71.88
286.057	81.88
286.288	74.88
286.52	81.88
286.751	81.88
286.982	81.88
287.213	92.88
287.444	91.88
287.675	85.88
287.906	84.88
288.138	72.88
288.369	96.88
288.6	81.88
288.831	83.88
289.062	92.88
289.293	77.88
289.524	85.88
289.755	83.88
289.986	91.88
290.217	81.88
290.448	79.88
290.679	69.88
290.91	72.88
291.141	81.88
291.371	89.88
291.602	100.88
291.833	88.88
292.064	64.88
292.295	93.88
292.526	92.88
292.757	82.88
292.987	89.88
293.218	84.88
293.449	83.88
293.68	90.88
293.91	89.88
294.141	75.88
294.372	80.88
294.603	95.88
294.833	77.88
295.064	90.88
295.295	87.88
295.525	75.88
295.756	73.88
295.987	87.88
296.217	106.88
296.448	103.88
296.679	88.88
296.909	83.88
297.14	92.88
297.37	86.88
297.601	88.88
297.831	80.88
298.062	83.88
298.292	75.88
298.523	83.88
298.753	84.88
298.984	86.88
299.214	100.88
299.445	79.88
299.675	71.88
299.905	84.88
300.136	79.88
300.366	92.88
300.597	81.88
300.827	89.88
301.057	97.88
301.288	103.88
301.518	86.88
301.748	74.88
301.979	102.88
302.209	99.88
302.439	81.88
302.669	85.88
302.9	82.88
303.13	83.88
303.36	85.88
303.59	87.88
303.82	83.88
304.051	93.88
304.281	79.88
304.511	95.88
304.741	85.88
304.971	81.88
305.201	84.88
305.431	92.88
305.661	81.88
305.891	84.88
306.121	92.88
306.352	87.88
306.582	85.88
306.812	91.88
307.042	89.88
307.272	82.88
307.502	81.88
307.731	89.88
307.961	89.88
308.191	78.88
308.421	93.88
308.651	95.88
308.881	88.88
309.111	99.88
309.341	92.88
309.571	79.88
309.8	78.88
310.03	80.88
310.26	91.88
310.49	99.88
310.72	88.88
310.949	95.88
311.179	87.88
311.409	95.88
311.639	86.88
311.868	99.88
312.098	84.88
312.328	92.88
312.557	78.88
312.787	81.88
313.017	99.88
313.246	88.88
313.476	88.88
313.706	80.88
313.935	102.88
314.165	91.88
314.394	91.88
314.624	83.88
314.853	103.88
315.083	80.88
315.312	88.88
315.542	90.88
315.771	78.88
316.001	78.88
316.23	94.88
316.46	88.88
316.689	82.88
316.919	88.88
317.148	101.88
317.377	99.88
317.607	80.88
317.836	80.88
318.065	81.88
318.295	83.88
318.524	85.88
318.753	76.88
318.983	86.88
319.212	94.88
319.441	97.88
319.67	77.88
319.9	93.88
320.129	87.88
320.358	88.88
320.587	89.88
320.816	87.88
321.046	97.88
321.275	94.88
321.504	98.88
321.733	90.88
321.962	99.88
322.191	97.88
322.42	92.88
322.649	96.88
322.878	95.88
323.108	99.88
323.337	114.88
323.566	118.88
323.795	120.88
324.024	168.88
324.253	326.88
324.482	701.88
324.71	1415.88
324.939	1917.88
325.168	678.88
325.397	220.88
325.626	142.88
325.855	109.88
326.084	105.88
326.313	121.88
326.542	116.88
326.77	211.88
326.999	421.88
327.228	783.88
327.457	1469.88
327.686	1180.88
327.914	319.88
328.143	169.88
328.372	131.88
328.6	104.88
328.829	109.88
329.058	123.88
329.287	104.88
329.515	80.88
329.744	92.88
329.972	100.88
330.201	97.88
330.43	105.88
330.658	113.88
330.887	111.88
331.115	102.88
331.344	101.88
331.572	100.88
331.801	102.88
332.03	92.88
332.258	102.88
332.486	103.88
332.715	87.88
332.943	81.88
333.172	94.88
333.4	92.88
333.629	114.88
333.857	105.88
334.085	105.88
334.314	99.88
334.542	116.88
334.771	108.88
334.999	84.88
335.227	93.88
335.455	105.88
335.684	103.88
335.912	95.88
336.14	89.88
336.369	85.88
336.597	91.88
336.825	77.88
337.053	98.88
337.281	94.88
337.51	89.88
337.738	93.88
337.966	96.88
338.194	92.88
338.422	84.88
338.65	89.88
338.878	86.88
339.106	84.88
339.334	96.88
339.562	101.88
339.79	96.88
340.018	77.88
340.246	85.88
340.474	92.88
340.702	88.88
340.93	93.88
341.158	92.88
341.386	89.88
341.614	87.88
341.842	95.88
342.07	92.88
342.298	97.88
342.526	84.88
342.754	73.88
342.981	92.88
343.209	94.88
343.437	108.88
343.665	104.88
343.893	96.88
344.12	85.88
344.348	87.88
344.576	82.88
344.804	90.88
345.031	83.88
345.259	102.88
345.487	89.88
345.714	81.88
345.942	87.88
346.17	75.88
346.397	88.88
346.625	86.88
346.853	83.88
347.08	101.88
347.308	94.88
347.535	86.88
347.763	73.88
347.99	96.88
348.218	93.88
348.445	93.88
348.673	76.88
348.9	94.88
349.128	85.88
349.355	93.88
349.583	79.88
349.81	94.88
350.037	95.88
350.265	87.88
350.492	87.88
350.72	107.88
350.947	83.88
351.174	107.88
351.402	97.88
351.629	96.88
351.856	85.88
352.083	108.88
352.311	93.88
352.538	104.88
352.765	93.88
352.992	91.88
353.22	94.88
353.447	94.88
353.674	92.88
353.901	83.88
354.128	94.88
354.355	91.88
354.583	93.88
354.81	95.88
355.037	99.88
355.264	95.88
355.491	94.88
355.718	88.88
355.945	97.88
356.172	89.88
356.399	95.88
356.626	79.88
356.853	94.88
357.08	90.88
357.307	92.88
357.534	87.88
357.761	97.88
357.988	88.88
358.215	98.88
358.441	89.88
358.668	88.88
358.895	84.88
359.122	82.88
359.349	73.88
359.576	88.88
359.802	83.88
360.029	80.88
360.256	74.88
360.483	91.88
360.709	87.88
360.936	83.88
361.163	89.88
361.39	84.88
361.616	83.88
361.843	94.88
362.07	78.88
362.296	82.88
362.523	79.88
362.749	79.88
362.976	82.88
363.203	91.88
363.429	100.88
363.656	83.88
363.882	75.88
364.109	83.88
364.335	88.88
364.562	85.88
364.788	87.88
365.015	91.88
365.241	77.88
365.468	107.88
365.694	101.88
365.92	95.88
366.147	83.88
366.373	78.88
366.599	92.88
366.826	81.88
367.052	95.88
367.278	86.88
367.505	85.88
367.731	100.88
367.957	84.88
368.184	101.88
368.41	81.88
368.636	84.88
368.862	108.88
369.089	84.88
369.315	86.88
369.541	80.88
369.767	89.88
369.993	81.88
370.219	80.88
370.445	92.88
370.672	78.88
370.898	84.88
371.124	77.88
371.35	79.88
371.576	66.88
371.802	89.88
372.028	85.88
372.254	93.88
372.48	92.88
372.706	76.88
372.932	101.88
373.158	97.88
373.384	94.88
373.61	84.88
373.835	90.88
374.061	86.88
374.287	91.88
374.513	90.88
374.739	76.88
374.965	85.88
375.191	96.88
375.416	81.88
375.642	87.88
375.868	90.88
376.094	91.88
376.319	84.88
376.545	85.88
376.771	85.88
376.997	84.88
377.222	76.88
377.448	80.88
377.674	96.88
377.899	81.88
378.125	90.88
378.35	93.88
378.576	106.88
378.802	87.88
379.027	83.88
379.253	99.88
379.478	103.88
379.704	90.88
379.929	84.88
380.155	96.88
380.38	84.88
380.606	96.88
380.831	85.88
381.057	103.88
381.282	90.88
381.507	89.88
381.733	96.88
381.958	95.88
382.184	95.88
382.409	96.88
382.634	107.88
382.86	115.88
383.085	92.88
383.31	92.88
383.535	104.88
383.761	94.88
383.986	102.88
384.211	98.88
384.436	99.88
384.662	88.88
384.887	103.88
385.112	118.88
385.337	101.88
385.562	107.88
385.787	112.88
386.013	125.88
386.238	131.88
386.463	99.88
386.688	120.88
386.913	103.88
387.138	105.88
387.363	104.88
387.588	85.88
387.813	108.88
388.038	113.88
388.263	124.88
388.488	104.88
388.713	101.88
388.938	90.88
389.163	93.88
389.387	99.88
389.612	104.88
389.837	91.88
390.062	93.88
390.287	99.88
390.512	82.88
390.736	90.88
390.961	91.88
391.186	98.88
391.411	96.88
391.636	93.88
391.86	87.88
392.085	76.88
392.31	88.88
392.534	83.88
392.759	82.88
392.984	79.88
393.208	84.88
393.433	81.88
393.658	85.88
393.882	77.88
394.107	91.88
394.331	86.88
394.556	69.88
394.78	81.88
395.005	81.88
395.229	91.88
395.454	87.88
395.678	77.88
395.903	89.88
396.127	94.88
396.352	73.88
396.576	75.88
396.801	79.88
397.025	101.88
397.249	87.88
397.474	95.88
397.698	105.88
397.922	89.88
398.147	86.88
398.371	88.88
398.595	88.88
398.82	79.88
399.044	80.88
399.268	72.88
399.492	80.88
399.717	86.88
399.941	75.88
400.165	95.88
400.389	87.88
400.613	90.88
400.837	95.88
401.062	86.88
401.286	85.88
401.51	83.88
401.734	85.88
401.958	96.88
402.182	112.88
402.406	145.88
402.63	96.88
402.854	99.88
403.078	83.88
403.302	81.88
403.526	78.88
403.75	66.88
403.974	83.88
404.198	83.88
404.422	91.88
404.645	98.88
404.869	91.88
405.093	80.88
405.317	95.88
405.541	98.88
405.765	102.88
405.988	103.88
406.212	127.88
406.436	153.88
406.66	104.88
406.883	82.88
407.107	87.88
407.331	80.88
407.555	93.88
407.778	93.88
408.002	99.88
408.226	79.88
408.449	80.88
408.673	84.88
408.896	94.88
409.12	102.88
409.344	83.88
409.567	88.88
409.791	77.88
410.014	87.88
410.238	83.88
410.461	101.88
410.685	93.88
410.908	97.88
411.132	102.88
411.355	94.88
411.578	78.88
411.802	97.88
412.025	83.88
412.249	84.88
412.472	83.88
412.695	92.88
412.919	81.88
413.142	79.88
413.365	72.88
413.589	85.88
413.812	105.88
414.035	98.88
414.258	104.88
414.482	87.88
414.705	96.88
414.928	83.88
415.151	64.88
415.374	101.88
415.597	73.88
415.821	73.88
416.044	86.88
416.267	78.88
416.49	103.88
416.713	86.88
416.936	91.88
417.159	80.88
417.382	91.88
417.605	87.88
417.828	88.88
418.051	86.88
418.274	82.88
418.497	78.88
418.72	84.88
418.943	94.88
419.166	93.88
419.389	85.88
419.611	89.88
419.834	85.88
420.057	89.88
420.28	85.88
420.503	88.88
420.726	91.88
420.948	79.88
421.171	80.88
421.394	81.88
421.617	90.88
421.839	83.88
422.062	91.88
422.285	88.88
422.507	103.88
422.73	95.88
422.953	85.88
423.175	93.88
423.398	93.88
423.621	83.88
423.843	88.88
424.066	81.88
424.288	80.88
424.511	102.88
424.733	102.88
424.956	81.88
425.178	80.88
425.401	109.88
425.623	87.88
425.846	79.88
426.068	100.88
426.291	98.88
426.513	92.88
426.735	97.88
426.958	89.88
427.18	86.88
427.402	121.88
427.625	153.88
427.847	86.88
428.069	93.88
428.292	83.88
428.514	87.88
428.736	71.88
428.958	70.88
429.181	79.88
429.403	89.88
429.625	83.88
429.847	86.88
430.069	77.88
430.292	67.88
430.514	77.88
430.736	89.88
430.958	75.88
431.18	83.88
431.402	80.88
431.624	71.88
431.846	67.88
432.068	62.88
432.29	80.88
432.512	96.88
432.734	97.88
432.956	83.88
433.178	88.88
433.4	80.88
433.622	99.88
433.844	92.88
434.066	84.88
434.287	85.88
434.509	97.88
434.731	96.88
434.953	96.88
435.175	100.88
435.397	89.88
435.618	87.88
435.84	99.88
436.062	120.88
436.284	106.88
436.505	87.88
436.727	96.88
436.949	84.88
437.17	83.88
437.392	83.88
437.614	94.88
437.835	99.88
438.057	101.88
438.278	99.88
438.5	96.88
438.721	107.88
438.943	105.88
439.165	91.88
439.386	100.88
439.608	90.88
439.829	87.88
440.05	100.88
440.272	127.88
440.493	94.88
440.715	93.88
440.936	81.88
441.158	68.88
441.379	81.88
441.6	91.88
441.822	80.88
442.043	91.88
442.264	88.88
442.486	84.88
442.707	87.88
442.928	91.88
443.149	86.88
443.371	109.88
443.592	88.88
443.813	83.88
444.034	96.88
444.255	95.88
444.476	83.88
444.698	89.88
444.919	97.88
445.14	134.88
445.361	110.88
445.582	105.88
445.803	121.88
446.024	96.88
446.245	119.88
446.466	108.88
446.687	98.88
446.908	71.88
447.129	93.88
447.35	79.88
447.571	79.88
447.792	80.88
448.013	90.88
448.234	91.88
448.455	95.88
448.675	98.88
448.896	106.88
449.117	79.88
449.338	99.88
449.559	108.88
449.779	131.88
450	105.88
450.221	83.88
450.442	102.88
450.662	80.88
450.883	97.88
451.104	104.88
451.324	92.88
451.545	86.88
451.766	80.88
451.986	87.88
452.207	80.88
452.428	89.88
452.648	82.88
452.869	99.88
453.089	101.88
453.31	97.88
453.53	86.88
453.751	91.88
453.971	79.88
454.192	86.88
454.412	98.88
454.633	77.88
454.853	77.88
455.073	69.88
455.294	79.88
455.514	89.88
455.734	86.88
455.955	85.88
456.175	81.88
456.395	81.88
456.616	82.88
456.836	91.88
457.056	69.88
457.276	76.88
457.497	84.88
457.717	80.88
457.937	77.88
458.157	81.88
458.377	88.88
458.598	93.88
458.818	120.88
459.038	128.88
459.258	91.88
459.478	83.88
459.698	78.88
459.918	81.88
460.138	84.88
460.358	100.88
460.578	88.88
460.798	84.88
461.018	95.88
461.238	63.88
461.458	83.88
461.678	71.88
461.898	74.88
462.118	67.88
462.338	81.88
462.558	77.88
462.777	83.88
462.997	72.88
463.217	79.88
463.437	70.88
463.657	91.88
463.876	70.88
464.096	78.88
464.316	99.88
464.536	88.88
464.755	97.88
464.975	85.88
465.195	121.88
465.414	113.88
465.634	93.88
465.854	71.88
466.073	73.88
466.293	86.88
466.512	83.88
466.732	92.88
466.951	91.88
467.171	96.88
467.391	90.88
467.61	99.88
467.829	78.88
468.049	88.88
468.268	79.88
468.488	79.88
468.707	90.88
468.927	95.88
469.146	94.88
469.365	93.88
469.585	79.88
469.804	98.88
470.023	100.88
470.243	91.88
470.462	79.88
470.681	92.88
470.901	77.88
471.12	66.88
471.339	89.88
471.558	81.88
471.777	85.88
471.997	87.88
472.216	108.88
472.435	129.88
472.654	79.88
472.873	86.88
473.092	62.88
473.311	71.88
473.53	85.88
473.749	76.88
473.968	79.88
474.187	97.88
474.406	76.88
474.625	91.88
474.844	83.88
475.063	81.88
475.282	73.88
475.501	78.88
475.72	83.88
475.939	81.88
476.158	101.88
476.377	95.88
476.596	87.88
476.814	89.88
477.033	96.88
477.252	94.88
477.471	95.88
477.69	87.88
477.908	82.88
478.127	99.88
478.346	84.88
478.564	84.88
478.783	96.88
479.002	88.88
479.22	85.88
479.439	83.88
479.658	85.88
479.876	78.88
480.095	94.88
480.313	69.88
480.532	71.88
480.751	88.88
480.969	100.88
481.188	164.88
481.406	132.88
481.624	84.88
481.843	92.88
482.061	93.88
482.28	85.88
482.498	80.88
482.717	79.88
482.935	97.88
483.153	83.88
483.372	81.88
483.59	82.88
483.808	87.88
484.027	71.88
484.245	93.88
484.463	89.88
484.681	85.88
484.9	88.88
485.118	89.88
485.336	88.88
485.554	104.88
485.772	108.88
485.99	111.88
486.209	94.88
486.427	90.88
486.645	103.88
486.863	98.88
487.081	80.88
487.299	90.88
487.517	85.88
487.735	92.88
487.953	88.88
488.171	81.88
488.389	95.88
488.607	74.88
488.825	93.88
489.043	92.88
489.261	76.88
489.479	95.88
489.696	80.88
489.914	88.88
490.132	82.88
490.35	87.88
490.568	84.88
490.786	90.88
491.003	93.88
491.221	87.88
491.439	95.88
491.657	91.88
491.874	95.88
492.092	83.88
492.31	72.88
492.527	87.88
492.745	70.88
492.963	86.88
493.18	91.88
493.398	94.88
493.615	85.88
493.833	78.88
494.05	91.88
494.268	75.88
494.485	77.88
494.703	83.88
494.92	87.88
495.138	82.88
495.355	93.88
495.573	102.88
495.79	80.88
496.008	77.88
496.225	78.88
496.442	85.88
496.66	87.88
496.877	85.88
497.094	76.88
497.312	89.88
497.529	78.88
497.746	91.88
497.963	75.88
498.181	94.88
498.398	87.88
498.615	84.88
498.832	84.88
499.049	88.88
499.267	92.88
499.484	79.88
499.701	84.88
499.918	88.88
500.135	79.88
500.352	95.88
500.569	92.88
500.786	87.88
501.003	83.88
501.22	79.88
501.437	84.88
501.654	80.88
501.871	96.88
502.088	100.88
502.305	78.88
502.522	84.88
502.739	97.88
502.956	99.88
503.172	93.88
503.389	89.88
503.606	102.88
503.823	96.88
504.04	79.88
504.256	91.88
504.473	80.88
504.69	79.88
504.907	80.88
505.123	90.88
505.34	81.88
505.557	73.88
505.773	89.88
505.99	84.88
506.207	78.88
506.423	92.88
506.64	98.88
506.856	89.88
507.073	88.88
507.289	87.88
507.506	94.88
507.722	101.88
507.939	90.88
508.155	99.88
508.372	73.88
508.588	99.88
508.805	84.88
509.021	81.88
509.238	82.88
509.454	85.88
509.67	96.88
509.887	95.88
510.103	130.88
510.319	189.88
510.536	585.88
510.752	1715.88
510.968	484.88
511.184	145.88
511.401	102.88
511.617	79.88
511.833	92.88
512.049	83.88
512.265	91.88
512.481	85.88
512.698	78.88
512.914	86.88
513.13	85.88
513.346	91.88
513.562	85.88
513.778	94.88
513.994	78.88
514.21	87.88
514.426	99.88
514.642	102.88
514.858	109.88
515.074	140.88
515.29	336.88
515.506	1015.88
515.721	382.88
515.937	120.88
516.153	88.88
516.369	84.88
516.585	81.88
516.801	95.88
517.016	91.88
517.232	78.88
517.448	84.88
