Data from Uncirc_1982_H10_HRD10591_00094.txt Node
Date: Wed Jan 03 12:29:43 EST 2024
User: Yrep
Spectrometer: HR+D1059
Trigger mode: 1
Integration Time (sec): 1.000000E-1
Scans to average: 1
Electric dark correction enabled: true
Nonlinearity correction enabled: false
Boxcar width: 0
XAxis mode: Wavelengths
Number of Pixels in Spectrum: 2048
>>>>>Begin Spectral Data<<<<<
223.165	-17.25
223.4	-17.25
223.635	-17.25
223.869	-27.25
224.104	-16.25
224.338	-11.25
224.573	-1.25
224.808	-13.25
225.042	-7.25
225.277	3.75
225.511	-13.25
225.746	9.75
225.98	1.75
226.215	1.75
226.449	27.75
226.683	16.75
226.918	21.75
227.152	23.75
227.387	33.75
227.621	50.75
227.856	55.75
228.09	44.75
228.324	58.75
228.559	56.75
228.793	56.75
229.027	61.75
229.262	72.75
229.496	80.75
229.73	76.75
229.964	80.75
230.199	89.75
230.433	73.75
230.667	66.75
230.901	65.75
231.136	74.75
231.37	68.75
231.604	76.75
231.838	69.75
232.072	81.75
232.306	80.75
232.541	76.75
232.775	84.75
233.009	86.75
233.243	89.75
233.477	95.75
233.711	76.75
233.945	74.75
234.179	72.75
234.413	71.75
234.647	75.75
234.881	76.75
235.115	62.75
235.349	72.75
235.583	80.75
235.817	69.75
236.051	65.75
236.285	78.75
236.519	76.75
236.753	66.75
236.987	88.75
237.221	81.75
237.455	82.75
237.689	69.75
237.922	72.75
238.156	84.75
238.39	77.75
238.624	74.75
238.858	74.75
239.091	74.75
239.325	71.75
239.559	85.75
239.793	96.75
240.027	81.75
240.26	65.75
240.494	78.75
240.728	88.75
240.961	70.75
241.195	86.75
241.429	92.75
241.662	77.75
241.896	65.75
242.13	69.75
242.363	80.75
242.597	87.75
242.83	73.75
243.064	73.75
243.298	68.75
243.531	72.75
243.765	70.75
243.998	69.75
244.232	83.75
244.465	69.75
244.699	68.75
244.932	74.75
245.166	73.75
245.399	81.75
245.633	62.75
245.866	69.75
246.099	82.75
246.333	77.75
246.566	86.75
246.8	86.75
247.033	82.75
247.266	74.75
247.5	81.75
247.733	67.75
247.966	84.75
248.2	92.75
248.433	76.75
248.666	71.75
248.899	82.75
249.133	87.75
249.366	91.75
249.599	98.75
249.832	76.75
250.066	57.75
250.299	88.75
250.532	67.75
250.765	73.75
250.998	74.75
251.231	76.75
251.465	93.75
251.698	78.75
251.931	82.75
252.164	72.75
252.397	73.75
252.63	82.75
252.863	94.75
253.096	78.75
253.329	86.75
253.562	60.75
253.795	76.75
254.028	73.75
254.261	78.75
254.494	92.75
254.727	83.75
254.96	83.75
255.193	78.75
255.426	71.75
255.659	91.75
255.892	91.75
256.124	83.75
256.357	97.75
256.59	74.75
256.823	81.75
257.056	80.75
257.289	85.75
257.521	82.75
257.754	80.75
257.987	68.75
258.22	85.75
258.452	77.75
258.685	80.75
258.918	77.75
259.151	78.75
259.383	74.75
259.616	82.75
259.849	94.75
260.081	90.75
260.314	90.75
260.547	76.75
260.779	85.75
261.012	71.75
261.244	76.75
261.477	89.75
261.71	90.75
261.942	109.75
262.175	95.75
262.407	92.75
262.64	72.75
262.872	76.75
263.105	87.75
263.337	94.75
263.57	85.75
263.802	78.75
264.035	78.75
264.267	77.75
264.499	84.75
264.732	78.75
264.964	77.75
265.197	91.75
265.429	90.75
265.661	80.75
265.894	87.75
266.126	66.75
266.358	71.75
266.591	87.75
266.823	93.75
267.055	83.75
267.287	76.75
267.52	92.75
267.752	77.75
267.984	84.75
268.216	76.75
268.448	84.75
268.681	82.75
268.913	83.75
269.145	75.75
269.377	75.75
269.609	92.75
269.841	89.75
270.073	87.75
270.306	95.75
270.538	75.75
270.77	71.75
271.002	84.75
271.234	83.75
271.466	87.75
271.698	74.75
271.93	86.75
272.162	92.75
272.394	98.75
272.626	89.75
272.858	90.75
273.09	85.75
273.322	100.75
273.553	91.75
273.785	89.75
274.017	71.75
274.249	80.75
274.481	77.75
274.713	88.75
274.945	80.75
275.176	69.75
275.408	90.75
275.64	98.75
275.872	87.75
276.104	84.75
276.335	85.75
276.567	99.75
276.799	101.75
277.031	87.75
277.262	90.75
277.494	85.75
277.726	88.75
277.957	80.75
278.189	86.75
278.421	78.75
278.652	88.75
278.884	82.75
279.115	82.75
279.347	88.75
279.579	90.75
279.81	85.75
280.042	81.75
280.273	76.75
280.505	98.75
280.736	87.75
280.968	87.75
281.199	104.75
281.431	88.75
281.662	87.75
281.894	82.75
282.125	102.75
282.356	109.75
282.588	124.75
282.819	115.75
283.051	90.75
283.282	70.75
283.513	96.75
283.745	93.75
283.976	90.75
284.207	104.75
284.439	82.75
284.67	73.75
284.901	88.75
285.132	84.75
285.364	94.75
285.595	61.75
285.826	71.75
286.057	91.75
286.288	99.75
286.52	81.75
286.751	93.75
286.982	94.75
287.213	88.75
287.444	92.75
287.675	77.75
287.906	81.75
288.138	91.75
288.369	101.75
288.6	78.75
288.831	86.75
289.062	89.75
289.293	76.75
289.524	84.75
289.755	75.75
289.986	88.75
290.217	89.75
290.448	90.75
290.679	78.75
290.91	89.75
291.141	93.75
291.371	90.75
291.602	84.75
291.833	88.75
292.064	84.75
292.295	78.75
292.526	75.75
292.757	85.75
292.987	96.75
293.218	88.75
293.449	91.75
293.68	85.75
293.91	86.75
294.141	81.75
294.372	91.75
294.603	86.75
294.833	78.75
295.064	84.75
295.295	88.75
295.525	83.75
295.756	104.75
295.987	104.75
296.217	117.75
296.448	110.75
296.679	87.75
296.909	71.75
297.14	92.75
297.37	82.75
297.601	91.75
297.831	90.75
298.062	79.75
298.292	77.75
298.523	88.75
298.753	98.75
298.984	93.75
299.214	93.75
299.445	81.75
299.675	93.75
299.905	92.75
300.136	91.75
300.366	83.75
300.597	82.75
300.827	100.75
301.057	100.75
301.288	99.75
301.518	91.75
301.748	96.75
301.979	101.75
302.209	93.75
302.439	101.75
302.669	96.75
302.9	84.75
303.13	94.75
303.36	92.75
303.59	89.75
303.82	93.75
304.051	99.75
304.281	77.75
304.511	86.75
304.741	82.75
304.971	87.75
305.201	80.75
305.431	85.75
305.661	77.75
305.891	97.75
306.121	93.75
306.352	89.75
306.582	99.75
306.812	90.75
307.042	96.75
307.272	99.75
307.502	84.75
307.731	97.75
307.961	87.75
308.191	91.75
308.421	89.75
308.651	98.75
308.881	85.75
309.111	93.75
309.341	92.75
309.571	97.75
309.8	96.75
310.03	100.75
310.26	90.75
310.49	89.75
310.72	73.75
310.949	112.75
311.179	92.75
311.409	104.75
311.639	102.75
311.868	94.75
312.098	80.75
312.328	96.75
312.557	103.75
312.787	99.75
313.017	97.75
313.246	85.75
313.476	95.75
313.706	95.75
313.935	102.75
314.165	86.75
314.394	93.75
314.624	99.75
314.853	108.75
315.083	87.75
315.312	80.75
315.542	88.75
315.771	87.75
316.001	101.75
316.23	82.75
316.46	100.75
316.689	93.75
316.919	91.75
317.148	104.75
317.377	89.75
317.607	75.75
317.836	90.75
318.065	96.75
318.295	91.75
318.524	92.75
318.753	82.75
318.983	90.75
319.212	83.75
319.441	99.75
319.67	91.75
319.9	92.75
320.129	97.75
320.358	91.75
320.587	83.75
320.816	91.75
321.046	99.75
321.275	90.75
321.504	94.75
321.733	88.75
321.962	98.75
322.191	89.75
322.42	101.75
322.649	108.75
322.878	119.75
323.108	99.75
323.337	112.75
323.566	123.75
323.795	129.75
324.024	180.75
324.253	325.75
324.482	701.75
324.71	1436.75
324.939	1884.75
325.168	685.75
325.397	208.75
325.626	136.75
325.855	122.75
326.084	116.75
326.313	134.75
326.542	153.75
326.77	211.75
326.999	373.75
327.228	814.75
327.457	1471.75
327.686	1137.75
327.914	322.75
328.143	194.75
328.372	128.75
328.6	104.75
328.829	104.75
329.058	122.75
329.287	137.75
329.515	112.75
329.744	101.75
329.972	104.75
330.201	113.75
330.43	126.75
330.658	133.75
330.887	112.75
331.115	96.75
331.344	97.75
331.572	94.75
331.801	97.75
332.03	114.75
332.258	105.75
332.486	88.75
332.715	83.75
332.943	98.75
333.172	92.75
333.4	96.75
333.629	108.75
333.857	109.75
334.085	102.75
334.314	102.75
334.542	126.75
334.771	133.75
334.999	100.75
335.227	103.75
335.455	86.75
335.684	90.75
335.912	96.75
336.14	98.75
336.369	84.75
336.597	107.75
336.825	87.75
337.053	92.75
337.281	97.75
337.51	96.75
337.738	90.75
337.966	113.75
338.194	100.75
338.422	88.75
338.65	98.75
338.878	104.75
339.106	87.75
339.334	88.75
339.562	89.75
339.79	68.75
340.018	75.75
340.246	90.75
340.474	93.75
340.702	91.75
340.93	102.75
341.158	87.75
341.386	94.75
341.614	92.75
341.842	91.75
342.07	86.75
342.298	93.75
342.526	78.75
342.754	86.75
342.981	76.75
343.209	87.75
343.437	109.75
343.665	84.75
343.893	91.75
344.12	98.75
344.348	87.75
344.576	93.75
344.804	74.75
345.031	110.75
345.259	88.75
345.487	81.75
345.714	101.75
345.942	91.75
346.17	85.75
346.397	89.75
346.625	99.75
346.853	93.75
347.08	99.75
347.308	90.75
347.535	105.75
347.763	98.75
347.99	104.75
348.218	109.75
348.445	102.75
348.673	97.75
348.9	95.75
349.128	99.75
349.355	98.75
349.583	99.75
349.81	89.75
350.037	99.75
350.265	98.75
350.492	108.75
350.72	92.75
350.947	107.75
351.174	104.75
351.402	114.75
351.629	92.75
351.856	94.75
352.083	95.75
352.311	109.75
352.538	114.75
352.765	105.75
352.992	116.75
353.22	97.75
353.447	106.75
353.674	91.75
353.901	93.75
354.128	93.75
354.355	98.75
354.583	79.75
354.81	92.75
355.037	85.75
355.264	88.75
355.491	84.75
355.718	84.75
355.945	90.75
356.172	108.75
356.399	104.75
356.626	100.75
356.853	93.75
357.08	95.75
357.307	90.75
357.534	88.75
357.761	89.75
357.988	109.75
358.215	78.75
358.441	107.75
358.668	96.75
358.895	86.75
359.122	82.75
359.349	80.75
359.576	88.75
359.802	90.75
360.029	96.75
360.256	95.75
360.483	88.75
360.709	92.75
360.936	96.75
361.163	82.75
361.39	86.75
361.616	90.75
361.843	97.75
362.07	86.75
362.296	93.75
362.523	82.75
362.749	91.75
362.976	92.75
363.203	81.75
363.429	86.75
363.656	93.75
363.882	101.75
364.109	88.75
364.335	87.75
364.562	78.75
364.788	98.75
365.015	92.75
365.241	92.75
365.468	100.75
365.694	100.75
365.92	75.75
366.147	97.75
366.373	73.75
366.599	75.75
366.826	91.75
367.052	88.75
367.278	89.75
367.505	93.75
367.731	102.75
367.957	91.75
368.184	107.75
368.41	105.75
368.636	105.75
368.862	111.75
369.089	107.75
369.315	92.75
369.541	94.75
369.767	94.75
369.993	93.75
370.219	112.75
370.445	74.75
370.672	90.75
370.898	87.75
371.124	89.75
371.35	85.75
371.576	80.75
371.802	76.75
372.028	80.75
372.254	91.75
372.48	92.75
372.706	79.75
372.932	84.75
373.158	88.75
373.384	86.75
373.61	88.75
373.835	94.75
374.061	74.75
374.287	91.75
374.513	89.75
374.739	97.75
374.965	89.75
375.191	82.75
375.416	84.75
375.642	93.75
375.868	92.75
376.094	88.75
376.319	88.75
376.545	86.75
376.771	81.75
376.997	88.75
377.222	102.75
377.448	80.75
377.674	84.75
377.899	86.75
378.125	95.75
378.35	88.75
378.576	94.75
378.802	86.75
379.027	104.75
379.253	81.75
379.478	89.75
379.704	91.75
379.929	85.75
380.155	93.75
380.38	96.75
380.606	89.75
380.831	105.75
381.057	96.75
381.282	92.75
381.507	100.75
381.733	88.75
381.958	100.75
382.184	102.75
382.409	94.75
382.634	100.75
382.86	104.75
383.085	93.75
383.31	100.75
383.535	109.75
383.761	99.75
383.986	88.75
384.211	87.75
384.436	92.75
384.662	90.75
384.887	94.75
385.112	94.75
385.337	101.75
385.562	97.75
385.787	110.75
386.013	98.75
386.238	99.75
386.463	94.75
386.688	105.75
386.913	104.75
387.138	88.75
387.363	101.75
387.588	91.75
387.813	101.75
388.038	116.75
388.263	107.75
388.488	90.75
388.713	93.75
388.938	88.75
389.163	99.75
389.387	107.75
389.612	88.75
389.837	83.75
390.062	96.75
390.287	96.75
390.512	86.75
390.736	96.75
390.961	89.75
391.186	86.75
391.411	88.75
391.636	88.75
391.86	102.75
392.085	95.75
392.31	81.75
392.534	89.75
392.759	93.75
392.984	86.75
393.208	84.75
393.433	101.75
393.658	83.75
393.882	94.75
394.107	78.75
394.331	84.75
394.556	89.75
394.78	102.75
395.005	86.75
395.229	84.75
395.454	93.75
395.678	86.75
395.903	97.75
396.127	84.75
396.352	68.75
396.576	97.75
396.801	90.75
397.025	91.75
397.249	71.75
397.474	88.75
397.698	82.75
397.922	87.75
398.147	89.75
398.371	87.75
398.595	85.75
398.82	96.75
399.044	82.75
399.268	76.75
399.492	91.75
399.717	100.75
399.941	91.75
400.165	89.75
400.389	92.75
400.613	88.75
400.837	65.75
401.062	92.75
401.286	93.75
401.51	96.75
401.734	81.75
401.958	88.75
402.182	112.75
402.406	141.75
402.63	122.75
402.854	86.75
403.078	89.75
403.302	77.75
403.526	84.75
403.75	94.75
403.974	89.75
404.198	94.75
404.422	88.75
404.645	103.75
404.869	75.75
405.093	100.75
405.317	92.75
405.541	91.75
405.765	93.75
405.988	114.75
406.212	144.75
406.436	186.75
406.66	145.75
406.883	96.75
407.107	77.75
407.331	77.75
407.555	92.75
407.778	87.75
408.002	91.75
408.226	97.75
408.449	96.75
408.673	92.75
408.896	87.75
409.12	104.75
409.344	90.75
409.567	62.75
409.791	91.75
410.014	87.75
410.238	97.75
410.461	100.75
410.685	97.75
410.908	99.75
411.132	105.75
411.355	80.75
411.578	80.75
411.802	89.75
412.025	80.75
412.249	84.75
412.472	89.75
412.695	98.75
412.919	84.75
413.142	77.75
413.365	98.75
413.589	91.75
413.812	94.75
414.035	102.75
414.258	101.75
414.482	99.75
414.705	77.75
414.928	84.75
415.151	90.75
415.374	92.75
415.597	86.75
415.821	85.75
416.044	94.75
416.267	82.75
416.49	89.75
416.713	85.75
416.936	93.75
417.159	96.75
417.382	85.75
417.605	88.75
417.828	96.75
418.051	96.75
418.274	85.75
418.497	82.75
418.72	85.75
418.943	70.75
419.166	93.75
419.389	83.75
419.611	91.75
419.834	88.75
420.057	95.75
420.28	92.75
420.503	72.75
420.726	88.75
420.948	76.75
421.171	90.75
421.394	93.75
421.617	84.75
421.839	66.75
422.062	87.75
422.285	83.75
422.507	88.75
422.73	93.75
422.953	91.75
423.175	94.75
423.398	84.75
423.621	90.75
423.843	92.75
424.066	83.75
424.288	93.75
424.511	85.75
424.733	87.75
424.956	91.75
425.178	96.75
425.401	80.75
425.623	83.75
425.846	104.75
426.068	100.75
426.291	88.75
426.513	76.75
426.735	93.75
426.958	97.75
427.18	95.75
427.402	142.75
427.625	161.75
427.847	122.75
428.069	122.75
428.292	89.75
428.514	85.75
428.736	85.75
428.958	79.75
429.181	80.75
429.403	76.75
429.625	73.75
429.847	93.75
430.069	92.75
430.292	85.75
430.514	90.75
430.736	80.75
430.958	80.75
431.18	91.75
431.402	91.75
431.624	81.75
431.846	86.75
432.068	89.75
432.29	93.75
432.512	81.75
432.734	97.75
432.956	90.75
433.178	87.75
433.4	107.75
433.622	97.75
433.844	93.75
434.066	85.75
434.287	84.75
434.509	83.75
434.731	97.75
434.953	85.75
435.175	82.75
435.397	99.75
435.618	92.75
435.84	84.75
436.062	117.75
436.284	107.75
436.505	95.75
436.727	86.75
436.949	94.75
437.17	74.75
437.392	99.75
437.614	100.75
437.835	109.75
438.057	105.75
438.278	108.75
438.5	96.75
438.721	110.75
438.943	104.75
439.165	80.75
439.386	97.75
439.608	100.75
439.829	94.75
440.05	117.75
440.272	116.75
440.493	98.75
440.715	88.75
440.936	96.75
441.158	84.75
441.379	94.75
441.6	87.75
441.822	78.75
442.043	74.75
442.264	96.75
442.486	101.75
442.707	72.75
442.928	90.75
443.149	125.75
443.371	120.75
443.592	103.75
443.813	105.75
444.034	97.75
444.255	92.75
444.476	89.75
444.698	103.75
444.919	101.75
445.14	136.75
445.361	137.75
445.582	102.75
445.803	115.75
446.024	129.75
446.245	131.75
446.466	104.75
446.687	72.75
446.908	88.75
447.129	88.75
447.35	88.75
447.571	98.75
447.792	89.75
448.013	98.75
448.234	99.75
448.455	93.75
448.675	99.75
448.896	104.75
449.117	98.75
449.338	101.75
449.559	112.75
449.779	116.75
450	99.75
450.221	80.75
450.442	80.75
450.662	82.75
450.883	88.75
451.104	111.75
451.324	96.75
451.545	86.75
451.766	75.75
451.986	93.75
452.207	74.75
452.428	88.75
452.648	105.75
452.869	109.75
453.089	110.75
453.31	110.75
453.53	103.75
453.751	84.75
453.971	89.75
454.192	107.75
454.412	99.75
454.633	73.75
454.853	80.75
455.073	85.75
455.294	78.75
455.514	98.75
455.734	74.75
455.955	89.75
456.175	85.75
456.395	75.75
456.616	104.75
456.836	86.75
457.056	97.75
457.276	76.75
457.497	77.75
457.717	85.75
457.937	77.75
458.157	90.75
458.377	91.75
458.598	99.75
458.818	127.75
459.038	133.75
459.258	106.75
459.478	85.75
459.698	90.75
459.918	77.75
460.138	95.75
460.358	86.75
460.578	77.75
460.798	100.75
461.018	72.75
461.238	77.75
461.458	89.75
461.678	91.75
461.898	87.75
462.118	91.75
462.338	91.75
462.558	90.75
462.777	76.75
462.997	84.75
463.217	77.75
463.437	82.75
463.657	89.75
463.876	79.75
464.096	90.75
464.316	93.75
464.536	106.75
464.755	97.75
464.975	106.75
465.195	118.75
465.414	129.75
465.634	88.75
465.854	81.75
466.073	84.75
466.293	87.75
466.512	89.75
466.732	86.75
466.951	87.75
467.171	90.75
467.391	92.75
467.61	98.75
467.829	97.75
468.049	102.75
468.268	101.75
468.488	92.75
468.707	86.75
468.927	93.75
469.146	98.75
469.365	101.75
469.585	98.75
469.804	88.75
470.023	85.75
470.243	94.75
470.462	97.75
470.681	98.75
470.901	92.75
471.12	88.75
471.339	81.75
471.558	88.75
471.777	80.75
471.997	99.75
472.216	100.75
472.435	128.75
472.654	106.75
472.873	86.75
473.092	84.75
473.311	93.75
473.53	96.75
473.749	93.75
473.968	108.75
474.187	93.75
474.406	83.75
474.625	88.75
474.844	77.75
475.063	89.75
475.282	90.75
475.501	93.75
475.72	86.75
475.939	88.75
476.158	92.75
476.377	77.75
476.596	78.75
476.814	77.75
477.033	77.75
477.252	85.75
477.471	89.75
477.69	100.75
477.908	75.75
478.127	84.75
478.346	100.75
478.564	96.75
478.783	89.75
479.002	83.75
479.22	66.75
479.439	103.75
479.658	83.75
479.876	94.75
480.095	93.75
480.313	100.75
480.532	81.75
480.751	69.75
480.969	99.75
481.188	186.75
481.406	121.75
481.624	93.75
481.843	88.75
482.061	78.75
482.28	90.75
482.498	92.75
482.717	96.75
482.935	94.75
483.153	86.75
483.372	91.75
483.59	90.75
483.808	85.75
484.027	95.75
484.245	101.75
484.463	89.75
484.681	87.75
484.9	96.75
485.118	90.75
485.336	88.75
485.554	104.75
485.772	111.75
485.99	112.75
486.209	102.75
486.427	95.75
486.645	108.75
486.863	104.75
487.081	113.75
487.299	90.75
487.517	89.75
487.735	92.75
487.953	95.75
488.171	97.75
488.389	102.75
488.607	93.75
488.825	92.75
489.043	89.75
489.261	94.75
489.479	98.75
489.696	93.75
489.914	82.75
490.132	84.75
490.35	86.75
490.568	89.75
490.786	82.75
491.003	91.75
491.221	94.75
491.439	96.75
491.657	101.75
491.874	92.75
492.092	93.75
492.31	85.75
492.527	98.75
492.745	92.75
492.963	88.75
493.18	98.75
493.398	92.75
493.615	97.75
493.833	99.75
494.05	111.75
494.268	86.75
494.485	86.75
494.703	94.75
494.92	103.75
495.138	90.75
495.355	83.75
495.573	84.75
495.79	87.75
496.008	80.75
496.225	100.75
496.442	105.75
496.66	101.75
496.877	75.75
497.094	99.75
497.312	89.75
497.529	88.75
497.746	90.75
497.963	97.75
498.181	83.75
498.398	82.75
498.615	112.75
498.832	98.75
499.049	85.75
499.267	88.75
499.484	102.75
499.701	99.75
499.918	90.75
500.135	94.75
500.352	97.75
500.569	85.75
500.786	84.75
501.003	101.75
501.22	96.75
501.437	88.75
501.654	87.75
501.871	89.75
502.088	88.75
502.305	89.75
502.522	92.75
502.739	88.75
502.956	82.75
503.172	97.75
503.389	96.75
503.606	89.75
503.823	98.75
504.04	86.75
504.256	94.75
504.473	83.75
504.69	98.75
504.907	92.75
505.123	83.75
505.34	77.75
505.557	89.75
505.773	92.75
505.99	93.75
506.207	104.75
506.423	91.75
506.64	99.75
506.856	96.75
507.073	81.75
507.289	87.75
507.506	96.75
507.722	107.75
507.939	108.75
508.155	93.75
508.372	95.75
508.588	95.75
508.805	100.75
509.021	87.75
509.238	98.75
509.454	109.75
509.67	102.75
509.887	112.75
510.103	109.75
510.319	209.75
510.536	663.75
510.752	2024.75
510.968	552.75
511.184	160.75
511.401	107.75
511.617	92.75
511.833	86.75
512.049	94.75
512.265	99.75
512.481	95.75
512.698	95.75
512.914	105.75
513.13	101.75
513.346	99.75
513.562	87.75
513.778	99.75
513.994	87.75
514.21	97.75
514.426	103.75
514.642	122.75
514.858	129.75
515.074	142.75
515.29	378.75
515.506	1160.75
515.721	422.75
515.937	142.75
516.153	106.75
516.369	100.75
