Data from Uncirc_1982_H10_HRD10591_00040.txt Node
Date: Wed Jan 03 12:29:33 EST 2024
User: Yrep
Spectrometer: HR+D1059
Trigger mode: 1
Integration Time (sec): 1.000000E-1
Scans to average: 1
Electric dark correction enabled: true
Nonlinearity correction enabled: false
Boxcar width: 0
XAxis mode: Wavelengths
Number of Pixels in Spectrum: 2048
>>>>>Begin Spectral Data<<<<<
223.165	-24.31
223.4	-24.31
223.635	-24.31
223.869	-22.31
224.104	-21.31
224.338	-30.31
224.573	-14.31
224.808	-19.31
225.042	-10.31
225.277	-6.31
225.511	5.69
225.746	0.69
225.98	8.69
226.215	15.69
226.449	20.69
226.683	16.69
226.918	37.69
227.152	42.69
227.387	32.69
227.621	49.69
227.856	48.69
228.09	44.69
228.324	43.69
228.559	57.69
228.793	41.69
229.027	58.69
229.262	43.69
229.496	72.69
229.73	54.69
229.964	59.69
230.199	80.69
230.433	62.69
230.667	82.69
230.901	86.69
231.136	82.69
231.37	78.69
231.604	85.69
231.838	88.69
232.072	78.69
232.306	85.69
232.541	62.69
232.775	78.69
233.009	80.69
233.243	88.69
233.477	74.69
233.711	78.69
233.945	83.69
234.179	67.69
234.413	81.69
234.647	84.69
234.881	85.69
235.115	82.69
235.349	75.69
235.583	83.69
235.817	82.69
236.051	79.69
236.285	68.69
236.519	76.69
236.753	63.69
236.987	93.69
237.221	64.69
237.455	74.69
237.689	78.69
237.922	79.69
238.156	66.69
238.39	76.69
238.624	64.69
238.858	66.69
239.091	82.69
239.325	79.69
239.559	64.69
239.793	75.69
240.027	85.69
240.26	68.69
240.494	72.69
240.728	80.69
240.961	72.69
241.195	75.69
241.429	69.69
241.662	81.69
241.896	86.69
242.13	67.69
242.363	65.69
242.597	72.69
242.83	64.69
243.064	77.69
243.298	85.69
243.531	75.69
243.765	82.69
243.998	63.69
244.232	82.69
244.465	82.69
244.699	65.69
244.932	82.69
245.166	68.69
245.399	70.69
245.633	74.69
245.866	69.69
246.099	78.69
246.333	72.69
246.566	74.69
246.8	87.69
247.033	67.69
247.266	75.69
247.5	78.69
247.733	80.69
247.966	81.69
248.2	80.69
248.433	83.69
248.666	80.69
248.899	81.69
249.133	73.69
249.366	89.69
249.599	75.69
249.832	85.69
250.066	84.69
250.299	74.69
250.532	79.69
250.765	78.69
250.998	91.69
251.231	88.69
251.465	89.69
251.698	80.69
251.931	73.69
252.164	86.69
252.397	82.69
252.63	82.69
252.863	76.69
253.096	66.69
253.329	70.69
253.562	67.69
253.795	80.69
254.028	82.69
254.261	64.69
254.494	80.69
254.727	88.69
254.96	83.69
255.193	80.69
255.426	64.69
255.659	80.69
255.892	99.69
256.124	80.69
256.357	96.69
256.59	81.69
256.823	74.69
257.056	90.69
257.289	82.69
257.521	74.69
257.754	78.69
257.987	82.69
258.22	84.69
258.452	94.69
258.685	85.69
258.918	72.69
259.151	81.69
259.383	78.69
259.616	82.69
259.849	68.69
260.081	90.69
260.314	92.69
260.547	75.69
260.779	66.69
261.012	64.69
261.244	77.69
261.477	92.69
261.71	96.69
261.942	99.69
262.175	84.69
262.407	73.69
262.64	79.69
262.872	70.69
263.105	80.69
263.337	90.69
263.57	82.69
263.802	75.69
264.035	74.69
264.267	82.69
264.499	73.69
264.732	100.69
264.964	81.69
265.197	88.69
265.429	78.69
265.661	79.69
265.894	92.69
266.126	92.69
266.358	82.69
266.591	82.69
266.823	87.69
267.055	76.69
267.287	68.69
267.52	94.69
267.752	88.69
267.984	83.69
268.216	84.69
268.448	82.69
268.681	74.69
268.913	98.69
269.145	84.69
269.377	80.69
269.609	68.69
269.841	72.69
270.073	80.69
270.306	90.69
270.538	82.69
270.77	81.69
271.002	81.69
271.234	79.69
271.466	90.69
271.698	86.69
271.93	81.69
272.162	92.69
272.394	90.69
272.626	92.69
272.858	102.69
273.09	85.69
273.322	78.69
273.553	73.69
273.785	86.69
274.017	80.69
274.249	77.69
274.481	82.69
274.713	83.69
274.945	78.69
275.176	78.69
275.408	79.69
275.64	85.69
275.872	86.69
276.104	94.69
276.335	78.69
276.567	97.69
276.799	113.69
277.031	85.69
277.262	89.69
277.494	83.69
277.726	66.69
277.957	90.69
278.189	78.69
278.421	77.69
278.652	80.69
278.884	80.69
279.115	82.69
279.347	88.69
279.579	84.69
279.81	78.69
280.042	86.69
280.273	90.69
280.505	74.69
280.736	97.69
280.968	80.69
281.199	102.69
281.431	91.69
281.662	98.69
281.894	92.69
282.125	99.69
282.356	104.69
282.588	123.69
282.819	98.69
283.051	87.69
283.282	87.69
283.513	87.69
283.745	84.69
283.976	71.69
284.207	82.69
284.439	98.69
284.67	103.69
284.901	87.69
285.132	96.69
285.364	108.69
285.595	85.69
285.826	88.69
286.057	85.69
286.288	89.69
286.52	83.69
286.751	90.69
286.982	89.69
287.213	84.69
287.444	74.69
287.675	88.69
287.906	96.69
288.138	96.69
288.369	74.69
288.6	92.69
288.831	80.69
289.062	86.69
289.293	96.69
289.524	89.69
289.755	101.69
289.986	86.69
290.217	73.69
290.448	86.69
290.679	90.69
290.91	84.69
291.141	85.69
291.371	72.69
291.602	94.69
291.833	90.69
292.064	79.69
292.295	73.69
292.526	98.69
292.757	80.69
292.987	83.69
293.218	71.69
293.449	80.69
293.68	82.69
293.91	90.69
294.141	70.69
294.372	86.69
294.603	75.69
294.833	92.69
295.064	85.69
295.295	90.69
295.525	91.69
295.756	105.69
295.987	98.69
296.217	113.69
296.448	95.69
296.679	90.69
296.909	98.69
297.14	107.69
297.37	85.69
297.601	81.69
297.831	87.69
298.062	85.69
298.292	92.69
298.523	95.69
298.753	80.69
298.984	88.69
299.214	88.69
299.445	94.69
299.675	93.69
299.905	83.69
300.136	75.69
300.366	68.69
300.597	78.69
300.827	75.69
301.057	94.69
301.288	81.69
301.518	83.69
301.748	74.69
301.979	103.69
302.209	81.69
302.439	91.69
302.669	98.69
302.9	94.69
303.13	80.69
303.36	83.69
303.59	84.69
303.82	91.69
304.051	99.69
304.281	81.69
304.511	86.69
304.741	91.69
304.971	84.69
305.201	100.69
305.431	87.69
305.661	84.69
305.891	91.69
306.121	100.69
306.352	84.69
306.582	96.69
306.812	80.69
307.042	84.69
307.272	107.69
307.502	97.69
307.731	98.69
307.961	89.69
308.191	78.69
308.421	87.69
308.651	99.69
308.881	94.69
309.111	91.69
309.341	87.69
309.571	89.69
309.8	91.69
310.03	107.69
310.26	90.69
310.49	72.69
310.72	98.69
310.949	105.69
311.179	93.69
311.409	99.69
311.639	88.69
311.868	89.69
312.098	90.69
312.328	88.69
312.557	86.69
312.787	91.69
313.017	91.69
313.246	88.69
313.476	86.69
313.706	79.69
313.935	92.69
314.165	92.69
314.394	87.69
314.624	86.69
314.853	96.69
315.083	89.69
315.312	86.69
315.542	95.69
315.771	95.69
316.001	88.69
316.23	84.69
316.46	88.69
316.689	85.69
316.919	89.69
317.148	91.69
317.377	83.69
317.607	94.69
317.836	95.69
318.065	94.69
318.295	76.69
318.524	73.69
318.753	73.69
318.983	88.69
319.212	84.69
319.441	98.69
319.67	91.69
319.9	90.69
320.129	90.69
320.358	79.69
320.587	83.69
320.816	90.69
321.046	91.69
321.275	99.69
321.504	94.69
321.733	90.69
321.962	89.69
322.191	81.69
322.42	91.69
322.649	101.69
322.878	106.69
323.108	92.69
323.337	91.69
323.566	119.69
323.795	120.69
324.024	159.69
324.253	281.69
324.482	558.69
324.71	1170.69
324.939	1533.69
325.168	581.69
325.397	170.69
325.626	143.69
325.855	111.69
326.084	106.69
326.313	118.69
326.542	113.69
326.77	190.69
326.999	338.69
327.228	678.69
327.457	1204.69
327.686	969.69
327.914	280.69
328.143	161.69
328.372	130.69
328.6	111.69
328.829	114.69
329.058	108.69
329.287	112.69
329.515	101.69
329.744	106.69
329.972	98.69
330.201	94.69
330.43	121.69
330.658	91.69
330.887	117.69
331.115	109.69
331.344	97.69
331.572	101.69
331.801	108.69
332.03	85.69
332.258	99.69
332.486	89.69
332.715	88.69
332.943	83.69
333.172	86.69
333.4	88.69
333.629	89.69
333.857	112.69
334.085	106.69
334.314	103.69
334.542	113.69
334.771	118.69
334.999	96.69
335.227	96.69
335.455	91.69
335.684	83.69
335.912	96.69
336.14	88.69
336.369	89.69
336.597	77.69
336.825	98.69
337.053	94.69
337.281	76.69
337.51	82.69
337.738	86.69
337.966	87.69
338.194	92.69
338.422	88.69
338.65	93.69
338.878	78.69
339.106	85.69
339.334	87.69
339.562	80.69
339.79	76.69
340.018	86.69
340.246	85.69
340.474	85.69
340.702	85.69
340.93	83.69
341.158	82.69
341.386	91.69
341.614	95.69
341.842	88.69
342.07	97.69
342.298	73.69
342.526	90.69
342.754	72.69
342.981	91.69
343.209	80.69
343.437	92.69
343.665	75.69
343.893	79.69
344.12	96.69
344.348	100.69
344.576	95.69
344.804	89.69
345.031	88.69
345.259	98.69
345.487	104.69
345.714	90.69
345.942	86.69
346.17	87.69
346.397	86.69
346.625	99.69
346.853	90.69
347.08	85.69
347.308	81.69
347.535	85.69
347.763	86.69
347.99	89.69
348.218	93.69
348.445	97.69
348.673	87.69
348.9	91.69
349.128	82.69
349.355	102.69
349.583	84.69
349.81	94.69
350.037	95.69
350.265	93.69
350.492	90.69
350.72	90.69
350.947	97.69
351.174	102.69
351.402	112.69
351.629	96.69
351.856	81.69
352.083	96.69
352.311	92.69
352.538	100.69
352.765	72.69
352.992	98.69
353.22	105.69
353.447	104.69
353.674	94.69
353.901	90.69
354.128	100.69
354.355	88.69
354.583	79.69
354.81	96.69
355.037	99.69
355.264	82.69
355.491	102.69
355.718	83.69
355.945	95.69
356.172	85.69
356.399	78.69
356.626	87.69
356.853	84.69
357.08	98.69
357.307	94.69
357.534	88.69
357.761	98.69
357.988	87.69
358.215	87.69
358.441	92.69
358.668	111.69
358.895	88.69
359.122	84.69
359.349	79.69
359.576	72.69
359.802	85.69
360.029	100.69
360.256	90.69
360.483	91.69
360.709	83.69
360.936	82.69
361.163	88.69
361.39	91.69
361.616	92.69
361.843	73.69
362.07	95.69
362.296	95.69
362.523	80.69
362.749	95.69
362.976	74.69
363.203	94.69
363.429	88.69
363.656	100.69
363.882	89.69
364.109	85.69
364.335	87.69
364.562	90.69
364.788	87.69
365.015	93.69
365.241	96.69
365.468	94.69
365.694	84.69
365.92	83.69
366.147	76.69
366.373	74.69
366.599	76.69
366.826	84.69
367.052	87.69
367.278	77.69
367.505	84.69
367.731	96.69
367.957	87.69
368.184	84.69
368.41	95.69
368.636	100.69
368.862	97.69
369.089	88.69
369.315	79.69
369.541	98.69
369.767	70.69
369.993	86.69
370.219	76.69
370.445	77.69
370.672	69.69
370.898	89.69
371.124	77.69
371.35	66.69
371.576	79.69
371.802	104.69
372.028	99.69
372.254	86.69
372.48	90.69
372.706	83.69
372.932	102.69
373.158	82.69
373.384	92.69
373.61	89.69
373.835	91.69
374.061	76.69
374.287	92.69
374.513	92.69
374.739	68.69
374.965	87.69
375.191	82.69
375.416	84.69
375.642	73.69
375.868	91.69
376.094	72.69
376.319	83.69
376.545	88.69
376.771	88.69
376.997	88.69
377.222	96.69
377.448	92.69
377.674	78.69
377.899	100.69
378.125	79.69
378.35	88.69
378.576	85.69
378.802	84.69
379.027	84.69
379.253	79.69
379.478	90.69
379.704	80.69
379.929	79.69
380.155	87.69
380.38	89.69
380.606	74.69
380.831	82.69
381.057	100.69
381.282	95.69
381.507	95.69
381.733	96.69
381.958	101.69
382.184	82.69
382.409	95.69
382.634	93.69
382.86	93.69
383.085	86.69
383.31	88.69
383.535	88.69
383.761	99.69
383.986	89.69
384.211	85.69
384.436	91.69
384.662	94.69
384.887	102.69
385.112	87.69
385.337	119.69
385.562	108.69
385.787	102.69
386.013	117.69
386.238	92.69
386.463	103.69
386.688	114.69
386.913	92.69
387.138	96.69
387.363	90.69
387.588	98.69
387.813	113.69
388.038	101.69
388.263	109.69
388.488	94.69
388.713	106.69
388.938	91.69
389.163	85.69
389.387	93.69
389.612	101.69
389.837	88.69
390.062	87.69
390.287	83.69
390.512	86.69
390.736	88.69
390.961	83.69
391.186	95.69
391.411	99.69
391.636	99.69
391.86	85.69
392.085	99.69
392.31	86.69
392.534	78.69
392.759	82.69
392.984	87.69
393.208	72.69
393.433	89.69
393.658	81.69
393.882	67.69
394.107	75.69
394.331	73.69
394.556	90.69
394.78	87.69
395.005	79.69
395.229	82.69
395.454	86.69
395.678	87.69
395.903	90.69
396.127	99.69
396.352	92.69
396.576	71.69
396.801	89.69
397.025	72.69
397.249	82.69
397.474	95.69
397.698	79.69
397.922	61.69
398.147	73.69
398.371	89.69
398.595	84.69
398.82	84.69
399.044	73.69
399.268	70.69
399.492	72.69
399.717	84.69
399.941	83.69
400.165	93.69
400.389	93.69
400.613	81.69
400.837	93.69
401.062	89.69
401.286	86.69
401.51	87.69
401.734	79.69
401.958	85.69
402.182	94.69
402.406	114.69
402.63	104.69
402.854	86.69
403.078	81.69
403.302	78.69
403.526	77.69
403.75	83.69
403.974	92.69
404.198	82.69
404.422	70.69
404.645	89.69
404.869	83.69
405.093	96.69
405.317	67.69
405.541	114.69
405.765	100.69
405.988	91.69
406.212	128.69
406.436	163.69
406.66	115.69
406.883	99.69
407.107	79.69
407.331	80.69
407.555	90.69
407.778	86.69
408.002	75.69
408.226	74.69
408.449	70.69
408.673	90.69
408.896	73.69
409.12	84.69
409.344	87.69
409.567	90.69
409.791	100.69
410.014	90.69
410.238	86.69
410.461	79.69
410.685	75.69
410.908	94.69
411.132	100.69
411.355	103.69
411.578	88.69
411.802	88.69
412.025	85.69
412.249	86.69
412.472	98.69
412.695	98.69
412.919	91.69
413.142	103.69
413.365	92.69
413.589	94.69
413.812	86.69
414.035	94.69
414.258	79.69
414.482	87.69
414.705	87.69
414.928	83.69
415.151	87.69
415.374	66.69
415.597	94.69
415.821	92.69
416.044	90.69
416.267	91.69
416.49	75.69
416.713	95.69
416.936	105.69
417.159	86.69
417.382	81.69
417.605	87.69
417.828	78.69
418.051	73.69
418.274	84.69
418.497	80.69
418.72	86.69
418.943	80.69
419.166	89.69
419.389	88.69
419.611	75.69
419.834	84.69
420.057	78.69
420.28	81.69
420.503	86.69
420.726	81.69
420.948	81.69
421.171	80.69
421.394	89.69
421.617	80.69
421.839	80.69
422.062	88.69
422.285	81.69
422.507	88.69
422.73	92.69
422.953	84.69
423.175	96.69
423.398	97.69
423.621	74.69
423.843	81.69
424.066	97.69
424.288	73.69
424.511	75.69
424.733	98.69
424.956	88.69
425.178	88.69
425.401	91.69
425.623	89.69
425.846	82.69
426.068	89.69
426.291	74.69
426.513	70.69
426.735	99.69
426.958	93.69
427.18	98.69
427.402	105.69
427.625	116.69
427.847	110.69
428.069	100.69
428.292	80.69
428.514	81.69
428.736	96.69
428.958	79.69
429.181	61.69
429.403	87.69
429.625	85.69
429.847	82.69
430.069	82.69
430.292	85.69
430.514	81.69
430.736	86.69
430.958	71.69
431.18	74.69
431.402	74.69
431.624	87.69
431.846	82.69
432.068	88.69
432.29	73.69
432.512	84.69
432.734	82.69
432.956	77.69
433.178	87.69
433.4	110.69
433.622	86.69
433.844	91.69
434.066	85.69
434.287	94.69
434.509	80.69
434.731	91.69
434.953	95.69
435.175	66.69
435.397	90.69
435.618	89.69
435.84	84.69
436.062	113.69
436.284	88.69
436.505	87.69
436.727	84.69
436.949	84.69
437.17	76.69
437.392	81.69
437.614	78.69
437.835	78.69
438.057	87.69
438.278	104.69
438.5	99.69
438.721	121.69
438.943	86.69
439.165	94.69
439.386	94.69
439.608	87.69
439.829	87.69
440.05	97.69
440.272	109.69
440.493	79.69
440.715	78.69
440.936	86.69
441.158	97.69
441.379	87.69
441.6	88.69
441.822	91.69
442.043	86.69
442.264	82.69
442.486	94.69
442.707	95.69
442.928	85.69
443.149	106.69
443.371	104.69
443.592	102.69
443.813	97.69
444.034	94.69
444.255	85.69
444.476	78.69
444.698	100.69
444.919	88.69
445.14	129.69
445.361	119.69
445.582	94.69
445.803	118.69
446.024	100.69
446.245	113.69
446.466	82.69
446.687	91.69
446.908	69.69
447.129	88.69
447.35	82.69
447.571	86.69
447.792	76.69
448.013	82.69
448.234	109.69
448.455	92.69
448.675	101.69
448.896	101.69
449.117	86.69
449.338	100.69
449.559	104.69
449.779	104.69
450	92.69
450.221	95.69
450.442	75.69
450.662	72.69
450.883	99.69
451.104	103.69
451.324	88.69
451.545	79.69
451.766	66.69
451.986	78.69
452.207	82.69
452.428	89.69
452.648	75.69
452.869	90.69
453.089	89.69
453.31	99.69
453.53	93.69
453.751	77.69
453.971	90.69
454.192	85.69
454.412	70.69
454.633	77.69
454.853	86.69
455.073	83.69
455.294	84.69
455.514	83.69
455.734	87.69
455.955	84.69
456.175	94.69
456.395	94.69
456.616	87.69
456.836	85.69
457.056	92.69
457.276	91.69
457.497	81.69
457.717	68.69
457.937	77.69
458.157	74.69
458.377	83.69
458.598	93.69
458.818	116.69
459.038	127.69
459.258	74.69
459.478	92.69
459.698	91.69
459.918	102.69
460.138	73.69
460.358	89.69
460.578	83.69
460.798	87.69
461.018	75.69
461.238	85.69
461.458	86.69
461.678	78.69
461.898	86.69
462.118	74.69
462.338	79.69
462.558	96.69
462.777	88.69
462.997	81.69
463.217	97.69
463.437	82.69
463.657	84.69
463.876	79.69
464.096	77.69
464.316	106.69
464.536	86.69
464.755	93.69
464.975	89.69
465.195	121.69
465.414	121.69
465.634	87.69
465.854	85.69
466.073	71.69
466.293	86.69
466.512	90.69
466.732	91.69
466.951	86.69
467.171	86.69
467.391	84.69
467.61	87.69
467.829	97.69
468.049	95.69
468.268	96.69
468.488	101.69
468.707	82.69
468.927	64.69
469.146	78.69
469.365	75.69
469.585	99.69
469.804	88.69
470.023	85.69
470.243	82.69
470.462	68.69
470.681	87.69
470.901	88.69
471.12	87.69
471.339	87.69
471.558	91.69
471.777	99.69
471.997	75.69
472.216	104.69
472.435	125.69
472.654	90.69
472.873	82.69
473.092	79.69
473.311	76.69
473.53	82.69
473.749	74.69
473.968	90.69
474.187	95.69
474.406	92.69
474.625	88.69
474.844	73.69
475.063	89.69
475.282	97.69
475.501	84.69
475.72	75.69
475.939	90.69
476.158	94.69
476.377	86.69
476.596	88.69
476.814	90.69
477.033	86.69
477.252	85.69
477.471	94.69
477.69	85.69
477.908	86.69
478.127	82.69
478.346	85.69
478.564	93.69
478.783	86.69
479.002	77.69
479.22	81.69
479.439	80.69
479.658	88.69
479.876	81.69
480.095	90.69
480.313	91.69
480.532	87.69
480.751	90.69
480.969	95.69
481.188	153.69
481.406	131.69
481.624	85.69
481.843	86.69
482.061	95.69
482.28	78.69
482.498	74.69
482.717	81.69
482.935	86.69
483.153	104.69
483.372	79.69
483.59	97.69
483.808	83.69
484.027	83.69
484.245	93.69
484.463	90.69
484.681	89.69
484.9	84.69
485.118	91.69
485.336	89.69
485.554	83.69
485.772	94.69
485.99	86.69
486.209	96.69
486.427	79.69
486.645	105.69
486.863	93.69
487.081	82.69
487.299	91.69
487.517	89.69
487.735	88.69
487.953	84.69
488.171	96.69
488.389	96.69
488.607	101.69
488.825	90.69
489.043	76.69
489.261	78.69
489.479	90.69
489.696	82.69
489.914	96.69
490.132	86.69
490.35	81.69
490.568	82.69
490.786	83.69
491.003	93.69
491.221	88.69
491.439	81.69
491.657	82.69
491.874	87.69
492.092	90.69
492.31	100.69
492.527	89.69
492.745	75.69
492.963	70.69
493.18	80.69
493.398	97.69
493.615	98.69
493.833	84.69
494.05	80.69
494.268	72.69
494.485	84.69
494.703	87.69
494.92	81.69
495.138	96.69
495.355	98.69
495.573	90.69
495.79	89.69
496.008	81.69
496.225	96.69
496.442	76.69
496.66	86.69
496.877	81.69
497.094	95.69
497.312	97.69
497.529	70.69
497.746	84.69
497.963	87.69
498.181	95.69
498.398	92.69
498.615	104.69
498.832	102.69
499.049	99.69
499.267	82.69
499.484	74.69
499.701	96.69
499.918	81.69
500.135	87.69
500.352	83.69
500.569	91.69
500.786	88.69
501.003	99.69
501.22	102.69
501.437	91.69
501.654	93.69
501.871	96.69
502.088	82.69
502.305	86.69
502.522	91.69
502.739	87.69
502.956	98.69
503.172	89.69
503.389	97.69
503.606	88.69
503.823	106.69
504.04	83.69
504.256	91.69
504.473	96.69
504.69	91.69
504.907	88.69
505.123	97.69
505.34	88.69
505.557	80.69
505.773	96.69
505.99	98.69
506.207	98.69
506.423	84.69
506.64	81.69
506.856	78.69
507.073	84.69
507.289	101.69
507.506	98.69
507.722	104.69
507.939	96.69
508.155	96.69
508.372	98.69
508.588	88.69
508.805	86.69
509.021	97.69
509.238	107.69
509.454	94.69
509.67	95.69
509.887	100.69
510.103	105.69
510.319	170.69
510.536	510.69
510.752	1534.69
510.968	451.69
511.184	115.69
511.401	92.69
511.617	92.69
511.833	95.69
512.049	88.69
512.265	93.69
512.481	96.69
512.698	92.69
512.914	74.69
513.13	95.69
513.346	88.69
513.562	90.69
513.778	90.69
513.994	85.69
514.21	95.69
514.426	96.69
514.642	111.69
514.858	108.69
515.074	116.69
515.29	279.69
515.506	825.69
515.721	330.69
515.937	117.69
516.153	89.69
516.369	99.69
516.585	94.69
516.801	80.69
517.016	86.69
517.232	84.69
517.448	99.69
517.664	83.69
517.879	86.69
