Data from Uncirc_1982_H10_HRD10591_00098.txt Node
Date: Wed Jan 03 12:29:44 EST 2024
User: Yrep
Spectrometer: HR+D1059
Trigger mode: 1
Integration Time (sec): 1.000000E-1
Scans to average: 1
Electric dark correction enabled: true
Nonlinearity correction enabled: false
Boxcar width: 0
XAxis mode: Wavelengths
Number of Pixels in Spectrum: 2048
>>>>>Begin Spectral Data<<<<<
223.165	-5.62
223.4	-5.62
223.635	-5.62
223.869	-20.62
224.104	-26.62
224.338	-13.62
224.573	-12.62
224.808	-19.62
225.042	-0.62
225.277	-4.62
225.511	-16.62
225.746	9.38
225.98	-4.62
226.215	21.38
226.449	19.38
226.683	16.38
226.918	27.38
227.152	31.38
227.387	31.38
227.621	25.38
227.856	37.38
228.09	45.38
228.324	49.38
228.559	38.38
228.793	52.38
229.027	53.38
229.262	61.38
229.496	66.38
229.73	81.38
229.964	75.38
230.199	79.38
230.433	81.38
230.667	72.38
230.901	75.38
231.136	75.38
231.37	88.38
231.604	86.38
231.838	80.38
232.072	88.38
232.306	74.38
232.541	71.38
232.775	72.38
233.009	84.38
233.243	89.38
233.477	75.38
233.711	86.38
233.945	74.38
234.179	71.38
234.413	78.38
234.647	74.38
234.881	72.38
235.115	66.38
235.349	85.38
235.583	73.38
235.817	105.38
236.051	74.38
236.285	79.38
236.519	74.38
236.753	83.38
236.987	83.38
237.221	72.38
237.455	88.38
237.689	80.38
237.922	61.38
238.156	69.38
238.39	71.38
238.624	81.38
238.858	90.38
239.091	74.38
239.325	83.38
239.559	76.38
239.793	66.38
240.027	66.38
240.26	67.38
240.494	80.38
240.728	69.38
240.961	61.38
241.195	80.38
241.429	75.38
241.662	60.38
241.896	81.38
242.13	79.38
242.363	84.38
242.597	87.38
242.83	82.38
243.064	78.38
243.298	92.38
243.531	84.38
243.765	65.38
243.998	80.38
244.232	78.38
244.465	82.38
244.699	88.38
244.932	76.38
245.166	81.38
245.399	78.38
245.633	66.38
245.866	72.38
246.099	77.38
246.333	68.38
246.566	83.38
246.8	80.38
247.033	71.38
247.266	74.38
247.5	78.38
247.733	82.38
247.966	81.38
248.2	79.38
248.433	83.38
248.666	74.38
248.899	77.38
249.133	85.38
249.366	92.38
249.599	104.38
249.832	86.38
250.066	79.38
250.299	96.38
250.532	93.38
250.765	86.38
250.998	88.38
251.231	85.38
251.465	73.38
251.698	69.38
251.931	87.38
252.164	73.38
252.397	70.38
252.63	79.38
252.863	78.38
253.096	81.38
253.329	89.38
253.562	83.38
253.795	83.38
254.028	74.38
254.261	83.38
254.494	80.38
254.727	73.38
254.96	64.38
255.193	78.38
255.426	61.38
255.659	69.38
255.892	79.38
256.124	83.38
256.357	76.38
256.59	71.38
256.823	74.38
257.056	77.38
257.289	82.38
257.521	81.38
257.754	75.38
257.987	83.38
258.22	80.38
258.452	83.38
258.685	82.38
258.918	75.38
259.151	70.38
259.383	96.38
259.616	82.38
259.849	85.38
260.081	69.38
260.314	79.38
260.547	82.38
260.779	90.38
261.012	82.38
261.244	68.38
261.477	102.38
261.71	92.38
261.942	99.38
262.175	106.38
262.407	89.38
262.64	86.38
262.872	80.38
263.105	84.38
263.337	87.38
263.57	86.38
263.802	71.38
264.035	77.38
264.267	86.38
264.499	89.38
264.732	80.38
264.964	83.38
265.197	80.38
265.429	83.38
265.661	104.38
265.894	92.38
266.126	101.38
266.358	81.38
266.591	92.38
266.823	97.38
267.055	87.38
267.287	78.38
267.52	104.38
267.752	85.38
267.984	87.38
268.216	69.38
268.448	81.38
268.681	87.38
268.913	80.38
269.145	103.38
269.377	83.38
269.609	86.38
269.841	85.38
270.073	89.38
270.306	83.38
270.538	91.38
270.77	89.38
271.002	81.38
271.234	79.38
271.466	82.38
271.698	77.38
271.93	77.38
272.162	81.38
272.394	92.38
272.626	76.38
272.858	92.38
273.09	95.38
273.322	81.38
273.553	84.38
273.785	85.38
274.017	69.38
274.249	71.38
274.481	69.38
274.713	88.38
274.945	81.38
275.176	87.38
275.408	80.38
275.64	68.38
275.872	87.38
276.104	88.38
276.335	95.38
276.567	88.38
276.799	97.38
277.031	97.38
277.262	88.38
277.494	84.38
277.726	77.38
277.957	83.38
278.189	75.38
278.421	82.38
278.652	77.38
278.884	99.38
279.115	79.38
279.347	100.38
279.579	84.38
279.81	74.38
280.042	77.38
280.273	85.38
280.505	90.38
280.736	77.38
280.968	84.38
281.199	75.38
281.431	76.38
281.662	83.38
281.894	88.38
282.125	89.38
282.356	100.38
282.588	119.38
282.819	114.38
283.051	83.38
283.282	72.38
283.513	99.38
283.745	94.38
283.976	92.38
284.207	82.38
284.439	101.38
284.67	89.38
284.901	79.38
285.132	81.38
285.364	83.38
285.595	96.38
285.826	88.38
286.057	82.38
286.288	85.38
286.52	85.38
286.751	90.38
286.982	83.38
287.213	88.38
287.444	73.38
287.675	76.38
287.906	73.38
288.138	83.38
288.369	83.38
288.6	78.38
288.831	91.38
289.062	81.38
289.293	91.38
289.524	92.38
289.755	81.38
289.986	70.38
290.217	89.38
290.448	77.38
290.679	75.38
290.91	84.38
291.141	81.38
291.371	83.38
291.602	87.38
291.833	92.38
292.064	90.38
292.295	95.38
292.526	101.38
292.757	85.38
292.987	91.38
293.218	98.38
293.449	95.38
293.68	91.38
293.91	90.38
294.141	85.38
294.372	89.38
294.603	92.38
294.833	91.38
295.064	97.38
295.295	91.38
295.525	82.38
295.756	95.38
295.987	105.38
296.217	113.38
296.448	103.38
296.679	98.38
296.909	80.38
297.14	84.38
297.37	95.38
297.601	83.38
297.831	98.38
298.062	100.38
298.292	92.38
298.523	94.38
298.753	97.38
298.984	93.38
299.214	83.38
299.445	82.38
299.675	97.38
299.905	89.38
300.136	81.38
300.366	81.38
300.597	90.38
300.827	81.38
301.057	87.38
301.288	115.38
301.518	98.38
301.748	96.38
301.979	89.38
302.209	95.38
302.439	74.38
302.669	70.38
302.9	92.38
303.13	100.38
303.36	96.38
303.59	94.38
303.82	102.38
304.051	90.38
304.281	76.38
304.511	93.38
304.741	89.38
304.971	81.38
305.201	97.38
305.431	85.38
305.661	87.38
305.891	92.38
306.121	92.38
306.352	92.38
306.582	102.38
306.812	85.38
307.042	70.38
307.272	105.38
307.502	89.38
307.731	92.38
307.961	89.38
308.191	95.38
308.421	84.38
308.651	83.38
308.881	85.38
309.111	90.38
309.341	101.38
309.571	85.38
309.8	111.38
310.03	92.38
310.26	82.38
310.49	92.38
310.72	102.38
310.949	91.38
311.179	75.38
311.409	95.38
311.639	90.38
311.868	100.38
312.098	94.38
312.328	91.38
312.557	95.38
312.787	108.38
313.017	100.38
313.246	92.38
313.476	80.38
313.706	90.38
313.935	104.38
314.165	98.38
314.394	89.38
314.624	104.38
314.853	91.38
315.083	79.38
315.312	85.38
315.542	83.38
315.771	66.38
316.001	92.38
316.23	84.38
316.46	83.38
316.689	88.38
316.919	88.38
317.148	83.38
317.377	84.38
317.607	74.38
317.836	94.38
318.065	89.38
318.295	99.38
318.524	87.38
318.753	100.38
318.983	87.38
319.212	99.38
319.441	96.38
319.67	95.38
319.9	85.38
320.129	92.38
320.358	90.38
320.587	98.38
320.816	79.38
321.046	92.38
321.275	92.38
321.504	103.38
321.733	95.38
321.962	100.38
322.191	104.38
322.42	94.38
322.649	109.38
322.878	106.38
323.108	111.38
323.337	105.38
323.566	115.38
323.795	129.38
324.024	185.38
324.253	315.38
324.482	688.38
324.71	1381.38
324.939	1848.38
325.168	653.38
325.397	195.38
325.626	132.38
325.855	122.38
326.084	107.38
326.313	113.38
326.542	134.38
326.77	206.38
326.999	402.38
327.228	769.38
327.457	1421.38
327.686	1135.38
327.914	324.38
328.143	167.38
328.372	123.38
328.6	108.38
328.829	98.38
329.058	128.38
329.287	106.38
329.515	99.38
329.744	108.38
329.972	103.38
330.201	108.38
330.43	104.38
330.658	105.38
330.887	118.38
331.115	108.38
331.344	89.38
331.572	97.38
331.801	103.38
332.03	94.38
332.258	96.38
332.486	89.38
332.715	84.38
332.943	95.38
333.172	92.38
333.4	94.38
333.629	102.38
333.857	101.38
334.085	118.38
334.314	109.38
334.542	122.38
334.771	136.38
334.999	94.38
335.227	85.38
335.455	97.38
335.684	107.38
335.912	77.38
336.14	90.38
336.369	112.38
336.597	104.38
336.825	102.38
337.053	110.38
337.281	88.38
337.51	94.38
337.738	90.38
337.966	84.38
338.194	96.38
338.422	94.38
338.65	89.38
338.878	76.38
339.106	90.38
339.334	93.38
339.562	91.38
339.79	109.38
340.018	81.38
340.246	90.38
340.474	95.38
340.702	92.38
340.93	102.38
341.158	95.38
341.386	104.38
341.614	99.38
341.842	72.38
342.07	90.38
342.298	92.38
342.526	84.38
342.754	73.38
342.981	85.38
343.209	76.38
343.437	98.38
343.665	96.38
343.893	95.38
344.12	112.38
344.348	76.38
344.576	74.38
344.804	97.38
345.031	93.38
345.259	107.38
345.487	95.38
345.714	87.38
345.942	86.38
346.17	86.38
346.397	97.38
346.625	108.38
346.853	97.38
347.08	86.38
347.308	90.38
347.535	97.38
347.763	99.38
347.99	93.38
348.218	91.38
348.445	92.38
348.673	95.38
348.9	92.38
349.128	92.38
349.355	88.38
349.583	92.38
349.81	84.38
350.037	89.38
350.265	90.38
350.492	85.38
350.72	100.38
350.947	109.38
351.174	88.38
351.402	100.38
351.629	96.38
351.856	100.38
352.083	96.38
352.311	93.38
352.538	88.38
352.765	114.38
352.992	106.38
353.22	107.38
353.447	99.38
353.674	96.38
353.901	97.38
354.128	99.38
354.355	73.38
354.583	98.38
354.81	100.38
355.037	105.38
355.264	97.38
355.491	86.38
355.718	76.38
355.945	90.38
356.172	87.38
356.399	84.38
356.626	92.38
356.853	108.38
357.08	97.38
357.307	88.38
357.534	96.38
357.761	95.38
357.988	83.38
358.215	81.38
358.441	99.38
358.668	93.38
358.895	76.38
359.122	100.38
359.349	87.38
359.576	89.38
359.802	110.38
360.029	115.38
360.256	99.38
360.483	111.38
360.709	99.38
360.936	83.38
361.163	94.38
361.39	85.38
361.616	102.38
361.843	87.38
362.07	91.38
362.296	98.38
362.523	83.38
362.749	65.38
362.976	95.38
363.203	89.38
363.429	87.38
363.656	89.38
363.882	98.38
364.109	101.38
364.335	93.38
364.562	101.38
364.788	92.38
365.015	93.38
365.241	88.38
365.468	95.38
365.694	96.38
365.92	85.38
366.147	80.38
366.373	76.38
366.599	98.38
366.826	95.38
367.052	81.38
367.278	88.38
367.505	92.38
367.731	95.38
367.957	87.38
368.184	101.38
368.41	92.38
368.636	105.38
368.862	101.38
369.089	95.38
369.315	88.38
369.541	83.38
369.767	82.38
369.993	99.38
370.219	83.38
370.445	86.38
370.672	92.38
370.898	77.38
371.124	84.38
371.35	69.38
371.576	92.38
371.802	85.38
372.028	79.38
372.254	89.38
372.48	80.38
372.706	92.38
372.932	95.38
373.158	93.38
373.384	84.38
373.61	90.38
373.835	108.38
374.061	92.38
374.287	87.38
374.513	69.38
374.739	83.38
374.965	79.38
375.191	102.38
375.416	95.38
375.642	89.38
375.868	96.38
376.094	88.38
376.319	93.38
376.545	75.38
376.771	99.38
376.997	91.38
377.222	92.38
377.448	84.38
377.674	84.38
377.899	78.38
378.125	97.38
378.35	83.38
378.576	81.38
378.802	90.38
379.027	87.38
379.253	92.38
379.478	71.38
379.704	99.38
379.929	85.38
380.155	90.38
380.38	89.38
380.606	102.38
380.831	91.38
381.057	97.38
381.282	84.38
381.507	107.38
381.733	87.38
381.958	90.38
382.184	96.38
382.409	105.38
382.634	95.38
382.86	92.38
383.085	99.38
383.31	97.38
383.535	114.38
383.761	91.38
383.986	100.38
384.211	87.38
384.436	102.38
384.662	91.38
384.887	104.38
385.112	100.38
385.337	108.38
385.562	98.38
385.787	107.38
386.013	102.38
386.238	112.38
386.463	99.38
386.688	107.38
386.913	102.38
387.138	105.38
387.363	110.38
387.588	105.38
387.813	99.38
388.038	96.38
388.263	105.38
388.488	98.38
388.713	95.38
388.938	77.38
389.163	95.38
389.387	102.38
389.612	107.38
389.837	90.38
390.062	86.38
390.287	87.38
390.512	95.38
390.736	86.38
390.961	104.38
391.186	90.38
391.411	98.38
391.636	91.38
391.86	90.38
392.085	81.38
392.31	70.38
392.534	92.38
392.759	67.38
392.984	64.38
393.208	87.38
393.433	89.38
393.658	81.38
393.882	79.38
394.107	82.38
394.331	84.38
394.556	80.38
394.78	77.38
395.005	87.38
395.229	81.38
395.454	94.38
395.678	83.38
395.903	94.38
396.127	78.38
396.352	77.38
396.576	82.38
396.801	88.38
397.025	82.38
397.249	82.38
397.474	82.38
397.698	83.38
397.922	80.38
398.147	75.38
398.371	86.38
398.595	99.38
398.82	97.38
399.044	88.38
399.268	82.38
399.492	85.38
399.717	86.38
399.941	91.38
400.165	88.38
400.389	82.38
400.613	102.38
400.837	89.38
401.062	87.38
401.286	74.38
401.51	95.38
401.734	87.38
401.958	104.38
402.182	112.38
402.406	127.38
402.63	108.38
402.854	95.38
403.078	98.38
403.302	79.38
403.526	83.38
403.75	91.38
403.974	88.38
404.198	77.38
404.422	83.38
404.645	97.38
404.869	78.38
405.093	90.38
405.317	101.38
405.541	80.38
405.765	101.38
405.988	101.38
406.212	136.38
406.436	182.38
406.66	127.38
406.883	97.38
407.107	92.38
407.331	87.38
407.555	101.38
407.778	84.38
408.002	76.38
408.226	79.38
408.449	85.38
408.673	93.38
408.896	80.38
409.12	90.38
409.344	106.38
409.567	98.38
409.791	90.38
410.014	87.38
410.238	104.38
410.461	99.38
410.685	105.38
410.908	100.38
411.132	95.38
411.355	91.38
411.578	100.38
411.802	87.38
412.025	92.38
412.249	83.38
412.472	89.38
412.695	96.38
412.919	87.38
413.142	92.38
413.365	85.38
413.589	96.38
413.812	81.38
414.035	109.38
414.258	113.38
414.482	82.38
414.705	92.38
414.928	79.38
415.151	88.38
415.374	83.38
415.597	90.38
415.821	79.38
416.044	72.38
416.267	97.38
416.49	85.38
416.713	76.38
416.936	94.38
417.159	76.38
417.382	89.38
417.605	95.38
417.828	76.38
418.051	81.38
418.274	93.38
418.497	74.38
418.72	95.38
418.943	89.38
419.166	107.38
419.389	82.38
419.611	115.38
419.834	104.38
420.057	86.38
420.28	105.38
420.503	91.38
420.726	89.38
420.948	114.38
421.171	87.38
421.394	89.38
421.617	89.38
421.839	89.38
422.062	80.38
422.285	83.38
422.507	96.38
422.73	89.38
422.953	80.38
423.175	77.38
423.398	87.38
423.621	88.38
423.843	93.38
424.066	80.38
424.288	79.38
424.511	81.38
424.733	76.38
424.956	87.38
425.178	100.38
425.401	83.38
425.623	100.38
425.846	86.38
426.068	92.38
426.291	91.38
426.513	73.38
426.735	84.38
426.958	91.38
427.18	100.38
427.402	114.38
427.625	141.38
427.847	128.38
428.069	118.38
428.292	84.38
428.514	90.38
428.736	91.38
428.958	67.38
429.181	81.38
429.403	89.38
429.625	87.38
429.847	86.38
430.069	90.38
430.292	84.38
430.514	88.38
430.736	75.38
430.958	83.38
431.18	99.38
431.402	91.38
431.624	73.38
431.846	91.38
432.068	92.38
432.29	75.38
432.512	95.38
432.734	86.38
432.956	69.38
433.178	95.38
433.4	100.38
433.622	88.38
433.844	81.38
434.066	89.38
434.287	85.38
434.509	106.38
434.731	104.38
434.953	84.38
435.175	91.38
435.397	96.38
435.618	89.38
435.84	97.38
436.062	111.38
436.284	107.38
436.505	101.38
436.727	109.38
436.949	108.38
437.17	98.38
437.392	95.38
437.614	82.38
437.835	94.38
438.057	113.38
438.278	92.38
438.5	109.38
438.721	113.38
438.943	87.38
439.165	82.38
439.386	80.38
439.608	73.38
439.829	100.38
440.05	106.38
440.272	129.38
440.493	96.38
440.715	90.38
440.936	81.38
441.158	88.38
441.379	81.38
441.6	85.38
441.822	84.38
442.043	86.38
442.264	101.38
442.486	106.38
442.707	107.38
442.928	96.38
443.149	105.38
443.371	123.38
443.592	90.38
443.813	90.38
444.034	104.38
444.255	84.38
444.476	98.38
444.698	83.38
444.919	85.38
445.14	134.38
445.361	116.38
445.582	95.38
445.803	124.38
446.024	126.38
446.245	116.38
446.466	98.38
446.687	86.38
446.908	91.38
447.129	79.38
447.35	86.38
447.571	95.38
447.792	89.38
448.013	91.38
448.234	101.38
448.455	108.38
448.675	96.38
448.896	92.38
449.117	81.38
449.338	104.38
449.559	107.38
449.779	118.38
450	91.38
450.221	78.38
450.442	81.38
450.662	96.38
450.883	103.38
451.104	92.38
451.324	104.38
451.545	92.38
451.766	100.38
451.986	77.38
452.207	92.38
452.428	82.38
452.648	90.38
452.869	92.38
453.089	88.38
453.31	101.38
453.53	99.38
453.751	98.38
453.971	105.38
454.192	117.38
454.412	83.38
454.633	92.38
454.853	76.38
455.073	85.38
455.294	89.38
455.514	97.38
455.734	89.38
455.955	96.38
456.175	86.38
456.395	65.38
456.616	83.38
456.836	71.38
457.056	79.38
457.276	95.38
457.497	96.38
457.717	87.38
457.937	80.38
458.157	86.38
458.377	69.38
458.598	86.38
458.818	122.38
459.038	120.38
459.258	104.38
459.478	79.38
459.698	95.38
459.918	99.38
460.138	83.38
460.358	71.38
460.578	82.38
460.798	71.38
461.018	84.38
461.238	77.38
461.458	100.38
461.678	97.38
461.898	89.38
462.118	97.38
462.338	96.38
462.558	91.38
462.777	78.38
462.997	90.38
463.217	89.38
463.437	82.38
463.657	97.38
463.876	91.38
464.096	95.38
464.316	85.38
464.536	81.38
464.755	90.38
464.975	91.38
465.195	130.38
465.414	132.38
465.634	91.38
465.854	83.38
466.073	85.38
466.293	86.38
466.512	81.38
466.732	79.38
466.951	93.38
467.171	89.38
467.391	79.38
467.61	109.38
467.829	89.38
468.049	92.38
468.268	96.38
468.488	89.38
468.707	86.38
468.927	83.38
469.146	85.38
469.365	93.38
469.585	74.38
469.804	93.38
470.023	93.38
470.243	88.38
470.462	96.38
470.681	99.38
470.901	91.38
471.12	89.38
471.339	88.38
471.558	85.38
471.777	83.38
471.997	95.38
472.216	125.38
472.435	113.38
472.654	101.38
472.873	95.38
473.092	86.38
473.311	85.38
473.53	81.38
473.749	72.38
473.968	88.38
474.187	92.38
474.406	92.38
474.625	70.38
474.844	92.38
475.063	80.38
475.282	82.38
475.501	64.38
475.72	69.38
475.939	86.38
476.158	91.38
476.377	81.38
476.596	97.38
476.814	94.38
477.033	108.38
477.252	89.38
477.471	98.38
477.69	87.38
477.908	81.38
478.127	75.38
478.346	98.38
478.564	83.38
478.783	100.38
479.002	98.38
479.22	86.38
479.439	96.38
479.658	109.38
479.876	102.38
480.095	90.38
480.313	89.38
480.532	84.38
480.751	98.38
480.969	121.38
481.188	178.38
481.406	146.38
481.624	92.38
481.843	93.38
482.061	100.38
482.28	83.38
482.498	75.38
482.717	85.38
482.935	93.38
483.153	88.38
483.372	96.38
483.59	82.38
483.808	95.38
484.027	102.38
484.245	89.38
484.463	97.38
484.681	106.38
484.9	85.38
485.118	88.38
485.336	100.38
485.554	90.38
485.772	95.38
485.99	105.38
486.209	101.38
486.427	101.38
486.645	96.38
486.863	104.38
487.081	99.38
487.299	93.38
487.517	101.38
487.735	93.38
487.953	98.38
488.171	97.38
488.389	106.38
488.607	100.38
488.825	99.38
489.043	99.38
489.261	90.38
489.479	99.38
489.696	97.38
489.914	90.38
490.132	75.38
490.35	90.38
490.568	79.38
490.786	101.38
491.003	97.38
491.221	108.38
491.439	95.38
491.657	105.38
491.874	83.38
492.092	83.38
492.31	108.38
492.527	88.38
492.745	81.38
492.963	95.38
493.18	80.38
493.398	98.38
493.615	105.38
493.833	105.38
494.05	85.38
494.268	90.38
494.485	103.38
494.703	84.38
494.92	83.38
495.138	83.38
495.355	97.38
495.573	85.38
495.79	83.38
496.008	92.38
496.225	82.38
496.442	93.38
496.66	90.38
496.877	87.38
497.094	94.38
497.312	105.38
497.529	84.38
497.746	101.38
497.963	90.38
498.181	87.38
498.398	95.38
498.615	107.38
498.832	110.38
499.049	88.38
499.267	92.38
499.484	77.38
499.701	91.38
499.918	97.38
500.135	87.38
500.352	109.38
500.569	79.38
500.786	89.38
501.003	65.38
501.22	106.38
501.437	84.38
501.654	95.38
501.871	96.38
502.088	94.38
502.305	88.38
502.522	102.38
502.739	75.38
502.956	96.38
503.172	103.38
503.389	104.38
503.606	95.38
503.823	93.38
504.04	83.38
504.256	89.38
504.473	88.38
504.69	92.38
504.907	83.38
505.123	91.38
505.34	75.38
505.557	106.38
505.773	87.38
505.99	83.38
506.207	102.38
506.423	87.38
506.64	94.38
506.856	103.38
507.073	85.38
507.289	98.38
507.506	91.38
507.722	104.38
507.939	90.38
508.155	95.38
508.372	83.38
508.588	88.38
508.805	88.38
509.021	96.38
509.238	97.38
509.454	87.38
509.67	77.38
509.887	93.38
510.103	122.38
510.319	179.38
510.536	608.38
510.752	1773.38
510.968	501.38
511.184	120.38
511.401	89.38
511.617	92.38
511.833	97.38
512.049	89.38
512.265	84.38
512.481	76.38
512.698	84.38
512.914	87.38
513.13	84.38
513.346	87.38
513.562	77.38
513.778	101.38
513.994	101.38
514.21	100.38
514.426	108.38
514.642	110.38
514.858	103.38
515.074	138.38
515.29	331.38
515.506	1027.38
515.721	388.38
515.937	131.38
516.153	108.38
516.369	107.38
