Data from Uncirc_1982_H10_HRD10591_00031.txt Node
Date: Wed Jan 03 12:29:31 EST 2024
User: Yrep
Spectrometer: HR+D1059
Trigger mode: 1
Integration Time (sec): 1.000000E-1
Scans to average: 1
Electric dark correction enabled: true
Nonlinearity correction enabled: false
Boxcar width: 0
XAxis mode: Wavelengths
Number of Pixels in Spectrum: 2048
>>>>>Begin Spectral Data<<<<<
223.165	-16.19
223.4	-16.19
223.635	-16.19
223.869	-24.19
224.104	-28.19
224.338	-13.19
224.573	-24.19
224.808	-25.19
225.042	2.81
225.277	-9.19
225.511	4.81
225.746	9.81
225.98	21.81
226.215	21.81
226.449	2.81
226.683	15.81
226.918	23.81
227.152	36.81
227.387	34.81
227.621	47.81
227.856	44.81
228.09	43.81
228.324	42.81
228.559	55.81
228.793	46.81
229.027	64.81
229.262	64.81
229.496	63.81
229.73	76.81
229.964	74.81
230.199	85.81
230.433	70.81
230.667	65.81
230.901	58.81
231.136	65.81
231.37	64.81
231.604	82.81
231.838	79.81
232.072	79.81
232.306	89.81
232.541	80.81
232.775	87.81
233.009	90.81
233.243	92.81
233.477	75.81
233.711	86.81
233.945	69.81
234.179	90.81
234.413	70.81
234.647	78.81
234.881	62.81
235.115	72.81
235.349	77.81
235.583	70.81
235.817	88.81
236.051	73.81
236.285	83.81
236.519	65.81
236.753	84.81
236.987	77.81
237.221	79.81
237.455	85.81
237.689	76.81
237.922	85.81
238.156	82.81
238.39	90.81
238.624	75.81
238.858	64.81
239.091	75.81
239.325	86.81
239.559	81.81
239.793	77.81
240.027	72.81
240.26	68.81
240.494	76.81
240.728	94.81
240.961	72.81
241.195	78.81
241.429	73.81
241.662	66.81
241.896	83.81
242.13	79.81
242.363	64.81
242.597	62.81
242.83	75.81
243.064	72.81
243.298	66.81
243.531	74.81
243.765	87.81
243.998	83.81
244.232	84.81
244.465	81.81
244.699	78.81
244.932	82.81
245.166	72.81
245.399	75.81
245.633	92.81
245.866	78.81
246.099	57.81
246.333	81.81
246.566	79.81
246.8	69.81
247.033	94.81
247.266	71.81
247.5	74.81
247.733	75.81
247.966	80.81
248.2	90.81
248.433	78.81
248.666	74.81
248.899	74.81
249.133	79.81
249.366	83.81
249.599	85.81
249.832	69.81
250.066	91.81
250.299	75.81
250.532	88.81
250.765	71.81
250.998	68.81
251.231	75.81
251.465	80.81
251.698	90.81
251.931	80.81
252.164	74.81
252.397	69.81
252.63	89.81
252.863	74.81
253.096	79.81
253.329	80.81
253.562	92.81
253.795	69.81
254.028	90.81
254.261	86.81
254.494	98.81
254.727	69.81
254.96	76.81
255.193	74.81
255.426	66.81
255.659	82.81
255.892	81.81
256.124	70.81
256.357	90.81
256.59	81.81
256.823	71.81
257.056	58.81
257.289	89.81
257.521	79.81
257.754	66.81
257.987	64.81
258.22	74.81
258.452	89.81
258.685	79.81
258.918	74.81
259.151	71.81
259.383	80.81
259.616	74.81
259.849	74.81
260.081	86.81
260.314	83.81
260.547	76.81
260.779	87.81
261.012	97.81
261.244	78.81
261.477	91.81
261.71	94.81
261.942	103.81
262.175	118.81
262.407	86.81
262.64	73.81
262.872	82.81
263.105	78.81
263.337	68.81
263.57	88.81
263.802	81.81
264.035	81.81
264.267	78.81
264.499	78.81
264.732	96.81
264.964	59.81
265.197	75.81
265.429	76.81
265.661	78.81
265.894	78.81
266.126	88.81
266.358	94.81
266.591	82.81
266.823	78.81
267.055	92.81
267.287	79.81
267.52	81.81
267.752	79.81
267.984	68.81
268.216	75.81
268.448	98.81
268.681	78.81
268.913	69.81
269.145	63.81
269.377	67.81
269.609	71.81
269.841	83.81
270.073	88.81
270.306	75.81
270.538	87.81
270.77	75.81
271.002	82.81
271.234	87.81
271.466	90.81
271.698	75.81
271.93	86.81
272.162	94.81
272.394	85.81
272.626	90.81
272.858	94.81
273.09	82.81
273.322	94.81
273.553	80.81
273.785	80.81
274.017	63.81
274.249	85.81
274.481	74.81
274.713	96.81
274.945	92.81
275.176	87.81
275.408	88.81
275.64	96.81
275.872	88.81
276.104	82.81
276.335	89.81
276.567	84.81
276.799	103.81
277.031	90.81
277.262	102.81
277.494	89.81
277.726	62.81
277.957	78.81
278.189	80.81
278.421	86.81
278.652	91.81
278.884	93.81
279.115	92.81
279.347	90.81
279.579	86.81
279.81	105.81
280.042	99.81
280.273	80.81
280.505	83.81
280.736	87.81
280.968	76.81
281.199	89.81
281.431	91.81
281.662	74.81
281.894	85.81
282.125	103.81
282.356	105.81
282.588	119.81
282.819	105.81
283.051	87.81
283.282	79.81
283.513	95.81
283.745	102.81
283.976	87.81
284.207	89.81
284.439	93.81
284.67	98.81
284.901	99.81
285.132	84.81
285.364	98.81
285.595	83.81
285.826	88.81
286.057	100.81
286.288	100.81
286.52	82.81
286.751	90.81
286.982	78.81
287.213	82.81
287.444	79.81
287.675	82.81
287.906	75.81
288.138	78.81
288.369	96.81
288.6	87.81
288.831	94.81
289.062	96.81
289.293	92.81
289.524	96.81
289.755	94.81
289.986	86.81
290.217	82.81
290.448	90.81
290.679	96.81
290.91	95.81
291.141	98.81
291.371	90.81
291.602	73.81
291.833	95.81
292.064	88.81
292.295	94.81
292.526	85.81
292.757	104.81
292.987	86.81
293.218	74.81
293.449	86.81
293.68	96.81
293.91	85.81
294.141	91.81
294.372	98.81
294.603	105.81
294.833	82.81
295.064	86.81
295.295	94.81
295.525	99.81
295.756	90.81
295.987	103.81
296.217	106.81
296.448	118.81
296.679	83.81
296.909	88.81
297.14	94.81
297.37	78.81
297.601	78.81
297.831	92.81
298.062	82.81
298.292	84.81
298.523	75.81
298.753	80.81
298.984	89.81
299.214	90.81
299.445	91.81
299.675	87.81
299.905	87.81
300.136	89.81
300.366	92.81
300.597	87.81
300.827	99.81
301.057	92.81
301.288	89.81
301.518	87.81
301.748	90.81
301.979	100.81
302.209	104.81
302.439	97.81
302.669	79.81
302.9	78.81
303.13	86.81
303.36	84.81
303.59	91.81
303.82	93.81
304.051	90.81
304.281	87.81
304.511	98.81
304.741	88.81
304.971	60.81
305.201	86.81
305.431	85.81
305.661	90.81
305.891	89.81
306.121	95.81
306.352	95.81
306.582	81.81
306.812	89.81
307.042	72.81
307.272	96.81
307.502	93.81
307.731	98.81
307.961	80.81
308.191	91.81
308.421	84.81
308.651	78.81
308.881	90.81
309.111	91.81
309.341	85.81
309.571	106.81
309.8	86.81
310.03	84.81
310.26	87.81
310.49	82.81
310.72	95.81
310.949	108.81
311.179	90.81
311.409	89.81
311.639	105.81
311.868	71.81
312.098	80.81
312.328	103.81
312.557	100.81
312.787	98.81
313.017	98.81
313.246	95.81
313.476	91.81
313.706	98.81
313.935	82.81
314.165	99.81
314.394	98.81
314.624	88.81
314.853	96.81
315.083	102.81
315.312	95.81
315.542	78.81
315.771	94.81
316.001	89.81
316.23	85.81
316.46	88.81
316.689	88.81
316.919	92.81
317.148	88.81
317.377	88.81
317.607	82.81
317.836	89.81
318.065	85.81
318.295	80.81
318.524	81.81
318.753	82.81
318.983	90.81
319.212	99.81
319.441	90.81
319.67	114.81
319.9	92.81
320.129	85.81
320.358	85.81
320.587	98.81
320.816	95.81
321.046	89.81
321.275	95.81
321.504	92.81
321.733	103.81
321.962	86.81
322.191	84.81
322.42	90.81
322.649	89.81
322.878	94.81
323.108	108.81
323.337	104.81
323.566	128.81
323.795	134.81
324.024	177.81
324.253	340.81
324.482	716.81
324.71	1419.81
324.939	1891.81
325.168	672.81
325.397	210.81
325.626	144.81
325.855	115.81
326.084	121.81
326.313	122.81
326.542	136.81
326.77	210.81
326.999	404.81
327.228	808.81
327.457	1484.81
327.686	1170.81
327.914	334.81
328.143	162.81
328.372	141.81
328.6	114.81
328.829	102.81
329.058	119.81
329.287	112.81
329.515	105.81
329.744	104.81
329.972	94.81
330.201	99.81
330.43	117.81
330.658	108.81
330.887	111.81
331.115	102.81
331.344	97.81
331.572	92.81
331.801	106.81
332.03	101.81
332.258	90.81
332.486	104.81
332.715	75.81
332.943	91.81
333.172	94.81
333.4	104.81
333.629	105.81
333.857	103.81
334.085	100.81
334.314	123.81
334.542	128.81
334.771	124.81
334.999	102.81
335.227	96.81
335.455	99.81
335.684	92.81
335.912	100.81
336.14	82.81
336.369	89.81
336.597	95.81
336.825	94.81
337.053	80.81
337.281	91.81
337.51	90.81
337.738	78.81
337.966	90.81
338.194	108.81
338.422	104.81
338.65	90.81
338.878	92.81
339.106	98.81
339.334	82.81
339.562	76.81
339.79	92.81
340.018	89.81
340.246	87.81
340.474	82.81
340.702	80.81
340.93	82.81
341.158	96.81
341.386	92.81
341.614	100.81
341.842	91.81
342.07	88.81
342.298	96.81
342.526	90.81
342.754	94.81
342.981	88.81
343.209	83.81
343.437	105.81
343.665	91.81
343.893	81.81
344.12	94.81
344.348	82.81
344.576	82.81
344.804	104.81
345.031	101.81
345.259	90.81
345.487	82.81
345.714	99.81
345.942	88.81
346.17	90.81
346.397	90.81
346.625	103.81
346.853	88.81
347.08	95.81
347.308	79.81
347.535	99.81
347.763	91.81
347.99	103.81
348.218	98.81
348.445	114.81
348.673	86.81
348.9	103.81
349.128	88.81
349.355	83.81
349.583	85.81
349.81	95.81
350.037	100.81
350.265	94.81
350.492	98.81
350.72	99.81
350.947	84.81
351.174	99.81
351.402	94.81
351.629	92.81
351.856	112.81
352.083	95.81
352.311	100.81
352.538	105.81
352.765	95.81
352.992	113.81
353.22	104.81
353.447	106.81
353.674	108.81
353.901	98.81
354.128	87.81
354.355	95.81
354.583	85.81
354.81	96.81
355.037	86.81
355.264	86.81
355.491	89.81
355.718	92.81
355.945	92.81
356.172	96.81
356.399	98.81
356.626	91.81
356.853	98.81
357.08	88.81
357.307	91.81
357.534	99.81
357.761	95.81
357.988	97.81
358.215	96.81
358.441	104.81
358.668	86.81
358.895	106.81
359.122	99.81
359.349	81.81
359.576	91.81
359.802	88.81
360.029	100.81
360.256	108.81
360.483	96.81
360.709	104.81
360.936	96.81
361.163	102.81
361.39	100.81
361.616	76.81
361.843	84.81
362.07	84.81
362.296	87.81
362.523	84.81
362.749	90.81
362.976	98.81
363.203	104.81
363.429	90.81
363.656	81.81
363.882	94.81
364.109	81.81
364.335	96.81
364.562	88.81
364.788	99.81
365.015	96.81
365.241	89.81
365.468	105.81
365.694	104.81
365.92	93.81
366.147	75.81
366.373	90.81
366.599	70.81
366.826	82.81
367.052	82.81
367.278	72.81
367.505	95.81
367.731	92.81
367.957	91.81
368.184	100.81
368.41	97.81
368.636	93.81
368.862	107.81
369.089	103.81
369.315	89.81
369.541	102.81
369.767	92.81
369.993	82.81
370.219	73.81
370.445	85.81
370.672	74.81
370.898	85.81
371.124	84.81
371.35	78.81
371.576	96.81
371.802	86.81
372.028	75.81
372.254	91.81
372.48	83.81
372.706	76.81
372.932	74.81
373.158	91.81
373.384	97.81
373.61	81.81
373.835	95.81
374.061	86.81
374.287	82.81
374.513	87.81
374.739	86.81
374.965	100.81
375.191	90.81
375.416	73.81
375.642	84.81
375.868	92.81
376.094	83.81
376.319	80.81
376.545	91.81
376.771	88.81
376.997	80.81
377.222	88.81
377.448	82.81
377.674	86.81
377.899	82.81
378.125	101.81
378.35	84.81
378.576	97.81
378.802	62.81
379.027	85.81
379.253	71.81
379.478	80.81
379.704	98.81
379.929	85.81
380.155	90.81
380.38	88.81
380.606	109.81
380.831	77.81
381.057	98.81
381.282	95.81
381.507	96.81
381.733	90.81
381.958	104.81
382.184	89.81
382.409	114.81
382.634	93.81
382.86	106.81
383.085	101.81
383.31	98.81
383.535	108.81
383.761	97.81
383.986	97.81
384.211	115.81
384.436	92.81
384.662	105.81
384.887	105.81
385.112	108.81
385.337	101.81
385.562	107.81
385.787	110.81
386.013	95.81
386.238	105.81
386.463	104.81
386.688	114.81
386.913	96.81
387.138	116.81
387.363	97.81
387.588	85.81
387.813	90.81
388.038	115.81
388.263	105.81
388.488	107.81
388.713	92.81
388.938	89.81
389.163	119.81
389.387	114.81
389.612	107.81
389.837	97.81
390.062	94.81
390.287	96.81
390.512	90.81
390.736	85.81
390.961	90.81
391.186	107.81
391.411	93.81
391.636	92.81
391.86	87.81
392.085	87.81
392.31	78.81
392.534	82.81
392.759	100.81
392.984	75.81
393.208	83.81
393.433	90.81
393.658	95.81
393.882	76.81
394.107	91.81
394.331	91.81
394.556	92.81
394.78	84.81
395.005	94.81
395.229	75.81
395.454	103.81
395.678	94.81
395.903	86.81
396.127	83.81
396.352	84.81
396.576	95.81
396.801	86.81
397.025	94.81
397.249	89.81
397.474	84.81
397.698	88.81
397.922	90.81
398.147	90.81
398.371	84.81
398.595	92.81
398.82	93.81
399.044	76.81
399.268	85.81
399.492	81.81
399.717	86.81
399.941	99.81
400.165	95.81
400.389	98.81
400.613	87.81
400.837	76.81
401.062	89.81
401.286	84.81
401.51	74.81
401.734	86.81
401.958	88.81
402.182	120.81
402.406	145.81
402.63	109.81
402.854	84.81
403.078	97.81
403.302	86.81
403.526	80.81
403.75	90.81
403.974	80.81
404.198	98.81
404.422	83.81
404.645	60.81
404.869	86.81
405.093	90.81
405.317	87.81
405.541	98.81
405.765	99.81
405.988	110.81
406.212	138.81
406.436	171.81
406.66	120.81
406.883	97.81
407.107	85.81
407.331	93.81
407.555	87.81
407.778	94.81
408.002	106.81
408.226	96.81
408.449	79.81
408.673	90.81
408.896	80.81
409.12	101.81
409.344	88.81
409.567	79.81
409.791	82.81
410.014	90.81
410.238	90.81
410.461	84.81
410.685	92.81
410.908	98.81
411.132	94.81
411.355	88.81
411.578	87.81
411.802	83.81
412.025	87.81
412.249	90.81
412.472	65.81
412.695	82.81
412.919	87.81
413.142	93.81
413.365	87.81
413.589	89.81
413.812	99.81
414.035	91.81
414.258	79.81
414.482	79.81
414.705	82.81
414.928	89.81
415.151	86.81
415.374	104.81
415.597	76.81
415.821	94.81
416.044	92.81
416.267	87.81
416.49	94.81
416.713	72.81
416.936	92.81
417.159	79.81
417.382	90.81
417.605	94.81
417.828	97.81
418.051	88.81
418.274	81.81
418.497	88.81
418.72	88.81
418.943	80.81
419.166	84.81
419.389	89.81
419.611	79.81
419.834	83.81
420.057	90.81
420.28	84.81
420.503	79.81
420.726	91.81
420.948	86.81
421.171	93.81
421.394	97.81
421.617	92.81
421.839	82.81
422.062	97.81
422.285	105.81
422.507	100.81
422.73	96.81
422.953	101.81
423.175	96.81
423.398	93.81
423.621	88.81
423.843	102.81
424.066	87.81
424.288	84.81
424.511	82.81
424.733	94.81
424.956	89.81
425.178	88.81
425.401	99.81
425.623	95.81
425.846	98.81
426.068	93.81
426.291	82.81
426.513	80.81
426.735	97.81
426.958	102.81
427.18	103.81
427.402	123.81
427.625	134.81
427.847	116.81
428.069	114.81
428.292	94.81
428.514	92.81
428.736	85.81
428.958	81.81
429.181	87.81
429.403	85.81
429.625	94.81
429.847	105.81
430.069	76.81
430.292	86.81
430.514	95.81
430.736	70.81
430.958	82.81
431.18	87.81
431.402	84.81
431.624	73.81
431.846	96.81
432.068	86.81
432.29	74.81
432.512	84.81
432.734	95.81
432.956	94.81
433.178	96.81
433.4	86.81
433.622	87.81
433.844	81.81
434.066	97.81
434.287	94.81
434.509	74.81
434.731	87.81
434.953	105.81
435.175	93.81
435.397	79.81
435.618	87.81
435.84	85.81
436.062	106.81
436.284	104.81
436.505	97.81
436.727	87.81
436.949	91.81
437.17	88.81
437.392	87.81
437.614	85.81
437.835	95.81
438.057	82.81
438.278	107.81
438.5	90.81
438.721	111.81
438.943	98.81
439.165	80.81
439.386	85.81
439.608	108.81
439.829	90.81
440.05	107.81
440.272	106.81
440.493	87.81
440.715	96.81
440.936	82.81
441.158	90.81
441.379	80.81
441.6	81.81
441.822	86.81
442.043	96.81
442.264	85.81
442.486	86.81
442.707	73.81
442.928	113.81
443.149	109.81
443.371	97.81
443.592	96.81
443.813	106.81
444.034	98.81
444.255	80.81
444.476	79.81
444.698	99.81
444.919	97.81
445.14	133.81
445.361	133.81
445.582	114.81
445.803	116.81
446.024	114.81
446.245	143.81
446.466	98.81
446.687	81.81
446.908	82.81
447.129	95.81
447.35	95.81
447.571	84.81
447.792	74.81
448.013	93.81
448.234	95.81
448.455	101.81
448.675	102.81
448.896	108.81
449.117	95.81
449.338	111.81
449.559	113.81
449.779	115.81
450	94.81
450.221	90.81
450.442	91.81
450.662	98.81
450.883	94.81
451.104	105.81
451.324	87.81
451.545	89.81
451.766	75.81
451.986	79.81
452.207	82.81
452.428	96.81
452.648	97.81
452.869	88.81
453.089	99.81
453.31	113.81
453.53	89.81
453.751	80.81
453.971	93.81
454.192	86.81
454.412	83.81
454.633	79.81
454.853	95.81
455.073	70.81
455.294	83.81
455.514	94.81
455.734	92.81
455.955	82.81
456.175	76.81
456.395	78.81
456.616	78.81
456.836	89.81
457.056	86.81
457.276	77.81
457.497	87.81
457.717	79.81
457.937	84.81
458.157	80.81
458.377	72.81
458.598	99.81
458.818	131.81
459.038	123.81
459.258	106.81
459.478	94.81
459.698	74.81
459.918	84.81
460.138	89.81
460.358	88.81
460.578	80.81
460.798	86.81
461.018	88.81
461.238	76.81
461.458	84.81
461.678	84.81
461.898	87.81
462.118	74.81
462.338	82.81
462.558	78.81
462.777	90.81
462.997	90.81
463.217	88.81
463.437	82.81
463.657	83.81
463.876	100.81
464.096	82.81
464.316	87.81
464.536	97.81
464.755	99.81
464.975	88.81
465.195	134.81
465.414	130.81
465.634	92.81
465.854	75.81
466.073	86.81
466.293	96.81
466.512	90.81
466.732	94.81
466.951	88.81
467.171	95.81
467.391	89.81
467.61	88.81
467.829	85.81
468.049	89.81
468.268	101.81
468.488	82.81
468.707	102.81
468.927	90.81
469.146	93.81
469.365	94.81
469.585	81.81
469.804	83.81
470.023	86.81
470.243	94.81
470.462	80.81
470.681	84.81
470.901	96.81
471.12	87.81
471.339	90.81
471.558	86.81
471.777	82.81
471.997	76.81
472.216	109.81
472.435	131.81
472.654	89.81
472.873	84.81
473.092	73.81
473.311	75.81
473.53	82.81
473.749	85.81
473.968	81.81
474.187	106.81
474.406	86.81
474.625	85.81
474.844	90.81
475.063	82.81
475.282	78.81
475.501	92.81
475.72	94.81
475.939	70.81
476.158	70.81
476.377	76.81
476.596	87.81
476.814	82.81
477.033	84.81
477.252	96.81
477.471	83.81
477.69	86.81
477.908	87.81
478.127	100.81
478.346	75.81
478.564	88.81
478.783	79.81
479.002	86.81
479.22	84.81
479.439	97.81
479.658	88.81
479.876	103.81
480.095	76.81
480.313	102.81
480.532	83.81
480.751	102.81
480.969	107.81
481.188	172.81
481.406	135.81
481.624	86.81
481.843	88.81
482.061	95.81
482.28	92.81
482.498	79.81
482.717	78.81
482.935	78.81
483.153	82.81
483.372	84.81
483.59	85.81
483.808	99.81
484.027	86.81
484.245	95.81
484.463	73.81
484.681	91.81
484.9	91.81
485.118	98.81
485.336	99.81
485.554	92.81
485.772	99.81
485.99	102.81
486.209	94.81
486.427	99.81
486.645	93.81
486.863	104.81
487.081	97.81
487.299	94.81
487.517	91.81
487.735	79.81
487.953	105.81
488.171	87.81
488.389	85.81
488.607	98.81
488.825	101.81
489.043	99.81
489.261	90.81
489.479	86.81
489.696	75.81
489.914	98.81
490.132	89.81
490.35	100.81
490.568	80.81
490.786	74.81
491.003	86.81
491.221	87.81
491.439	86.81
491.657	87.81
491.874	95.81
492.092	103.81
492.31	83.81
492.527	76.81
492.745	80.81
492.963	80.81
493.18	91.81
493.398	91.81
493.615	96.81
493.833	92.81
494.05	80.81
494.268	84.81
494.485	74.81
494.703	82.81
494.92	78.81
495.138	88.81
495.355	91.81
495.573	85.81
495.79	90.81
496.008	84.81
496.225	94.81
496.442	81.81
496.66	90.81
496.877	106.81
497.094	75.81
497.312	82.81
497.529	88.81
497.746	89.81
497.963	102.81
498.181	83.81
498.398	81.81
498.615	96.81
498.832	101.81
499.049	78.81
499.267	84.81
499.484	94.81
499.701	86.81
499.918	90.81
500.135	94.81
500.352	88.81
500.569	73.81
500.786	86.81
501.003	84.81
501.22	74.81
501.437	92.81
501.654	81.81
501.871	98.81
502.088	89.81
502.305	102.81
502.522	82.81
502.739	95.81
502.956	85.81
503.172	91.81
503.389	86.81
503.606	96.81
503.823	82.81
504.04	84.81
504.256	82.81
504.473	83.81
504.69	89.81
504.907	90.81
505.123	91.81
505.34	79.81
505.557	88.81
505.773	96.81
505.99	86.81
506.207	84.81
506.423	73.81
506.64	91.81
506.856	106.81
507.073	83.81
507.289	89.81
507.506	87.81
507.722	92.81
507.939	82.81
508.155	87.81
508.372	91.81
508.588	97.81
508.805	90.81
509.021	88.81
509.238	102.81
509.454	89.81
509.67	91.81
509.887	96.81
510.103	105.81
510.319	189.81
510.536	615.81
510.752	1854.81
510.968	506.81
511.184	139.81
511.401	103.81
511.617	88.81
511.833	103.81
512.049	96.81
512.265	74.81
512.481	94.81
512.698	95.81
512.914	103.81
513.13	105.81
513.346	105.81
513.562	103.81
513.778	90.81
513.994	85.81
514.21	95.81
514.426	119.81
514.642	121.81
514.858	120.81
515.074	154.81
515.29	342.81
515.506	1082.81
515.721	403.81
515.937	129.81
516.153	106.81
516.369	90.81
516.585	99.81
516.801	99.81
