Data from Uncirc_1982_H10_HRD10591_00097.txt Node
Date: Wed Jan 03 12:29:44 EST 2024
User: Yrep
Spectrometer: HR+D1059
Trigger mode: 1
Integration Time (sec): 1.000000E-1
Scans to average: 1
Electric dark correction enabled: true
Nonlinearity correction enabled: false
Boxcar width: 0
XAxis mode: Wavelengths
Number of Pixels in Spectrum: 2048
>>>>>Begin Spectral Data<<<<<
223.165	-23.62
223.4	-23.62
223.635	-23.62
223.869	-14.62
224.104	-21.62
224.338	-19.62
224.573	-17.62
224.808	-8.62
225.042	-6.62
225.277	-7.62
225.511	-0.62
225.746	5.38
225.98	2.38
226.215	5.38
226.449	16.38
226.683	35.38
226.918	14.38
227.152	41.38
227.387	49.38
227.621	34.38
227.856	55.38
228.09	60.38
228.324	67.38
228.559	56.38
228.793	41.38
229.027	62.38
229.262	81.38
229.496	75.38
229.73	76.38
229.964	91.38
230.199	83.38
230.433	93.38
230.667	88.38
230.901	75.38
231.136	82.38
231.37	87.38
231.604	85.38
231.838	85.38
232.072	94.38
232.306	87.38
232.541	91.38
232.775	90.38
233.009	69.38
233.243	71.38
233.477	91.38
233.711	74.38
233.945	82.38
234.179	73.38
234.413	85.38
234.647	88.38
234.881	87.38
235.115	87.38
235.349	89.38
235.583	79.38
235.817	74.38
236.051	94.38
236.285	89.38
236.519	79.38
236.753	93.38
236.987	79.38
237.221	80.38
237.455	88.38
237.689	86.38
237.922	72.38
238.156	77.38
238.39	87.38
238.624	90.38
238.858	83.38
239.091	90.38
239.325	81.38
239.559	89.38
239.793	85.38
240.027	91.38
240.26	88.38
240.494	89.38
240.728	87.38
240.961	82.38
241.195	90.38
241.429	88.38
241.662	73.38
241.896	67.38
242.13	76.38
242.363	69.38
242.597	85.38
242.83	72.38
243.064	77.38
243.298	83.38
243.531	63.38
243.765	94.38
243.998	82.38
244.232	74.38
244.465	97.38
244.699	90.38
244.932	78.38
245.166	77.38
245.399	91.38
245.633	81.38
245.866	80.38
246.099	83.38
246.333	86.38
246.566	80.38
246.8	79.38
247.033	76.38
247.266	93.38
247.5	85.38
247.733	96.38
247.966	73.38
248.2	87.38
248.433	93.38
248.666	92.38
248.899	91.38
249.133	77.38
249.366	91.38
249.599	85.38
249.832	89.38
250.066	92.38
250.299	81.38
250.532	87.38
250.765	88.38
250.998	81.38
251.231	80.38
251.465	82.38
251.698	73.38
251.931	70.38
252.164	90.38
252.397	78.38
252.63	91.38
252.863	92.38
253.096	94.38
253.329	91.38
253.562	93.38
253.795	83.38
254.028	78.38
254.261	81.38
254.494	97.38
254.727	83.38
254.96	89.38
255.193	87.38
255.426	67.38
255.659	87.38
255.892	83.38
256.124	78.38
256.357	81.38
256.59	78.38
256.823	81.38
257.056	96.38
257.289	92.38
257.521	79.38
257.754	82.38
257.987	95.38
258.22	87.38
258.452	80.38
258.685	93.38
258.918	79.38
259.151	92.38
259.383	89.38
259.616	90.38
259.849	93.38
260.081	106.38
260.314	73.38
260.547	81.38
260.779	92.38
261.012	91.38
261.244	106.38
261.477	99.38
261.71	97.38
261.942	100.38
262.175	114.38
262.407	80.38
262.64	90.38
262.872	60.38
263.105	97.38
263.337	86.38
263.57	82.38
263.802	97.38
264.035	92.38
264.267	88.38
264.499	103.38
264.732	93.38
264.964	74.38
265.197	87.38
265.429	95.38
265.661	93.38
265.894	94.38
266.126	94.38
266.358	86.38
266.591	87.38
266.823	91.38
267.055	77.38
267.287	94.38
267.52	80.38
267.752	75.38
267.984	82.38
268.216	85.38
268.448	85.38
268.681	70.38
268.913	78.38
269.145	86.38
269.377	92.38
269.609	76.38
269.841	79.38
270.073	81.38
270.306	76.38
270.538	75.38
270.77	87.38
271.002	90.38
271.234	102.38
271.466	86.38
271.698	95.38
271.93	96.38
272.162	95.38
272.394	99.38
272.626	94.38
272.858	81.38
273.09	92.38
273.322	99.38
273.553	100.38
273.785	89.38
274.017	68.38
274.249	86.38
274.481	94.38
274.713	87.38
274.945	88.38
275.176	89.38
275.408	97.38
275.64	94.38
275.872	97.38
276.104	81.38
276.335	92.38
276.567	97.38
276.799	114.38
277.031	111.38
277.262	85.38
277.494	110.38
277.726	98.38
277.957	89.38
278.189	91.38
278.421	87.38
278.652	92.38
278.884	78.38
279.115	98.38
279.347	97.38
279.579	92.38
279.81	91.38
280.042	92.38
280.273	82.38
280.505	106.38
280.736	73.38
280.968	85.38
281.199	93.38
281.431	87.38
281.662	72.38
281.894	99.38
282.125	87.38
282.356	113.38
282.588	133.38
282.819	111.38
283.051	87.38
283.282	91.38
283.513	91.38
283.745	95.38
283.976	85.38
284.207	93.38
284.439	80.38
284.67	92.38
284.901	96.38
285.132	73.38
285.364	91.38
285.595	86.38
285.826	93.38
286.057	77.38
286.288	92.38
286.52	91.38
286.751	82.38
286.982	91.38
287.213	105.38
287.444	96.38
287.675	98.38
287.906	92.38
288.138	101.38
288.369	88.38
288.6	92.38
288.831	87.38
289.062	98.38
289.293	103.38
289.524	101.38
289.755	89.38
289.986	86.38
290.217	93.38
290.448	101.38
290.679	108.38
290.91	99.38
291.141	94.38
291.371	87.38
291.602	97.38
291.833	90.38
292.064	94.38
292.295	88.38
292.526	87.38
292.757	86.38
292.987	91.38
293.218	77.38
293.449	86.38
293.68	89.38
293.91	95.38
294.141	77.38
294.372	94.38
294.603	86.38
294.833	85.38
295.064	83.38
295.295	80.38
295.525	97.38
295.756	92.38
295.987	104.38
296.217	129.38
296.448	111.38
296.679	110.38
296.909	87.38
297.14	89.38
297.37	104.38
297.601	94.38
297.831	108.38
298.062	103.38
298.292	89.38
298.523	81.38
298.753	95.38
298.984	102.38
299.214	114.38
299.445	101.38
299.675	103.38
299.905	103.38
300.136	110.38
300.366	112.38
300.597	90.38
300.827	96.38
301.057	93.38
301.288	117.38
301.518	106.38
301.748	103.38
301.979	99.38
302.209	97.38
302.439	81.38
302.669	97.38
302.9	95.38
303.13	89.38
303.36	96.38
303.59	101.38
303.82	102.38
304.051	97.38
304.281	92.38
304.511	94.38
304.741	81.38
304.971	93.38
305.201	89.38
305.431	103.38
305.661	90.38
305.891	89.38
306.121	93.38
306.352	105.38
306.582	112.38
306.812	102.38
307.042	91.38
307.272	97.38
307.502	89.38
307.731	109.38
307.961	99.38
308.191	87.38
308.421	91.38
308.651	106.38
308.881	94.38
309.111	96.38
309.341	106.38
309.571	101.38
309.8	85.38
310.03	108.38
310.26	97.38
310.49	100.38
310.72	87.38
310.949	105.38
311.179	99.38
311.409	95.38
311.639	114.38
311.868	85.38
312.098	98.38
312.328	101.38
312.557	93.38
312.787	95.38
313.017	93.38
313.246	88.38
313.476	97.38
313.706	107.38
313.935	90.38
314.165	93.38
314.394	109.38
314.624	102.38
314.853	102.38
315.083	101.38
315.312	75.38
315.542	93.38
315.771	105.38
316.001	94.38
316.23	90.38
316.46	97.38
316.689	97.38
316.919	98.38
317.148	101.38
317.377	105.38
317.607	113.38
317.836	101.38
318.065	90.38
318.295	96.38
318.524	99.38
318.753	97.38
318.983	91.38
319.212	111.38
319.441	104.38
319.67	106.38
319.9	91.38
320.129	91.38
320.358	88.38
320.587	95.38
320.816	107.38
321.046	99.38
321.275	111.38
321.504	105.38
321.733	95.38
321.962	114.38
322.191	96.38
322.42	98.38
322.649	107.38
322.878	94.38
323.108	117.38
323.337	126.38
323.566	122.38
323.795	146.38
324.024	187.38
324.253	342.38
324.482	716.38
324.71	1410.38
324.939	1828.38
325.168	689.38
325.397	232.38
325.626	144.38
325.855	126.38
326.084	119.38
326.313	125.38
326.542	138.38
326.77	207.38
326.999	384.38
327.228	807.38
327.457	1501.38
327.686	1189.38
327.914	334.38
328.143	187.38
328.372	139.38
328.6	115.38
328.829	134.38
329.058	110.38
329.287	126.38
329.515	104.38
329.744	104.38
329.972	114.38
330.201	113.38
330.43	126.38
330.658	133.38
330.887	125.38
331.115	113.38
331.344	108.38
331.572	101.38
331.801	98.38
332.03	107.38
332.258	101.38
332.486	100.38
332.715	100.38
332.943	81.38
333.172	103.38
333.4	111.38
333.629	113.38
333.857	112.38
334.085	112.38
334.314	120.38
334.542	130.38
334.771	130.38
334.999	121.38
335.227	97.38
335.455	104.38
335.684	108.38
335.912	109.38
336.14	92.38
336.369	101.38
336.597	110.38
336.825	93.38
337.053	106.38
337.281	97.38
337.51	105.38
337.738	107.38
337.966	103.38
338.194	82.38
338.422	106.38
338.65	95.38
338.878	87.38
339.106	104.38
339.334	105.38
339.562	98.38
339.79	103.38
340.018	97.38
340.246	104.38
340.474	105.38
340.702	115.38
340.93	89.38
341.158	94.38
341.386	102.38
341.614	81.38
341.842	97.38
342.07	107.38
342.298	104.38
342.526	102.38
342.754	101.38
342.981	91.38
343.209	96.38
343.437	105.38
343.665	101.38
343.893	97.38
344.12	98.38
344.348	99.38
344.576	95.38
344.804	87.38
345.031	101.38
345.259	93.38
345.487	97.38
345.714	101.38
345.942	104.38
346.17	115.38
346.397	107.38
346.625	87.38
346.853	90.38
347.08	107.38
347.308	104.38
347.535	109.38
347.763	96.38
347.99	95.38
348.218	102.38
348.445	102.38
348.673	101.38
348.9	106.38
349.128	88.38
349.355	101.38
349.583	103.38
349.81	102.38
350.037	110.38
350.265	114.38
350.492	101.38
350.72	100.38
350.947	102.38
351.174	104.38
351.402	122.38
351.629	121.38
351.856	109.38
352.083	84.38
352.311	101.38
352.538	118.38
352.765	104.38
352.992	103.38
353.22	121.38
353.447	112.38
353.674	105.38
353.901	104.38
354.128	97.38
354.355	106.38
354.583	95.38
354.81	101.38
355.037	111.38
355.264	92.38
355.491	98.38
355.718	99.38
355.945	93.38
356.172	102.38
356.399	100.38
356.626	97.38
356.853	92.38
357.08	104.38
357.307	98.38
357.534	98.38
357.761	115.38
357.988	104.38
358.215	103.38
358.441	92.38
358.668	92.38
358.895	96.38
359.122	102.38
359.349	82.38
359.576	103.38
359.802	106.38
360.029	111.38
360.256	109.38
360.483	99.38
360.709	96.38
360.936	95.38
361.163	91.38
361.39	92.38
361.616	97.38
361.843	102.38
362.07	96.38
362.296	102.38
362.523	91.38
362.749	95.38
362.976	105.38
363.203	101.38
363.429	93.38
363.656	80.38
363.882	93.38
364.109	101.38
364.335	107.38
364.562	102.38
364.788	93.38
365.015	109.38
365.241	94.38
365.468	107.38
365.694	104.38
365.92	100.38
366.147	88.38
366.373	93.38
366.599	95.38
366.826	87.38
367.052	97.38
367.278	98.38
367.505	89.38
367.731	82.38
367.957	97.38
368.184	91.38
368.41	103.38
368.636	111.38
368.862	112.38
369.089	117.38
369.315	93.38
369.541	77.38
369.767	88.38
369.993	95.38
370.219	90.38
370.445	86.38
370.672	90.38
370.898	90.38
371.124	103.38
371.35	86.38
371.576	98.38
371.802	89.38
372.028	102.38
372.254	88.38
372.48	76.38
372.706	108.38
372.932	103.38
373.158	87.38
373.384	94.38
373.61	97.38
373.835	90.38
374.061	89.38
374.287	96.38
374.513	80.38
374.739	101.38
374.965	107.38
375.191	98.38
375.416	97.38
375.642	92.38
375.868	93.38
376.094	79.38
376.319	91.38
376.545	95.38
376.771	76.38
376.997	98.38
377.222	90.38
377.448	98.38
377.674	81.38
377.899	104.38
378.125	93.38
378.35	96.38
378.576	89.38
378.802	90.38
379.027	102.38
379.253	102.38
379.478	86.38
379.704	91.38
379.929	105.38
380.155	106.38
380.38	93.38
380.606	101.38
380.831	104.38
381.057	104.38
381.282	90.38
381.507	100.38
381.733	120.38
381.958	91.38
382.184	109.38
382.409	103.38
382.634	95.38
382.86	86.38
383.085	89.38
383.31	91.38
383.535	112.38
383.761	114.38
383.986	101.38
384.211	108.38
384.436	121.38
384.662	101.38
384.887	113.38
385.112	85.38
385.337	90.38
385.562	102.38
385.787	106.38
386.013	114.38
386.238	113.38
386.463	92.38
386.688	101.38
386.913	106.38
387.138	101.38
387.363	92.38
387.588	106.38
387.813	121.38
388.038	101.38
388.263	108.38
388.488	113.38
388.713	104.38
388.938	105.38
389.163	102.38
389.387	109.38
389.612	98.38
389.837	102.38
390.062	102.38
390.287	111.38
390.512	89.38
390.736	90.38
390.961	92.38
391.186	83.38
391.411	89.38
391.636	110.38
391.86	93.38
392.085	89.38
392.31	95.38
392.534	98.38
392.759	95.38
392.984	84.38
393.208	89.38
393.433	82.38
393.658	95.38
393.882	96.38
394.107	104.38
394.331	80.38
394.556	92.38
394.78	86.38
395.005	79.38
395.229	94.38
395.454	96.38
395.678	98.38
395.903	91.38
396.127	79.38
396.352	79.38
396.576	86.38
396.801	100.38
397.025	97.38
397.249	90.38
397.474	92.38
397.698	86.38
397.922	81.38
398.147	101.38
398.371	113.38
398.595	98.38
398.82	83.38
399.044	76.38
399.268	99.38
399.492	91.38
399.717	99.38
399.941	109.38
400.165	92.38
400.389	91.38
400.613	87.38
400.837	93.38
401.062	87.38
401.286	98.38
401.51	99.38
401.734	105.38
401.958	91.38
402.182	130.38
402.406	150.38
402.63	115.38
402.854	101.38
403.078	99.38
403.302	102.38
403.526	91.38
403.75	90.38
403.974	95.38
404.198	101.38
404.422	111.38
404.645	93.38
404.869	92.38
405.093	96.38
405.317	94.38
405.541	99.38
405.765	91.38
405.988	100.38
406.212	146.38
406.436	193.38
406.66	132.38
406.883	119.38
407.107	105.38
407.331	96.38
407.555	94.38
407.778	107.38
408.002	104.38
408.226	105.38
408.449	85.38
408.673	97.38
408.896	95.38
409.12	88.38
409.344	95.38
409.567	90.38
409.791	104.38
410.014	101.38
410.238	85.38
410.461	98.38
410.685	97.38
410.908	104.38
411.132	113.38
411.355	108.38
411.578	97.38
411.802	83.38
412.025	91.38
412.249	97.38
412.472	89.38
412.695	108.38
412.919	90.38
413.142	100.38
413.365	83.38
413.589	104.38
413.812	102.38
414.035	105.38
414.258	95.38
414.482	108.38
414.705	101.38
414.928	96.38
415.151	103.38
415.374	81.38
415.597	115.38
415.821	91.38
416.044	91.38
416.267	105.38
416.49	88.38
416.713	96.38
416.936	94.38
417.159	94.38
417.382	94.38
417.605	99.38
417.828	114.38
418.051	97.38
418.274	90.38
418.497	94.38
418.72	91.38
418.943	91.38
419.166	90.38
419.389	94.38
419.611	83.38
419.834	96.38
420.057	92.38
420.28	92.38
420.503	89.38
420.726	91.38
420.948	81.38
421.171	85.38
421.394	92.38
421.617	107.38
421.839	93.38
422.062	93.38
422.285	98.38
422.507	110.38
422.73	110.38
422.953	87.38
423.175	91.38
423.398	98.38
423.621	88.38
423.843	97.38
424.066	93.38
424.288	86.38
424.511	103.38
424.733	92.38
424.956	108.38
425.178	77.38
425.401	100.38
425.623	101.38
425.846	97.38
426.068	103.38
426.291	79.38
426.513	72.38
426.735	92.38
426.958	87.38
427.18	128.38
427.402	128.38
427.625	141.38
427.847	113.38
428.069	110.38
428.292	83.38
428.514	87.38
428.736	95.38
428.958	88.38
429.181	88.38
429.403	89.38
429.625	80.38
429.847	95.38
430.069	100.38
430.292	101.38
430.514	94.38
430.736	109.38
430.958	85.38
431.18	97.38
431.402	83.38
431.624	81.38
431.846	95.38
432.068	87.38
432.29	92.38
432.512	88.38
432.734	96.38
432.956	83.38
433.178	97.38
433.4	93.38
433.622	103.38
433.844	109.38
434.066	94.38
434.287	94.38
434.509	87.38
434.731	95.38
434.953	102.38
435.175	92.38
435.397	90.38
435.618	103.38
435.84	112.38
436.062	120.38
436.284	112.38
436.505	108.38
436.727	89.38
436.949	94.38
437.17	101.38
437.392	91.38
437.614	94.38
437.835	115.38
438.057	106.38
438.278	99.38
438.5	113.38
438.721	98.38
438.943	103.38
439.165	99.38
439.386	87.38
439.608	106.38
439.829	110.38
440.05	117.38
440.272	129.38
440.493	93.38
440.715	97.38
440.936	77.38
441.158	97.38
441.379	76.38
441.6	86.38
441.822	103.38
442.043	85.38
442.264	85.38
442.486	100.38
442.707	95.38
442.928	107.38
443.149	135.38
443.371	122.38
443.592	95.38
443.813	103.38
444.034	110.38
444.255	93.38
444.476	100.38
444.698	98.38
444.919	109.38
445.14	133.38
445.361	117.38
445.582	116.38
445.803	130.38
446.024	126.38
446.245	114.38
446.466	115.38
446.687	88.38
446.908	105.38
447.129	87.38
447.35	89.38
447.571	101.38
447.792	93.38
448.013	98.38
448.234	101.38
448.455	105.38
448.675	99.38
448.896	110.38
449.117	110.38
449.338	110.38
449.559	123.38
449.779	118.38
450	94.38
450.221	88.38
450.442	82.38
450.662	96.38
450.883	93.38
451.104	107.38
451.324	102.38
451.545	89.38
451.766	79.38
451.986	87.38
452.207	98.38
452.428	85.38
452.648	98.38
452.869	116.38
453.089	117.38
453.31	108.38
453.53	96.38
453.751	83.38
453.971	94.38
454.192	101.38
454.412	94.38
454.633	89.38
454.853	89.38
455.073	88.38
455.294	95.38
455.514	98.38
455.734	98.38
455.955	91.38
456.175	89.38
456.395	85.38
456.616	91.38
456.836	95.38
457.056	92.38
457.276	93.38
457.497	84.38
457.717	90.38
457.937	99.38
458.157	83.38
458.377	89.38
458.598	110.38
458.818	126.38
459.038	136.38
459.258	105.38
459.478	92.38
459.698	89.38
459.918	99.38
460.138	88.38
460.358	98.38
460.578	100.38
460.798	105.38
461.018	91.38
461.238	80.38
461.458	81.38
461.678	85.38
461.898	92.38
462.118	97.38
462.338	103.38
462.558	98.38
462.777	96.38
462.997	113.38
463.217	94.38
463.437	87.38
463.657	81.38
463.876	93.38
464.096	101.38
464.316	77.38
464.536	81.38
464.755	103.38
464.975	95.38
465.195	143.38
465.414	137.38
465.634	102.38
465.854	88.38
466.073	85.38
466.293	88.38
466.512	77.38
466.732	78.38
466.951	92.38
467.171	97.38
467.391	86.38
467.61	93.38
467.829	94.38
468.049	90.38
468.268	96.38
468.488	97.38
468.707	91.38
468.927	97.38
469.146	97.38
469.365	97.38
469.585	90.38
469.804	93.38
470.023	102.38
470.243	101.38
470.462	117.38
470.681	97.38
470.901	94.38
471.12	85.38
471.339	108.38
471.558	84.38
471.777	99.38
471.997	91.38
472.216	130.38
472.435	136.38
472.654	102.38
472.873	91.38
473.092	94.38
473.311	99.38
473.53	90.38
473.749	106.38
473.968	96.38
474.187	112.38
474.406	94.38
474.625	98.38
474.844	82.38
475.063	97.38
475.282	91.38
475.501	85.38
475.72	105.38
475.939	95.38
476.158	87.38
476.377	90.38
476.596	91.38
476.814	86.38
477.033	96.38
477.252	92.38
477.471	97.38
477.69	86.38
477.908	86.38
478.127	97.38
478.346	97.38
478.564	94.38
478.783	103.38
479.002	88.38
479.22	76.38
479.439	104.38
479.658	110.38
479.876	94.38
480.095	81.38
480.313	99.38
480.532	89.38
480.751	94.38
480.969	119.38
481.188	187.38
481.406	125.38
481.624	91.38
481.843	91.38
482.061	97.38
482.28	93.38
482.498	96.38
482.717	86.38
482.935	96.38
483.153	95.38
483.372	89.38
483.59	98.38
483.808	90.38
484.027	94.38
484.245	94.38
484.463	82.38
484.681	99.38
484.9	89.38
485.118	102.38
485.336	93.38
485.554	83.38
485.772	99.38
485.99	97.38
486.209	112.38
486.427	95.38
486.645	122.38
486.863	105.38
487.081	100.38
487.299	91.38
487.517	101.38
487.735	89.38
487.953	87.38
488.171	95.38
488.389	98.38
488.607	102.38
488.825	92.38
489.043	99.38
489.261	102.38
489.479	97.38
489.696	99.38
489.914	87.38
490.132	96.38
490.35	91.38
490.568	82.38
490.786	94.38
491.003	95.38
491.221	112.38
491.439	90.38
491.657	113.38
491.874	94.38
492.092	85.38
492.31	98.38
492.527	93.38
492.745	85.38
492.963	99.38
493.18	92.38
493.398	111.38
493.615	97.38
493.833	105.38
494.05	95.38
494.268	93.38
494.485	96.38
494.703	108.38
494.92	103.38
495.138	90.38
495.355	82.38
495.573	91.38
495.79	92.38
496.008	98.38
496.225	89.38
496.442	110.38
496.66	91.38
496.877	89.38
497.094	92.38
497.312	92.38
497.529	109.38
497.746	85.38
497.963	91.38
498.181	95.38
498.398	113.38
498.615	113.38
498.832	89.38
499.049	96.38
499.267	103.38
499.484	88.38
499.701	85.38
499.918	102.38
500.135	89.38
500.352	91.38
500.569	97.38
500.786	98.38
501.003	92.38
501.22	96.38
501.437	101.38
501.654	100.38
501.871	108.38
502.088	105.38
502.305	95.38
502.522	91.38
502.739	85.38
502.956	89.38
503.172	100.38
503.389	102.38
503.606	98.38
503.823	106.38
504.04	98.38
504.256	71.38
504.473	86.38
504.69	95.38
504.907	99.38
505.123	83.38
505.34	97.38
505.557	111.38
505.773	98.38
505.99	79.38
506.207	96.38
506.423	86.38
506.64	102.38
506.856	103.38
507.073	88.38
507.289	105.38
507.506	102.38
507.722	105.38
507.939	106.38
508.155	95.38
508.372	98.38
508.588	94.38
508.805	99.38
509.021	86.38
509.238	97.38
509.454	90.38
509.67	86.38
509.887	104.38
510.103	117.38
510.319	210.38
510.536	633.38
510.752	1922.38
510.968	560.38
511.184	143.38
511.401	119.38
511.617	95.38
511.833	97.38
512.049	99.38
512.265	98.38
512.481	100.38
512.698	106.38
512.914	95.38
513.13	108.38
513.346	99.38
513.562	111.38
513.778	86.38
513.994	106.38
