Data from Uncirc_1982_H10_HRD10591_00002.txt Node
Date: Wed Jan 03 12:29:25 EST 2024
User: Yrep
Spectrometer: HR+D1059
Trigger mode: 1
Integration Time (sec): 1.000000E-1
Scans to average: 1
Electric dark correction enabled: true
Nonlinearity correction enabled: false
Boxcar width: 0
XAxis mode: Wavelengths
Number of Pixels in Spectrum: 2048
>>>>>Begin Spectral Data<<<<<
223.165	-19.38
223.4	-19.38
223.635	-19.38
223.869	-30.38
224.104	-23.38
224.338	-10.38
224.573	-20.38
224.808	-18.38
225.042	-8.38
225.277	-14.38
225.511	-7.38
225.746	24.62
225.98	20.62
226.215	11.62
226.449	9.62
226.683	21.62
226.918	28.62
227.152	35.62
227.387	35.62
227.621	37.62
227.856	42.62
228.09	36.62
228.324	57.62
228.559	59.62
228.793	60.62
229.027	61.62
229.262	66.62
229.496	69.62
229.73	70.62
229.964	74.62
230.199	68.62
230.433	81.62
230.667	86.62
230.901	68.62
231.136	83.62
231.37	90.62
231.604	88.62
231.838	66.62
232.072	84.62
232.306	73.62
232.541	67.62
232.775	79.62
233.009	83.62
233.243	75.62
233.477	89.62
233.711	73.62
233.945	85.62
234.179	88.62
234.413	91.62
234.647	101.62
234.881	79.62
235.115	82.62
235.349	71.62
235.583	83.62
235.817	75.62
236.051	63.62
236.285	88.62
236.519	60.62
236.753	77.62
236.987	73.62
237.221	88.62
237.455	75.62
237.689	87.62
237.922	77.62
238.156	58.62
238.39	75.62
238.624	82.62
238.858	79.62
239.091	79.62
239.325	58.62
239.559	67.62
239.793	71.62
240.027	71.62
240.26	84.62
240.494	86.62
240.728	88.62
240.961	71.62
241.195	65.62
241.429	81.62
241.662	81.62
241.896	79.62
242.13	75.62
242.363	71.62
242.597	72.62
242.83	76.62
243.064	72.62
243.298	76.62
243.531	87.62
243.765	88.62
243.998	67.62
244.232	91.62
244.465	81.62
244.699	70.62
244.932	79.62
245.166	61.62
245.399	75.62
245.633	89.62
245.866	87.62
246.099	76.62
246.333	85.62
246.566	89.62
246.8	77.62
247.033	78.62
247.266	73.62
247.5	74.62
247.733	88.62
247.966	88.62
248.2	92.62
248.433	82.62
248.666	83.62
248.899	80.62
249.133	88.62
249.366	82.62
249.599	92.62
249.832	97.62
250.066	76.62
250.299	67.62
250.532	79.62
250.765	64.62
250.998	83.62
251.231	78.62
251.465	74.62
251.698	85.62
251.931	82.62
252.164	84.62
252.397	78.62
252.63	87.62
252.863	83.62
253.096	70.62
253.329	88.62
253.562	76.62
253.795	82.62
254.028	75.62
254.261	65.62
254.494	77.62
254.727	86.62
254.96	85.62
255.193	83.62
255.426	86.62
255.659	76.62
255.892	83.62
256.124	90.62
256.357	83.62
256.59	72.62
256.823	87.62
257.056	72.62
257.289	75.62
257.521	78.62
257.754	81.62
257.987	76.62
258.22	81.62
258.452	79.62
258.685	82.62
258.918	83.62
259.151	65.62
259.383	75.62
259.616	71.62
259.849	67.62
260.081	79.62
260.314	85.62
260.547	72.62
260.779	70.62
261.012	92.62
261.244	79.62
261.477	90.62
261.71	100.62
261.942	98.62
262.175	113.62
262.407	83.62
262.64	75.62
262.872	66.62
263.105	76.62
263.337	93.62
263.57	69.62
263.802	88.62
264.035	63.62
264.267	83.62
264.499	85.62
264.732	70.62
264.964	79.62
265.197	87.62
265.429	82.62
265.661	76.62
265.894	75.62
266.126	77.62
266.358	61.62
266.591	71.62
266.823	79.62
267.055	85.62
267.287	90.62
267.52	82.62
267.752	96.62
267.984	95.62
268.216	91.62
268.448	82.62
268.681	91.62
268.913	91.62
269.145	81.62
269.377	99.62
269.609	83.62
269.841	79.62
270.073	82.62
270.306	87.62
270.538	83.62
270.77	72.62
271.002	92.62
271.234	84.62
271.466	90.62
271.698	91.62
271.93	91.62
272.162	85.62
272.394	85.62
272.626	85.62
272.858	82.62
273.09	91.62
273.322	98.62
273.553	79.62
273.785	75.62
274.017	74.62
274.249	72.62
274.481	93.62
274.713	75.62
274.945	96.62
275.176	79.62
275.408	107.62
275.64	86.62
275.872	79.62
276.104	76.62
276.335	77.62
276.567	101.62
276.799	101.62
277.031	87.62
277.262	95.62
277.494	94.62
277.726	88.62
277.957	75.62
278.189	85.62
278.421	85.62
278.652	91.62
278.884	91.62
279.115	73.62
279.347	88.62
279.579	88.62
279.81	83.62
280.042	83.62
280.273	90.62
280.505	91.62
280.736	86.62
280.968	70.62
281.199	83.62
281.431	94.62
281.662	93.62
281.894	90.62
282.125	91.62
282.356	106.62
282.588	113.62
282.819	87.62
283.051	94.62
283.282	83.62
283.513	95.62
283.745	85.62
283.976	85.62
284.207	82.62
284.439	85.62
284.67	97.62
284.901	82.62
285.132	85.62
285.364	84.62
285.595	88.62
285.826	78.62
286.057	80.62
286.288	74.62
286.52	84.62
286.751	77.62
286.982	84.62
287.213	85.62
287.444	93.62
287.675	81.62
287.906	89.62
288.138	102.62
288.369	93.62
288.6	88.62
288.831	83.62
289.062	95.62
289.293	91.62
289.524	86.62
289.755	83.62
289.986	81.62
290.217	91.62
290.448	76.62
290.679	81.62
290.91	79.62
291.141	73.62
291.371	94.62
291.602	94.62
291.833	89.62
292.064	91.62
292.295	89.62
292.526	76.62
292.757	86.62
292.987	89.62
293.218	77.62
293.449	87.62
293.68	81.62
293.91	88.62
294.141	80.62
294.372	88.62
294.603	70.62
294.833	83.62
295.064	85.62
295.295	86.62
295.525	92.62
295.756	91.62
295.987	113.62
296.217	119.62
296.448	110.62
296.679	94.62
296.909	92.62
297.14	94.62
297.37	98.62
297.601	73.62
297.831	79.62
298.062	83.62
298.292	85.62
298.523	90.62
298.753	87.62
298.984	76.62
299.214	99.62
299.445	100.62
299.675	92.62
299.905	88.62
300.136	81.62
300.366	92.62
300.597	82.62
300.827	82.62
301.057	93.62
301.288	91.62
301.518	89.62
301.748	101.62
301.979	101.62
302.209	83.62
302.439	92.62
302.669	87.62
302.9	97.62
303.13	100.62
303.36	97.62
303.59	99.62
303.82	88.62
304.051	93.62
304.281	96.62
304.511	97.62
304.741	92.62
304.971	85.62
305.201	81.62
305.431	82.62
305.661	91.62
305.891	101.62
306.121	93.62
306.352	87.62
306.582	115.62
306.812	105.62
307.042	89.62
307.272	91.62
307.502	95.62
307.731	79.62
307.961	91.62
308.191	82.62
308.421	92.62
308.651	100.62
308.881	84.62
309.111	84.62
309.341	105.62
309.571	89.62
309.8	102.62
310.03	89.62
310.26	100.62
310.49	100.62
310.72	97.62
310.949	95.62
311.179	95.62
311.409	93.62
311.639	99.62
311.868	101.62
312.098	103.62
312.328	97.62
312.557	88.62
312.787	87.62
313.017	98.62
313.246	95.62
313.476	103.62
313.706	95.62
313.935	92.62
314.165	73.62
314.394	87.62
314.624	83.62
314.853	95.62
315.083	102.62
315.312	95.62
315.542	97.62
315.771	92.62
316.001	95.62
316.23	87.62
316.46	93.62
316.689	85.62
316.919	75.62
317.148	104.62
317.377	76.62
317.607	98.62
317.836	99.62
318.065	93.62
318.295	88.62
318.524	88.62
318.753	97.62
318.983	96.62
319.212	105.62
319.441	92.62
319.67	88.62
319.9	88.62
320.129	96.62
320.358	96.62
320.587	93.62
320.816	81.62
321.046	97.62
321.275	105.62
321.504	97.62
321.733	103.62
321.962	97.62
322.191	102.62
322.42	106.62
322.649	113.62
322.878	108.62
323.108	112.62
323.337	127.62
323.566	112.62
323.795	134.62
324.024	177.62
324.253	320.62
324.482	688.62
324.71	1427.62
324.939	1833.62
325.168	667.62
325.397	219.62
325.626	141.62
325.855	124.62
326.084	101.62
326.313	128.62
326.542	137.62
326.77	205.62
326.999	406.62
327.228	809.62
327.457	1472.62
327.686	1152.62
327.914	305.62
328.143	164.62
328.372	117.62
328.6	112.62
328.829	105.62
329.058	118.62
329.287	112.62
329.515	107.62
329.744	104.62
329.972	111.62
330.201	116.62
330.43	105.62
330.658	116.62
330.887	115.62
331.115	113.62
331.344	92.62
331.572	98.62
331.801	108.62
332.03	100.62
332.258	93.62
332.486	95.62
332.715	103.62
332.943	92.62
333.172	93.62
333.4	81.62
333.629	90.62
333.857	111.62
334.085	103.62
334.314	105.62
334.542	131.62
334.771	122.62
334.999	103.62
335.227	94.62
335.455	92.62
335.684	112.62
335.912	89.62
336.14	94.62
336.369	93.62
336.597	83.62
336.825	107.62
337.053	95.62
337.281	106.62
337.51	97.62
337.738	99.62
337.966	87.62
338.194	95.62
338.422	91.62
338.65	96.62
338.878	102.62
339.106	90.62
339.334	105.62
339.562	101.62
339.79	98.62
340.018	97.62
340.246	76.62
340.474	79.62
340.702	97.62
340.93	103.62
341.158	94.62
341.386	103.62
341.614	82.62
341.842	89.62
342.07	101.62
342.298	83.62
342.526	86.62
342.754	92.62
342.981	96.62
343.209	86.62
343.437	91.62
343.665	92.62
343.893	82.62
344.12	86.62
344.348	100.62
344.576	73.62
344.804	106.62
345.031	95.62
345.259	113.62
345.487	98.62
345.714	108.62
345.942	94.62
346.17	108.62
346.397	115.62
346.625	100.62
346.853	85.62
347.08	90.62
347.308	85.62
347.535	102.62
347.763	105.62
347.99	107.62
348.218	96.62
348.445	109.62
348.673	92.62
348.9	105.62
349.128	87.62
349.355	104.62
349.583	102.62
349.81	93.62
350.037	100.62
350.265	91.62
350.492	101.62
350.72	98.62
350.947	96.62
351.174	99.62
351.402	103.62
351.629	71.62
351.856	99.62
352.083	102.62
352.311	116.62
352.538	100.62
352.765	101.62
352.992	112.62
353.22	95.62
353.447	108.62
353.674	108.62
353.901	108.62
354.128	89.62
354.355	91.62
354.583	91.62
354.81	99.62
355.037	103.62
355.264	86.62
355.491	91.62
355.718	95.62
355.945	90.62
356.172	93.62
356.399	89.62
356.626	103.62
356.853	90.62
357.08	98.62
357.307	105.62
357.534	97.62
357.761	93.62
357.988	88.62
358.215	99.62
358.441	114.62
358.668	103.62
358.895	99.62
359.122	112.62
359.349	97.62
359.576	84.62
359.802	94.62
360.029	104.62
360.256	95.62
360.483	93.62
360.709	108.62
360.936	95.62
361.163	91.62
361.39	91.62
361.616	102.62
361.843	87.62
362.07	106.62
362.296	99.62
362.523	88.62
362.749	99.62
362.976	70.62
363.203	90.62
363.429	92.62
363.656	91.62
363.882	91.62
364.109	95.62
364.335	91.62
364.562	104.62
364.788	76.62
365.015	88.62
365.241	107.62
365.468	103.62
365.694	94.62
365.92	89.62
366.147	101.62
366.373	85.62
366.599	84.62
366.826	99.62
367.052	89.62
367.278	88.62
367.505	90.62
367.731	90.62
367.957	94.62
368.184	88.62
368.41	81.62
368.636	98.62
368.862	98.62
369.089	103.62
369.315	85.62
369.541	93.62
369.767	83.62
369.993	88.62
370.219	94.62
370.445	89.62
370.672	94.62
370.898	92.62
371.124	101.62
371.35	102.62
371.576	88.62
371.802	88.62
372.028	91.62
372.254	94.62
372.48	92.62
372.706	80.62
372.932	91.62
373.158	93.62
373.384	97.62
373.61	100.62
373.835	101.62
374.061	80.62
374.287	90.62
374.513	97.62
374.739	84.62
374.965	90.62
375.191	85.62
375.416	86.62
375.642	97.62
375.868	86.62
376.094	77.62
376.319	101.62
376.545	95.62
376.771	103.62
376.997	88.62
377.222	96.62
377.448	87.62
377.674	87.62
377.899	97.62
378.125	92.62
378.35	99.62
378.576	103.62
378.802	97.62
379.027	96.62
379.253	98.62
379.478	96.62
379.704	94.62
379.929	103.62
380.155	108.62
380.38	103.62
380.606	105.62
380.831	105.62
381.057	103.62
381.282	98.62
381.507	101.62
381.733	98.62
381.958	103.62
382.184	107.62
382.409	101.62
382.634	117.62
382.86	116.62
383.085	110.62
383.31	103.62
383.535	109.62
383.761	126.62
383.986	118.62
384.211	110.62
384.436	115.62
384.662	116.62
384.887	124.62
385.112	132.62
385.337	130.62
385.562	134.62
385.787	113.62
386.013	140.62
386.238	144.62
386.463	131.62
386.688	132.62
386.913	134.62
387.138	125.62
387.363	133.62
387.588	128.62
387.813	126.62
388.038	144.62
388.263	140.62
388.488	149.62
388.713	106.62
388.938	87.62
389.163	81.62
389.387	99.62
389.612	92.62
389.837	97.62
390.062	90.62
390.287	98.62
390.512	105.62
390.736	107.62
390.961	95.62
391.186	86.62
391.411	104.62
391.636	89.62
391.86	86.62
392.085	90.62
392.31	83.62
392.534	91.62
392.759	80.62
392.984	88.62
393.208	93.62
393.433	86.62
393.658	89.62
393.882	88.62
394.107	87.62
394.331	85.62
394.556	80.62
394.78	101.62
395.005	88.62
395.229	82.62
395.454	90.62
395.678	83.62
395.903	90.62
396.127	96.62
396.352	76.62
396.576	89.62
396.801	88.62
397.025	81.62
397.249	92.62
397.474	85.62
397.698	91.62
397.922	73.62
398.147	91.62
398.371	83.62
398.595	83.62
398.82	89.62
399.044	75.62
399.268	83.62
399.492	82.62
399.717	97.62
399.941	89.62
400.165	91.62
400.389	88.62
400.613	63.62
400.837	93.62
401.062	79.62
401.286	91.62
401.51	98.62
401.734	88.62
401.958	84.62
402.182	112.62
402.406	137.62
402.63	113.62
402.854	83.62
403.078	93.62
403.302	77.62
403.526	90.62
403.75	85.62
403.974	81.62
404.198	96.62
404.422	84.62
404.645	67.62
404.869	87.62
405.093	91.62
405.317	99.62
405.541	97.62
405.765	97.62
405.988	105.62
406.212	149.62
406.436	187.62
406.66	140.62
406.883	105.62
407.107	104.62
407.331	108.62
407.555	93.62
407.778	84.62
408.002	93.62
408.226	89.62
408.449	95.62
408.673	91.62
408.896	90.62
409.12	95.62
409.344	98.62
409.567	86.62
409.791	86.62
410.014	95.62
410.238	95.62
410.461	92.62
410.685	95.62
410.908	103.62
411.132	103.62
411.355	93.62
411.578	106.62
411.802	89.62
412.025	87.62
412.249	76.62
412.472	95.62
412.695	84.62
412.919	80.62
413.142	73.62
413.365	95.62
413.589	99.62
413.812	90.62
414.035	95.62
414.258	96.62
414.482	108.62
414.705	92.62
414.928	108.62
415.151	105.62
415.374	99.62
415.597	88.62
415.821	96.62
416.044	92.62
416.267	91.62
416.49	86.62
416.713	88.62
416.936	96.62
417.159	93.62
417.382	74.62
417.605	85.62
417.828	92.62
418.051	76.62
418.274	92.62
418.497	97.62
418.72	81.62
418.943	91.62
419.166	107.62
419.389	88.62
419.611	88.62
419.834	105.62
420.057	90.62
420.28	93.62
420.503	73.62
420.726	83.62
420.948	88.62
421.171	104.62
421.394	113.62
421.617	89.62
421.839	88.62
422.062	84.62
422.285	94.62
422.507	91.62
422.73	112.62
422.953	96.62
423.175	95.62
423.398	102.62
423.621	85.62
423.843	88.62
424.066	67.62
424.288	89.62
424.511	79.62
424.733	98.62
424.956	98.62
425.178	83.62
425.401	99.62
425.623	100.62
425.846	89.62
426.068	87.62
426.291	72.62
426.513	95.62
426.735	90.62
426.958	80.62
427.18	101.62
427.402	117.62
427.625	142.62
427.847	119.62
428.069	113.62
428.292	75.62
428.514	91.62
428.736	92.62
428.958	88.62
429.181	97.62
429.403	97.62
429.625	85.62
429.847	94.62
430.069	98.62
430.292	89.62
430.514	97.62
430.736	88.62
430.958	87.62
431.18	79.62
431.402	73.62
431.624	79.62
431.846	95.62
432.068	76.62
432.29	97.62
432.512	97.62
432.734	87.62
432.956	91.62
433.178	92.62
433.4	104.62
433.622	81.62
433.844	77.62
434.066	72.62
434.287	86.62
434.509	83.62
434.731	91.62
434.953	85.62
435.175	89.62
435.397	87.62
435.618	81.62
435.84	116.62
436.062	109.62
436.284	113.62
436.505	107.62
436.727	84.62
436.949	96.62
437.17	87.62
437.392	95.62
437.614	86.62
437.835	102.62
438.057	99.62
438.278	110.62
438.5	95.62
438.721	100.62
438.943	107.62
439.165	97.62
439.386	86.62
439.608	92.62
439.829	93.62
440.05	119.62
440.272	130.62
440.493	100.62
440.715	103.62
440.936	86.62
441.158	90.62
441.379	91.62
441.6	93.62
441.822	87.62
442.043	92.62
442.264	93.62
442.486	98.62
442.707	96.62
442.928	109.62
443.149	105.62
443.371	112.62
443.592	103.62
443.813	108.62
444.034	100.62
444.255	79.62
444.476	92.62
444.698	74.62
444.919	99.62
445.14	143.62
445.361	108.62
445.582	91.62
445.803	115.62
446.024	129.62
446.245	117.62
446.466	98.62
446.687	93.62
446.908	91.62
447.129	90.62
447.35	93.62
447.571	93.62
447.792	74.62
448.013	109.62
448.234	117.62
448.455	98.62
448.675	104.62
448.896	106.62
449.117	89.62
449.338	101.62
449.559	102.62
449.779	130.62
450	93.62
450.221	87.62
450.442	74.62
450.662	96.62
450.883	99.62
451.104	106.62
451.324	99.62
451.545	92.62
451.766	83.62
451.986	81.62
452.207	89.62
452.428	86.62
452.648	91.62
452.869	98.62
453.089	92.62
453.31	87.62
453.53	79.62
453.751	85.62
453.971	88.62
454.192	99.62
454.412	83.62
454.633	85.62
454.853	96.62
455.073	83.62
455.294	79.62
455.514	93.62
455.734	69.62
455.955	71.62
456.175	64.62
456.395	84.62
456.616	93.62
456.836	90.62
457.056	83.62
457.276	79.62
457.497	92.62
457.717	89.62
457.937	87.62
458.157	72.62
458.377	79.62
458.598	106.62
458.818	118.62
459.038	121.62
459.258	112.62
459.478	91.62
459.698	90.62
459.918	91.62
460.138	91.62
460.358	89.62
460.578	86.62
460.798	79.62
461.018	99.62
461.238	86.62
461.458	76.62
461.678	85.62
461.898	75.62
462.118	89.62
462.338	85.62
462.558	71.62
462.777	83.62
462.997	85.62
463.217	91.62
463.437	87.62
463.657	90.62
463.876	80.62
464.096	103.62
464.316	76.62
464.536	81.62
464.755	88.62
464.975	97.62
465.195	126.62
465.414	150.62
465.634	100.62
465.854	76.62
466.073	97.62
466.293	92.62
466.512	93.62
466.732	81.62
466.951	81.62
467.171	77.62
467.391	89.62
467.61	92.62
467.829	92.62
468.049	97.62
468.268	99.62
468.488	81.62
468.707	83.62
468.927	83.62
469.146	73.62
469.365	87.62
469.585	72.62
469.804	88.62
470.023	94.62
470.243	78.62
470.462	92.62
470.681	104.62
470.901	89.62
471.12	83.62
471.339	73.62
471.558	91.62
471.777	73.62
471.997	82.62
472.216	118.62
472.435	124.62
472.654	83.62
472.873	82.62
473.092	90.62
473.311	66.62
473.53	79.62
473.749	85.62
473.968	94.62
474.187	101.62
474.406	88.62
474.625	99.62
474.844	74.62
475.063	78.62
475.282	84.62
475.501	76.62
475.72	87.62
475.939	79.62
476.158	89.62
476.377	70.62
476.596	77.62
476.814	93.62
477.033	86.62
477.252	91.62
477.471	81.62
477.69	85.62
477.908	86.62
478.127	85.62
478.346	88.62
478.564	81.62
478.783	99.62
479.002	77.62
479.22	86.62
479.439	102.62
479.658	83.62
479.876	84.62
480.095	84.62
480.313	92.62
480.532	75.62
480.751	75.62
480.969	96.62
481.188	188.62
481.406	140.62
481.624	100.62
481.843	91.62
482.061	77.62
482.28	82.62
482.498	92.62
482.717	82.62
482.935	86.62
483.153	103.62
483.372	86.62
483.59	96.62
483.808	88.62
484.027	83.62
484.245	88.62
484.463	101.62
484.681	90.62
484.9	84.62
485.118	93.62
485.336	100.62
485.554	106.62
485.772	101.62
485.99	108.62
486.209	116.62
486.427	108.62
486.645	103.62
486.863	105.62
487.081	117.62
487.299	99.62
487.517	101.62
487.735	104.62
487.953	88.62
488.171	104.62
488.389	96.62
488.607	104.62
488.825	84.62
489.043	77.62
489.261	100.62
489.479	97.62
489.696	89.62
489.914	76.62
490.132	72.62
490.35	71.62
490.568	84.62
490.786	74.62
491.003	89.62
491.221	90.62
491.439	85.62
491.657	91.62
491.874	85.62
492.092	87.62
492.31	67.62
492.527	87.62
492.745	83.62
492.963	94.62
493.18	92.62
493.398	107.62
493.615	86.62
493.833	90.62
494.05	85.62
494.268	97.62
494.485	83.62
494.703	86.62
494.92	95.62
495.138	89.62
495.355	80.62
495.573	98.62
495.79	107.62
496.008	99.62
496.225	89.62
496.442	86.62
496.66	92.62
496.877	90.62
497.094	98.62
497.312	91.62
497.529	81.62
497.746	98.62
497.963	82.62
498.181	96.62
498.398	92.62
498.615	102.62
498.832	95.62
499.049	94.62
499.267	91.62
499.484	81.62
499.701	99.62
499.918	92.62
500.135	106.62
500.352	93.62
500.569	92.62
500.786	102.62
501.003	93.62
501.22	89.62
501.437	79.62
501.654	89.62
501.871	106.62
502.088	91.62
502.305	90.62
502.522	97.62
502.739	77.62
502.956	89.62
503.172	104.62
503.389	84.62
503.606	92.62
503.823	88.62
504.04	87.62
504.256	85.62
504.473	83.62
504.69	92.62
504.907	87.62
505.123	85.62
505.34	90.62
505.557	93.62
505.773	98.62
505.99	88.62
506.207	83.62
506.423	83.62
506.64	91.62
506.856	85.62
507.073	80.62
507.289	109.62
507.506	98.62
507.722	100.62
507.939	110.62
508.155	88.62
508.372	81.62
508.588	93.62
508.805	81.62
509.021	97.62
509.238	96.62
509.454	82.62
509.67	96.62
509.887	111.62
510.103	112.62
510.319	193.62
510.536	605.62
510.752	1672.62
510.968	480.62
511.184	133.62
511.401	104.62
511.617	80.62
511.833	85.62
512.049	102.62
512.265	90.62
512.481	99.62
512.698	97.62
512.914	90.62
513.13	92.62
513.346	90.62
513.562	90.62
513.778	95.62
513.994	95.62
514.21	88.62
514.426	107.62
514.642	115.62
514.858	116.62
515.074	145.62
515.29	348.62
515.506	1009.62
515.721	376.62
