Data from Uncirc_1982_H10_HRD10591_00054.txt Node
Date: Wed Jan 03 12:29:35 EST 2024
User: Yrep
Spectrometer: HR+D1059
Trigger mode: 1
Integration Time (sec): 1.000000E-1
Scans to average: 1
Electric dark correction enabled: true
Nonlinearity correction enabled: false
Boxcar width: 0
XAxis mode: Wavelengths
Number of Pixels in Spectrum: 2048
>>>>>Begin Spectral Data<<<<<
223.165	-14.31
223.4	-14.31
223.635	-14.31
223.869	-7.31
224.104	-26.31
224.338	-17.31
224.573	-27.31
224.808	-17.31
225.042	-3.31
225.277	-11.31
225.511	5.69
225.746	3.69
225.98	2.69
226.215	29.69
226.449	9.69
226.683	16.69
226.918	30.69
227.152	25.69
227.387	30.69
227.621	37.69
227.856	47.69
228.09	59.69
228.324	54.69
228.559	63.69
228.793	57.69
229.027	58.69
229.262	59.69
229.496	83.69
229.73	69.69
229.964	67.69
230.199	78.69
230.433	79.69
230.667	82.69
230.901	64.69
231.136	84.69
231.37	79.69
231.604	78.69
231.838	80.69
232.072	94.69
232.306	64.69
232.541	89.69
232.775	95.69
233.009	80.69
233.243	77.69
233.477	81.69
233.711	75.69
233.945	83.69
234.179	69.69
234.413	89.69
234.647	91.69
234.881	83.69
235.115	86.69
235.349	83.69
235.583	71.69
235.817	74.69
236.051	94.69
236.285	86.69
236.519	76.69
236.753	79.69
236.987	88.69
237.221	79.69
237.455	85.69
237.689	90.69
237.922	73.69
238.156	71.69
238.39	78.69
238.624	86.69
238.858	78.69
239.091	79.69
239.325	84.69
239.559	90.69
239.793	79.69
240.027	76.69
240.26	70.69
240.494	61.69
240.728	71.69
240.961	65.69
241.195	84.69
241.429	73.69
241.662	68.69
241.896	85.69
242.13	69.69
242.363	80.69
242.597	69.69
242.83	76.69
243.064	95.69
243.298	80.69
243.531	87.69
243.765	83.69
243.998	76.69
244.232	85.69
244.465	59.69
244.699	67.69
244.932	87.69
245.166	85.69
245.399	87.69
245.633	86.69
245.866	80.69
246.099	84.69
246.333	76.69
246.566	92.69
246.8	81.69
247.033	81.69
247.266	81.69
247.5	78.69
247.733	83.69
247.966	83.69
248.2	69.69
248.433	78.69
248.666	79.69
248.899	99.69
249.133	92.69
249.366	95.69
249.599	88.69
249.832	77.69
250.066	79.69
250.299	72.69
250.532	89.69
250.765	99.69
250.998	84.69
251.231	86.69
251.465	91.69
251.698	82.69
251.931	67.69
252.164	89.69
252.397	78.69
252.63	71.69
252.863	92.69
253.096	94.69
253.329	96.69
253.562	79.69
253.795	74.69
254.028	97.69
254.261	93.69
254.494	85.69
254.727	94.69
254.96	79.69
255.193	76.69
255.426	92.69
255.659	85.69
255.892	93.69
256.124	68.69
256.357	90.69
256.59	83.69
256.823	73.69
257.056	75.69
257.289	83.69
257.521	78.69
257.754	84.69
257.987	88.69
258.22	90.69
258.452	83.69
258.685	89.69
258.918	90.69
259.151	86.69
259.383	80.69
259.616	68.69
259.849	90.69
260.081	86.69
260.314	89.69
260.547	84.69
260.779	84.69
261.012	79.69
261.244	75.69
261.477	87.69
261.71	97.69
261.942	111.69
262.175	93.69
262.407	75.69
262.64	93.69
262.872	87.69
263.105	99.69
263.337	85.69
263.57	82.69
263.802	93.69
264.035	70.69
264.267	80.69
264.499	80.69
264.732	92.69
264.964	89.69
265.197	79.69
265.429	91.69
265.661	91.69
265.894	77.69
266.126	79.69
266.358	79.69
266.591	76.69
266.823	78.69
267.055	87.69
267.287	85.69
267.52	89.69
267.752	80.69
267.984	77.69
268.216	83.69
268.448	81.69
268.681	70.69
268.913	84.69
269.145	93.69
269.377	95.69
269.609	81.69
269.841	97.69
270.073	88.69
270.306	102.69
270.538	87.69
270.77	84.69
271.002	80.69
271.234	100.69
271.466	90.69
271.698	81.69
271.93	87.69
272.162	97.69
272.394	103.69
272.626	100.69
272.858	80.69
273.09	91.69
273.322	98.69
273.553	96.69
273.785	93.69
274.017	87.69
274.249	79.69
274.481	82.69
274.713	95.69
274.945	94.69
275.176	82.69
275.408	89.69
275.64	91.69
275.872	85.69
276.104	90.69
276.335	85.69
276.567	96.69
276.799	109.69
277.031	114.69
277.262	96.69
277.494	94.69
277.726	91.69
277.957	81.69
278.189	89.69
278.421	87.69
278.652	86.69
278.884	82.69
279.115	78.69
279.347	77.69
279.579	89.69
279.81	94.69
280.042	94.69
280.273	89.69
280.505	81.69
280.736	78.69
280.968	71.69
281.199	89.69
281.431	89.69
281.662	91.69
281.894	88.69
282.125	104.69
282.356	116.69
282.588	119.69
282.819	117.69
283.051	96.69
283.282	80.69
283.513	97.69
283.745	81.69
283.976	79.69
284.207	101.69
284.439	93.69
284.67	86.69
284.901	94.69
285.132	86.69
285.364	88.69
285.595	91.69
285.826	95.69
286.057	100.69
286.288	87.69
286.52	83.69
286.751	85.69
286.982	88.69
287.213	91.69
287.444	97.69
287.675	80.69
287.906	89.69
288.138	95.69
288.369	105.69
288.6	95.69
288.831	84.69
289.062	96.69
289.293	92.69
289.524	88.69
289.755	88.69
289.986	92.69
290.217	97.69
290.448	78.69
290.679	73.69
290.91	100.69
291.141	93.69
291.371	87.69
291.602	93.69
291.833	86.69
292.064	77.69
292.295	84.69
292.526	81.69
292.757	91.69
292.987	96.69
293.218	84.69
293.449	99.69
293.68	87.69
293.91	91.69
294.141	101.69
294.372	100.69
294.603	95.69
294.833	89.69
295.064	90.69
295.295	82.69
295.525	92.69
295.756	98.69
295.987	109.69
296.217	123.69
296.448	107.69
296.679	105.69
296.909	96.69
297.14	95.69
297.37	97.69
297.601	89.69
297.831	95.69
298.062	93.69
298.292	76.69
298.523	81.69
298.753	87.69
298.984	99.69
299.214	80.69
299.445	73.69
299.675	95.69
299.905	110.69
300.136	85.69
300.366	92.69
300.597	89.69
300.827	91.69
301.057	95.69
301.288	108.69
301.518	95.69
301.748	83.69
301.979	90.69
302.209	93.69
302.439	92.69
302.669	98.69
302.9	98.69
303.13	89.69
303.36	102.69
303.59	88.69
303.82	109.69
304.051	106.69
304.281	97.69
304.511	96.69
304.741	92.69
304.971	89.69
305.201	88.69
305.431	90.69
305.661	91.69
305.891	75.69
306.121	86.69
306.352	105.69
306.582	116.69
306.812	108.69
307.042	95.69
307.272	92.69
307.502	85.69
307.731	96.69
307.961	86.69
308.191	98.69
308.421	99.69
308.651	100.69
308.881	95.69
309.111	89.69
309.341	104.69
309.571	112.69
309.8	98.69
310.03	108.69
310.26	100.69
310.49	98.69
310.72	100.69
310.949	85.69
311.179	96.69
311.409	88.69
311.639	89.69
311.868	123.69
312.098	107.69
312.328	96.69
312.557	106.69
312.787	100.69
313.017	92.69
313.246	101.69
313.476	92.69
313.706	89.69
313.935	106.69
314.165	111.69
314.394	103.69
314.624	92.69
314.853	106.69
315.083	99.69
315.312	97.69
315.542	91.69
315.771	102.69
316.001	87.69
316.23	101.69
316.46	106.69
316.689	93.69
316.919	90.69
317.148	105.69
317.377	103.69
317.607	90.69
317.836	95.69
318.065	100.69
318.295	93.69
318.524	96.69
318.753	90.69
318.983	102.69
319.212	103.69
319.441	88.69
319.67	99.69
319.9	92.69
320.129	93.69
320.358	90.69
320.587	94.69
320.816	104.69
321.046	95.69
321.275	103.69
321.504	94.69
321.733	102.69
321.962	107.69
322.191	108.69
322.42	99.69
322.649	111.69
322.878	128.69
323.108	119.69
323.337	122.69
323.566	132.69
323.795	158.69
324.024	204.69
324.253	364.69
324.482	775.69
324.71	1631.69
324.939	2224.69
325.168	811.69
325.397	243.69
325.626	147.69
325.855	126.69
326.084	128.69
326.313	126.69
326.542	137.69
326.77	227.69
326.999	428.69
327.228	908.69
327.457	1661.69
327.686	1367.69
327.914	370.69
328.143	183.69
328.372	139.69
328.6	119.69
328.829	108.69
329.058	133.69
329.287	122.69
329.515	112.69
329.744	105.69
329.972	114.69
330.201	104.69
330.43	150.69
330.658	134.69
330.887	108.69
331.115	113.69
331.344	92.69
331.572	111.69
331.801	99.69
332.03	75.69
332.258	95.69
332.486	100.69
332.715	95.69
332.943	85.69
333.172	96.69
333.4	107.69
333.629	112.69
333.857	112.69
334.085	109.69
334.314	125.69
334.542	125.69
334.771	122.69
334.999	112.69
335.227	89.69
335.455	102.69
335.684	106.69
335.912	112.69
336.14	104.69
336.369	96.69
336.597	102.69
336.825	97.69
337.053	101.69
337.281	102.69
337.51	97.69
337.738	96.69
337.966	94.69
338.194	97.69
338.422	93.69
338.65	107.69
338.878	93.69
339.106	95.69
339.334	87.69
339.562	92.69
339.79	93.69
340.018	106.69
340.246	101.69
340.474	105.69
340.702	90.69
340.93	87.69
341.158	101.69
341.386	101.69
341.614	108.69
341.842	104.69
342.07	96.69
342.298	83.69
342.526	94.69
342.754	104.69
342.981	87.69
343.209	92.69
343.437	83.69
343.665	99.69
343.893	91.69
344.12	103.69
344.348	99.69
344.576	93.69
344.804	102.69
345.031	97.69
345.259	116.69
345.487	91.69
345.714	96.69
345.942	85.69
346.17	85.69
346.397	104.69
346.625	97.69
346.853	100.69
347.08	92.69
347.308	87.69
347.535	109.69
347.763	113.69
347.99	107.69
348.218	102.69
348.445	108.69
348.673	113.69
348.9	103.69
349.128	101.69
349.355	92.69
349.583	86.69
349.81	94.69
350.037	120.69
350.265	95.69
350.492	94.69
350.72	92.69
350.947	96.69
351.174	109.69
351.402	114.69
351.629	113.69
351.856	108.69
352.083	93.69
352.311	107.69
352.538	108.69
352.765	118.69
352.992	109.69
353.22	104.69
353.447	113.69
353.674	110.69
353.901	102.69
354.128	105.69
354.355	92.69
354.583	97.69
354.81	103.69
355.037	83.69
355.264	94.69
355.491	88.69
355.718	105.69
355.945	90.69
356.172	95.69
356.399	95.69
356.626	100.69
356.853	93.69
357.08	91.69
357.307	78.69
357.534	87.69
357.761	101.69
357.988	110.69
358.215	103.69
358.441	113.69
358.668	86.69
358.895	100.69
359.122	94.69
359.349	103.69
359.576	92.69
359.802	90.69
360.029	119.69
360.256	96.69
360.483	95.69
360.709	86.69
360.936	95.69
361.163	100.69
361.39	93.69
361.616	83.69
361.843	96.69
362.07	99.69
362.296	99.69
362.523	107.69
362.749	92.69
362.976	76.69
363.203	92.69
363.429	89.69
363.656	113.69
363.882	97.69
364.109	100.69
364.335	99.69
364.562	84.69
364.788	83.69
365.015	108.69
365.241	97.69
365.468	111.69
365.694	93.69
365.92	102.69
366.147	112.69
366.373	93.69
366.599	87.69
366.826	92.69
367.052	87.69
367.278	100.69
367.505	88.69
367.731	91.69
367.957	100.69
368.184	87.69
368.41	91.69
368.636	109.69
368.862	123.69
369.089	118.69
369.315	102.69
369.541	93.69
369.767	87.69
369.993	105.69
370.219	109.69
370.445	93.69
370.672	90.69
370.898	92.69
371.124	91.69
371.35	87.69
371.576	86.69
371.802	87.69
372.028	81.69
372.254	97.69
372.48	101.69
372.706	89.69
372.932	96.69
373.158	104.69
373.384	95.69
373.61	93.69
373.835	95.69
374.061	104.69
374.287	92.69
374.513	94.69
374.739	92.69
374.965	92.69
375.191	81.69
375.416	92.69
375.642	79.69
375.868	99.69
376.094	88.69
376.319	87.69
376.545	86.69
376.771	85.69
376.997	88.69
377.222	89.69
377.448	102.69
377.674	85.69
377.899	88.69
378.125	84.69
378.35	85.69
378.576	94.69
378.802	97.69
379.027	100.69
379.253	85.69
379.478	87.69
379.704	96.69
379.929	99.69
380.155	96.69
380.38	85.69
380.606	96.69
380.831	116.69
381.057	102.69
381.282	95.69
381.507	118.69
381.733	106.69
381.958	95.69
382.184	111.69
382.409	109.69
382.634	106.69
382.86	97.69
383.085	100.69
383.31	98.69
383.535	94.69
383.761	110.69
383.986	99.69
384.211	104.69
384.436	96.69
384.662	88.69
384.887	99.69
385.112	91.69
385.337	112.69
385.562	105.69
385.787	108.69
386.013	101.69
386.238	119.69
386.463	111.69
386.688	120.69
386.913	107.69
387.138	107.69
387.363	94.69
387.588	103.69
387.813	107.69
388.038	119.69
388.263	121.69
388.488	111.69
388.713	100.69
388.938	100.69
389.163	102.69
389.387	100.69
389.612	97.69
389.837	104.69
390.062	101.69
390.287	89.69
390.512	97.69
390.736	83.69
390.961	94.69
391.186	99.69
391.411	98.69
391.636	104.69
391.86	71.69
392.085	93.69
392.31	109.69
392.534	92.69
392.759	96.69
392.984	91.69
393.208	97.69
393.433	102.69
393.658	94.69
393.882	87.69
394.107	91.69
394.331	95.69
394.556	100.69
394.78	93.69
395.005	104.69
395.229	78.69
395.454	99.69
395.678	96.69
395.903	92.69
396.127	93.69
396.352	100.69
396.576	80.69
396.801	102.69
397.025	94.69
397.249	100.69
397.474	101.69
397.698	87.69
397.922	95.69
398.147	80.69
398.371	87.69
398.595	93.69
398.82	83.69
399.044	78.69
399.268	91.69
399.492	85.69
399.717	86.69
399.941	107.69
400.165	107.69
400.389	97.69
400.613	95.69
400.837	108.69
401.062	88.69
401.286	90.69
401.51	101.69
401.734	87.69
401.958	91.69
402.182	137.69
402.406	153.69
402.63	114.69
402.854	102.69
403.078	87.69
403.302	103.69
403.526	96.69
403.75	104.69
403.974	87.69
404.198	100.69
404.422	83.69
404.645	75.69
404.869	87.69
405.093	89.69
405.317	93.69
405.541	93.69
405.765	100.69
405.988	122.69
406.212	168.69
406.436	207.69
406.66	148.69
406.883	96.69
407.107	88.69
407.331	103.69
407.555	110.69
407.778	112.69
408.002	110.69
408.226	92.69
408.449	110.69
408.673	93.69
408.896	90.69
409.12	93.69
409.344	99.69
409.567	87.69
409.791	94.69
410.014	108.69
410.238	101.69
410.461	98.69
410.685	93.69
410.908	92.69
411.132	108.69
411.355	103.69
411.578	92.69
411.802	95.69
412.025	70.69
412.249	87.69
412.472	84.69
412.695	99.69
412.919	88.69
413.142	87.69
413.365	84.69
413.589	87.69
413.812	93.69
414.035	88.69
414.258	94.69
414.482	99.69
414.705	74.69
414.928	98.69
415.151	96.69
415.374	110.69
415.597	96.69
415.821	94.69
416.044	96.69
416.267	89.69
416.49	81.69
416.713	80.69
416.936	92.69
417.159	91.69
417.382	79.69
417.605	102.69
417.828	108.69
418.051	108.69
418.274	102.69
418.497	94.69
418.72	85.69
418.943	91.69
419.166	83.69
419.389	99.69
419.611	97.69
419.834	88.69
420.057	96.69
420.28	84.69
420.503	81.69
420.726	96.69
420.948	89.69
421.171	103.69
421.394	108.69
421.617	99.69
421.839	107.69
422.062	91.69
422.285	104.69
422.507	100.69
422.73	85.69
422.953	101.69
423.175	82.69
423.398	87.69
423.621	90.69
423.843	80.69
424.066	89.69
424.288	96.69
424.511	91.69
424.733	106.69
424.956	109.69
425.178	107.69
425.401	107.69
425.623	91.69
425.846	94.69
426.068	93.69
426.291	95.69
426.513	96.69
426.735	99.69
426.958	87.69
427.18	98.69
427.402	151.69
427.625	168.69
427.847	129.69
428.069	124.69
428.292	93.69
428.514	84.69
428.736	94.69
428.958	83.69
429.181	83.69
429.403	96.69
429.625	71.69
429.847	93.69
430.069	111.69
430.292	93.69
430.514	90.69
430.736	96.69
430.958	85.69
431.18	99.69
431.402	93.69
431.624	91.69
431.846	80.69
432.068	89.69
432.29	87.69
432.512	99.69
432.734	76.69
432.956	100.69
433.178	109.69
433.4	99.69
433.622	103.69
433.844	96.69
434.066	77.69
434.287	89.69
434.509	87.69
434.731	110.69
434.953	83.69
435.175	85.69
435.397	99.69
435.618	94.69
435.84	104.69
436.062	111.69
436.284	108.69
436.505	111.69
436.727	84.69
436.949	95.69
437.17	77.69
437.392	91.69
437.614	101.69
437.835	105.69
438.057	103.69
438.278	110.69
438.5	103.69
438.721	127.69
438.943	113.69
439.165	86.69
439.386	90.69
439.608	92.69
439.829	109.69
440.05	113.69
440.272	130.69
440.493	90.69
440.715	95.69
440.936	89.69
441.158	89.69
441.379	74.69
441.6	85.69
441.822	110.69
442.043	90.69
442.264	92.69
442.486	105.69
442.707	98.69
442.928	103.69
443.149	126.69
443.371	127.69
443.592	110.69
443.813	115.69
444.034	121.69
444.255	81.69
444.476	72.69
444.698	111.69
444.919	94.69
445.14	115.69
445.361	111.69
445.582	113.69
445.803	138.69
446.024	127.69
446.245	137.69
446.466	116.69
446.687	90.69
446.908	93.69
447.129	92.69
447.35	86.69
447.571	100.69
447.792	79.69
448.013	95.69
448.234	106.69
448.455	107.69
448.675	120.69
448.896	113.69
449.117	110.69
449.338	108.69
449.559	134.69
449.779	124.69
450	108.69
450.221	86.69
450.442	89.69
450.662	91.69
450.883	112.69
451.104	104.69
451.324	80.69
451.545	95.69
451.766	94.69
451.986	102.69
452.207	86.69
452.428	84.69
452.648	90.69
452.869	102.69
453.089	114.69
453.31	116.69
453.53	93.69
453.751	93.69
453.971	114.69
454.192	113.69
454.412	90.69
454.633	80.69
454.853	83.69
455.073	97.69
455.294	90.69
455.514	91.69
455.734	84.69
455.955	99.69
456.175	70.69
456.395	79.69
456.616	94.69
456.836	101.69
457.056	89.69
457.276	80.69
457.497	75.69
457.717	84.69
457.937	79.69
458.157	93.69
458.377	99.69
458.598	108.69
458.818	137.69
459.038	153.69
459.258	109.69
459.478	109.69
459.698	84.69
459.918	91.69
460.138	88.69
460.358	93.69
460.578	96.69
460.798	86.69
461.018	101.69
461.238	89.69
461.458	88.69
461.678	83.69
461.898	109.69
462.118	77.69
462.338	78.69
462.558	93.69
462.777	103.69
462.997	87.69
463.217	101.69
463.437	88.69
463.657	77.69
463.876	96.69
464.096	96.69
464.316	102.69
464.536	119.69
464.755	103.69
464.975	110.69
465.195	153.69
465.414	153.69
465.634	86.69
465.854	80.69
466.073	85.69
466.293	87.69
466.512	84.69
466.732	96.69
466.951	87.69
467.171	100.69
467.391	110.69
467.61	103.69
467.829	101.69
468.049	110.69
468.268	92.69
468.488	83.69
468.707	89.69
468.927	84.69
469.146	79.69
469.365	87.69
469.585	73.69
469.804	100.69
470.023	103.69
470.243	92.69
470.462	104.69
470.681	119.69
470.901	74.69
471.12	84.69
471.339	84.69
471.558	82.69
471.777	89.69
471.997	101.69
472.216	120.69
472.435	139.69
472.654	108.69
472.873	96.69
473.092	95.69
473.311	84.69
473.53	87.69
473.749	96.69
473.968	93.69
474.187	114.69
474.406	97.69
474.625	103.69
474.844	96.69
475.063	95.69
475.282	93.69
475.501	73.69
475.72	86.69
475.939	83.69
476.158	74.69
476.377	73.69
476.596	102.69
476.814	89.69
477.033	103.69
477.252	101.69
477.471	85.69
477.69	91.69
477.908	94.69
478.127	84.69
478.346	83.69
478.564	79.69
478.783	91.69
479.002	84.69
479.22	97.69
479.439	102.69
479.658	106.69
479.876	104.69
480.095	94.69
480.313	99.69
480.532	94.69
480.751	104.69
480.969	124.69
481.188	201.69
481.406	171.69
481.624	101.69
481.843	101.69
482.061	98.69
482.28	101.69
482.498	99.69
482.717	91.69
482.935	80.69
483.153	102.69
483.372	100.69
483.59	99.69
483.808	102.69
484.027	91.69
484.245	81.69
484.463	97.69
484.681	101.69
484.9	74.69
485.118	91.69
485.336	86.69
485.554	91.69
485.772	109.69
485.99	91.69
486.209	109.69
486.427	99.69
486.645	106.69
486.863	98.69
487.081	117.69
487.299	98.69
487.517	108.69
487.735	93.69
487.953	111.69
488.171	99.69
488.389	109.69
488.607	103.69
488.825	99.69
489.043	68.69
489.261	97.69
489.479	89.69
489.696	85.69
489.914	99.69
490.132	99.69
490.35	98.69
490.568	84.69
490.786	90.69
491.003	85.69
491.221	96.69
491.439	97.69
491.657	94.69
491.874	85.69
492.092	90.69
492.31	88.69
492.527	83.69
492.745	88.69
492.963	96.69
493.18	104.69
493.398	92.69
493.615	110.69
493.833	91.69
494.05	89.69
494.268	85.69
494.485	98.69
494.703	91.69
494.92	98.69
495.138	92.69
495.355	96.69
495.573	87.69
495.79	103.69
496.008	90.69
496.225	90.69
496.442	91.69
496.66	96.69
496.877	89.69
497.094	79.69
497.312	74.69
497.529	83.69
497.746	99.69
497.963	94.69
498.181	85.69
498.398	104.69
498.615	104.69
498.832	92.69
499.049	91.69
499.267	88.69
499.484	84.69
499.701	100.69
499.918	93.69
500.135	84.69
500.352	76.69
500.569	91.69
500.786	86.69
501.003	101.69
501.22	90.69
501.437	86.69
501.654	104.69
501.871	101.69
502.088	86.69
502.305	99.69
502.522	101.69
502.739	102.69
502.956	82.69
503.172	95.69
503.389	100.69
503.606	111.69
503.823	99.69
504.04	95.69
504.256	97.69
504.473	82.69
504.69	94.69
504.907	101.69
505.123	85.69
505.34	92.69
505.557	83.69
505.773	76.69
505.99	92.69
506.207	85.69
506.423	85.69
506.64	82.69
506.856	94.69
507.073	88.69
507.289	93.69
507.506	107.69
507.722	103.69
507.939	104.69
508.155	96.69
508.372	74.69
508.588	99.69
508.805	103.69
509.021	110.69
509.238	99.69
509.454	102.69
509.67	104.69
509.887	105.69
510.103	125.69
510.319	218.69
510.536	698.69
510.752	2222.69
510.968	595.69
511.184	143.69
511.401	101.69
511.617	76.69
511.833	96.69
512.049	93.69
512.265	79.69
512.481	110.69
512.698	100.69
512.914	90.69
513.13	90.69
513.346	86.69
513.562	86.69
513.778	86.69
513.994	107.69
514.21	113.69
