Data from Uncirc_1982_H10_HRD10591_00059.txt Node
Date: Wed Jan 03 12:29:36 EST 2024
User: Yrep
Spectrometer: HR+D1059
Trigger mode: 1
Integration Time (sec): 1.000000E-1
Scans to average: 1
Electric dark correction enabled: true
Nonlinearity correction enabled: false
Boxcar width: 0
XAxis mode: Wavelengths
Number of Pixels in Spectrum: 2048
>>>>>Begin Spectral Data<<<<<
223.165	-15.06
223.4	-15.06
223.635	-15.06
223.869	-14.06
224.104	-25.06
224.338	-19.06
224.573	-16.06
224.808	-16.06
225.042	-10.06
225.277	-8.06
225.511	-5.06
225.746	-4.06
225.98	13.94
226.215	-1.06
226.449	29.94
226.683	24.94
226.918	28.94
227.152	35.94
227.387	35.94
227.621	28.94
227.856	40.94
228.09	48.94
228.324	39.94
228.559	59.94
228.793	52.94
229.027	53.94
229.262	74.94
229.496	80.94
229.73	73.94
229.964	89.94
230.199	78.94
230.433	72.94
230.667	81.94
230.901	88.94
231.136	76.94
231.37	85.94
231.604	70.94
231.838	87.94
232.072	84.94
232.306	78.94
232.541	77.94
232.775	72.94
233.009	75.94
233.243	82.94
233.477	104.94
233.711	95.94
233.945	72.94
234.179	85.94
234.413	91.94
234.647	75.94
234.881	88.94
235.115	85.94
235.349	83.94
235.583	73.94
235.817	72.94
236.051	80.94
236.285	73.94
236.519	84.94
236.753	88.94
236.987	76.94
237.221	85.94
237.455	90.94
237.689	80.94
237.922	72.94
238.156	84.94
238.39	66.94
238.624	75.94
238.858	61.94
239.091	78.94
239.325	74.94
239.559	76.94
239.793	83.94
240.027	87.94
240.26	89.94
240.494	86.94
240.728	76.94
240.961	72.94
241.195	78.94
241.429	86.94
241.662	78.94
241.896	88.94
242.13	84.94
242.363	75.94
242.597	78.94
242.83	76.94
243.064	72.94
243.298	68.94
243.531	74.94
243.765	68.94
243.998	88.94
244.232	95.94
244.465	86.94
244.699	96.94
244.932	83.94
245.166	84.94
245.399	86.94
245.633	84.94
245.866	77.94
246.099	80.94
246.333	81.94
246.566	88.94
246.8	79.94
247.033	89.94
247.266	77.94
247.5	63.94
247.733	69.94
247.966	77.94
248.2	62.94
248.433	80.94
248.666	76.94
248.899	76.94
249.133	68.94
249.366	85.94
249.599	92.94
249.832	85.94
250.066	93.94
250.299	66.94
250.532	96.94
250.765	77.94
250.998	71.94
251.231	70.94
251.465	80.94
251.698	82.94
251.931	79.94
252.164	72.94
252.397	81.94
252.63	73.94
252.863	84.94
253.096	82.94
253.329	79.94
253.562	82.94
253.795	94.94
254.028	86.94
254.261	78.94
254.494	78.94
254.727	100.94
254.96	84.94
255.193	82.94
255.426	79.94
255.659	76.94
255.892	94.94
256.124	92.94
256.357	93.94
256.59	87.94
256.823	80.94
257.056	75.94
257.289	80.94
257.521	75.94
257.754	84.94
257.987	81.94
258.22	89.94
258.452	77.94
258.685	82.94
258.918	74.94
259.151	76.94
259.383	92.94
259.616	72.94
259.849	88.94
260.081	70.94
260.314	84.94
260.547	84.94
260.779	90.94
261.012	82.94
261.244	78.94
261.477	82.94
261.71	101.94
261.942	98.94
262.175	105.94
262.407	85.94
262.64	86.94
262.872	90.94
263.105	82.94
263.337	81.94
263.57	93.94
263.802	85.94
264.035	97.94
264.267	71.94
264.499	78.94
264.732	83.94
264.964	84.94
265.197	93.94
265.429	84.94
265.661	69.94
265.894	68.94
266.126	88.94
266.358	84.94
266.591	92.94
266.823	88.94
267.055	86.94
267.287	90.94
267.52	97.94
267.752	93.94
267.984	93.94
268.216	81.94
268.448	89.94
268.681	81.94
268.913	88.94
269.145	93.94
269.377	83.94
269.609	76.94
269.841	75.94
270.073	88.94
270.306	93.94
270.538	96.94
270.77	85.94
271.002	77.94
271.234	54.94
271.466	92.94
271.698	70.94
271.93	82.94
272.162	87.94
272.394	81.94
272.626	92.94
272.858	95.94
273.09	68.94
273.322	80.94
273.553	90.94
273.785	82.94
274.017	80.94
274.249	73.94
274.481	84.94
274.713	91.94
274.945	83.94
275.176	97.94
275.408	82.94
275.64	82.94
275.872	86.94
276.104	90.94
276.335	89.94
276.567	96.94
276.799	96.94
277.031	100.94
277.262	90.94
277.494	86.94
277.726	94.94
277.957	88.94
278.189	86.94
278.421	79.94
278.652	80.94
278.884	89.94
279.115	66.94
279.347	84.94
279.579	87.94
279.81	90.94
280.042	83.94
280.273	94.94
280.505	79.94
280.736	90.94
280.968	92.94
281.199	88.94
281.431	88.94
281.662	90.94
281.894	83.94
282.125	98.94
282.356	106.94
282.588	114.94
282.819	77.94
283.051	91.94
283.282	83.94
283.513	85.94
283.745	99.94
283.976	68.94
284.207	83.94
284.439	93.94
284.67	90.94
284.901	100.94
285.132	90.94
285.364	88.94
285.595	69.94
285.826	88.94
286.057	88.94
286.288	94.94
286.52	82.94
286.751	71.94
286.982	88.94
287.213	77.94
287.444	88.94
287.675	91.94
287.906	99.94
288.138	88.94
288.369	82.94
288.6	72.94
288.831	92.94
289.062	90.94
289.293	79.94
289.524	87.94
289.755	78.94
289.986	95.94
290.217	83.94
290.448	80.94
290.679	98.94
290.91	106.94
291.141	96.94
291.371	92.94
291.602	89.94
291.833	84.94
292.064	89.94
292.295	92.94
292.526	75.94
292.757	88.94
292.987	96.94
293.218	89.94
293.449	98.94
293.68	98.94
293.91	89.94
294.141	93.94
294.372	78.94
294.603	91.94
294.833	98.94
295.064	92.94
295.295	80.94
295.525	92.94
295.756	94.94
295.987	95.94
296.217	120.94
296.448	105.94
296.679	91.94
296.909	96.94
297.14	87.94
297.37	86.94
297.601	90.94
297.831	93.94
298.062	88.94
298.292	85.94
298.523	94.94
298.753	91.94
298.984	81.94
299.214	89.94
299.445	81.94
299.675	87.94
299.905	96.94
300.136	86.94
300.366	82.94
300.597	82.94
300.827	91.94
301.057	103.94
301.288	104.94
301.518	98.94
301.748	91.94
301.979	90.94
302.209	88.94
302.439	94.94
302.669	80.94
302.9	80.94
303.13	77.94
303.36	88.94
303.59	112.94
303.82	89.94
304.051	96.94
304.281	82.94
304.511	96.94
304.741	102.94
304.971	92.94
305.201	84.94
305.431	93.94
305.661	95.94
305.891	100.94
306.121	93.94
306.352	80.94
306.582	97.94
306.812	86.94
307.042	89.94
307.272	83.94
307.502	102.94
307.731	98.94
307.961	100.94
308.191	94.94
308.421	98.94
308.651	100.94
308.881	97.94
309.111	98.94
309.341	94.94
309.571	103.94
309.8	95.94
310.03	99.94
310.26	97.94
310.49	84.94
310.72	106.94
310.949	94.94
311.179	91.94
311.409	102.94
311.639	101.94
311.868	86.94
312.098	102.94
312.328	91.94
312.557	96.94
312.787	103.94
313.017	97.94
313.246	101.94
313.476	86.94
313.706	82.94
313.935	96.94
314.165	105.94
314.394	100.94
314.624	98.94
314.853	99.94
315.083	86.94
315.312	103.94
315.542	86.94
315.771	105.94
316.001	108.94
316.23	86.94
316.46	75.94
316.689	86.94
316.919	97.94
317.148	100.94
317.377	105.94
317.607	97.94
317.836	94.94
318.065	92.94
318.295	94.94
318.524	94.94
318.753	89.94
318.983	97.94
319.212	76.94
319.441	99.94
319.67	82.94
319.9	98.94
320.129	85.94
320.358	76.94
320.587	104.94
320.816	94.94
321.046	98.94
321.275	86.94
321.504	87.94
321.733	92.94
321.962	87.94
322.191	95.94
322.42	81.94
322.649	104.94
322.878	104.94
323.108	117.94
323.337	106.94
323.566	125.94
323.795	140.94
324.024	186.94
324.253	312.94
324.482	664.94
324.71	1345.94
324.939	1771.94
325.168	650.94
325.397	204.94
325.626	130.94
325.855	105.94
326.084	117.94
326.313	115.94
326.542	129.94
326.77	184.94
326.999	397.94
327.228	773.94
327.457	1415.94
327.686	1106.94
327.914	313.94
328.143	162.94
328.372	126.94
328.6	107.94
328.829	129.94
329.058	100.94
329.287	120.94
329.515	98.94
329.744	101.94
329.972	101.94
330.201	112.94
330.43	120.94
330.658	102.94
330.887	115.94
331.115	120.94
331.344	103.94
331.572	84.94
331.801	107.94
332.03	98.94
332.258	87.94
332.486	76.94
332.715	92.94
332.943	98.94
333.172	103.94
333.4	93.94
333.629	106.94
333.857	109.94
334.085	112.94
334.314	109.94
334.542	121.94
334.771	117.94
334.999	94.94
335.227	109.94
335.455	105.94
335.684	107.94
335.912	98.94
336.14	86.94
336.369	102.94
336.597	114.94
336.825	88.94
337.053	86.94
337.281	96.94
337.51	82.94
337.738	97.94
337.966	101.94
338.194	89.94
338.422	92.94
338.65	99.94
338.878	93.94
339.106	106.94
339.334	109.94
339.562	93.94
339.79	75.94
340.018	89.94
340.246	84.94
340.474	95.94
340.702	91.94
340.93	87.94
341.158	88.94
341.386	93.94
341.614	92.94
341.842	95.94
342.07	86.94
342.298	81.94
342.526	86.94
342.754	93.94
342.981	78.94
343.209	93.94
343.437	100.94
343.665	82.94
343.893	93.94
344.12	81.94
344.348	85.94
344.576	94.94
344.804	89.94
345.031	84.94
345.259	100.94
345.487	112.94
345.714	100.94
345.942	84.94
346.17	100.94
346.397	82.94
346.625	90.94
346.853	84.94
347.08	84.94
347.308	100.94
347.535	103.94
347.763	100.94
347.99	94.94
348.218	95.94
348.445	92.94
348.673	88.94
348.9	93.94
349.128	92.94
349.355	77.94
349.583	107.94
349.81	85.94
350.037	100.94
350.265	82.94
350.492	101.94
350.72	75.94
350.947	115.94
351.174	96.94
351.402	112.94
351.629	103.94
351.856	93.94
352.083	84.94
352.311	97.94
352.538	99.94
352.765	110.94
352.992	116.94
353.22	89.94
353.447	101.94
353.674	96.94
353.901	105.94
354.128	102.94
354.355	88.94
354.583	107.94
354.81	73.94
355.037	74.94
355.264	108.94
355.491	96.94
355.718	104.94
355.945	102.94
356.172	97.94
356.399	102.94
356.626	91.94
356.853	93.94
357.08	99.94
357.307	97.94
357.534	87.94
357.761	91.94
357.988	109.94
358.215	100.94
358.441	76.94
358.668	88.94
358.895	93.94
359.122	90.94
359.349	89.94
359.576	95.94
359.802	103.94
360.029	103.94
360.256	95.94
360.483	90.94
360.709	101.94
360.936	90.94
361.163	101.94
361.39	90.94
361.616	91.94
361.843	84.94
362.07	94.94
362.296	88.94
362.523	78.94
362.749	84.94
362.976	85.94
363.203	89.94
363.429	100.94
363.656	96.94
363.882	101.94
364.109	96.94
364.335	92.94
364.562	88.94
364.788	102.94
365.015	90.94
365.241	97.94
365.468	106.94
365.694	89.94
365.92	92.94
366.147	98.94
366.373	95.94
366.599	85.94
366.826	92.94
367.052	77.94
367.278	82.94
367.505	84.94
367.731	84.94
367.957	85.94
368.184	87.94
368.41	98.94
368.636	103.94
368.862	108.94
369.089	102.94
369.315	96.94
369.541	111.94
369.767	85.94
369.993	102.94
370.219	88.94
370.445	84.94
370.672	73.94
370.898	80.94
371.124	92.94
371.35	89.94
371.576	86.94
371.802	92.94
372.028	88.94
372.254	100.94
372.48	84.94
372.706	78.94
372.932	93.94
373.158	92.94
373.384	99.94
373.61	104.94
373.835	86.94
374.061	89.94
374.287	89.94
374.513	99.94
374.739	90.94
374.965	94.94
375.191	93.94
375.416	84.94
375.642	96.94
375.868	99.94
376.094	92.94
376.319	82.94
376.545	86.94
376.771	84.94
376.997	89.94
377.222	77.94
377.448	104.94
377.674	80.94
377.899	76.94
378.125	86.94
378.35	93.94
378.576	95.94
378.802	102.94
379.027	103.94
379.253	89.94
379.478	93.94
379.704	83.94
379.929	84.94
380.155	88.94
380.38	97.94
380.606	96.94
380.831	83.94
381.057	103.94
381.282	93.94
381.507	99.94
381.733	94.94
381.958	89.94
382.184	83.94
382.409	93.94
382.634	88.94
382.86	92.94
383.085	92.94
383.31	104.94
383.535	100.94
383.761	96.94
383.986	99.94
384.211	104.94
384.436	95.94
384.662	110.94
384.887	105.94
385.112	105.94
385.337	106.94
385.562	96.94
385.787	109.94
386.013	104.94
386.238	125.94
386.463	118.94
386.688	120.94
386.913	115.94
387.138	91.94
387.363	99.94
387.588	92.94
387.813	100.94
388.038	100.94
388.263	108.94
388.488	103.94
388.713	93.94
388.938	85.94
389.163	88.94
389.387	101.94
389.612	106.94
389.837	94.94
390.062	99.94
390.287	107.94
390.512	95.94
390.736	89.94
390.961	103.94
391.186	99.94
391.411	98.94
391.636	93.94
391.86	77.94
392.085	100.94
392.31	85.94
392.534	80.94
392.759	86.94
392.984	81.94
393.208	89.94
393.433	89.94
393.658	77.94
393.882	82.94
394.107	86.94
394.331	91.94
394.556	90.94
394.78	84.94
395.005	89.94
395.229	82.94
395.454	77.94
395.678	80.94
395.903	76.94
396.127	76.94
396.352	91.94
396.576	87.94
396.801	97.94
397.025	86.94
397.249	89.94
397.474	91.94
397.698	101.94
397.922	91.94
398.147	90.94
398.371	90.94
398.595	71.94
398.82	74.94
399.044	86.94
399.268	88.94
399.492	88.94
399.717	93.94
399.941	82.94
400.165	81.94
400.389	91.94
400.613	104.94
400.837	85.94
401.062	79.94
401.286	87.94
401.51	85.94
401.734	103.94
401.958	76.94
402.182	102.94
402.406	129.94
402.63	112.94
402.854	89.94
403.078	84.94
403.302	89.94
403.526	93.94
403.75	94.94
403.974	72.94
404.198	97.94
404.422	76.94
404.645	88.94
404.869	94.94
405.093	102.94
405.317	91.94
405.541	83.94
405.765	85.94
405.988	91.94
406.212	134.94
406.436	171.94
406.66	100.94
406.883	96.94
407.107	92.94
407.331	99.94
407.555	95.94
407.778	100.94
408.002	88.94
408.226	74.94
408.449	100.94
408.673	84.94
408.896	80.94
409.12	86.94
409.344	91.94
409.567	72.94
409.791	95.94
410.014	93.94
410.238	86.94
410.461	100.94
410.685	96.94
410.908	94.94
411.132	100.94
411.355	90.94
411.578	89.94
411.802	102.94
412.025	83.94
412.249	80.94
412.472	107.94
412.695	90.94
412.919	77.94
413.142	78.94
413.365	99.94
413.589	76.94
413.812	89.94
414.035	90.94
414.258	103.94
414.482	84.94
414.705	91.94
414.928	85.94
415.151	98.94
415.374	83.94
415.597	86.94
415.821	99.94
416.044	85.94
416.267	78.94
416.49	71.94
416.713	85.94
416.936	93.94
417.159	93.94
417.382	83.94
417.605	96.94
417.828	91.94
418.051	85.94
418.274	90.94
418.497	93.94
418.72	86.94
418.943	68.94
419.166	81.94
419.389	93.94
419.611	98.94
419.834	101.94
420.057	90.94
420.28	90.94
420.503	93.94
420.726	94.94
420.948	98.94
421.171	88.94
421.394	82.94
421.617	113.94
421.839	76.94
422.062	82.94
422.285	97.94
422.507	85.94
422.73	89.94
422.953	87.94
423.175	82.94
423.398	79.94
423.621	76.94
423.843	102.94
424.066	102.94
424.288	85.94
424.511	66.94
424.733	85.94
424.956	91.94
425.178	87.94
425.401	94.94
425.623	91.94
425.846	100.94
426.068	85.94
426.291	93.94
426.513	78.94
426.735	86.94
426.958	76.94
427.18	96.94
427.402	123.94
427.625	130.94
427.847	112.94
428.069	117.94
428.292	90.94
428.514	91.94
428.736	96.94
428.958	84.94
429.181	99.94
429.403	91.94
429.625	84.94
429.847	108.94
430.069	96.94
430.292	75.94
430.514	77.94
430.736	82.94
430.958	96.94
431.18	89.94
431.402	98.94
431.624	80.94
431.846	97.94
432.068	96.94
432.29	86.94
432.512	84.94
432.734	92.94
432.956	83.94
433.178	100.94
433.4	96.94
433.622	96.94
433.844	84.94
434.066	96.94
434.287	92.94
434.509	86.94
434.731	83.94
434.953	82.94
435.175	92.94
435.397	86.94
435.618	101.94
435.84	104.94
436.062	125.94
436.284	110.94
436.505	92.94
436.727	90.94
436.949	97.94
437.17	101.94
437.392	92.94
437.614	91.94
437.835	96.94
438.057	99.94
438.278	102.94
438.5	90.94
438.721	97.94
438.943	93.94
439.165	87.94
439.386	97.94
439.608	82.94
439.829	106.94
440.05	112.94
440.272	123.94
440.493	90.94
440.715	96.94
440.936	101.94
441.158	82.94
441.379	93.94
441.6	81.94
441.822	84.94
442.043	89.94
442.264	98.94
442.486	103.94
442.707	98.94
442.928	99.94
443.149	115.94
443.371	119.94
443.592	96.94
443.813	96.94
444.034	98.94
444.255	90.94
444.476	74.94
444.698	78.94
444.919	82.94
445.14	132.94
445.361	123.94
445.582	114.94
445.803	104.94
446.024	118.94
446.245	130.94
446.466	86.94
446.687	102.94
446.908	91.94
447.129	82.94
447.35	84.94
447.571	101.94
447.792	97.94
448.013	76.94
448.234	96.94
448.455	86.94
448.675	103.94
448.896	108.94
449.117	91.94
449.338	82.94
449.559	105.94
449.779	137.94
450	82.94
450.221	95.94
450.442	90.94
450.662	83.94
450.883	102.94
451.104	98.94
451.324	72.94
451.545	92.94
451.766	88.94
451.986	77.94
452.207	85.94
452.428	83.94
452.648	82.94
452.869	102.94
453.089	94.94
453.31	108.94
453.53	100.94
453.751	90.94
453.971	95.94
454.192	90.94
454.412	93.94
454.633	86.94
454.853	86.94
455.073	87.94
455.294	89.94
455.514	103.94
455.734	88.94
455.955	88.94
456.175	94.94
456.395	84.94
456.616	89.94
456.836	84.94
457.056	81.94
457.276	90.94
457.497	80.94
457.717	86.94
457.937	100.94
458.157	69.94
458.377	85.94
458.598	88.94
458.818	113.94
459.038	129.94
459.258	107.94
459.478	78.94
459.698	79.94
459.918	85.94
460.138	84.94
460.358	88.94
460.578	82.94
460.798	94.94
461.018	79.94
461.238	80.94
461.458	91.94
461.678	76.94
461.898	85.94
462.118	84.94
462.338	80.94
462.558	76.94
462.777	94.94
462.997	84.94
463.217	71.94
463.437	85.94
463.657	86.94
463.876	90.94
464.096	86.94
464.316	87.94
464.536	92.94
464.755	96.94
464.975	104.94
465.195	126.94
465.414	126.94
465.634	100.94
465.854	89.94
466.073	92.94
466.293	92.94
466.512	86.94
466.732	90.94
466.951	93.94
467.171	89.94
467.391	103.94
467.61	100.94
467.829	95.94
468.049	106.94
468.268	99.94
468.488	106.94
468.707	85.94
468.927	96.94
469.146	74.94
469.365	72.94
469.585	85.94
469.804	92.94
470.023	86.94
470.243	89.94
470.462	92.94
470.681	104.94
470.901	96.94
471.12	72.94
471.339	93.94
471.558	89.94
471.777	81.94
471.997	98.94
472.216	98.94
472.435	133.94
472.654	83.94
472.873	86.94
473.092	84.94
473.311	84.94
473.53	94.94
473.749	86.94
473.968	94.94
474.187	101.94
474.406	68.94
474.625	96.94
474.844	96.94
475.063	80.94
475.282	92.94
475.501	94.94
475.72	94.94
475.939	86.94
476.158	96.94
476.377	70.94
476.596	89.94
476.814	98.94
477.033	83.94
477.252	95.94
477.471	97.94
477.69	85.94
477.908	104.94
478.127	106.94
478.346	86.94
478.564	86.94
478.783	89.94
479.002	103.94
479.22	88.94
479.439	93.94
479.658	109.94
479.876	96.94
480.095	102.94
480.313	89.94
480.532	84.94
480.751	95.94
480.969	123.94
481.188	157.94
481.406	141.94
481.624	83.94
481.843	74.94
482.061	88.94
482.28	73.94
482.498	83.94
482.717	86.94
482.935	93.94
483.153	97.94
483.372	86.94
483.59	85.94
483.808	84.94
484.027	97.94
484.245	100.94
484.463	86.94
484.681	96.94
484.9	88.94
485.118	100.94
485.336	91.94
485.554	96.94
485.772	88.94
485.99	104.94
486.209	101.94
486.427	109.94
486.645	113.94
486.863	116.94
487.081	93.94
487.299	96.94
487.517	100.94
487.735	90.94
487.953	73.94
488.171	81.94
488.389	92.94
488.607	106.94
488.825	84.94
489.043	96.94
489.261	93.94
489.479	92.94
489.696	93.94
489.914	77.94
490.132	85.94
490.35	88.94
490.568	74.94
490.786	88.94
491.003	83.94
491.221	92.94
491.439	105.94
491.657	84.94
491.874	97.94
492.092	73.94
492.31	83.94
492.527	96.94
492.745	91.94
492.963	92.94
493.18	83.94
493.398	97.94
493.615	102.94
493.833	89.94
494.05	80.94
494.268	94.94
494.485	93.94
494.703	76.94
494.92	86.94
495.138	99.94
495.355	87.94
495.573	89.94
495.79	84.94
496.008	94.94
496.225	88.94
496.442	90.94
496.66	92.94
496.877	92.94
497.094	103.94
497.312	88.94
497.529	99.94
497.746	80.94
497.963	92.94
498.181	97.94
498.398	90.94
498.615	100.94
498.832	97.94
499.049	102.94
499.267	102.94
499.484	88.94
499.701	91.94
499.918	73.94
500.135	80.94
500.352	95.94
500.569	101.94
500.786	98.94
501.003	102.94
501.22	88.94
501.437	80.94
501.654	89.94
501.871	91.94
502.088	104.94
502.305	96.94
502.522	87.94
502.739	97.94
502.956	96.94
503.172	91.94
503.389	84.94
503.606	95.94
503.823	89.94
504.04	72.94
504.256	84.94
504.473	86.94
504.69	94.94
504.907	98.94
505.123	90.94
505.34	92.94
505.557	80.94
505.773	73.94
505.99	90.94
506.207	92.94
506.423	94.94
506.64	78.94
506.856	95.94
507.073	94.94
507.289	98.94
507.506	91.94
507.722	83.94
507.939	108.94
508.155	99.94
508.372	110.94
508.588	107.94
508.805	98.94
509.021	93.94
509.238	96.94
509.454	99.94
509.67	94.94
509.887	94.94
510.103	127.94
510.319	187.94
510.536	576.94
510.752	1686.94
510.968	470.94
511.184	121.94
511.401	95.94
511.617	92.94
511.833	90.94
512.049	80.94
512.265	84.94
512.481	104.94
512.698	110.94
512.914	102.94
513.13	101.94
513.346	106.94
513.562	99.94
513.778	97.94
513.994	98.94
514.21	111.94
514.426	113.94
514.642	105.94
514.858	123.94
515.074	144.94
515.29	346.94
515.506	960.94
515.721	358.94
515.937	132.94
516.153	103.94
