Data from Uncirc_1982_H10_HRD10591_00055.txt Node
Date: Wed Jan 03 12:29:36 EST 2024
User: Yrep
Spectrometer: HR+D1059
Trigger mode: 1
Integration Time (sec): 1.000000E-1
Scans to average: 1
Electric dark correction enabled: true
Nonlinearity correction enabled: false
Boxcar width: 0
XAxis mode: Wavelengths
Number of Pixels in Spectrum: 2048
>>>>>Begin Spectral Data<<<<<
223.165	-17.25
223.4	-17.25
223.635	-17.25
223.869	-32.25
224.104	-21.25
224.338	-12.25
224.573	-16.25
224.808	-9.25
225.042	7.75
225.277	-1.25
225.511	-1.25
225.746	0.75
225.98	9.75
226.215	16.75
226.449	16.75
226.683	7.75
226.918	25.75
227.152	25.75
227.387	31.75
227.621	39.75
227.856	50.75
228.09	33.75
228.324	37.75
228.559	58.75
228.793	68.75
229.027	77.75
229.262	65.75
229.496	62.75
229.73	89.75
229.964	77.75
230.199	74.75
230.433	56.75
230.667	69.75
230.901	67.75
231.136	72.75
231.37	84.75
231.604	83.75
231.838	80.75
232.072	88.75
232.306	69.75
232.541	90.75
232.775	77.75
233.009	79.75
233.243	86.75
233.477	87.75
233.711	79.75
233.945	87.75
234.179	66.75
234.413	61.75
234.647	76.75
234.881	83.75
235.115	67.75
235.349	65.75
235.583	73.75
235.817	74.75
236.051	78.75
236.285	77.75
236.519	77.75
236.753	86.75
236.987	81.75
237.221	77.75
237.455	76.75
237.689	91.75
237.922	66.75
238.156	61.75
238.39	71.75
238.624	61.75
238.858	60.75
239.091	70.75
239.325	70.75
239.559	57.75
239.793	79.75
240.027	61.75
240.26	83.75
240.494	67.75
240.728	78.75
240.961	87.75
241.195	77.75
241.429	78.75
241.662	65.75
241.896	69.75
242.13	77.75
242.363	79.75
242.597	70.75
242.83	69.75
243.064	81.75
243.298	85.75
243.531	74.75
243.765	72.75
243.998	80.75
244.232	86.75
244.465	86.75
244.699	83.75
244.932	77.75
245.166	73.75
245.399	71.75
245.633	86.75
245.866	76.75
246.099	78.75
246.333	65.75
246.566	67.75
246.8	89.75
247.033	74.75
247.266	81.75
247.5	72.75
247.733	83.75
247.966	61.75
248.2	89.75
248.433	82.75
248.666	60.75
248.899	60.75
249.133	79.75
249.366	95.75
249.599	79.75
249.832	71.75
250.066	70.75
250.299	64.75
250.532	72.75
250.765	88.75
250.998	62.75
251.231	78.75
251.465	72.75
251.698	66.75
251.931	79.75
252.164	83.75
252.397	70.75
252.63	81.75
252.863	67.75
253.096	77.75
253.329	85.75
253.562	88.75
253.795	72.75
254.028	81.75
254.261	90.75
254.494	83.75
254.727	90.75
254.96	90.75
255.193	68.75
255.426	76.75
255.659	86.75
255.892	64.75
256.124	96.75
256.357	81.75
256.59	70.75
256.823	71.75
257.056	89.75
257.289	89.75
257.521	82.75
257.754	81.75
257.987	60.75
258.22	90.75
258.452	73.75
258.685	67.75
258.918	86.75
259.151	77.75
259.383	69.75
259.616	89.75
259.849	73.75
260.081	85.75
260.314	70.75
260.547	72.75
260.779	64.75
261.012	85.75
261.244	95.75
261.477	81.75
261.71	83.75
261.942	93.75
262.175	98.75
262.407	93.75
262.64	90.75
262.872	86.75
263.105	80.75
263.337	75.75
263.57	85.75
263.802	88.75
264.035	91.75
264.267	83.75
264.499	74.75
264.732	81.75
264.964	70.75
265.197	89.75
265.429	78.75
265.661	82.75
265.894	82.75
266.126	82.75
266.358	81.75
266.591	95.75
266.823	82.75
267.055	83.75
267.287	64.75
267.52	77.75
267.752	85.75
267.984	69.75
268.216	86.75
268.448	91.75
268.681	73.75
268.913	81.75
269.145	80.75
269.377	87.75
269.609	70.75
269.841	92.75
270.073	80.75
270.306	109.75
270.538	73.75
270.77	62.75
271.002	69.75
271.234	80.75
271.466	94.75
271.698	89.75
271.93	79.75
272.162	86.75
272.394	78.75
272.626	80.75
272.858	93.75
273.09	83.75
273.322	83.75
273.553	75.75
273.785	77.75
274.017	79.75
274.249	79.75
274.481	86.75
274.713	82.75
274.945	88.75
275.176	89.75
275.408	68.75
275.64	88.75
275.872	85.75
276.104	84.75
276.335	84.75
276.567	93.75
276.799	82.75
277.031	91.75
277.262	100.75
277.494	93.75
277.726	93.75
277.957	85.75
278.189	83.75
278.421	78.75
278.652	86.75
278.884	84.75
279.115	85.75
279.347	97.75
279.579	80.75
279.81	81.75
280.042	81.75
280.273	82.75
280.505	83.75
280.736	88.75
280.968	87.75
281.199	83.75
281.431	86.75
281.662	63.75
281.894	89.75
282.125	92.75
282.356	89.75
282.588	106.75
282.819	91.75
283.051	75.75
283.282	65.75
283.513	77.75
283.745	86.75
283.976	95.75
284.207	77.75
284.439	80.75
284.67	83.75
284.901	98.75
285.132	81.75
285.364	83.75
285.595	84.75
285.826	87.75
286.057	85.75
286.288	73.75
286.52	85.75
286.751	89.75
286.982	87.75
287.213	104.75
287.444	84.75
287.675	95.75
287.906	84.75
288.138	83.75
288.369	99.75
288.6	85.75
288.831	83.75
289.062	91.75
289.293	73.75
289.524	74.75
289.755	87.75
289.986	83.75
290.217	72.75
290.448	89.75
290.679	98.75
290.91	87.75
291.141	86.75
291.371	69.75
291.602	74.75
291.833	84.75
292.064	81.75
292.295	83.75
292.526	81.75
292.757	75.75
292.987	90.75
293.218	78.75
293.449	96.75
293.68	96.75
293.91	100.75
294.141	86.75
294.372	84.75
294.603	89.75
294.833	86.75
295.064	90.75
295.295	91.75
295.525	81.75
295.756	89.75
295.987	97.75
296.217	116.75
296.448	109.75
296.679	94.75
296.909	78.75
297.14	92.75
297.37	83.75
297.601	92.75
297.831	82.75
298.062	82.75
298.292	92.75
298.523	86.75
298.753	69.75
298.984	86.75
299.214	88.75
299.445	96.75
299.675	88.75
299.905	91.75
300.136	79.75
300.366	103.75
300.597	96.75
300.827	86.75
301.057	105.75
301.288	77.75
301.518	91.75
301.748	82.75
301.979	96.75
302.209	77.75
302.439	88.75
302.669	95.75
302.9	84.75
303.13	81.75
303.36	95.75
303.59	83.75
303.82	91.75
304.051	91.75
304.281	94.75
304.511	90.75
304.741	93.75
304.971	91.75
305.201	86.75
305.431	76.75
305.661	70.75
305.891	100.75
306.121	88.75
306.352	96.75
306.582	87.75
306.812	76.75
307.042	83.75
307.272	100.75
307.502	95.75
307.731	81.75
307.961	99.75
308.191	84.75
308.421	84.75
308.651	70.75
308.881	90.75
309.111	87.75
309.341	105.75
309.571	104.75
309.8	86.75
310.03	87.75
310.26	95.75
310.49	88.75
310.72	103.75
310.949	93.75
311.179	94.75
311.409	75.75
311.639	96.75
311.868	72.75
312.098	93.75
312.328	98.75
312.557	93.75
312.787	103.75
313.017	109.75
313.246	90.75
313.476	73.75
313.706	91.75
313.935	95.75
314.165	101.75
314.394	85.75
314.624	88.75
314.853	87.75
315.083	86.75
315.312	97.75
315.542	88.75
315.771	87.75
316.001	89.75
316.23	89.75
316.46	87.75
316.689	104.75
316.919	79.75
317.148	91.75
317.377	82.75
317.607	93.75
317.836	84.75
318.065	90.75
318.295	90.75
318.524	81.75
318.753	88.75
318.983	91.75
319.212	94.75
319.441	95.75
319.67	110.75
319.9	101.75
320.129	84.75
320.358	91.75
320.587	101.75
320.816	95.75
321.046	86.75
321.275	97.75
321.504	69.75
321.733	85.75
321.962	83.75
322.191	94.75
322.42	90.75
322.649	110.75
322.878	103.75
323.108	100.75
323.337	98.75
323.566	128.75
323.795	129.75
324.024	169.75
324.253	324.75
324.482	655.75
324.71	1287.75
324.939	1715.75
325.168	618.75
325.397	209.75
325.626	137.75
325.855	116.75
326.084	105.75
326.313	131.75
326.542	133.75
326.77	207.75
326.999	377.75
327.228	746.75
327.457	1386.75
327.686	1078.75
327.914	294.75
328.143	153.75
328.372	119.75
328.6	136.75
328.829	90.75
329.058	116.75
329.287	107.75
329.515	94.75
329.744	92.75
329.972	101.75
330.201	113.75
330.43	115.75
330.658	107.75
330.887	113.75
331.115	111.75
331.344	96.75
331.572	88.75
331.801	98.75
332.03	85.75
332.258	91.75
332.486	98.75
332.715	91.75
332.943	99.75
333.172	99.75
333.4	81.75
333.629	100.75
333.857	101.75
334.085	111.75
334.314	102.75
334.542	119.75
334.771	107.75
334.999	90.75
335.227	90.75
335.455	89.75
335.684	101.75
335.912	98.75
336.14	95.75
336.369	98.75
336.597	93.75
336.825	89.75
337.053	94.75
337.281	96.75
337.51	83.75
337.738	83.75
337.966	88.75
338.194	86.75
338.422	77.75
338.65	88.75
338.878	85.75
339.106	91.75
339.334	79.75
339.562	91.75
339.79	91.75
340.018	91.75
340.246	111.75
340.474	94.75
340.702	82.75
340.93	96.75
341.158	86.75
341.386	101.75
341.614	89.75
341.842	77.75
342.07	90.75
342.298	83.75
342.526	85.75
342.754	82.75
342.981	79.75
343.209	105.75
343.437	105.75
343.665	90.75
343.893	82.75
344.12	95.75
344.348	81.75
344.576	87.75
344.804	78.75
345.031	86.75
345.259	90.75
345.487	98.75
345.714	87.75
345.942	83.75
346.17	87.75
346.397	85.75
346.625	74.75
346.853	79.75
347.08	78.75
347.308	93.75
347.535	97.75
347.763	94.75
347.99	102.75
348.218	88.75
348.445	98.75
348.673	95.75
348.9	103.75
349.128	90.75
349.355	93.75
349.583	85.75
349.81	111.75
350.037	93.75
350.265	95.75
350.492	94.75
350.72	91.75
350.947	110.75
351.174	100.75
351.402	106.75
351.629	105.75
351.856	95.75
352.083	98.75
352.311	103.75
352.538	105.75
352.765	99.75
352.992	118.75
353.22	100.75
353.447	95.75
353.674	101.75
353.901	104.75
354.128	82.75
354.355	98.75
354.583	101.75
354.81	101.75
355.037	82.75
355.264	85.75
355.491	84.75
355.718	99.75
355.945	100.75
356.172	77.75
356.399	97.75
356.626	95.75
356.853	81.75
357.08	82.75
357.307	87.75
357.534	90.75
357.761	81.75
357.988	89.75
358.215	100.75
358.441	97.75
358.668	91.75
358.895	87.75
359.122	74.75
359.349	94.75
359.576	75.75
359.802	91.75
360.029	99.75
360.256	105.75
360.483	87.75
360.709	86.75
360.936	84.75
361.163	94.75
361.39	107.75
361.616	100.75
361.843	87.75
362.07	82.75
362.296	84.75
362.523	86.75
362.749	88.75
362.976	92.75
363.203	94.75
363.429	96.75
363.656	89.75
363.882	77.75
364.109	99.75
364.335	92.75
364.562	98.75
364.788	90.75
365.015	83.75
365.241	89.75
365.468	103.75
365.694	100.75
365.92	97.75
366.147	91.75
366.373	91.75
366.599	89.75
366.826	82.75
367.052	81.75
367.278	86.75
367.505	92.75
367.731	94.75
367.957	79.75
368.184	81.75
368.41	83.75
368.636	94.75
368.862	104.75
369.089	84.75
369.315	94.75
369.541	79.75
369.767	77.75
369.993	84.75
370.219	92.75
370.445	75.75
370.672	82.75
370.898	100.75
371.124	75.75
371.35	82.75
371.576	99.75
371.802	81.75
372.028	75.75
372.254	98.75
372.48	72.75
372.706	88.75
372.932	74.75
373.158	95.75
373.384	93.75
373.61	83.75
373.835	97.75
374.061	84.75
374.287	93.75
374.513	78.75
374.739	83.75
374.965	75.75
375.191	73.75
375.416	82.75
375.642	89.75
375.868	95.75
376.094	74.75
376.319	85.75
376.545	89.75
376.771	94.75
376.997	81.75
377.222	81.75
377.448	93.75
377.674	94.75
377.899	73.75
378.125	77.75
378.35	86.75
378.576	86.75
378.802	85.75
379.027	75.75
379.253	81.75
379.478	100.75
379.704	76.75
379.929	95.75
380.155	72.75
380.38	98.75
380.606	85.75
380.831	90.75
381.057	94.75
381.282	85.75
381.507	77.75
381.733	91.75
381.958	82.75
382.184	91.75
382.409	100.75
382.634	95.75
382.86	100.75
383.085	100.75
383.31	97.75
383.535	104.75
383.761	96.75
383.986	108.75
384.211	102.75
384.436	90.75
384.662	99.75
384.887	101.75
385.112	90.75
385.337	89.75
385.562	100.75
385.787	93.75
386.013	99.75
386.238	115.75
386.463	103.75
386.688	101.75
386.913	107.75
387.138	99.75
387.363	93.75
387.588	106.75
387.813	104.75
388.038	110.75
388.263	99.75
388.488	100.75
388.713	89.75
388.938	101.75
389.163	88.75
389.387	96.75
389.612	96.75
389.837	90.75
390.062	84.75
390.287	78.75
390.512	89.75
390.736	86.75
390.961	95.75
391.186	108.75
391.411	97.75
391.636	88.75
391.86	79.75
392.085	83.75
392.31	74.75
392.534	78.75
392.759	84.75
392.984	82.75
393.208	85.75
393.433	99.75
393.658	76.75
393.882	77.75
394.107	74.75
394.331	73.75
394.556	95.75
394.78	89.75
395.005	87.75
395.229	90.75
395.454	94.75
395.678	86.75
395.903	84.75
396.127	69.75
396.352	88.75
396.576	81.75
396.801	85.75
397.025	91.75
397.249	78.75
397.474	81.75
397.698	86.75
397.922	93.75
398.147	79.75
398.371	82.75
398.595	86.75
398.82	82.75
399.044	72.75
399.268	79.75
399.492	83.75
399.717	77.75
399.941	98.75
400.165	103.75
400.389	85.75
400.613	78.75
400.837	88.75
401.062	92.75
401.286	85.75
401.51	79.75
401.734	83.75
401.958	83.75
402.182	115.75
402.406	123.75
402.63	94.75
402.854	80.75
403.078	79.75
403.302	83.75
403.526	83.75
403.75	71.75
403.974	73.75
404.198	94.75
404.422	87.75
404.645	90.75
404.869	91.75
405.093	89.75
405.317	95.75
405.541	105.75
405.765	93.75
405.988	85.75
406.212	131.75
406.436	185.75
406.66	126.75
406.883	100.75
407.107	87.75
407.331	83.75
407.555	92.75
407.778	88.75
408.002	82.75
408.226	90.75
408.449	82.75
408.673	93.75
408.896	83.75
409.12	92.75
409.344	82.75
409.567	92.75
409.791	91.75
410.014	93.75
410.238	90.75
410.461	109.75
410.685	101.75
410.908	110.75
411.132	111.75
411.355	95.75
411.578	85.75
411.802	87.75
412.025	80.75
412.249	71.75
412.472	91.75
412.695	88.75
412.919	82.75
413.142	101.75
413.365	94.75
413.589	87.75
413.812	83.75
414.035	89.75
414.258	84.75
414.482	90.75
414.705	95.75
414.928	99.75
415.151	104.75
415.374	93.75
415.597	100.75
415.821	89.75
416.044	96.75
416.267	93.75
416.49	81.75
416.713	91.75
416.936	106.75
417.159	93.75
417.382	89.75
417.605	78.75
417.828	85.75
418.051	87.75
418.274	94.75
418.497	82.75
418.72	84.75
418.943	89.75
419.166	80.75
419.389	86.75
419.611	77.75
419.834	74.75
420.057	79.75
420.28	90.75
420.503	72.75
420.726	91.75
420.948	90.75
421.171	81.75
421.394	88.75
421.617	86.75
421.839	85.75
422.062	73.75
422.285	98.75
422.507	97.75
422.73	95.75
422.953	89.75
423.175	65.75
423.398	73.75
423.621	78.75
423.843	85.75
424.066	92.75
424.288	72.75
424.511	91.75
424.733	93.75
424.956	83.75
425.178	100.75
425.401	93.75
425.623	94.75
425.846	98.75
426.068	91.75
426.291	87.75
426.513	99.75
426.735	83.75
426.958	94.75
427.18	103.75
427.402	142.75
427.625	147.75
427.847	107.75
428.069	112.75
428.292	83.75
428.514	92.75
428.736	96.75
428.958	85.75
429.181	95.75
429.403	72.75
429.625	92.75
429.847	82.75
430.069	87.75
430.292	95.75
430.514	83.75
430.736	83.75
430.958	88.75
431.18	70.75
431.402	80.75
431.624	85.75
431.846	78.75
432.068	72.75
432.29	88.75
432.512	85.75
432.734	92.75
432.956	85.75
433.178	95.75
433.4	78.75
433.622	94.75
433.844	94.75
434.066	96.75
434.287	80.75
434.509	79.75
434.731	80.75
434.953	75.75
435.175	78.75
435.397	97.75
435.618	96.75
435.84	73.75
436.062	114.75
436.284	109.75
436.505	92.75
436.727	89.75
436.949	94.75
437.17	85.75
437.392	91.75
437.614	95.75
437.835	93.75
438.057	104.75
438.278	93.75
438.5	75.75
438.721	106.75
438.943	82.75
439.165	72.75
439.386	80.75
439.608	88.75
439.829	89.75
440.05	102.75
440.272	123.75
440.493	94.75
440.715	70.75
440.936	94.75
441.158	84.75
441.379	90.75
441.6	92.75
441.822	81.75
442.043	91.75
442.264	101.75
442.486	85.75
442.707	93.75
442.928	95.75
443.149	113.75
443.371	109.75
443.592	98.75
443.813	88.75
444.034	89.75
444.255	90.75
444.476	92.75
444.698	89.75
444.919	78.75
445.14	129.75
445.361	119.75
445.582	95.75
445.803	110.75
446.024	115.75
446.245	107.75
446.466	111.75
446.687	88.75
446.908	92.75
447.129	86.75
447.35	85.75
447.571	97.75
447.792	84.75
448.013	83.75
448.234	103.75
448.455	96.75
448.675	107.75
448.896	103.75
449.117	81.75
449.338	90.75
449.559	113.75
449.779	120.75
450	103.75
450.221	81.75
450.442	57.75
450.662	90.75
450.883	100.75
451.104	106.75
451.324	89.75
451.545	78.75
451.766	86.75
451.986	88.75
452.207	83.75
452.428	83.75
452.648	93.75
452.869	99.75
453.089	97.75
453.31	81.75
453.53	91.75
453.751	83.75
453.971	83.75
454.192	96.75
454.412	79.75
454.633	85.75
454.853	95.75
455.073	79.75
455.294	84.75
455.514	90.75
455.734	90.75
455.955	78.75
456.175	100.75
456.395	83.75
456.616	104.75
456.836	74.75
457.056	73.75
457.276	82.75
457.497	71.75
457.717	73.75
457.937	85.75
458.157	83.75
458.377	84.75
458.598	86.75
458.818	115.75
459.038	105.75
459.258	95.75
459.478	83.75
459.698	83.75
459.918	67.75
460.138	94.75
460.358	88.75
460.578	93.75
460.798	83.75
461.018	82.75
461.238	87.75
461.458	81.75
461.678	86.75
461.898	84.75
462.118	84.75
462.338	86.75
462.558	68.75
462.777	89.75
462.997	85.75
463.217	73.75
463.437	89.75
463.657	83.75
463.876	95.75
464.096	82.75
464.316	102.75
464.536	81.75
464.755	77.75
464.975	98.75
465.195	145.75
465.414	124.75
465.634	81.75
465.854	81.75
466.073	84.75
466.293	95.75
466.512	64.75
466.732	78.75
466.951	86.75
467.171	98.75
467.391	85.75
467.61	88.75
467.829	113.75
468.049	79.75
468.268	100.75
468.488	81.75
468.707	81.75
468.927	81.75
469.146	94.75
469.365	73.75
469.585	99.75
469.804	80.75
470.023	85.75
470.243	79.75
470.462	88.75
470.681	102.75
470.901	75.75
471.12	83.75
471.339	82.75
471.558	83.75
471.777	77.75
471.997	79.75
472.216	93.75
472.435	123.75
472.654	92.75
472.873	85.75
473.092	79.75
473.311	89.75
473.53	88.75
473.749	90.75
473.968	93.75
474.187	83.75
474.406	99.75
474.625	88.75
474.844	91.75
475.063	78.75
475.282	77.75
475.501	83.75
475.72	86.75
475.939	102.75
476.158	81.75
476.377	79.75
476.596	69.75
476.814	89.75
477.033	81.75
477.252	73.75
477.471	91.75
477.69	86.75
477.908	82.75
478.127	85.75
478.346	97.75
478.564	105.75
478.783	85.75
479.002	78.75
479.22	70.75
479.439	102.75
479.658	98.75
479.876	93.75
480.095	88.75
480.313	73.75
480.532	80.75
480.751	90.75
480.969	97.75
481.188	145.75
481.406	142.75
481.624	95.75
481.843	84.75
482.061	81.75
482.28	78.75
482.498	79.75
482.717	74.75
482.935	85.75
483.153	78.75
483.372	75.75
483.59	78.75
483.808	74.75
484.027	89.75
484.245	75.75
484.463	79.75
484.681	95.75
484.9	86.75
485.118	84.75
485.336	72.75
485.554	95.75
485.772	100.75
485.99	99.75
486.209	107.75
486.427	96.75
486.645	104.75
486.863	101.75
487.081	97.75
487.299	99.75
487.517	82.75
487.735	87.75
487.953	93.75
488.171	82.75
488.389	82.75
488.607	82.75
488.825	85.75
489.043	83.75
489.261	97.75
489.479	81.75
489.696	103.75
489.914	92.75
490.132	80.75
490.35	89.75
490.568	95.75
490.786	81.75
491.003	90.75
491.221	89.75
491.439	94.75
491.657	82.75
491.874	103.75
492.092	95.75
492.31	74.75
492.527	77.75
492.745	78.75
492.963	83.75
493.18	86.75
493.398	83.75
493.615	97.75
493.833	101.75
494.05	80.75
494.268	85.75
494.485	88.75
494.703	82.75
494.92	87.75
495.138	89.75
495.355	82.75
495.573	84.75
495.79	92.75
496.008	82.75
496.225	89.75
496.442	93.75
496.66	91.75
496.877	96.75
497.094	92.75
497.312	92.75
497.529	77.75
497.746	96.75
497.963	86.75
498.181	85.75
498.398	96.75
498.615	104.75
498.832	85.75
499.049	89.75
499.267	73.75
499.484	89.75
499.701	81.75
499.918	94.75
500.135	94.75
500.352	85.75
500.569	95.75
500.786	80.75
501.003	84.75
501.22	76.75
501.437	79.75
501.654	88.75
501.871	94.75
502.088	86.75
502.305	89.75
502.522	86.75
502.739	86.75
502.956	89.75
503.172	99.75
503.389	97.75
503.606	99.75
503.823	85.75
504.04	97.75
504.256	96.75
504.473	90.75
504.69	89.75
504.907	88.75
505.123	102.75
505.34	85.75
505.557	82.75
505.773	86.75
505.99	87.75
506.207	88.75
506.423	91.75
506.64	87.75
506.856	85.75
507.073	83.75
507.289	86.75
507.506	79.75
507.722	98.75
507.939	108.75
508.155	94.75
508.372	85.75
508.588	88.75
508.805	93.75
509.021	80.75
509.238	92.75
509.454	104.75
509.67	74.75
509.887	97.75
510.103	101.75
510.319	181.75
510.536	614.75
510.752	1764.75
510.968	495.75
511.184	140.75
511.401	105.75
511.617	97.75
511.833	91.75
512.049	90.75
512.265	93.75
512.481	83.75
512.698	79.75
512.914	73.75
513.13	88.75
513.346	93.75
513.562	90.75
513.778	93.75
513.994	77.75
514.21	80.75
514.426	107.75
514.642	116.75
514.858	105.75
515.074	147.75
515.29	341.75
515.506	988.75
515.721	383.75
515.937	130.75
516.153	101.75
516.369	107.75
516.585	94.75
516.801	90.75
517.016	84.75
517.232	94.75
