Data from Uncirc_1982_H10_HRD10591_00004.txt Node
Date: Wed Jan 03 12:29:25 EST 2024
User: Yrep
Spectrometer: HR+D1059
Trigger mode: 1
Integration Time (sec): 1.000000E-1
Scans to average: 1
Electric dark correction enabled: true
Nonlinearity correction enabled: false
Boxcar width: 0
XAxis mode: Wavelengths
Number of Pixels in Spectrum: 2048
>>>>>Begin Spectral Data<<<<<
223.165	-18
223.4	-18
223.635	-18
223.869	-36
224.104	-20
224.338	-19
224.573	-11
224.808	-21
225.042	2
225.277	-17
225.511	15
225.746	15
225.98	-1
226.215	10
226.449	26
226.683	10
226.918	34
227.152	31
227.387	49
227.621	43
227.856	51
228.09	57
228.324	64
228.559	79
228.793	66
229.027	64
229.262	76
229.496	60
229.73	83
229.964	85
230.199	80
230.433	91
230.667	89
230.901	76
231.136	87
231.37	72
231.604	79
231.838	84
232.072	84
232.306	79
232.541	96
232.775	77
233.009	83
233.243	100
233.477	82
233.711	82
233.945	91
234.179	79
234.413	83
234.647	94
234.881	72
235.115	79
235.349	74
235.583	62
235.817	77
236.051	75
236.285	72
236.519	83
236.753	83
236.987	71
237.221	80
237.455	80
237.689	77
237.922	88
238.156	83
238.39	74
238.624	73
238.858	86
239.091	76
239.325	62
239.559	71
239.793	79
240.027	78
240.26	82
240.494	91
240.728	78
240.961	92
241.195	78
241.429	69
241.662	56
241.896	74
242.13	75
242.363	79
242.597	76
242.83	74
243.064	76
243.298	91
243.531	92
243.765	70
243.998	77
244.232	84
244.465	82
244.699	75
244.932	75
245.166	98
245.399	76
245.633	93
245.866	83
246.099	76
246.333	82
246.566	89
246.8	101
247.033	86
247.266	69
247.5	77
247.733	65
247.966	100
248.2	79
248.433	88
248.666	90
248.899	92
249.133	92
249.366	69
249.599	95
249.832	78
250.066	86
250.299	80
250.532	89
250.765	92
250.998	81
251.231	83
251.465	79
251.698	87
251.931	79
252.164	80
252.397	81
252.63	87
252.863	90
253.096	98
253.329	92
253.562	75
253.795	84
254.028	78
254.261	79
254.494	66
254.727	88
254.96	93
255.193	95
255.426	87
255.659	99
255.892	87
256.124	72
256.357	74
256.59	97
256.823	96
257.056	80
257.289	97
257.521	86
257.754	79
257.987	83
258.22	68
258.452	90
258.685	86
258.918	88
259.151	91
259.383	84
259.616	78
259.849	90
260.081	91
260.314	94
260.547	74
260.779	89
261.012	74
261.244	88
261.477	94
261.71	86
261.942	100
262.175	80
262.407	76
262.64	90
262.872	72
263.105	83
263.337	79
263.57	82
263.802	91
264.035	78
264.267	90
264.499	96
264.732	91
264.964	83
265.197	83
265.429	90
265.661	91
265.894	85
266.126	64
266.358	91
266.591	81
266.823	91
267.055	87
267.287	85
267.52	86
267.752	93
267.984	103
268.216	88
268.448	90
268.681	83
268.913	93
269.145	82
269.377	90
269.609	92
269.841	95
270.073	83
270.306	74
270.538	91
270.77	83
271.002	97
271.234	90
271.466	90
271.698	94
271.93	101
272.162	96
272.394	76
272.626	75
272.858	87
273.09	97
273.322	102
273.553	98
273.785	87
274.017	98
274.249	88
274.481	84
274.713	87
274.945	94
275.176	88
275.408	96
275.64	83
275.872	92
276.104	67
276.335	82
276.567	92
276.799	92
277.031	100
277.262	106
277.494	92
277.726	94
277.957	84
278.189	96
278.421	86
278.652	102
278.884	88
279.115	86
279.347	90
279.579	96
279.81	90
280.042	87
280.273	86
280.505	92
280.736	82
280.968	92
281.199	82
281.431	79
281.662	88
281.894	96
282.125	98
282.356	84
282.588	119
282.819	96
283.051	88
283.282	95
283.513	98
283.745	92
283.976	91
284.207	91
284.439	87
284.67	89
284.901	81
285.132	75
285.364	79
285.595	98
285.826	83
286.057	104
286.288	102
286.52	92
286.751	84
286.982	100
287.213	85
287.444	86
287.675	80
287.906	96
288.138	94
288.369	97
288.6	77
288.831	84
289.062	90
289.293	89
289.524	90
289.755	90
289.986	89
290.217	88
290.448	74
290.679	78
290.91	90
291.141	89
291.371	90
291.602	86
291.833	96
292.064	78
292.295	100
292.526	83
292.757	91
292.987	93
293.218	89
293.449	78
293.68	82
293.91	86
294.141	94
294.372	87
294.603	86
294.833	86
295.064	90
295.295	94
295.525	92
295.756	87
295.987	109
296.217	128
296.448	98
296.679	100
296.909	92
297.14	99
297.37	86
297.601	80
297.831	76
298.062	77
298.292	84
298.523	94
298.753	69
298.984	92
299.214	86
299.445	94
299.675	90
299.905	95
300.136	89
300.366	86
300.597	92
300.827	94
301.057	74
301.288	93
301.518	88
301.748	86
301.979	90
302.209	90
302.439	84
302.669	92
302.9	88
303.13	88
303.36	91
303.59	91
303.82	97
304.051	89
304.281	88
304.511	95
304.741	94
304.971	93
305.201	93
305.431	88
305.661	89
305.891	100
306.121	99
306.352	103
306.582	80
306.812	85
307.042	106
307.272	101
307.502	101
307.731	102
307.961	83
308.191	95
308.421	93
308.651	77
308.881	82
309.111	91
309.341	87
309.571	105
309.8	96
310.03	94
310.26	93
310.49	98
310.72	93
310.949	78
311.179	99
311.409	71
311.639	86
311.868	97
312.098	95
312.328	98
312.557	96
312.787	84
313.017	98
313.246	95
313.476	99
313.706	88
313.935	93
314.165	94
314.394	96
314.624	75
314.853	104
315.083	88
315.312	94
315.542	91
315.771	94
316.001	96
316.23	95
316.46	90
316.689	87
316.919	90
317.148	99
317.377	95
317.607	92
317.836	94
318.065	100
318.295	105
318.524	86
318.753	92
318.983	94
319.212	96
319.441	105
319.67	100
319.9	94
320.129	104
320.358	98
320.587	88
320.816	95
321.046	95
321.275	92
321.504	93
321.733	89
321.962	92
322.191	100
322.42	90
322.649	103
322.878	109
323.108	122
323.337	107
323.566	120
323.795	141
324.024	174
324.253	291
324.482	631
324.71	1252
324.939	1584
325.168	599
325.397	191
325.626	143
325.855	105
326.084	113
326.313	120
326.542	119
326.77	189
326.999	349
327.228	735
327.457	1284
327.686	1036
327.914	290
328.143	164
328.372	137
328.6	121
328.829	100
329.058	110
329.287	103
329.515	96
329.744	98
329.972	100
330.201	103
330.43	97
330.658	102
330.887	102
331.115	100
331.344	94
331.572	85
331.801	92
332.03	96
332.258	98
332.486	116
332.715	99
332.943	117
333.172	107
333.4	102
333.629	102
333.857	100
334.085	111
334.314	109
334.542	112
334.771	121
334.999	103
335.227	98
335.455	93
335.684	111
335.912	102
336.14	94
336.369	89
336.597	102
336.825	90
337.053	107
337.281	97
337.51	91
337.738	86
337.966	91
338.194	103
338.422	101
338.65	87
338.878	94
339.106	92
339.334	86
339.562	80
339.79	103
340.018	92
340.246	88
340.474	95
340.702	95
340.93	87
341.158	98
341.386	94
341.614	95
341.842	101
342.07	98
342.298	84
342.526	87
342.754	93
342.981	95
343.209	98
343.437	94
343.665	94
343.893	90
344.12	99
344.348	92
344.576	110
344.804	100
345.031	84
345.259	93
345.487	91
345.714	91
345.942	76
346.17	64
346.397	89
346.625	94
346.853	99
347.08	80
347.308	101
347.535	89
347.763	89
347.99	85
348.218	91
348.445	109
348.673	94
348.9	84
349.128	88
349.355	87
349.583	107
349.81	103
350.037	92
350.265	84
350.492	109
350.72	113
350.947	102
351.174	91
351.402	103
351.629	102
351.856	106
352.083	96
352.311	108
352.538	82
352.765	96
352.992	102
353.22	116
353.447	106
353.674	110
353.901	103
354.128	102
354.355	105
354.583	112
354.81	102
355.037	93
355.264	111
355.491	100
355.718	96
355.945	100
356.172	107
356.399	106
356.626	93
356.853	100
357.08	102
357.307	97
357.534	85
357.761	88
357.988	92
358.215	108
358.441	92
358.668	89
358.895	102
359.122	101
359.349	93
359.576	94
359.802	94
360.029	85
360.256	105
360.483	101
360.709	94
360.936	82
361.163	90
361.39	87
361.616	97
361.843	86
362.07	96
362.296	86
362.523	95
362.749	90
362.976	86
363.203	90
363.429	100
363.656	94
363.882	86
364.109	95
364.335	97
364.562	80
364.788	77
365.015	106
365.241	91
365.468	99
365.694	105
365.92	82
366.147	97
366.373	90
366.599	96
366.826	85
367.052	95
367.278	90
367.505	93
367.731	85
367.957	90
368.184	88
368.41	100
368.636	119
368.862	95
369.089	103
369.315	92
369.541	102
369.767	96
369.993	101
370.219	89
370.445	86
370.672	96
370.898	96
371.124	91
371.35	91
371.576	76
371.802	79
372.028	93
372.254	86
372.48	90
372.706	93
372.932	97
373.158	100
373.384	97
373.61	92
373.835	97
374.061	95
374.287	97
374.513	100
374.739	96
374.965	88
375.191	83
375.416	81
375.642	95
375.868	98
376.094	110
376.319	100
376.545	119
376.771	94
376.997	93
377.222	109
377.448	100
377.674	102
377.899	106
378.125	89
378.35	103
378.576	104
378.802	104
379.027	105
379.253	103
379.478	101
379.704	108
379.929	102
380.155	101
380.38	111
380.606	102
380.831	114
381.057	121
381.282	89
381.507	104
381.733	106
381.958	114
382.184	124
382.409	117
382.634	108
382.86	122
383.085	108
383.31	111
383.535	124
383.761	110
383.986	124
384.211	106
384.436	107
384.662	120
384.887	115
385.112	135
385.337	150
385.562	126
385.787	130
386.013	123
386.238	124
386.463	139
386.688	134
386.913	135
387.138	141
387.363	139
387.588	111
387.813	119
388.038	125
388.263	150
388.488	155
388.713	115
388.938	96
389.163	102
389.387	110
389.612	99
389.837	98
390.062	98
390.287	93
390.512	94
390.736	75
390.961	98
391.186	93
391.411	84
391.636	86
391.86	90
392.085	85
392.31	84
392.534	85
392.759	98
392.984	99
393.208	111
393.433	130
393.658	100
393.882	98
394.107	89
394.331	90
394.556	94
394.78	92
395.005	82
395.229	90
395.454	102
395.678	106
395.903	97
396.127	84
396.352	96
396.576	91
396.801	110
397.025	115
397.249	97
397.474	91
397.698	89
397.922	96
398.147	99
398.371	96
398.595	99
398.82	100
399.044	89
399.268	99
399.492	79
399.717	104
399.941	94
400.165	94
400.389	79
400.613	90
400.837	79
401.062	84
401.286	92
401.51	73
401.734	86
401.958	99
402.182	106
402.406	142
402.63	108
402.854	94
403.078	81
403.302	94
403.526	88
403.75	91
403.974	102
404.198	100
404.422	84
404.645	84
404.869	78
405.093	97
405.317	103
405.541	91
405.765	107
405.988	106
406.212	146
406.436	166
406.66	110
406.883	85
407.107	65
407.331	86
407.555	104
407.778	104
408.002	85
408.226	85
408.449	101
408.673	107
408.896	80
409.12	90
409.344	91
409.567	86
409.791	95
410.014	101
410.238	94
410.461	103
410.685	92
410.908	107
411.132	90
411.355	88
411.578	95
411.802	91
412.025	86
412.249	93
412.472	93
412.695	107
412.919	105
413.142	99
413.365	94
413.589	98
413.812	92
414.035	91
414.258	94
414.482	83
414.705	94
414.928	89
415.151	100
415.374	94
415.597	88
415.821	90
416.044	86
416.267	100
416.49	93
416.713	90
416.936	100
417.159	87
417.382	108
417.605	100
417.828	98
418.051	96
418.274	98
418.497	98
418.72	95
418.943	94
419.166	78
419.389	87
419.611	95
419.834	81
420.057	82
420.28	87
420.503	95
420.726	79
420.948	93
421.171	92
421.394	87
421.617	95
421.839	97
422.062	84
422.285	98
422.507	100
422.73	101
422.953	91
423.175	92
423.398	88
423.621	89
423.843	77
424.066	108
424.288	75
424.511	86
424.733	103
424.956	85
425.178	93
425.401	99
425.623	91
425.846	94
426.068	89
426.291	80
426.513	80
426.735	104
426.958	91
427.18	93
427.402	124
427.625	111
427.847	111
428.069	98
428.292	76
428.514	87
428.736	84
428.958	87
429.181	85
429.403	95
429.625	97
429.847	86
430.069	101
430.292	94
430.514	78
430.736	77
430.958	90
431.18	86
431.402	87
431.624	86
431.846	79
432.068	81
432.29	102
432.512	101
432.734	90
432.956	91
433.178	96
433.4	104
433.622	83
433.844	99
434.066	95
434.287	84
434.509	94
434.731	90
434.953	91
435.175	97
435.397	75
435.618	80
435.84	98
436.062	110
436.284	107
436.505	114
436.727	101
436.949	96
437.17	86
437.392	84
437.614	95
437.835	85
438.057	92
438.278	97
438.5	114
438.721	113
438.943	99
439.165	108
439.386	85
439.608	78
439.829	76
440.05	114
440.272	123
440.493	104
440.715	98
440.936	77
441.158	102
441.379	86
441.6	91
441.822	92
442.043	85
442.264	74
442.486	61
442.707	94
442.928	92
443.149	113
443.371	110
443.592	105
443.813	109
444.034	110
444.255	91
444.476	89
444.698	79
444.919	79
445.14	140
445.361	109
445.582	111
445.803	115
446.024	111
446.245	125
446.466	104
446.687	87
446.908	84
447.129	98
447.35	97
447.571	97
447.792	102
448.013	103
448.234	97
448.455	95
448.675	99
448.896	108
449.117	86
449.338	88
449.559	115
449.779	115
450	103
450.221	95
450.442	79
450.662	100
450.883	96
451.104	96
451.324	91
451.545	83
451.766	85
451.986	90
452.207	83
452.428	72
452.648	92
452.869	107
453.089	96
453.31	111
453.53	91
453.751	84
453.971	99
454.192	87
454.412	86
454.633	92
454.853	85
455.073	92
455.294	102
455.514	99
455.734	96
455.955	98
456.175	90
456.395	92
456.616	83
456.836	91
457.056	92
457.276	84
457.497	83
457.717	78
457.937	92
458.157	87
458.377	98
458.598	91
458.818	120
459.038	135
459.258	106
459.478	92
459.698	102
459.918	99
460.138	89
460.358	84
460.578	87
460.798	90
461.018	86
461.238	91
461.458	70
461.678	85
461.898	79
462.118	92
462.338	94
462.558	90
462.777	86
462.997	86
463.217	86
463.437	83
463.657	90
463.876	94
464.096	88
464.316	84
464.536	89
464.755	98
464.975	94
465.195	143
465.414	116
465.634	87
465.854	88
466.073	92
466.293	86
466.512	96
466.732	105
466.951	100
467.171	93
467.391	85
467.61	94
467.829	79
468.049	94
468.268	93
468.488	94
468.707	87
468.927	98
469.146	98
469.365	75
469.585	106
469.804	103
470.023	75
470.243	90
470.462	105
470.681	97
470.901	84
471.12	100
471.339	90
471.558	83
471.777	98
471.997	76
472.216	106
472.435	123
472.654	94
472.873	88
473.092	90
473.311	79
473.53	90
473.749	86
473.968	80
474.187	92
474.406	79
474.625	87
474.844	93
475.063	95
475.282	87
475.501	83
475.72	98
475.939	87
476.158	75
476.377	82
476.596	96
476.814	84
477.033	95
477.252	82
477.471	90
477.69	86
477.908	97
478.127	90
478.346	99
478.564	100
478.783	84
479.002	75
479.22	90
479.439	95
479.658	95
479.876	100
480.095	87
480.313	88
480.532	86
480.751	104
480.969	114
481.188	172
481.406	133
481.624	104
481.843	92
482.061	86
482.28	75
482.498	89
482.717	82
482.935	92
483.153	85
483.372	89
483.59	85
483.808	106
484.027	98
484.245	97
484.463	92
484.681	107
484.9	98
485.118	88
485.336	79
485.554	88
485.772	107
485.99	111
486.209	103
486.427	106
486.645	117
486.863	89
487.081	94
487.299	103
487.517	90
487.735	102
487.953	95
488.171	104
488.389	95
488.607	99
488.825	95
489.043	100
489.261	90
489.479	90
489.696	84
489.914	91
490.132	100
490.35	84
490.568	100
490.786	88
491.003	88
491.221	95
491.439	95
491.657	96
491.874	93
492.092	91
492.31	95
492.527	89
492.745	80
492.963	82
493.18	96
493.398	94
493.615	105
493.833	101
494.05	88
494.268	93
494.485	94
494.703	95
494.92	97
495.138	86
495.355	99
495.573	90
495.79	97
496.008	100
496.225	92
496.442	105
496.66	99
496.877	95
497.094	89
497.312	86
497.529	88
497.746	108
497.963	91
498.181	85
498.398	88
498.615	87
498.832	113
499.049	95
499.267	92
499.484	76
499.701	99
499.918	95
500.135	96
500.352	89
500.569	85
500.786	98
501.003	76
501.22	96
501.437	99
501.654	90
501.871	92
502.088	88
502.305	100
502.522	97
502.739	103
502.956	90
503.172	91
503.389	101
503.606	86
503.823	115
504.04	99
504.256	84
504.473	89
504.69	89
504.907	89
505.123	83
505.34	86
505.557	105
505.773	90
505.99	94
506.207	94
506.423	85
506.64	84
506.856	98
507.073	87
507.289	85
507.506	97
507.722	116
507.939	96
508.155	102
508.372	98
508.588	103
508.805	87
509.021	88
509.238	101
509.454	89
509.67	91
509.887	100
510.103	114
510.319	151
510.536	488
510.752	1377
510.968	416
511.184	129
511.401	104
511.617	90
511.833	96
512.049	107
512.265	90
512.481	83
512.698	98
512.914	90
513.13	101
513.346	94
513.562	88
513.778	118
513.994	86
514.21	101
514.426	119
514.642	110
514.858	112
515.074	133
515.29	282
515.506	812
515.721	316
515.937	127
516.153	103
516.369	97
516.585	99
516.801	87
517.016	87
517.232	99
517.448	103
517.664	68
517.879	91
518.095	87
518.311	97
518.527	93
518.742	93
518.958	96
519.173	99
519.389	82
519.605	103
519.82	96
520.036	112
520.251	110
520.467	92
520.682	104
520.898	91
521.113	107
521.329	121
521.544	138
521.76	356
521.975	1274
522.19	797
522.406	197
522.621	118
522.836	79
523.052	97
523.267	98
523.482	89
523.698	107
523.913	112
524.128	99
524.343	90
524.559	95
524.774	84
524.989	97
525.204	88
525.419	93
525.634	82
525.849	79
526.064	88
526.28	93
526.495	81
526.71	88
526.925	84
527.14	77
527.355	82
527.57	101
527.785	99
527.999	84
528.214	85
528.429	80
528.644	88
528.859	103
529.074	98
529.289	101
529.503	130
529.718	89
529.933	103
530.148	80
530.363	90
530.577	88
530.792	89
531.007	90
531.221	89
531.436	100
531.651	98
531.865	104
532.08	86
532.295	95
532.509	88
532.724	93
532.938	91
533.153	100
533.367	92
533.582	118
533.796	98
534.011	101
534.225	95
534.44	98
534.654	92
534.868	93
535.083	90
535.297	86
535.511	103
535.726	90
535.94	93
536.154	98
536.369	90
536.583	102
536.797	96
537.011	80
537.225	93
537.44	98
537.654	85
537.868	87
538.082	102
538.296	94
538.51	78
538.724	92
538.938	92
539.153	98
539.367	91
539.581	90
539.795	84
540.009	95
540.222	84
540.436	95
540.65	85
540.864	90
541.078	84
541.292	99
541.506	90
541.72	85
541.934	77
542.147	107
542.361	90
542.575	100
542.789	91
543.002	84
543.216	95
543.43	83
543.644	86
543.857	89
544.071	91
544.285	89
544.498	75
544.712	90
544.925	82
545.139	91
545.352	98
545.566	88
545.779	93
545.993	91
546.206	86
546.42	80
546.633	99
546.847	92
547.06	87
547.274	94
547.487	96
547.7	91
547.914	101
548.127	87
548.34	87
548.554	95
548.767	90
548.98	96
549.193	96
549.407	95
549.62	95
549.833	88
550.046	101
550.259	84
550.473	101
550.686	97
550.899	78
551.112	94
551.325	88
551.538	79
551.751	79
551.964	92
552.177	82
552.39	92
552.603	105
552.816	87
553.029	89
553.242	88
553.455	88
553.667	108
553.88	89
554.093	104
554.306	90
554.519	91
554.732	85
554.944	89
555.157	86
555.37	84
555.583	88
555.795	100
556.008	95
556.221	95
556.433	92
556.646	100
556.859	99
557.071	85
557.284	87
557.496	100
557.709	87
557.921	76
558.134	95
558.346	93
558.559	80
558.771	95
558.984	107
559.196	74
559.409	87
559.621	94
559.833	94
560.046	83
560.258	93
560.47	84
560.683	86
560.895	97
561.107	82
561.32	92
561.532	100
561.744	94
561.956	86
562.168	87
562.381	86
562.593	90
562.805	98
563.017	66
563.229	86
563.441	79
563.653	92
563.865	91
564.077	98
564.289	98
564.501	111
564.713	90
564.925	92
565.137	89
565.349	89
565.561	86
565.773	95
565.985	83
566.197	73
566.408	95
566.62	84
566.832	82
567.044	85
567.255	94
567.467	90
567.679	94
567.891	92
568.102	103
568.314	84
568.526	94
568.737	79
568.949	102
569.161	76
569.372	87
569.584	90
569.795	101
570.007	115
570.218	171
570.43	115
570.641	96
570.853	98
571.064	87
571.276	77
571.487	94
571.698	89
571.91	86
572.121	102
572.333	92
572.544	99
572.755	95
572.966	94
573.178	87
573.389	95
573.6	90
573.811	88
574.023	74
574.234	102
574.445	106
574.656	82
574.867	90
575.078	87
575.289	99
575.501	99
575.712	90
575.923	83
576.134	100
576.345	92
576.556	100
576.767	95
576.978	94
577.188	82
577.399	82
577.61	85
577.821	103
578.032	100
578.243	215
578.454	484
578.665	170
578.875	106
579.086	99
579.297	101
579.508	101
579.718	85
579.929	75
580.14	93
580.35	89
580.561	77
580.772	98
580.982	79
581.193	101
581.403	90
581.614	88
581.825	84
582.035	81
582.246	89
582.456	83
582.667	82
582.877	92
583.087	87
583.298	80
583.508	79
583.719	85
