Data from Uncirc_1982_H10_HRD10591_00099.txt Node
Date: Wed Jan 03 12:29:44 EST 2024
User: Yrep
Spectrometer: HR+D1059
Trigger mode: 1
Integration Time (sec): 1.000000E-1
Scans to average: 1
Electric dark correction enabled: true
Nonlinearity correction enabled: false
Boxcar width: 0
XAxis mode: Wavelengths
Number of Pixels in Spectrum: 2048
>>>>>Begin Spectral Data<<<<<
223.165	-12.69
223.4	-12.69
223.635	-12.69
223.869	-20.69
224.104	-23.69
224.338	-10.69
224.573	-14.69
224.808	-7.69
225.042	-8.69
225.277	-21.69
225.511	3.31
225.746	9.31
225.98	5.31
226.215	7.31
226.449	28.31
226.683	19.31
226.918	8.31
227.152	39.31
227.387	48.31
227.621	36.31
227.856	37.31
228.09	42.31
228.324	53.31
228.559	63.31
228.793	63.31
229.027	51.31
229.262	48.31
229.496	67.31
229.73	77.31
229.964	67.31
230.199	72.31
230.433	76.31
230.667	80.31
230.901	81.31
231.136	72.31
231.37	83.31
231.604	81.31
231.838	71.31
232.072	83.31
232.306	76.31
232.541	76.31
232.775	89.31
233.009	75.31
233.243	83.31
233.477	88.31
233.711	79.31
233.945	77.31
234.179	82.31
234.413	84.31
234.647	87.31
234.881	70.31
235.115	72.31
235.349	79.31
235.583	72.31
235.817	71.31
236.051	75.31
236.285	80.31
236.519	72.31
236.753	72.31
236.987	84.31
237.221	99.31
237.455	90.31
237.689	71.31
237.922	73.31
238.156	76.31
238.39	59.31
238.624	79.31
238.858	84.31
239.091	81.31
239.325	80.31
239.559	68.31
239.793	89.31
240.027	68.31
240.26	67.31
240.494	80.31
240.728	72.31
240.961	75.31
241.195	79.31
241.429	76.31
241.662	79.31
241.896	71.31
242.13	77.31
242.363	68.31
242.597	71.31
242.83	79.31
243.064	79.31
243.298	82.31
243.531	81.31
243.765	67.31
243.998	76.31
244.232	73.31
244.465	76.31
244.699	72.31
244.932	79.31
245.166	64.31
245.399	79.31
245.633	70.31
245.866	74.31
246.099	80.31
246.333	77.31
246.566	72.31
246.8	66.31
247.033	77.31
247.266	80.31
247.5	77.31
247.733	82.31
247.966	65.31
248.2	68.31
248.433	71.31
248.666	84.31
248.899	73.31
249.133	85.31
249.366	110.31
249.599	88.31
249.832	83.31
250.066	68.31
250.299	95.31
250.532	76.31
250.765	83.31
250.998	89.31
251.231	88.31
251.465	79.31
251.698	79.31
251.931	94.31
252.164	86.31
252.397	70.31
252.63	82.31
252.863	66.31
253.096	91.31
253.329	83.31
253.562	81.31
253.795	88.31
254.028	89.31
254.261	75.31
254.494	79.31
254.727	107.31
254.96	81.31
255.193	81.31
255.426	82.31
255.659	81.31
255.892	77.31
256.124	89.31
256.357	77.31
256.59	68.31
256.823	71.31
257.056	81.31
257.289	71.31
257.521	91.31
257.754	85.31
257.987	92.31
258.22	89.31
258.452	72.31
258.685	67.31
258.918	72.31
259.151	85.31
259.383	85.31
259.616	83.31
259.849	87.31
260.081	90.31
260.314	85.31
260.547	73.31
260.779	75.31
261.012	70.31
261.244	67.31
261.477	77.31
261.71	85.31
261.942	102.31
262.175	107.31
262.407	80.31
262.64	83.31
262.872	87.31
263.105	74.31
263.337	83.31
263.57	87.31
263.802	80.31
264.035	85.31
264.267	79.31
264.499	75.31
264.732	85.31
264.964	76.31
265.197	65.31
265.429	85.31
265.661	90.31
265.894	83.31
266.126	72.31
266.358	70.31
266.591	89.31
266.823	81.31
267.055	85.31
267.287	82.31
267.52	73.31
267.752	87.31
267.984	81.31
268.216	76.31
268.448	73.31
268.681	89.31
268.913	90.31
269.145	79.31
269.377	70.31
269.609	87.31
269.841	87.31
270.073	74.31
270.306	85.31
270.538	78.31
270.77	86.31
271.002	82.31
271.234	87.31
271.466	83.31
271.698	70.31
271.93	76.31
272.162	88.31
272.394	86.31
272.626	73.31
272.858	77.31
273.09	83.31
273.322	74.31
273.553	77.31
273.785	94.31
274.017	80.31
274.249	95.31
274.481	81.31
274.713	91.31
274.945	85.31
275.176	80.31
275.408	67.31
275.64	63.31
275.872	96.31
276.104	78.31
276.335	81.31
276.567	92.31
276.799	92.31
277.031	91.31
277.262	88.31
277.494	92.31
277.726	92.31
277.957	89.31
278.189	82.31
278.421	92.31
278.652	71.31
278.884	79.31
279.115	71.31
279.347	69.31
279.579	88.31
279.81	91.31
280.042	76.31
280.273	93.31
280.505	73.31
280.736	75.31
280.968	89.31
281.199	93.31
281.431	84.31
281.662	84.31
281.894	92.31
282.125	95.31
282.356	111.31
282.588	123.31
282.819	99.31
283.051	73.31
283.282	83.31
283.513	81.31
283.745	87.31
283.976	97.31
284.207	75.31
284.439	94.31
284.67	95.31
284.901	87.31
285.132	88.31
285.364	90.31
285.595	101.31
285.826	90.31
286.057	88.31
286.288	83.31
286.52	75.31
286.751	82.31
286.982	99.31
287.213	84.31
287.444	93.31
287.675	79.31
287.906	89.31
288.138	75.31
288.369	99.31
288.6	103.31
288.831	87.31
289.062	77.31
289.293	83.31
289.524	91.31
289.755	89.31
289.986	82.31
290.217	87.31
290.448	76.31
290.679	87.31
290.91	84.31
291.141	87.31
291.371	81.31
291.602	85.31
291.833	85.31
292.064	98.31
292.295	86.31
292.526	91.31
292.757	77.31
292.987	79.31
293.218	93.31
293.449	84.31
293.68	91.31
293.91	93.31
294.141	95.31
294.372	83.31
294.603	91.31
294.833	79.31
295.064	86.31
295.295	83.31
295.525	100.31
295.756	104.31
295.987	102.31
296.217	128.31
296.448	116.31
296.679	94.31
296.909	97.31
297.14	94.31
297.37	87.31
297.601	91.31
297.831	96.31
298.062	106.31
298.292	84.31
298.523	91.31
298.753	81.31
298.984	87.31
299.214	86.31
299.445	88.31
299.675	80.31
299.905	99.31
300.136	92.31
300.366	105.31
300.597	100.31
300.827	98.31
301.057	93.31
301.288	99.31
301.518	72.31
301.748	84.31
301.979	95.31
302.209	86.31
302.439	88.31
302.669	88.31
302.9	76.31
303.13	77.31
303.36	103.31
303.59	91.31
303.82	82.31
304.051	91.31
304.281	71.31
304.511	96.31
304.741	95.31
304.971	91.31
305.201	85.31
305.431	73.31
305.661	63.31
305.891	93.31
306.121	95.31
306.352	105.31
306.582	102.31
306.812	85.31
307.042	99.31
307.272	101.31
307.502	98.31
307.731	86.31
307.961	90.31
308.191	75.31
308.421	94.31
308.651	82.31
308.881	94.31
309.111	86.31
309.341	96.31
309.571	92.31
309.8	88.31
310.03	82.31
310.26	98.31
310.49	83.31
310.72	77.31
310.949	98.31
311.179	90.31
311.409	83.31
311.639	93.31
311.868	83.31
312.098	98.31
312.328	107.31
312.557	100.31
312.787	107.31
313.017	104.31
313.246	81.31
313.476	88.31
313.706	79.31
313.935	81.31
314.165	99.31
314.394	97.31
314.624	89.31
314.853	98.31
315.083	87.31
315.312	97.31
315.542	102.31
315.771	92.31
316.001	86.31
316.23	98.31
316.46	92.31
316.689	87.31
316.919	81.31
317.148	89.31
317.377	88.31
317.607	91.31
317.836	83.31
318.065	95.31
318.295	89.31
318.524	105.31
318.753	95.31
318.983	91.31
319.212	89.31
319.441	105.31
319.67	85.31
319.9	83.31
320.129	82.31
320.358	99.31
320.587	104.31
320.816	89.31
321.046	93.31
321.275	95.31
321.504	87.31
321.733	81.31
321.962	87.31
322.191	101.31
322.42	100.31
322.649	104.31
322.878	117.31
323.108	103.31
323.337	103.31
323.566	117.31
323.795	135.31
324.024	180.31
324.253	311.31
324.482	689.31
324.71	1319.31
324.939	1751.31
325.168	655.31
325.397	203.31
325.626	147.31
325.855	120.31
326.084	128.31
326.313	120.31
326.542	133.31
326.77	205.31
326.999	374.31
327.228	780.31
327.457	1403.31
327.686	1100.31
327.914	317.31
328.143	172.31
328.372	137.31
328.6	127.31
328.829	107.31
329.058	115.31
329.287	107.31
329.515	107.31
329.744	103.31
329.972	93.31
330.201	101.31
330.43	101.31
330.658	113.31
330.887	111.31
331.115	97.31
331.344	104.31
331.572	99.31
331.801	98.31
332.03	94.31
332.258	84.31
332.486	83.31
332.715	103.31
332.943	90.31
333.172	78.31
333.4	80.31
333.629	114.31
333.857	95.31
334.085	116.31
334.314	115.31
334.542	131.31
334.771	108.31
334.999	97.31
335.227	93.31
335.455	105.31
335.684	107.31
335.912	83.31
336.14	86.31
336.369	86.31
336.597	98.31
336.825	95.31
337.053	83.31
337.281	90.31
337.51	83.31
337.738	100.31
337.966	94.31
338.194	77.31
338.422	108.31
338.65	97.31
338.878	96.31
339.106	92.31
339.334	94.31
339.562	76.31
339.79	95.31
340.018	94.31
340.246	88.31
340.474	86.31
340.702	99.31
340.93	94.31
341.158	90.31
341.386	98.31
341.614	85.31
341.842	94.31
342.07	89.31
342.298	87.31
342.526	85.31
342.754	84.31
342.981	79.31
343.209	77.31
343.437	93.31
343.665	81.31
343.893	105.31
344.12	94.31
344.348	96.31
344.576	76.31
344.804	93.31
345.031	94.31
345.259	90.31
345.487	91.31
345.714	95.31
345.942	87.31
346.17	87.31
346.397	98.31
346.625	90.31
346.853	80.31
347.08	88.31
347.308	106.31
347.535	95.31
347.763	92.31
347.99	100.31
348.218	84.31
348.445	97.31
348.673	104.31
348.9	84.31
349.128	87.31
349.355	96.31
349.583	100.31
349.81	95.31
350.037	83.31
350.265	82.31
350.492	96.31
350.72	86.31
350.947	95.31
351.174	98.31
351.402	94.31
351.629	89.31
351.856	93.31
352.083	100.31
352.311	101.31
352.538	86.31
352.765	91.31
352.992	108.31
353.22	106.31
353.447	101.31
353.674	90.31
353.901	104.31
354.128	93.31
354.355	85.31
354.583	96.31
354.81	107.31
355.037	91.31
355.264	80.31
355.491	83.31
355.718	103.31
355.945	97.31
356.172	95.31
356.399	100.31
356.626	89.31
356.853	77.31
357.08	87.31
357.307	83.31
357.534	85.31
357.761	86.31
357.988	106.31
358.215	93.31
358.441	78.31
358.668	91.31
358.895	84.31
359.122	87.31
359.349	93.31
359.576	88.31
359.802	100.31
360.029	90.31
360.256	90.31
360.483	95.31
360.709	101.31
360.936	91.31
361.163	95.31
361.39	78.31
361.616	102.31
361.843	91.31
362.07	113.31
362.296	85.31
362.523	89.31
362.749	84.31
362.976	77.31
363.203	80.31
363.429	87.31
363.656	81.31
363.882	84.31
364.109	85.31
364.335	102.31
364.562	91.31
364.788	91.31
365.015	100.31
365.241	99.31
365.468	106.31
365.694	104.31
365.92	93.31
366.147	93.31
366.373	93.31
366.599	85.31
366.826	103.31
367.052	85.31
367.278	89.31
367.505	95.31
367.731	95.31
367.957	83.31
368.184	99.31
368.41	96.31
368.636	112.31
368.862	114.31
369.089	96.31
369.315	97.31
369.541	82.31
369.767	93.31
369.993	101.31
370.219	89.31
370.445	99.31
370.672	86.31
370.898	81.31
371.124	83.31
371.35	92.31
371.576	89.31
371.802	103.31
372.028	80.31
372.254	72.31
372.48	77.31
372.706	89.31
372.932	81.31
373.158	75.31
373.384	95.31
373.61	100.31
373.835	106.31
374.061	92.31
374.287	83.31
374.513	79.31
374.739	72.31
374.965	70.31
375.191	89.31
375.416	84.31
375.642	80.31
375.868	74.31
376.094	79.31
376.319	89.31
376.545	96.31
376.771	87.31
376.997	95.31
377.222	77.31
377.448	98.31
377.674	93.31
377.899	91.31
378.125	84.31
378.35	89.31
378.576	79.31
378.802	71.31
379.027	88.31
379.253	83.31
379.478	79.31
379.704	80.31
379.929	82.31
380.155	87.31
380.38	91.31
380.606	92.31
380.831	97.31
381.057	108.31
381.282	104.31
381.507	96.31
381.733	92.31
381.958	105.31
382.184	94.31
382.409	101.31
382.634	103.31
382.86	77.31
383.085	99.31
383.31	97.31
383.535	104.31
383.761	86.31
383.986	86.31
384.211	89.31
384.436	89.31
384.662	85.31
384.887	104.31
385.112	105.31
385.337	104.31
385.562	104.31
385.787	95.31
386.013	101.31
386.238	102.31
386.463	96.31
386.688	107.31
386.913	101.31
387.138	109.31
387.363	114.31
387.588	95.31
387.813	97.31
388.038	102.31
388.263	98.31
388.488	109.31
388.713	101.31
388.938	86.31
389.163	81.31
389.387	86.31
389.612	87.31
389.837	96.31
390.062	92.31
390.287	81.31
390.512	92.31
390.736	95.31
390.961	82.31
391.186	92.31
391.411	95.31
391.636	95.31
391.86	86.31
392.085	90.31
392.31	85.31
392.534	71.31
392.759	97.31
392.984	89.31
393.208	101.31
393.433	86.31
393.658	87.31
393.882	99.31
394.107	96.31
394.331	91.31
394.556	91.31
394.78	98.31
395.005	92.31
395.229	93.31
395.454	98.31
395.678	83.31
395.903	82.31
396.127	101.31
396.352	76.31
396.576	68.31
396.801	81.31
397.025	101.31
397.249	98.31
397.474	96.31
397.698	98.31
397.922	57.31
398.147	85.31
398.371	91.31
398.595	75.31
398.82	91.31
399.044	97.31
399.268	82.31
399.492	80.31
399.717	93.31
399.941	90.31
400.165	95.31
400.389	81.31
400.613	97.31
400.837	101.31
401.062	96.31
401.286	100.31
401.51	88.31
401.734	69.31
401.958	94.31
402.182	107.31
402.406	124.31
402.63	97.31
402.854	99.31
403.078	83.31
403.302	86.31
403.526	93.31
403.75	79.31
403.974	88.31
404.198	97.31
404.422	104.31
404.645	90.31
404.869	89.31
405.093	100.31
405.317	92.31
405.541	92.31
405.765	96.31
405.988	108.31
406.212	137.31
406.436	179.31
406.66	135.31
406.883	88.31
407.107	93.31
407.331	79.31
407.555	82.31
407.778	83.31
408.002	82.31
408.226	92.31
408.449	85.31
408.673	91.31
408.896	79.31
409.12	106.31
409.344	86.31
409.567	90.31
409.791	89.31
410.014	83.31
410.238	77.31
410.461	93.31
410.685	79.31
410.908	95.31
411.132	97.31
411.355	92.31
411.578	81.31
411.802	75.31
412.025	86.31
412.249	87.31
412.472	102.31
412.695	112.31
412.919	81.31
413.142	98.31
413.365	81.31
413.589	89.31
413.812	89.31
414.035	90.31
414.258	72.31
414.482	80.31
414.705	85.31
414.928	103.31
415.151	97.31
415.374	75.31
415.597	74.31
415.821	66.31
416.044	94.31
416.267	92.31
416.49	89.31
416.713	94.31
416.936	82.31
417.159	91.31
417.382	89.31
417.605	82.31
417.828	99.31
418.051	84.31
418.274	90.31
418.497	89.31
418.72	84.31
418.943	83.31
419.166	70.31
419.389	68.31
419.611	75.31
419.834	84.31
420.057	84.31
420.28	83.31
420.503	107.31
420.726	90.31
420.948	89.31
421.171	83.31
421.394	93.31
421.617	85.31
421.839	77.31
422.062	82.31
422.285	92.31
422.507	89.31
422.73	100.31
422.953	71.31
423.175	87.31
423.398	79.31
423.621	86.31
423.843	83.31
424.066	99.31
424.288	97.31
424.511	100.31
424.733	111.31
424.956	101.31
425.178	84.31
425.401	91.31
425.623	88.31
425.846	81.31
426.068	96.31
426.291	90.31
426.513	81.31
426.735	103.31
426.958	94.31
427.18	102.31
427.402	115.31
427.625	133.31
427.847	110.31
428.069	111.31
428.292	101.31
428.514	90.31
428.736	83.31
428.958	84.31
429.181	91.31
429.403	71.31
429.625	84.31
429.847	84.31
430.069	100.31
430.292	81.31
430.514	75.31
430.736	89.31
430.958	81.31
431.18	72.31
431.402	87.31
431.624	81.31
431.846	69.31
432.068	87.31
432.29	77.31
432.512	87.31
432.734	83.31
432.956	86.31
433.178	96.31
433.4	94.31
433.622	78.31
433.844	81.31
434.066	88.31
434.287	93.31
434.509	87.31
434.731	104.31
434.953	84.31
435.175	95.31
435.397	100.31
435.618	91.31
435.84	92.31
436.062	119.31
436.284	100.31
436.505	105.31
436.727	112.31
436.949	99.31
437.17	98.31
437.392	84.31
437.614	108.31
437.835	87.31
438.057	123.31
438.278	103.31
438.5	87.31
438.721	113.31
438.943	89.31
439.165	87.31
439.386	78.31
439.608	86.31
439.829	85.31
440.05	119.31
440.272	134.31
440.493	83.31
440.715	81.31
440.936	84.31
441.158	68.31
441.379	84.31
441.6	92.31
441.822	89.31
442.043	88.31
442.264	89.31
442.486	92.31
442.707	90.31
442.928	95.31
443.149	121.31
443.371	103.31
443.592	104.31
443.813	97.31
444.034	107.31
444.255	88.31
444.476	92.31
444.698	80.31
444.919	106.31
445.14	126.31
445.361	116.31
445.582	95.31
445.803	115.31
446.024	120.31
446.245	121.31
446.466	94.31
446.687	79.31
446.908	85.31
447.129	72.31
447.35	90.31
447.571	102.31
447.792	97.31
448.013	103.31
448.234	90.31
448.455	91.31
448.675	110.31
448.896	117.31
449.117	100.31
449.338	84.31
449.559	117.31
449.779	114.31
450	93.31
450.221	71.31
450.442	86.31
450.662	93.31
450.883	96.31
451.104	97.31
451.324	81.31
451.545	73.31
451.766	83.31
451.986	69.31
452.207	84.31
452.428	84.31
452.648	113.31
452.869	97.31
453.089	102.31
453.31	91.31
453.53	73.31
453.751	91.31
453.971	75.31
454.192	91.31
454.412	85.31
454.633	80.31
454.853	87.31
455.073	79.31
455.294	86.31
455.514	92.31
455.734	78.31
455.955	75.31
456.175	83.31
456.395	91.31
456.616	81.31
456.836	80.31
457.056	99.31
457.276	100.31
457.497	93.31
457.717	97.31
457.937	87.31
458.157	96.31
458.377	92.31
458.598	89.31
458.818	123.31
459.038	133.31
459.258	118.31
459.478	72.31
459.698	87.31
459.918	88.31
460.138	91.31
460.358	82.31
460.578	76.31
460.798	85.31
461.018	83.31
461.238	86.31
461.458	83.31
461.678	97.31
461.898	87.31
462.118	79.31
462.338	88.31
462.558	75.31
462.777	79.31
462.997	76.31
463.217	79.31
463.437	81.31
463.657	85.31
463.876	94.31
464.096	97.31
464.316	87.31
464.536	90.31
464.755	77.31
464.975	95.31
465.195	136.31
465.414	131.31
465.634	93.31
465.854	85.31
466.073	85.31
466.293	96.31
466.512	83.31
466.732	89.31
466.951	76.31
467.171	97.31
467.391	86.31
467.61	93.31
467.829	94.31
468.049	106.31
468.268	103.31
468.488	85.31
468.707	80.31
468.927	99.31
469.146	86.31
469.365	79.31
469.585	79.31
469.804	94.31
470.023	98.31
470.243	98.31
470.462	98.31
470.681	101.31
470.901	80.31
471.12	99.31
471.339	85.31
471.558	100.31
471.777	101.31
471.997	89.31
472.216	113.31
472.435	115.31
472.654	98.31
472.873	95.31
473.092	82.31
473.311	68.31
473.53	86.31
473.749	84.31
473.968	76.31
474.187	84.31
474.406	84.31
474.625	96.31
474.844	99.31
475.063	88.31
475.282	83.31
475.501	91.31
475.72	77.31
475.939	85.31
476.158	78.31
476.377	88.31
476.596	90.31
476.814	90.31
477.033	80.31
477.252	83.31
477.471	92.31
477.69	87.31
477.908	93.31
478.127	93.31
478.346	97.31
478.564	83.31
478.783	87.31
479.002	87.31
479.22	86.31
479.439	84.31
479.658	102.31
479.876	86.31
480.095	90.31
480.313	90.31
480.532	79.31
480.751	101.31
480.969	118.31
481.188	196.31
481.406	147.31
481.624	100.31
481.843	87.31
482.061	92.31
482.28	87.31
482.498	91.31
482.717	94.31
482.935	54.31
483.153	97.31
483.372	85.31
483.59	89.31
483.808	84.31
484.027	89.31
484.245	101.31
484.463	91.31
484.681	100.31
484.9	91.31
485.118	98.31
485.336	93.31
485.554	95.31
485.772	111.31
485.99	99.31
486.209	93.31
486.427	96.31
486.645	107.31
486.863	115.31
487.081	106.31
487.299	88.31
487.517	103.31
487.735	86.31
487.953	87.31
488.171	96.31
488.389	109.31
488.607	92.31
488.825	83.31
489.043	83.31
489.261	99.31
489.479	96.31
489.696	90.31
489.914	95.31
490.132	93.31
490.35	88.31
490.568	83.31
490.786	93.31
491.003	83.31
491.221	85.31
491.439	92.31
491.657	84.31
491.874	79.31
492.092	88.31
492.31	90.31
492.527	89.31
492.745	93.31
492.963	91.31
493.18	87.31
493.398	86.31
493.615	99.31
493.833	100.31
494.05	95.31
494.268	90.31
494.485	81.31
494.703	94.31
494.92	101.31
495.138	87.31
495.355	94.31
495.573	90.31
495.79	95.31
496.008	95.31
496.225	94.31
496.442	91.31
496.66	100.31
496.877	88.31
497.094	98.31
497.312	90.31
497.529	86.31
497.746	76.31
497.963	93.31
498.181	101.31
498.398	91.31
498.615	107.31
498.832	122.31
499.049	90.31
499.267	84.31
499.484	79.31
499.701	81.31
499.918	89.31
500.135	89.31
500.352	91.31
500.569	93.31
500.786	89.31
501.003	94.31
501.22	92.31
501.437	83.31
501.654	99.31
501.871	94.31
502.088	88.31
502.305	93.31
502.522	86.31
502.739	74.31
502.956	91.31
503.172	99.31
503.389	89.31
503.606	91.31
503.823	87.31
504.04	91.31
504.256	87.31
504.473	90.31
504.69	96.31
504.907	91.31
505.123	85.31
505.34	84.31
505.557	90.31
505.773	101.31
505.99	88.31
506.207	93.31
506.423	104.31
506.64	84.31
506.856	92.31
507.073	86.31
507.289	96.31
507.506	93.31
507.722	120.31
507.939	103.31
508.155	91.31
508.372	93.31
508.588	97.31
508.805	75.31
509.021	85.31
509.238	92.31
509.454	74.31
509.67	98.31
509.887	93.31
510.103	131.31
510.319	184.31
510.536	641.31
510.752	1884.31
510.968	521.31
511.184	146.31
511.401	103.31
511.617	85.31
511.833	90.31
512.049	87.31
512.265	108.31
512.481	97.31
512.698	74.31
512.914	84.31
513.13	85.31
513.346	90.31
513.562	98.31
513.778	105.31
513.994	94.31
514.21	96.31
514.426	108.31
514.642	108.31
514.858	106.31
515.074	137.31
515.29	346.31
515.506	1028.31
515.721	423.31
515.937	131.31
516.153	108.31
516.369	92.31
516.585	80.31
