Data from Uncirc_1982_H10_HRD10591_00081.txt Node
Date: Wed Jan 03 12:29:41 EST 2024
User: Yrep
Spectrometer: HR+D1059
Trigger mode: 1
Integration Time (sec): 1.000000E-1
Scans to average: 1
Electric dark correction enabled: true
Nonlinearity correction enabled: false
Boxcar width: 0
XAxis mode: Wavelengths
Number of Pixels in Spectrum: 2048
>>>>>Begin Spectral Data<<<<<
223.165	-31.81
223.4	-31.81
223.635	-31.81
223.869	-13.81
224.104	-29.81
224.338	-18.81
224.573	-20.81
224.808	-17.81
225.042	2.19
225.277	2.19
225.511	12.19
225.746	5.19
225.98	12.19
226.215	14.19
226.449	11.19
226.683	12.19
226.918	25.19
227.152	36.19
227.387	37.19
227.621	40.19
227.856	45.19
228.09	47.19
228.324	39.19
228.559	64.19
228.793	56.19
229.027	55.19
229.262	69.19
229.496	66.19
229.73	80.19
229.964	94.19
230.199	73.19
230.433	66.19
230.667	75.19
230.901	85.19
231.136	80.19
231.37	86.19
231.604	83.19
231.838	90.19
232.072	81.19
232.306	80.19
232.541	82.19
232.775	76.19
233.009	84.19
233.243	80.19
233.477	77.19
233.711	90.19
233.945	72.19
234.179	89.19
234.413	84.19
234.647	88.19
234.881	84.19
235.115	75.19
235.349	81.19
235.583	89.19
235.817	78.19
236.051	80.19
236.285	82.19
236.519	76.19
236.753	71.19
236.987	85.19
237.221	75.19
237.455	88.19
237.689	75.19
237.922	94.19
238.156	74.19
238.39	69.19
238.624	80.19
238.858	64.19
239.091	66.19
239.325	77.19
239.559	77.19
239.793	70.19
240.027	83.19
240.26	75.19
240.494	75.19
240.728	87.19
240.961	74.19
241.195	82.19
241.429	93.19
241.662	90.19
241.896	62.19
242.13	77.19
242.363	93.19
242.597	81.19
242.83	77.19
243.064	93.19
243.298	70.19
243.531	87.19
243.765	64.19
243.998	64.19
244.232	86.19
244.465	73.19
244.699	77.19
244.932	84.19
245.166	66.19
245.399	78.19
245.633	72.19
245.866	66.19
246.099	73.19
246.333	83.19
246.566	84.19
246.8	83.19
247.033	64.19
247.266	81.19
247.5	56.19
247.733	102.19
247.966	73.19
248.2	94.19
248.433	90.19
248.666	88.19
248.899	90.19
249.133	98.19
249.366	95.19
249.599	93.19
249.832	91.19
250.066	74.19
250.299	84.19
250.532	57.19
250.765	66.19
250.998	80.19
251.231	80.19
251.465	89.19
251.698	85.19
251.931	87.19
252.164	76.19
252.397	83.19
252.63	80.19
252.863	78.19
253.096	88.19
253.329	64.19
253.562	77.19
253.795	81.19
254.028	83.19
254.261	84.19
254.494	85.19
254.727	91.19
254.96	93.19
255.193	92.19
255.426	83.19
255.659	92.19
255.892	67.19
256.124	85.19
256.357	68.19
256.59	80.19
256.823	78.19
257.056	85.19
257.289	90.19
257.521	80.19
257.754	68.19
257.987	83.19
258.22	75.19
258.452	82.19
258.685	69.19
258.918	98.19
259.151	95.19
259.383	82.19
259.616	84.19
259.849	82.19
260.081	91.19
260.314	85.19
260.547	76.19
260.779	77.19
261.012	74.19
261.244	95.19
261.477	88.19
261.71	100.19
261.942	98.19
262.175	108.19
262.407	94.19
262.64	68.19
262.872	85.19
263.105	74.19
263.337	92.19
263.57	85.19
263.802	72.19
264.035	63.19
264.267	71.19
264.499	76.19
264.732	84.19
264.964	80.19
265.197	77.19
265.429	92.19
265.661	80.19
265.894	78.19
266.126	82.19
266.358	92.19
266.591	100.19
266.823	85.19
267.055	73.19
267.287	75.19
267.52	73.19
267.752	84.19
267.984	71.19
268.216	86.19
268.448	86.19
268.681	96.19
268.913	92.19
269.145	86.19
269.377	82.19
269.609	81.19
269.841	92.19
270.073	76.19
270.306	87.19
270.538	72.19
270.77	86.19
271.002	78.19
271.234	87.19
271.466	74.19
271.698	94.19
271.93	101.19
272.162	85.19
272.394	88.19
272.626	86.19
272.858	78.19
273.09	80.19
273.322	89.19
273.553	97.19
273.785	78.19
274.017	77.19
274.249	73.19
274.481	93.19
274.713	71.19
274.945	86.19
275.176	88.19
275.408	93.19
275.64	89.19
275.872	82.19
276.104	89.19
276.335	85.19
276.567	83.19
276.799	81.19
277.031	88.19
277.262	92.19
277.494	83.19
277.726	91.19
277.957	100.19
278.189	91.19
278.421	86.19
278.652	90.19
278.884	81.19
279.115	87.19
279.347	89.19
279.579	94.19
279.81	86.19
280.042	73.19
280.273	77.19
280.505	85.19
280.736	81.19
280.968	100.19
281.199	82.19
281.431	91.19
281.662	85.19
281.894	87.19
282.125	82.19
282.356	112.19
282.588	123.19
282.819	96.19
283.051	92.19
283.282	80.19
283.513	80.19
283.745	97.19
283.976	91.19
284.207	87.19
284.439	89.19
284.67	86.19
284.901	75.19
285.132	90.19
285.364	85.19
285.595	104.19
285.826	106.19
286.057	87.19
286.288	101.19
286.52	75.19
286.751	74.19
286.982	86.19
287.213	82.19
287.444	87.19
287.675	80.19
287.906	99.19
288.138	89.19
288.369	82.19
288.6	101.19
288.831	81.19
289.062	83.19
289.293	94.19
289.524	82.19
289.755	102.19
289.986	78.19
290.217	80.19
290.448	72.19
290.679	92.19
290.91	91.19
291.141	85.19
291.371	98.19
291.602	91.19
291.833	92.19
292.064	71.19
292.295	83.19
292.526	80.19
292.757	90.19
292.987	89.19
293.218	72.19
293.449	103.19
293.68	104.19
293.91	81.19
294.141	81.19
294.372	82.19
294.603	81.19
294.833	96.19
295.064	90.19
295.295	84.19
295.525	101.19
295.756	88.19
295.987	104.19
296.217	111.19
296.448	105.19
296.679	75.19
296.909	92.19
297.14	96.19
297.37	101.19
297.601	101.19
297.831	98.19
298.062	77.19
298.292	80.19
298.523	90.19
298.753	97.19
298.984	93.19
299.214	101.19
299.445	100.19
299.675	86.19
299.905	113.19
300.136	91.19
300.366	82.19
300.597	93.19
300.827	79.19
301.057	87.19
301.288	96.19
301.518	76.19
301.748	89.19
301.979	99.19
302.209	92.19
302.439	87.19
302.669	93.19
302.9	77.19
303.13	90.19
303.36	100.19
303.59	118.19
303.82	90.19
304.051	91.19
304.281	88.19
304.511	87.19
304.741	85.19
304.971	92.19
305.201	96.19
305.431	95.19
305.661	83.19
305.891	88.19
306.121	98.19
306.352	91.19
306.582	98.19
306.812	76.19
307.042	97.19
307.272	105.19
307.502	89.19
307.731	90.19
307.961	94.19
308.191	96.19
308.421	91.19
308.651	98.19
308.881	88.19
309.111	82.19
309.341	90.19
309.571	103.19
309.8	100.19
310.03	89.19
310.26	98.19
310.49	88.19
310.72	93.19
310.949	90.19
311.179	98.19
311.409	93.19
311.639	100.19
311.868	96.19
312.098	93.19
312.328	96.19
312.557	92.19
312.787	99.19
313.017	107.19
313.246	104.19
313.476	96.19
313.706	88.19
313.935	101.19
314.165	93.19
314.394	102.19
314.624	105.19
314.853	104.19
315.083	98.19
315.312	94.19
315.542	96.19
315.771	80.19
316.001	102.19
316.23	82.19
316.46	80.19
316.689	93.19
316.919	88.19
317.148	88.19
317.377	107.19
317.607	98.19
317.836	100.19
318.065	87.19
318.295	84.19
318.524	74.19
318.753	92.19
318.983	94.19
319.212	104.19
319.441	96.19
319.67	95.19
319.9	89.19
320.129	90.19
320.358	91.19
320.587	90.19
320.816	96.19
321.046	93.19
321.275	82.19
321.504	91.19
321.733	86.19
321.962	89.19
322.191	115.19
322.42	123.19
322.649	104.19
322.878	96.19
323.108	97.19
323.337	112.19
323.566	124.19
323.795	136.19
324.024	177.19
324.253	350.19
324.482	717.19
324.71	1427.19
324.939	1868.19
325.168	710.19
325.397	219.19
325.626	122.19
325.855	119.19
326.084	108.19
326.313	109.19
326.542	135.19
326.77	196.19
326.999	404.19
327.228	792.19
327.457	1442.19
327.686	1157.19
327.914	328.19
328.143	185.19
328.372	140.19
328.6	113.19
328.829	124.19
329.058	102.19
329.287	112.19
329.515	94.19
329.744	107.19
329.972	109.19
330.201	96.19
330.43	131.19
330.658	125.19
330.887	127.19
331.115	102.19
331.344	84.19
331.572	107.19
331.801	104.19
332.03	96.19
332.258	99.19
332.486	98.19
332.715	109.19
332.943	94.19
333.172	99.19
333.4	104.19
333.629	101.19
333.857	113.19
334.085	99.19
334.314	102.19
334.542	122.19
334.771	121.19
334.999	114.19
335.227	97.19
335.455	89.19
335.684	90.19
335.912	84.19
336.14	100.19
336.369	110.19
336.597	105.19
336.825	94.19
337.053	84.19
337.281	97.19
337.51	90.19
337.738	104.19
337.966	96.19
338.194	76.19
338.422	92.19
338.65	74.19
338.878	91.19
339.106	84.19
339.334	90.19
339.562	93.19
339.79	103.19
340.018	103.19
340.246	94.19
340.474	75.19
340.702	104.19
340.93	77.19
341.158	115.19
341.386	86.19
341.614	80.19
341.842	91.19
342.07	87.19
342.298	87.19
342.526	94.19
342.754	100.19
342.981	101.19
343.209	92.19
343.437	101.19
343.665	103.19
343.893	109.19
344.12	101.19
344.348	83.19
344.576	82.19
344.804	96.19
345.031	89.19
345.259	105.19
345.487	111.19
345.714	93.19
345.942	102.19
346.17	99.19
346.397	101.19
346.625	105.19
346.853	99.19
347.08	86.19
347.308	86.19
347.535	93.19
347.763	92.19
347.99	102.19
348.218	98.19
348.445	102.19
348.673	107.19
348.9	90.19
349.128	97.19
349.355	91.19
349.583	115.19
349.81	112.19
350.037	107.19
350.265	84.19
350.492	87.19
350.72	88.19
350.947	83.19
351.174	106.19
351.402	107.19
351.629	96.19
351.856	100.19
352.083	96.19
352.311	92.19
352.538	88.19
352.765	98.19
352.992	118.19
353.22	110.19
353.447	86.19
353.674	90.19
353.901	105.19
354.128	100.19
354.355	118.19
354.583	111.19
354.81	86.19
355.037	97.19
355.264	98.19
355.491	84.19
355.718	86.19
355.945	82.19
356.172	93.19
356.399	100.19
356.626	94.19
356.853	90.19
357.08	107.19
357.307	108.19
357.534	92.19
357.761	83.19
357.988	81.19
358.215	96.19
358.441	105.19
358.668	88.19
358.895	92.19
359.122	92.19
359.349	92.19
359.576	101.19
359.802	82.19
360.029	107.19
360.256	100.19
360.483	84.19
360.709	89.19
360.936	104.19
361.163	92.19
361.39	97.19
361.616	94.19
361.843	88.19
362.07	96.19
362.296	101.19
362.523	107.19
362.749	84.19
362.976	72.19
363.203	85.19
363.429	100.19
363.656	101.19
363.882	89.19
364.109	86.19
364.335	86.19
364.562	92.19
364.788	91.19
365.015	80.19
365.241	90.19
365.468	101.19
365.694	90.19
365.92	98.19
366.147	88.19
366.373	91.19
366.599	91.19
366.826	92.19
367.052	98.19
367.278	97.19
367.505	96.19
367.731	96.19
367.957	87.19
368.184	91.19
368.41	95.19
368.636	107.19
368.862	112.19
369.089	106.19
369.315	82.19
369.541	88.19
369.767	99.19
369.993	82.19
370.219	108.19
370.445	88.19
370.672	97.19
370.898	95.19
371.124	93.19
371.35	85.19
371.576	92.19
371.802	85.19
372.028	87.19
372.254	90.19
372.48	85.19
372.706	76.19
372.932	92.19
373.158	95.19
373.384	85.19
373.61	80.19
373.835	76.19
374.061	73.19
374.287	98.19
374.513	96.19
374.739	82.19
374.965	94.19
375.191	75.19
375.416	67.19
375.642	86.19
375.868	87.19
376.094	105.19
376.319	88.19
376.545	97.19
376.771	86.19
376.997	80.19
377.222	84.19
377.448	99.19
377.674	73.19
377.899	80.19
378.125	91.19
378.35	113.19
378.576	86.19
378.802	97.19
379.027	85.19
379.253	87.19
379.478	82.19
379.704	99.19
379.929	90.19
380.155	91.19
380.38	106.19
380.606	117.19
380.831	96.19
381.057	101.19
381.282	100.19
381.507	94.19
381.733	102.19
381.958	84.19
382.184	81.19
382.409	87.19
382.634	86.19
382.86	82.19
383.085	98.19
383.31	85.19
383.535	96.19
383.761	102.19
383.986	91.19
384.211	93.19
384.436	106.19
384.662	104.19
384.887	101.19
385.112	111.19
385.337	110.19
385.562	99.19
385.787	104.19
386.013	119.19
386.238	93.19
386.463	98.19
386.688	105.19
386.913	101.19
387.138	109.19
387.363	101.19
387.588	103.19
387.813	98.19
388.038	93.19
388.263	118.19
388.488	112.19
388.713	89.19
388.938	83.19
389.163	99.19
389.387	94.19
389.612	89.19
389.837	83.19
390.062	87.19
390.287	105.19
390.512	88.19
390.736	101.19
390.961	96.19
391.186	112.19
391.411	106.19
391.636	100.19
391.86	81.19
392.085	88.19
392.31	87.19
392.534	87.19
392.759	91.19
392.984	91.19
393.208	73.19
393.433	74.19
393.658	76.19
393.882	82.19
394.107	82.19
394.331	74.19
394.556	71.19
394.78	76.19
395.005	98.19
395.229	78.19
395.454	77.19
395.678	79.19
395.903	88.19
396.127	88.19
396.352	91.19
396.576	77.19
396.801	99.19
397.025	82.19
397.249	93.19
397.474	105.19
397.698	92.19
397.922	88.19
398.147	73.19
398.371	77.19
398.595	77.19
398.82	93.19
399.044	90.19
399.268	87.19
399.492	90.19
399.717	78.19
399.941	72.19
400.165	96.19
400.389	104.19
400.613	98.19
400.837	88.19
401.062	84.19
401.286	83.19
401.51	87.19
401.734	99.19
401.958	94.19
402.182	126.19
402.406	124.19
402.63	109.19
402.854	99.19
403.078	81.19
403.302	77.19
403.526	86.19
403.75	78.19
403.974	82.19
404.198	90.19
404.422	90.19
404.645	80.19
404.869	77.19
405.093	96.19
405.317	88.19
405.541	80.19
405.765	92.19
405.988	108.19
406.212	162.19
406.436	191.19
406.66	122.19
406.883	104.19
407.107	96.19
407.331	82.19
407.555	86.19
407.778	82.19
408.002	82.19
408.226	87.19
408.449	86.19
408.673	92.19
408.896	94.19
409.12	102.19
409.344	82.19
409.567	90.19
409.791	98.19
410.014	91.19
410.238	103.19
410.461	88.19
410.685	98.19
410.908	90.19
411.132	107.19
411.355	84.19
411.578	102.19
411.802	99.19
412.025	89.19
412.249	89.19
412.472	94.19
412.695	89.19
412.919	96.19
413.142	88.19
413.365	107.19
413.589	70.19
413.812	83.19
414.035	100.19
414.258	88.19
414.482	98.19
414.705	86.19
414.928	85.19
415.151	89.19
415.374	88.19
415.597	78.19
415.821	98.19
416.044	83.19
416.267	69.19
416.49	86.19
416.713	84.19
416.936	91.19
417.159	94.19
417.382	83.19
417.605	95.19
417.828	100.19
418.051	81.19
418.274	85.19
418.497	83.19
418.72	75.19
418.943	105.19
419.166	101.19
419.389	90.19
419.611	88.19
419.834	93.19
420.057	74.19
420.28	92.19
420.503	83.19
420.726	84.19
420.948	78.19
421.171	95.19
421.394	94.19
421.617	82.19
421.839	74.19
422.062	92.19
422.285	93.19
422.507	101.19
422.73	101.19
422.953	69.19
423.175	85.19
423.398	75.19
423.621	77.19
423.843	90.19
424.066	86.19
424.288	80.19
424.511	87.19
424.733	100.19
424.956	90.19
425.178	102.19
425.401	87.19
425.623	98.19
425.846	94.19
426.068	87.19
426.291	87.19
426.513	70.19
426.735	77.19
426.958	89.19
427.18	104.19
427.402	122.19
427.625	140.19
427.847	133.19
428.069	109.19
428.292	88.19
428.514	82.19
428.736	73.19
428.958	84.19
429.181	75.19
429.403	92.19
429.625	88.19
429.847	92.19
430.069	84.19
430.292	88.19
430.514	101.19
430.736	86.19
430.958	76.19
431.18	76.19
431.402	82.19
431.624	98.19
431.846	87.19
432.068	89.19
432.29	76.19
432.512	84.19
432.734	80.19
432.956	75.19
433.178	95.19
433.4	97.19
433.622	81.19
433.844	89.19
434.066	89.19
434.287	88.19
434.509	88.19
434.731	84.19
434.953	78.19
435.175	86.19
435.397	70.19
435.618	93.19
435.84	89.19
436.062	113.19
436.284	109.19
436.505	105.19
436.727	98.19
436.949	94.19
437.17	81.19
437.392	86.19
437.614	97.19
437.835	91.19
438.057	94.19
438.278	104.19
438.5	103.19
438.721	107.19
438.943	94.19
439.165	95.19
439.386	90.19
439.608	82.19
439.829	97.19
440.05	120.19
440.272	118.19
440.493	94.19
440.715	99.19
440.936	76.19
441.158	85.19
441.379	96.19
441.6	101.19
441.822	93.19
442.043	90.19
442.264	85.19
442.486	83.19
442.707	79.19
442.928	103.19
443.149	120.19
443.371	120.19
443.592	94.19
443.813	101.19
444.034	96.19
444.255	96.19
444.476	96.19
444.698	86.19
444.919	83.19
445.14	128.19
445.361	106.19
445.582	93.19
445.803	116.19
446.024	115.19
446.245	123.19
446.466	90.19
446.687	79.19
446.908	97.19
447.129	74.19
447.35	84.19
447.571	100.19
447.792	90.19
448.013	102.19
448.234	100.19
448.455	74.19
448.675	91.19
448.896	106.19
449.117	94.19
449.338	89.19
449.559	114.19
449.779	110.19
450	98.19
450.221	83.19
450.442	84.19
450.662	100.19
450.883	90.19
451.104	108.19
451.324	93.19
451.545	89.19
451.766	88.19
451.986	78.19
452.207	84.19
452.428	88.19
452.648	100.19
452.869	99.19
453.089	108.19
453.31	104.19
453.53	85.19
453.751	82.19
453.971	93.19
454.192	108.19
454.412	96.19
454.633	83.19
454.853	92.19
455.073	91.19
455.294	88.19
455.514	97.19
455.734	85.19
455.955	90.19
456.175	88.19
456.395	83.19
456.616	78.19
456.836	77.19
457.056	84.19
457.276	82.19
457.497	70.19
457.717	73.19
457.937	83.19
458.157	76.19
458.377	81.19
458.598	104.19
458.818	134.19
459.038	123.19
459.258	92.19
459.478	86.19
459.698	74.19
459.918	69.19
460.138	94.19
460.358	93.19
460.578	95.19
460.798	81.19
461.018	94.19
461.238	94.19
461.458	83.19
461.678	94.19
461.898	77.19
462.118	82.19
462.338	89.19
462.558	92.19
462.777	88.19
462.997	91.19
463.217	77.19
463.437	84.19
463.657	80.19
463.876	73.19
464.096	83.19
464.316	90.19
464.536	93.19
464.755	99.19
464.975	101.19
465.195	160.19
465.414	132.19
465.634	93.19
465.854	77.19
466.073	92.19
466.293	107.19
466.512	86.19
466.732	90.19
466.951	84.19
467.171	96.19
467.391	94.19
467.61	87.19
467.829	86.19
468.049	99.19
468.268	93.19
468.488	75.19
468.707	93.19
468.927	94.19
469.146	94.19
469.365	93.19
469.585	83.19
469.804	100.19
470.023	91.19
470.243	92.19
470.462	97.19
470.681	87.19
470.901	84.19
471.12	92.19
471.339	84.19
471.558	91.19
471.777	95.19
471.997	99.19
472.216	117.19
472.435	141.19
472.654	94.19
472.873	83.19
473.092	70.19
473.311	81.19
473.53	78.19
473.749	64.19
473.968	87.19
474.187	88.19
474.406	90.19
474.625	82.19
474.844	90.19
475.063	75.19
475.282	92.19
475.501	84.19
475.72	86.19
475.939	86.19
476.158	88.19
476.377	80.19
476.596	86.19
476.814	91.19
477.033	71.19
477.252	81.19
477.471	96.19
477.69	92.19
477.908	92.19
478.127	89.19
478.346	78.19
478.564	86.19
478.783	89.19
479.002	94.19
479.22	81.19
479.439	105.19
479.658	93.19
479.876	81.19
480.095	81.19
480.313	100.19
480.532	91.19
480.751	99.19
480.969	112.19
481.188	172.19
481.406	126.19
481.624	92.19
481.843	84.19
482.061	91.19
482.28	76.19
482.498	91.19
482.717	86.19
482.935	89.19
483.153	89.19
483.372	73.19
483.59	83.19
483.808	88.19
484.027	101.19
484.245	96.19
484.463	106.19
484.681	92.19
484.9	96.19
485.118	99.19
485.336	110.19
485.554	85.19
485.772	103.19
485.99	101.19
486.209	102.19
486.427	104.19
486.645	119.19
486.863	124.19
487.081	97.19
487.299	107.19
487.517	97.19
487.735	93.19
487.953	85.19
488.171	93.19
488.389	96.19
488.607	90.19
488.825	80.19
489.043	81.19
489.261	86.19
489.479	82.19
489.696	89.19
489.914	91.19
490.132	80.19
490.35	80.19
490.568	99.19
490.786	102.19
491.003	95.19
491.221	77.19
491.439	90.19
491.657	90.19
491.874	81.19
492.092	86.19
492.31	83.19
492.527	102.19
492.745	73.19
492.963	91.19
493.18	91.19
493.398	90.19
493.615	94.19
493.833	98.19
494.05	92.19
494.268	83.19
494.485	91.19
494.703	92.19
494.92	70.19
495.138	89.19
495.355	88.19
495.573	87.19
495.79	97.19
496.008	86.19
496.225	79.19
496.442	99.19
496.66	106.19
496.877	91.19
497.094	95.19
497.312	84.19
497.529	88.19
497.746	94.19
497.963	93.19
498.181	88.19
498.398	86.19
498.615	112.19
498.832	84.19
499.049	86.19
499.267	100.19
499.484	85.19
499.701	92.19
499.918	89.19
500.135	89.19
500.352	92.19
500.569	76.19
500.786	100.19
501.003	78.19
501.22	86.19
501.437	99.19
501.654	93.19
501.871	120.19
502.088	82.19
502.305	88.19
502.522	99.19
502.739	86.19
502.956	98.19
503.172	100.19
503.389	86.19
503.606	78.19
503.823	85.19
504.04	99.19
504.256	92.19
504.473	87.19
504.69	89.19
504.907	101.19
505.123	82.19
505.34	86.19
505.557	94.19
505.773	103.19
505.99	95.19
506.207	93.19
506.423	88.19
506.64	88.19
506.856	82.19
507.073	97.19
507.289	85.19
507.506	81.19
507.722	102.19
507.939	106.19
508.155	89.19
508.372	89.19
508.588	94.19
508.805	105.19
509.021	97.19
509.238	100.19
509.454	82.19
509.67	104.19
509.887	109.19
510.103	114.19
510.319	190.19
510.536	656.19
510.752	1989.19
510.968	550.19
511.184	138.19
511.401	108.19
511.617	104.19
511.833	97.19
512.049	90.19
512.265	80.19
512.481	73.19
512.698	100.19
512.914	93.19
513.13	90.19
513.346	88.19
513.562	92.19
513.778	85.19
513.994	90.19
514.21	94.19
514.426	107.19
514.642	132.19
514.858	128.19
515.074	147.19
515.29	373.19
515.506	1166.19
515.721	419.19
515.937	124.19
