Data from Uncirc_1982_H10_HRD10591_00008.txt Node
Date: Wed Jan 03 12:29:26 EST 2024
User: Yrep
Spectrometer: HR+D1059
Trigger mode: 1
Integration Time (sec): 1.000000E-1
Scans to average: 1
Electric dark correction enabled: true
Nonlinearity correction enabled: false
Boxcar width: 0
XAxis mode: Wavelengths
Number of Pixels in Spectrum: 2048
>>>>>Begin Spectral Data<<<<<
223.165	-17.25
223.4	-17.25
223.635	-17.25
223.869	-9.25
224.104	-25.25
224.338	-9.25
224.573	-11.25
224.808	-9.25
225.042	-8.25
225.277	-1.25
225.511	-5.25
225.746	-8.25
225.98	-1.25
226.215	2.75
226.449	20.75
226.683	29.75
226.918	21.75
227.152	30.75
227.387	37.75
227.621	39.75
227.856	43.75
228.09	44.75
228.324	37.75
228.559	56.75
228.793	71.75
229.027	63.75
229.262	70.75
229.496	74.75
229.73	71.75
229.964	70.75
230.199	71.75
230.433	83.75
230.667	84.75
230.901	89.75
231.136	77.75
231.37	69.75
231.604	72.75
231.838	85.75
232.072	76.75
232.306	72.75
232.541	78.75
232.775	89.75
233.009	90.75
233.243	90.75
233.477	83.75
233.711	82.75
233.945	85.75
234.179	90.75
234.413	91.75
234.647	94.75
234.881	96.75
235.115	84.75
235.349	84.75
235.583	63.75
235.817	86.75
236.051	70.75
236.285	74.75
236.519	92.75
236.753	92.75
236.987	71.75
237.221	82.75
237.455	77.75
237.689	82.75
237.922	87.75
238.156	75.75
238.39	73.75
238.624	81.75
238.858	65.75
239.091	80.75
239.325	79.75
239.559	77.75
239.793	89.75
240.027	93.75
240.26	74.75
240.494	84.75
240.728	81.75
240.961	71.75
241.195	70.75
241.429	96.75
241.662	82.75
241.896	75.75
242.13	72.75
242.363	61.75
242.597	85.75
242.83	75.75
243.064	74.75
243.298	78.75
243.531	69.75
243.765	69.75
243.998	73.75
244.232	76.75
244.465	76.75
244.699	69.75
244.932	65.75
245.166	74.75
245.399	66.75
245.633	66.75
245.866	91.75
246.099	86.75
246.333	84.75
246.566	65.75
246.8	71.75
247.033	90.75
247.266	96.75
247.5	78.75
247.733	90.75
247.966	84.75
248.2	70.75
248.433	72.75
248.666	79.75
248.899	87.75
249.133	86.75
249.366	78.75
249.599	84.75
249.832	84.75
250.066	72.75
250.299	68.75
250.532	90.75
250.765	94.75
250.998	80.75
251.231	85.75
251.465	83.75
251.698	80.75
251.931	92.75
252.164	84.75
252.397	68.75
252.63	78.75
252.863	73.75
253.096	73.75
253.329	86.75
253.562	86.75
253.795	78.75
254.028	87.75
254.261	87.75
254.494	79.75
254.727	76.75
254.96	83.75
255.193	75.75
255.426	84.75
255.659	73.75
255.892	69.75
256.124	83.75
256.357	66.75
256.59	50.75
256.823	92.75
257.056	71.75
257.289	76.75
257.521	93.75
257.754	88.75
257.987	85.75
258.22	87.75
258.452	81.75
258.685	73.75
258.918	75.75
259.151	64.75
259.383	83.75
259.616	91.75
259.849	83.75
260.081	77.75
260.314	82.75
260.547	79.75
260.779	92.75
261.012	70.75
261.244	85.75
261.477	90.75
261.71	81.75
261.942	98.75
262.175	104.75
262.407	86.75
262.64	74.75
262.872	82.75
263.105	91.75
263.337	84.75
263.57	85.75
263.802	72.75
264.035	79.75
264.267	94.75
264.499	82.75
264.732	96.75
264.964	97.75
265.197	84.75
265.429	88.75
265.661	75.75
265.894	85.75
266.126	99.75
266.358	85.75
266.591	78.75
266.823	75.75
267.055	71.75
267.287	77.75
267.52	78.75
267.752	86.75
267.984	80.75
268.216	86.75
268.448	86.75
268.681	82.75
268.913	98.75
269.145	97.75
269.377	83.75
269.609	79.75
269.841	73.75
270.073	76.75
270.306	105.75
270.538	97.75
270.77	100.75
271.002	78.75
271.234	86.75
271.466	71.75
271.698	76.75
271.93	82.75
272.162	94.75
272.394	83.75
272.626	82.75
272.858	76.75
273.09	86.75
273.322	93.75
273.553	86.75
273.785	92.75
274.017	96.75
274.249	99.75
274.481	102.75
274.713	82.75
274.945	87.75
275.176	92.75
275.408	96.75
275.64	88.75
275.872	87.75
276.104	80.75
276.335	82.75
276.567	93.75
276.799	85.75
277.031	94.75
277.262	87.75
277.494	93.75
277.726	91.75
277.957	90.75
278.189	86.75
278.421	92.75
278.652	84.75
278.884	87.75
279.115	82.75
279.347	93.75
279.579	88.75
279.81	77.75
280.042	94.75
280.273	89.75
280.505	98.75
280.736	92.75
280.968	84.75
281.199	84.75
281.431	80.75
281.662	79.75
281.894	88.75
282.125	89.75
282.356	120.75
282.588	114.75
282.819	114.75
283.051	88.75
283.282	68.75
283.513	90.75
283.745	82.75
283.976	84.75
284.207	105.75
284.439	108.75
284.67	87.75
284.901	83.75
285.132	99.75
285.364	91.75
285.595	96.75
285.826	96.75
286.057	88.75
286.288	93.75
286.52	87.75
286.751	90.75
286.982	84.75
287.213	91.75
287.444	87.75
287.675	87.75
287.906	88.75
288.138	91.75
288.369	101.75
288.6	85.75
288.831	78.75
289.062	74.75
289.293	73.75
289.524	94.75
289.755	98.75
289.986	86.75
290.217	104.75
290.448	76.75
290.679	91.75
290.91	84.75
291.141	94.75
291.371	96.75
291.602	96.75
291.833	81.75
292.064	85.75
292.295	87.75
292.526	89.75
292.757	84.75
292.987	85.75
293.218	95.75
293.449	98.75
293.68	95.75
293.91	85.75
294.141	89.75
294.372	102.75
294.603	96.75
294.833	91.75
295.064	102.75
295.295	78.75
295.525	100.75
295.756	95.75
295.987	86.75
296.217	108.75
296.448	112.75
296.679	96.75
296.909	84.75
297.14	72.75
297.37	93.75
297.601	86.75
297.831	70.75
298.062	86.75
298.292	102.75
298.523	96.75
298.753	101.75
298.984	98.75
299.214	85.75
299.445	92.75
299.675	98.75
299.905	97.75
300.136	91.75
300.366	102.75
300.597	95.75
300.827	102.75
301.057	96.75
301.288	112.75
301.518	92.75
301.748	91.75
301.979	91.75
302.209	79.75
302.439	90.75
302.669	98.75
302.9	98.75
303.13	84.75
303.36	87.75
303.59	95.75
303.82	100.75
304.051	98.75
304.281	88.75
304.511	85.75
304.741	83.75
304.971	87.75
305.201	90.75
305.431	83.75
305.661	74.75
305.891	95.75
306.121	90.75
306.352	107.75
306.582	99.75
306.812	71.75
307.042	91.75
307.272	91.75
307.502	90.75
307.731	102.75
307.961	99.75
308.191	95.75
308.421	89.75
308.651	86.75
308.881	102.75
309.111	107.75
309.341	88.75
309.571	105.75
309.8	82.75
310.03	95.75
310.26	71.75
310.49	103.75
310.72	95.75
310.949	84.75
311.179	101.75
311.409	99.75
311.639	90.75
311.868	95.75
312.098	92.75
312.328	102.75
312.557	95.75
312.787	91.75
313.017	100.75
313.246	96.75
313.476	93.75
313.706	93.75
313.935	92.75
314.165	98.75
314.394	91.75
314.624	100.75
314.853	88.75
315.083	107.75
315.312	115.75
315.542	83.75
315.771	94.75
316.001	88.75
316.23	102.75
316.46	82.75
316.689	73.75
316.919	83.75
317.148	92.75
317.377	91.75
317.607	93.75
317.836	99.75
318.065	89.75
318.295	98.75
318.524	92.75
318.753	95.75
318.983	103.75
319.212	104.75
319.441	98.75
319.67	103.75
319.9	100.75
320.129	95.75
320.358	76.75
320.587	87.75
320.816	87.75
321.046	99.75
321.275	104.75
321.504	93.75
321.733	97.75
321.962	101.75
322.191	100.75
322.42	103.75
322.649	110.75
322.878	87.75
323.108	117.75
323.337	120.75
323.566	127.75
323.795	132.75
324.024	167.75
324.253	314.75
324.482	642.75
324.71	1314.75
324.939	1696.75
325.168	657.75
325.397	202.75
325.626	139.75
325.855	111.75
326.084	131.75
326.313	121.75
326.542	132.75
326.77	211.75
326.999	372.75
327.228	750.75
327.457	1364.75
327.686	1086.75
327.914	306.75
328.143	155.75
328.372	127.75
328.6	123.75
328.829	105.75
329.058	97.75
329.287	106.75
329.515	105.75
329.744	98.75
329.972	96.75
330.201	110.75
330.43	113.75
330.658	120.75
330.887	126.75
331.115	116.75
331.344	109.75
331.572	84.75
331.801	93.75
332.03	90.75
332.258	88.75
332.486	91.75
332.715	92.75
332.943	84.75
333.172	100.75
333.4	98.75
333.629	98.75
333.857	109.75
334.085	102.75
334.314	101.75
334.542	101.75
334.771	119.75
334.999	96.75
335.227	95.75
335.455	111.75
335.684	94.75
335.912	102.75
336.14	95.75
336.369	103.75
336.597	94.75
336.825	107.75
337.053	104.75
337.281	93.75
337.51	98.75
337.738	110.75
337.966	104.75
338.194	83.75
338.422	92.75
338.65	98.75
338.878	90.75
339.106	84.75
339.334	100.75
339.562	91.75
339.79	100.75
340.018	94.75
340.246	84.75
340.474	87.75
340.702	99.75
340.93	92.75
341.158	95.75
341.386	93.75
341.614	94.75
341.842	90.75
342.07	96.75
342.298	96.75
342.526	102.75
342.754	77.75
342.981	93.75
343.209	89.75
343.437	94.75
343.665	95.75
343.893	79.75
344.12	95.75
344.348	100.75
344.576	94.75
344.804	84.75
345.031	102.75
345.259	90.75
345.487	98.75
345.714	102.75
345.942	88.75
346.17	104.75
346.397	99.75
346.625	85.75
346.853	92.75
347.08	91.75
347.308	96.75
347.535	106.75
347.763	102.75
347.99	96.75
348.218	93.75
348.445	87.75
348.673	89.75
348.9	103.75
349.128	98.75
349.355	108.75
349.583	100.75
349.81	80.75
350.037	102.75
350.265	98.75
350.492	97.75
350.72	84.75
350.947	103.75
351.174	102.75
351.402	100.75
351.629	112.75
351.856	106.75
352.083	108.75
352.311	101.75
352.538	110.75
352.765	110.75
352.992	108.75
353.22	121.75
353.447	103.75
353.674	100.75
353.901	106.75
354.128	85.75
354.355	110.75
354.583	88.75
354.81	103.75
355.037	103.75
355.264	95.75
355.491	101.75
355.718	108.75
355.945	92.75
356.172	87.75
356.399	104.75
356.626	105.75
356.853	95.75
357.08	98.75
357.307	98.75
357.534	84.75
357.761	100.75
357.988	89.75
358.215	95.75
358.441	102.75
358.668	106.75
358.895	101.75
359.122	110.75
359.349	92.75
359.576	89.75
359.802	96.75
360.029	86.75
360.256	85.75
360.483	94.75
360.709	92.75
360.936	91.75
361.163	93.75
361.39	104.75
361.616	95.75
361.843	99.75
362.07	91.75
362.296	92.75
362.523	87.75
362.749	98.75
362.976	96.75
363.203	100.75
363.429	94.75
363.656	85.75
363.882	92.75
364.109	100.75
364.335	92.75
364.562	80.75
364.788	74.75
365.015	98.75
365.241	88.75
365.468	109.75
365.694	89.75
365.92	89.75
366.147	98.75
366.373	86.75
366.599	86.75
366.826	89.75
367.052	106.75
367.278	93.75
367.505	98.75
367.731	91.75
367.957	85.75
368.184	96.75
368.41	87.75
368.636	95.75
368.862	116.75
369.089	100.75
369.315	100.75
369.541	103.75
369.767	95.75
369.993	85.75
370.219	100.75
370.445	100.75
370.672	100.75
370.898	102.75
371.124	100.75
371.35	85.75
371.576	101.75
371.802	79.75
372.028	101.75
372.254	90.75
372.48	92.75
372.706	79.75
372.932	90.75
373.158	98.75
373.384	83.75
373.61	104.75
373.835	101.75
374.061	99.75
374.287	101.75
374.513	101.75
374.739	97.75
374.965	89.75
375.191	93.75
375.416	90.75
375.642	80.75
375.868	98.75
376.094	91.75
376.319	94.75
376.545	86.75
376.771	89.75
376.997	101.75
377.222	100.75
377.448	96.75
377.674	91.75
377.899	100.75
378.125	99.75
378.35	96.75
378.576	95.75
378.802	86.75
379.027	98.75
379.253	109.75
379.478	102.75
379.704	102.75
379.929	99.75
380.155	101.75
380.38	98.75
380.606	95.75
380.831	119.75
381.057	106.75
381.282	113.75
381.507	102.75
381.733	110.75
381.958	113.75
382.184	106.75
382.409	106.75
382.634	114.75
382.86	102.75
383.085	124.75
383.31	118.75
383.535	110.75
383.761	128.75
383.986	108.75
384.211	100.75
384.436	119.75
384.662	127.75
384.887	127.75
385.112	139.75
385.337	124.75
385.562	118.75
385.787	120.75
386.013	120.75
386.238	128.75
386.463	127.75
386.688	122.75
386.913	140.75
387.138	134.75
387.363	126.75
387.588	128.75
387.813	112.75
388.038	120.75
388.263	138.75
388.488	135.75
388.713	119.75
388.938	102.75
389.163	88.75
389.387	95.75
389.612	96.75
389.837	96.75
390.062	83.75
390.287	97.75
390.512	88.75
390.736	88.75
390.961	106.75
391.186	80.75
391.411	103.75
391.636	95.75
391.86	79.75
392.085	80.75
392.31	99.75
392.534	92.75
392.759	88.75
392.984	91.75
393.208	88.75
393.433	100.75
393.658	97.75
393.882	106.75
394.107	98.75
394.331	86.75
394.556	74.75
394.78	95.75
395.005	81.75
395.229	79.75
395.454	84.75
395.678	90.75
395.903	77.75
396.127	76.75
396.352	79.75
396.576	80.75
396.801	89.75
397.025	88.75
397.249	92.75
397.474	86.75
397.698	82.75
397.922	93.75
398.147	76.75
398.371	74.75
398.595	87.75
398.82	96.75
399.044	95.75
399.268	108.75
399.492	76.75
399.717	94.75
399.941	98.75
400.165	94.75
400.389	75.75
400.613	90.75
400.837	87.75
401.062	91.75
401.286	95.75
401.51	85.75
401.734	94.75
401.958	100.75
402.182	126.75
402.406	115.75
402.63	96.75
402.854	93.75
403.078	84.75
403.302	94.75
403.526	90.75
403.75	83.75
403.974	76.75
404.198	92.75
404.422	92.75
404.645	87.75
404.869	95.75
405.093	86.75
405.317	102.75
405.541	105.75
405.765	101.75
405.988	98.75
406.212	133.75
406.436	146.75
406.66	118.75
406.883	92.75
407.107	101.75
407.331	106.75
407.555	100.75
407.778	103.75
408.002	82.75
408.226	95.75
408.449	90.75
408.673	76.75
408.896	96.75
409.12	75.75
409.344	101.75
409.567	90.75
409.791	95.75
410.014	95.75
410.238	89.75
410.461	97.75
410.685	104.75
410.908	102.75
411.132	103.75
411.355	86.75
411.578	101.75
411.802	88.75
412.025	88.75
412.249	100.75
412.472	88.75
412.695	92.75
412.919	80.75
413.142	99.75
413.365	88.75
413.589	108.75
413.812	88.75
414.035	92.75
414.258	97.75
414.482	98.75
414.705	94.75
414.928	102.75
415.151	108.75
415.374	100.75
415.597	71.75
415.821	94.75
416.044	88.75
416.267	89.75
416.49	87.75
416.713	112.75
416.936	84.75
417.159	95.75
417.382	101.75
417.605	92.75
417.828	82.75
418.051	95.75
418.274	86.75
418.497	90.75
418.72	92.75
418.943	94.75
419.166	89.75
419.389	79.75
419.611	86.75
419.834	93.75
420.057	77.75
420.28	87.75
420.503	90.75
420.726	84.75
420.948	86.75
421.171	91.75
421.394	92.75
421.617	85.75
421.839	91.75
422.062	92.75
422.285	92.75
422.507	106.75
422.73	98.75
422.953	85.75
423.175	93.75
423.398	86.75
423.621	89.75
423.843	95.75
424.066	84.75
424.288	92.75
424.511	100.75
424.733	98.75
424.956	86.75
425.178	93.75
425.401	80.75
425.623	91.75
425.846	82.75
426.068	88.75
426.291	82.75
426.513	92.75
426.735	76.75
426.958	103.75
427.18	95.75
427.402	131.75
427.625	129.75
427.847	109.75
428.069	113.75
428.292	84.75
428.514	88.75
428.736	99.75
428.958	70.75
429.181	100.75
429.403	80.75
429.625	80.75
429.847	90.75
430.069	82.75
430.292	99.75
430.514	90.75
430.736	81.75
430.958	82.75
431.18	72.75
431.402	85.75
431.624	91.75
431.846	99.75
432.068	75.75
432.29	75.75
432.512	93.75
432.734	94.75
432.956	87.75
433.178	104.75
433.4	94.75
433.622	95.75
433.844	89.75
434.066	91.75
434.287	103.75
434.509	91.75
434.731	87.75
434.953	84.75
435.175	87.75
435.397	83.75
435.618	93.75
435.84	107.75
436.062	119.75
436.284	105.75
436.505	95.75
436.727	88.75
436.949	94.75
437.17	84.75
437.392	83.75
437.614	91.75
437.835	103.75
438.057	94.75
438.278	106.75
438.5	102.75
438.721	102.75
438.943	84.75
439.165	81.75
439.386	90.75
439.608	107.75
439.829	98.75
440.05	107.75
440.272	119.75
440.493	98.75
440.715	84.75
440.936	96.75
441.158	85.75
441.379	84.75
441.6	86.75
441.822	92.75
442.043	100.75
442.264	93.75
442.486	89.75
442.707	99.75
442.928	85.75
443.149	112.75
443.371	117.75
443.592	100.75
443.813	101.75
444.034	96.75
444.255	92.75
444.476	91.75
444.698	84.75
444.919	83.75
445.14	120.75
445.361	120.75
445.582	98.75
445.803	133.75
446.024	125.75
446.245	109.75
446.466	102.75
446.687	95.75
446.908	94.75
447.129	95.75
447.35	93.75
447.571	115.75
447.792	72.75
448.013	92.75
448.234	100.75
448.455	102.75
448.675	104.75
448.896	110.75
449.117	101.75
449.338	97.75
449.559	98.75
449.779	106.75
450	92.75
450.221	82.75
450.442	82.75
450.662	92.75
450.883	96.75
451.104	99.75
451.324	84.75
451.545	85.75
451.766	66.75
451.986	79.75
452.207	83.75
452.428	82.75
452.648	86.75
452.869	88.75
453.089	111.75
453.31	106.75
453.53	92.75
453.751	93.75
453.971	86.75
454.192	106.75
454.412	86.75
454.633	98.75
454.853	85.75
455.073	91.75
455.294	100.75
455.514	97.75
455.734	82.75
455.955	85.75
456.175	88.75
456.395	103.75
456.616	79.75
456.836	93.75
457.056	82.75
457.276	85.75
457.497	77.75
457.717	87.75
457.937	95.75
458.157	91.75
458.377	79.75
458.598	102.75
458.818	103.75
459.038	112.75
459.258	99.75
459.478	88.75
459.698	82.75
459.918	80.75
460.138	101.75
460.358	82.75
460.578	86.75
460.798	85.75
461.018	77.75
461.238	83.75
461.458	84.75
461.678	74.75
461.898	77.75
462.118	85.75
462.338	94.75
462.558	80.75
462.777	80.75
462.997	71.75
463.217	95.75
463.437	87.75
463.657	84.75
463.876	91.75
464.096	84.75
464.316	67.75
464.536	93.75
464.755	84.75
464.975	84.75
465.195	130.75
465.414	122.75
465.634	88.75
465.854	93.75
466.073	94.75
466.293	94.75
466.512	85.75
466.732	82.75
466.951	83.75
467.171	95.75
467.391	103.75
467.61	78.75
467.829	79.75
468.049	94.75
468.268	99.75
468.488	85.75
468.707	88.75
468.927	89.75
469.146	74.75
469.365	96.75
469.585	96.75
469.804	84.75
470.023	91.75
470.243	87.75
470.462	90.75
470.681	95.75
470.901	90.75
471.12	94.75
471.339	90.75
471.558	84.75
471.777	80.75
471.997	85.75
472.216	104.75
472.435	127.75
472.654	99.75
472.873	87.75
473.092	93.75
473.311	92.75
473.53	82.75
473.749	75.75
473.968	87.75
474.187	91.75
474.406	104.75
474.625	94.75
474.844	85.75
475.063	88.75
475.282	80.75
475.501	86.75
475.72	95.75
475.939	85.75
476.158	99.75
476.377	92.75
476.596	97.75
476.814	91.75
477.033	86.75
477.252	88.75
477.471	93.75
477.69	83.75
477.908	93.75
478.127	90.75
478.346	77.75
478.564	83.75
478.783	99.75
479.002	98.75
479.22	101.75
479.439	99.75
479.658	106.75
479.876	107.75
480.095	91.75
480.313	91.75
480.532	88.75
480.751	98.75
480.969	106.75
481.188	174.75
481.406	136.75
481.624	113.75
481.843	88.75
482.061	75.75
482.28	78.75
482.498	79.75
482.717	86.75
482.935	95.75
483.153	99.75
483.372	103.75
483.59	94.75
483.808	90.75
484.027	94.75
484.245	89.75
484.463	96.75
484.681	105.75
484.9	92.75
485.118	96.75
485.336	102.75
485.554	90.75
485.772	100.75
485.99	116.75
486.209	102.75
486.427	109.75
486.645	103.75
486.863	114.75
487.081	108.75
487.299	103.75
487.517	94.75
487.735	94.75
487.953	103.75
488.171	108.75
488.389	91.75
488.607	102.75
488.825	95.75
489.043	89.75
489.261	97.75
489.479	88.75
489.696	100.75
489.914	85.75
490.132	95.75
490.35	85.75
490.568	97.75
490.786	90.75
491.003	91.75
491.221	75.75
491.439	89.75
491.657	90.75
491.874	89.75
492.092	76.75
492.31	90.75
492.527	93.75
492.745	96.75
492.963	91.75
493.18	90.75
493.398	90.75
493.615	100.75
493.833	98.75
494.05	93.75
494.268	80.75
494.485	96.75
494.703	102.75
494.92	86.75
495.138	100.75
495.355	96.75
495.573	96.75
495.79	87.75
496.008	103.75
496.225	95.75
496.442	84.75
496.66	98.75
496.877	90.75
497.094	101.75
497.312	90.75
497.529	95.75
497.746	97.75
497.963	108.75
498.181	96.75
498.398	96.75
498.615	104.75
498.832	102.75
499.049	99.75
499.267	90.75
499.484	76.75
499.701	86.75
499.918	99.75
500.135	95.75
500.352	84.75
500.569	88.75
500.786	103.75
501.003	106.75
501.22	95.75
501.437	89.75
501.654	84.75
501.871	107.75
502.088	83.75
502.305	88.75
502.522	94.75
502.739	84.75
502.956	103.75
503.172	102.75
503.389	106.75
503.606	96.75
503.823	87.75
504.04	101.75
504.256	111.75
504.473	91.75
504.69	79.75
504.907	92.75
505.123	94.75
505.34	87.75
505.557	91.75
505.773	88.75
505.99	98.75
506.207	117.75
506.423	93.75
506.64	95.75
506.856	92.75
507.073	88.75
507.289	77.75
507.506	93.75
507.722	95.75
507.939	87.75
508.155	98.75
508.372	94.75
508.588	88.75
508.805	100.75
509.021	111.75
509.238	97.75
509.454	94.75
509.67	96.75
509.887	94.75
510.103	115.75
510.319	186.75
510.536	528.75
510.752	1462.75
510.968	421.75
511.184	123.75
511.401	90.75
511.617	98.75
511.833	97.75
512.049	91.75
512.265	93.75
512.481	98.75
512.698	93.75
512.914	94.75
513.13	93.75
513.346	93.75
513.562	103.75
513.778	84.75
513.994	98.75
514.21	97.75
514.426	102.75
514.642	115.75
514.858	126.75
515.074	115.75
515.29	287.75
