Data from Uncirc_1982_H10_HRD10591_00075.txt Node
Date: Wed Jan 03 12:29:40 EST 2024
User: Yrep
Spectrometer: HR+D1059
Trigger mode: 1
Integration Time (sec): 1.000000E-1
Scans to average: 1
Electric dark correction enabled: true
Nonlinearity correction enabled: false
Boxcar width: 0
XAxis mode: Wavelengths
Number of Pixels in Spectrum: 2048
>>>>>Begin Spectral Data<<<<<
223.165	-31.88
223.4	-31.88
223.635	-31.88
223.869	-13.88
224.104	-21.88
224.338	-19.88
224.573	-28.88
224.808	-14.88
225.042	-15.88
225.277	-6.88
225.511	7.12
225.746	16.12
225.98	13.12
226.215	8.12
226.449	14.12
226.683	34.12
226.918	36.12
227.152	25.12
227.387	30.12
227.621	35.12
227.856	46.12
228.09	43.12
228.324	39.12
228.559	51.12
228.793	59.12
229.027	49.12
229.262	70.12
229.496	68.12
229.73	68.12
229.964	73.12
230.199	66.12
230.433	75.12
230.667	75.12
230.901	79.12
231.136	75.12
231.37	70.12
231.604	55.12
231.838	78.12
232.072	82.12
232.306	76.12
232.541	85.12
232.775	82.12
233.009	69.12
233.243	82.12
233.477	78.12
233.711	78.12
233.945	80.12
234.179	81.12
234.413	73.12
234.647	67.12
234.881	85.12
235.115	78.12
235.349	76.12
235.583	73.12
235.817	68.12
236.051	86.12
236.285	81.12
236.519	92.12
236.753	76.12
236.987	79.12
237.221	78.12
237.455	81.12
237.689	80.12
237.922	72.12
238.156	74.12
238.39	77.12
238.624	81.12
238.858	73.12
239.091	76.12
239.325	72.12
239.559	72.12
239.793	76.12
240.027	73.12
240.26	80.12
240.494	87.12
240.728	69.12
240.961	58.12
241.195	74.12
241.429	73.12
241.662	78.12
241.896	80.12
242.13	80.12
242.363	57.12
242.597	70.12
242.83	89.12
243.064	76.12
243.298	78.12
243.531	84.12
243.765	80.12
243.998	70.12
244.232	76.12
244.465	89.12
244.699	78.12
244.932	78.12
245.166	84.12
245.399	75.12
245.633	69.12
245.866	82.12
246.099	78.12
246.333	82.12
246.566	63.12
246.8	72.12
247.033	76.12
247.266	76.12
247.5	77.12
247.733	83.12
247.966	81.12
248.2	84.12
248.433	78.12
248.666	72.12
248.899	87.12
249.133	85.12
249.366	93.12
249.599	88.12
249.832	67.12
250.066	94.12
250.299	85.12
250.532	84.12
250.765	79.12
250.998	72.12
251.231	93.12
251.465	72.12
251.698	72.12
251.931	64.12
252.164	74.12
252.397	77.12
252.63	77.12
252.863	62.12
253.096	92.12
253.329	80.12
253.562	83.12
253.795	86.12
254.028	78.12
254.261	74.12
254.494	79.12
254.727	70.12
254.96	64.12
255.193	80.12
255.426	80.12
255.659	61.12
255.892	82.12
256.124	77.12
256.357	78.12
256.59	73.12
256.823	68.12
257.056	72.12
257.289	81.12
257.521	84.12
257.754	71.12
257.987	80.12
258.22	73.12
258.452	80.12
258.685	79.12
258.918	79.12
259.151	77.12
259.383	73.12
259.616	85.12
259.849	68.12
260.081	86.12
260.314	69.12
260.547	73.12
260.779	82.12
261.012	78.12
261.244	80.12
261.477	93.12
261.71	78.12
261.942	100.12
262.175	109.12
262.407	87.12
262.64	89.12
262.872	70.12
263.105	70.12
263.337	91.12
263.57	88.12
263.802	84.12
264.035	80.12
264.267	87.12
264.499	68.12
264.732	80.12
264.964	74.12
265.197	79.12
265.429	76.12
265.661	82.12
265.894	88.12
266.126	63.12
266.358	86.12
266.591	86.12
266.823	82.12
267.055	80.12
267.287	73.12
267.52	84.12
267.752	82.12
267.984	84.12
268.216	76.12
268.448	76.12
268.681	85.12
268.913	86.12
269.145	67.12
269.377	81.12
269.609	78.12
269.841	82.12
270.073	80.12
270.306	78.12
270.538	83.12
270.77	71.12
271.002	86.12
271.234	86.12
271.466	82.12
271.698	71.12
271.93	80.12
272.162	90.12
272.394	82.12
272.626	69.12
272.858	86.12
273.09	69.12
273.322	64.12
273.553	80.12
273.785	84.12
274.017	76.12
274.249	84.12
274.481	77.12
274.713	78.12
274.945	87.12
275.176	82.12
275.408	84.12
275.64	84.12
275.872	81.12
276.104	70.12
276.335	92.12
276.567	80.12
276.799	87.12
277.031	100.12
277.262	70.12
277.494	88.12
277.726	95.12
277.957	85.12
278.189	76.12
278.421	77.12
278.652	83.12
278.884	84.12
279.115	101.12
279.347	97.12
279.579	75.12
279.81	56.12
280.042	76.12
280.273	82.12
280.505	77.12
280.736	76.12
280.968	80.12
281.199	90.12
281.431	72.12
281.662	89.12
281.894	92.12
282.125	96.12
282.356	102.12
282.588	114.12
282.819	98.12
283.051	84.12
283.282	74.12
283.513	82.12
283.745	88.12
283.976	85.12
284.207	69.12
284.439	82.12
284.67	76.12
284.901	97.12
285.132	74.12
285.364	96.12
285.595	92.12
285.826	80.12
286.057	81.12
286.288	86.12
286.52	73.12
286.751	88.12
286.982	79.12
287.213	81.12
287.444	78.12
287.675	81.12
287.906	86.12
288.138	84.12
288.369	77.12
288.6	96.12
288.831	85.12
289.062	74.12
289.293	85.12
289.524	87.12
289.755	82.12
289.986	76.12
290.217	81.12
290.448	92.12
290.679	72.12
290.91	82.12
291.141	86.12
291.371	81.12
291.602	71.12
291.833	72.12
292.064	79.12
292.295	85.12
292.526	82.12
292.757	88.12
292.987	79.12
293.218	70.12
293.449	89.12
293.68	88.12
293.91	76.12
294.141	84.12
294.372	87.12
294.603	96.12
294.833	82.12
295.064	79.12
295.295	95.12
295.525	82.12
295.756	103.12
295.987	97.12
296.217	145.12
296.448	120.12
296.679	101.12
296.909	87.12
297.14	82.12
297.37	88.12
297.601	86.12
297.831	84.12
298.062	95.12
298.292	79.12
298.523	81.12
298.753	82.12
298.984	84.12
299.214	83.12
299.445	73.12
299.675	86.12
299.905	105.12
300.136	88.12
300.366	88.12
300.597	85.12
300.827	83.12
301.057	80.12
301.288	94.12
301.518	91.12
301.748	85.12
301.979	95.12
302.209	84.12
302.439	98.12
302.669	101.12
302.9	80.12
303.13	89.12
303.36	73.12
303.59	97.12
303.82	96.12
304.051	86.12
304.281	93.12
304.511	81.12
304.741	86.12
304.971	81.12
305.201	101.12
305.431	91.12
305.661	90.12
305.891	87.12
306.121	77.12
306.352	103.12
306.582	101.12
306.812	89.12
307.042	89.12
307.272	98.12
307.502	81.12
307.731	89.12
307.961	83.12
308.191	86.12
308.421	91.12
308.651	82.12
308.881	98.12
309.111	85.12
309.341	93.12
309.571	96.12
309.8	89.12
310.03	96.12
310.26	88.12
310.49	79.12
310.72	92.12
310.949	84.12
311.179	94.12
311.409	102.12
311.639	80.12
311.868	94.12
312.098	94.12
312.328	98.12
312.557	99.12
312.787	92.12
313.017	100.12
313.246	87.12
313.476	80.12
313.706	84.12
313.935	73.12
314.165	93.12
314.394	96.12
314.624	89.12
314.853	110.12
315.083	100.12
315.312	81.12
315.542	88.12
315.771	71.12
316.001	98.12
316.23	83.12
316.46	101.12
316.689	95.12
316.919	95.12
317.148	88.12
317.377	94.12
317.607	99.12
317.836	96.12
318.065	85.12
318.295	90.12
318.524	88.12
318.753	82.12
318.983	83.12
319.212	89.12
319.441	97.12
319.67	103.12
319.9	96.12
320.129	103.12
320.358	102.12
320.587	93.12
320.816	85.12
321.046	88.12
321.275	105.12
321.504	90.12
321.733	82.12
321.962	88.12
322.191	96.12
322.42	104.12
322.649	105.12
322.878	102.12
323.108	118.12
323.337	104.12
323.566	106.12
323.795	135.12
324.024	189.12
324.253	354.12
324.482	777.12
324.71	1525.12
324.939	2068.12
325.168	764.12
325.397	233.12
325.626	128.12
325.855	134.12
326.084	105.12
326.313	135.12
326.542	144.12
326.77	208.12
326.999	427.12
327.228	892.12
327.457	1598.12
327.686	1283.12
327.914	350.12
328.143	169.12
328.372	130.12
328.6	123.12
328.829	108.12
329.058	119.12
329.287	114.12
329.515	105.12
329.744	97.12
329.972	94.12
330.201	100.12
330.43	116.12
330.658	124.12
330.887	124.12
331.115	110.12
331.344	92.12
331.572	108.12
331.801	89.12
332.03	108.12
332.258	100.12
332.486	96.12
332.715	86.12
332.943	106.12
333.172	98.12
333.4	91.12
333.629	111.12
333.857	117.12
334.085	105.12
334.314	123.12
334.542	127.12
334.771	123.12
334.999	93.12
335.227	82.12
335.455	83.12
335.684	85.12
335.912	81.12
336.14	98.12
336.369	91.12
336.597	86.12
336.825	85.12
337.053	99.12
337.281	90.12
337.51	86.12
337.738	109.12
337.966	79.12
338.194	89.12
338.422	96.12
338.65	106.12
338.878	81.12
339.106	88.12
339.334	85.12
339.562	81.12
339.79	97.12
340.018	85.12
340.246	69.12
340.474	90.12
340.702	88.12
340.93	81.12
341.158	86.12
341.386	90.12
341.614	82.12
341.842	88.12
342.07	78.12
342.298	81.12
342.526	96.12
342.754	89.12
342.981	97.12
343.209	84.12
343.437	87.12
343.665	78.12
343.893	91.12
344.12	80.12
344.348	97.12
344.576	83.12
344.804	87.12
345.031	88.12
345.259	105.12
345.487	88.12
345.714	76.12
345.942	74.12
346.17	93.12
346.397	78.12
346.625	71.12
346.853	86.12
347.08	80.12
347.308	101.12
347.535	106.12
347.763	82.12
347.99	80.12
348.218	94.12
348.445	106.12
348.673	93.12
348.9	91.12
349.128	93.12
349.355	104.12
349.583	86.12
349.81	84.12
350.037	98.12
350.265	92.12
350.492	95.12
350.72	85.12
350.947	91.12
351.174	101.12
351.402	90.12
351.629	97.12
351.856	73.12
352.083	88.12
352.311	95.12
352.538	101.12
352.765	105.12
352.992	96.12
353.22	111.12
353.447	84.12
353.674	98.12
353.901	102.12
354.128	94.12
354.355	87.12
354.583	71.12
354.81	98.12
355.037	92.12
355.264	96.12
355.491	90.12
355.718	102.12
355.945	87.12
356.172	94.12
356.399	93.12
356.626	106.12
356.853	87.12
357.08	89.12
357.307	80.12
357.534	77.12
357.761	88.12
357.988	105.12
358.215	92.12
358.441	72.12
358.668	99.12
358.895	90.12
359.122	91.12
359.349	86.12
359.576	89.12
359.802	94.12
360.029	100.12
360.256	104.12
360.483	86.12
360.709	90.12
360.936	78.12
361.163	89.12
361.39	90.12
361.616	95.12
361.843	82.12
362.07	76.12
362.296	93.12
362.523	85.12
362.749	81.12
362.976	77.12
363.203	91.12
363.429	92.12
363.656	77.12
363.882	94.12
364.109	92.12
364.335	82.12
364.562	100.12
364.788	87.12
365.015	100.12
365.241	100.12
365.468	95.12
365.694	80.12
365.92	69.12
366.147	71.12
366.373	77.12
366.599	91.12
366.826	79.12
367.052	77.12
367.278	89.12
367.505	93.12
367.731	92.12
367.957	84.12
368.184	84.12
368.41	96.12
368.636	112.12
368.862	111.12
369.089	104.12
369.315	87.12
369.541	75.12
369.767	74.12
369.993	73.12
370.219	85.12
370.445	88.12
370.672	82.12
370.898	88.12
371.124	86.12
371.35	105.12
371.576	99.12
371.802	93.12
372.028	84.12
372.254	84.12
372.48	88.12
372.706	80.12
372.932	87.12
373.158	68.12
373.384	80.12
373.61	86.12
373.835	76.12
374.061	72.12
374.287	69.12
374.513	68.12
374.739	78.12
374.965	86.12
375.191	84.12
375.416	89.12
375.642	86.12
375.868	79.12
376.094	87.12
376.319	80.12
376.545	86.12
376.771	84.12
376.997	87.12
377.222	100.12
377.448	85.12
377.674	86.12
377.899	85.12
378.125	71.12
378.35	86.12
378.576	95.12
378.802	96.12
379.027	95.12
379.253	87.12
379.478	92.12
379.704	80.12
379.929	85.12
380.155	88.12
380.38	72.12
380.606	89.12
380.831	78.12
381.057	87.12
381.282	88.12
381.507	86.12
381.733	92.12
381.958	83.12
382.184	82.12
382.409	85.12
382.634	94.12
382.86	96.12
383.085	103.12
383.31	104.12
383.535	83.12
383.761	82.12
383.986	92.12
384.211	89.12
384.436	96.12
384.662	92.12
384.887	105.12
385.112	101.12
385.337	99.12
385.562	99.12
385.787	106.12
386.013	94.12
386.238	109.12
386.463	93.12
386.688	88.12
386.913	103.12
387.138	97.12
387.363	102.12
387.588	88.12
387.813	101.12
388.038	96.12
388.263	114.12
388.488	114.12
388.713	89.12
388.938	97.12
389.163	90.12
389.387	96.12
389.612	103.12
389.837	101.12
390.062	87.12
390.287	88.12
390.512	79.12
390.736	81.12
390.961	93.12
391.186	93.12
391.411	93.12
391.636	91.12
391.86	97.12
392.085	88.12
392.31	76.12
392.534	68.12
392.759	80.12
392.984	81.12
393.208	89.12
393.433	83.12
393.658	87.12
393.882	81.12
394.107	68.12
394.331	80.12
394.556	90.12
394.78	83.12
395.005	92.12
395.229	78.12
395.454	77.12
395.678	75.12
395.903	90.12
396.127	94.12
396.352	81.12
396.576	77.12
396.801	87.12
397.025	86.12
397.249	67.12
397.474	83.12
397.698	85.12
397.922	79.12
398.147	74.12
398.371	95.12
398.595	92.12
398.82	86.12
399.044	72.12
399.268	72.12
399.492	88.12
399.717	80.12
399.941	93.12
400.165	83.12
400.389	72.12
400.613	73.12
400.837	88.12
401.062	82.12
401.286	88.12
401.51	76.12
401.734	80.12
401.958	99.12
402.182	110.12
402.406	140.12
402.63	112.12
402.854	80.12
403.078	88.12
403.302	78.12
403.526	84.12
403.75	101.12
403.974	79.12
404.198	94.12
404.422	78.12
404.645	89.12
404.869	93.12
405.093	92.12
405.317	93.12
405.541	96.12
405.765	85.12
405.988	117.12
406.212	162.12
406.436	190.12
406.66	116.12
406.883	105.12
407.107	92.12
407.331	65.12
407.555	84.12
407.778	85.12
408.002	80.12
408.226	97.12
408.449	86.12
408.673	86.12
408.896	101.12
409.12	93.12
409.344	80.12
409.567	93.12
409.791	88.12
410.014	94.12
410.238	92.12
410.461	87.12
410.685	83.12
410.908	100.12
411.132	102.12
411.355	80.12
411.578	100.12
411.802	88.12
412.025	82.12
412.249	88.12
412.472	85.12
412.695	85.12
412.919	90.12
413.142	77.12
413.365	71.12
413.589	90.12
413.812	83.12
414.035	83.12
414.258	80.12
414.482	84.12
414.705	77.12
414.928	77.12
415.151	89.12
415.374	92.12
415.597	89.12
415.821	98.12
416.044	85.12
416.267	85.12
416.49	78.12
416.713	69.12
416.936	82.12
417.159	84.12
417.382	72.12
417.605	91.12
417.828	81.12
418.051	81.12
418.274	77.12
418.497	86.12
418.72	69.12
418.943	90.12
419.166	71.12
419.389	85.12
419.611	79.12
419.834	85.12
420.057	86.12
420.28	73.12
420.503	80.12
420.726	77.12
420.948	85.12
421.171	89.12
421.394	80.12
421.617	90.12
421.839	87.12
422.062	77.12
422.285	84.12
422.507	94.12
422.73	102.12
422.953	88.12
423.175	95.12
423.398	76.12
423.621	83.12
423.843	84.12
424.066	92.12
424.288	78.12
424.511	89.12
424.733	90.12
424.956	85.12
425.178	87.12
425.401	92.12
425.623	92.12
425.846	86.12
426.068	102.12
426.291	87.12
426.513	94.12
426.735	83.12
426.958	88.12
427.18	98.12
427.402	117.12
427.625	134.12
427.847	123.12
428.069	113.12
428.292	98.12
428.514	87.12
428.736	86.12
428.958	90.12
429.181	70.12
429.403	67.12
429.625	78.12
429.847	80.12
430.069	95.12
430.292	90.12
430.514	84.12
430.736	83.12
430.958	82.12
431.18	76.12
431.402	83.12
431.624	76.12
431.846	85.12
432.068	87.12
432.29	80.12
432.512	75.12
432.734	73.12
432.956	89.12
433.178	85.12
433.4	95.12
433.622	97.12
433.844	84.12
434.066	95.12
434.287	85.12
434.509	99.12
434.731	64.12
434.953	93.12
435.175	81.12
435.397	67.12
435.618	89.12
435.84	96.12
436.062	110.12
436.284	96.12
436.505	89.12
436.727	94.12
436.949	99.12
437.17	76.12
437.392	85.12
437.614	78.12
437.835	101.12
438.057	107.12
438.278	109.12
438.5	99.12
438.721	104.12
438.943	83.12
439.165	74.12
439.386	68.12
439.608	93.12
439.829	97.12
440.05	106.12
440.272	126.12
440.493	73.12
440.715	68.12
440.936	89.12
441.158	85.12
441.379	80.12
441.6	82.12
441.822	71.12
442.043	92.12
442.264	90.12
442.486	96.12
442.707	74.12
442.928	81.12
443.149	117.12
443.371	110.12
443.592	94.12
443.813	100.12
444.034	96.12
444.255	81.12
444.476	90.12
444.698	87.12
444.919	82.12
445.14	128.12
445.361	120.12
445.582	104.12
445.803	132.12
446.024	115.12
446.245	121.12
446.466	106.12
446.687	94.12
446.908	105.12
447.129	86.12
447.35	76.12
447.571	98.12
447.792	90.12
448.013	97.12
448.234	89.12
448.455	86.12
448.675	103.12
448.896	103.12
449.117	78.12
449.338	100.12
449.559	117.12
449.779	125.12
450	87.12
450.221	80.12
450.442	71.12
450.662	72.12
450.883	100.12
451.104	112.12
451.324	100.12
451.545	79.12
451.766	83.12
451.986	89.12
452.207	87.12
452.428	85.12
452.648	92.12
452.869	91.12
453.089	99.12
453.31	96.12
453.53	95.12
453.751	78.12
453.971	99.12
454.192	108.12
454.412	80.12
454.633	88.12
454.853	83.12
455.073	74.12
455.294	102.12
455.514	92.12
455.734	78.12
455.955	79.12
456.175	66.12
456.395	93.12
456.616	86.12
456.836	82.12
457.056	76.12
457.276	88.12
457.497	78.12
457.717	86.12
457.937	85.12
458.157	69.12
458.377	79.12
458.598	89.12
458.818	128.12
459.038	125.12
459.258	110.12
459.478	99.12
459.698	86.12
459.918	73.12
460.138	80.12
460.358	66.12
460.578	87.12
460.798	93.12
461.018	80.12
461.238	70.12
461.458	84.12
461.678	82.12
461.898	79.12
462.118	88.12
462.338	81.12
462.558	90.12
462.777	88.12
462.997	71.12
463.217	79.12
463.437	93.12
463.657	94.12
463.876	82.12
464.096	63.12
464.316	73.12
464.536	85.12
464.755	98.12
464.975	90.12
465.195	128.12
465.414	140.12
465.634	81.12
465.854	86.12
466.073	84.12
466.293	89.12
466.512	94.12
466.732	92.12
466.951	78.12
467.171	80.12
467.391	93.12
467.61	98.12
467.829	85.12
468.049	89.12
468.268	100.12
468.488	75.12
468.707	91.12
468.927	100.12
469.146	86.12
469.365	97.12
469.585	87.12
469.804	82.12
470.023	94.12
470.243	98.12
470.462	103.12
470.681	85.12
470.901	83.12
471.12	87.12
471.339	87.12
471.558	81.12
471.777	88.12
471.997	84.12
472.216	120.12
472.435	129.12
472.654	91.12
472.873	93.12
473.092	72.12
473.311	85.12
473.53	84.12
473.749	84.12
473.968	93.12
474.187	84.12
474.406	80.12
474.625	78.12
474.844	62.12
475.063	88.12
475.282	90.12
475.501	89.12
475.72	89.12
475.939	78.12
476.158	81.12
476.377	80.12
476.596	100.12
476.814	105.12
477.033	94.12
477.252	84.12
477.471	78.12
477.69	85.12
477.908	84.12
478.127	85.12
478.346	85.12
478.564	78.12
478.783	100.12
479.002	96.12
479.22	88.12
479.439	106.12
479.658	87.12
479.876	85.12
480.095	87.12
480.313	83.12
480.532	92.12
480.751	86.12
480.969	107.12
481.188	189.12
481.406	134.12
481.624	80.12
481.843	78.12
482.061	85.12
482.28	89.12
482.498	93.12
482.717	86.12
482.935	80.12
483.153	92.12
483.372	82.12
483.59	78.12
483.808	81.12
484.027	85.12
484.245	82.12
484.463	81.12
484.681	89.12
484.9	94.12
485.118	94.12
485.336	89.12
485.554	87.12
485.772	103.12
485.99	90.12
486.209	97.12
486.427	100.12
486.645	105.12
486.863	109.12
487.081	111.12
487.299	99.12
487.517	83.12
487.735	78.12
487.953	75.12
488.171	95.12
488.389	92.12
488.607	85.12
488.825	87.12
489.043	78.12
489.261	81.12
489.479	102.12
489.696	87.12
489.914	102.12
490.132	78.12
490.35	91.12
490.568	104.12
490.786	89.12
491.003	88.12
491.221	79.12
491.439	94.12
491.657	86.12
491.874	100.12
492.092	91.12
492.31	92.12
492.527	95.12
492.745	86.12
492.963	85.12
493.18	91.12
493.398	88.12
493.615	96.12
493.833	101.12
494.05	88.12
494.268	81.12
494.485	86.12
494.703	80.12
494.92	92.12
495.138	81.12
495.355	83.12
495.573	89.12
495.79	88.12
496.008	92.12
496.225	82.12
496.442	76.12
496.66	96.12
496.877	70.12
497.094	94.12
497.312	94.12
497.529	74.12
497.746	98.12
497.963	87.12
498.181	88.12
498.398	81.12
498.615	103.12
498.832	85.12
499.049	85.12
499.267	90.12
499.484	88.12
499.701	89.12
499.918	86.12
500.135	80.12
500.352	83.12
500.569	86.12
500.786	78.12
501.003	84.12
501.22	78.12
501.437	74.12
501.654	100.12
501.871	104.12
502.088	86.12
502.305	73.12
502.522	81.12
502.739	64.12
502.956	106.12
503.172	78.12
503.389	87.12
503.606	80.12
503.823	108.12
504.04	102.12
504.256	78.12
504.473	88.12
504.69	85.12
504.907	94.12
505.123	89.12
505.34	104.12
505.557	84.12
505.773	74.12
505.99	86.12
506.207	78.12
506.423	83.12
506.64	82.12
506.856	92.12
507.073	85.12
507.289	93.12
507.506	92.12
507.722	106.12
507.939	106.12
508.155	80.12
508.372	87.12
508.588	90.12
508.805	96.12
509.021	93.12
509.238	105.12
509.454	94.12
509.67	94.12
509.887	106.12
510.103	120.12
510.319	199.12
510.536	678.12
510.752	2122.12
510.968	569.12
511.184	138.12
511.401	123.12
511.617	85.12
511.833	88.12
512.049	71.12
512.265	92.12
512.481	83.12
512.698	103.12
512.914	87.12
513.13	82.12
513.346	96.12
513.562	88.12
513.778	90.12
513.994	93.12
514.21	95.12
514.426	104.12
514.642	109.12
514.858	127.12
515.074	160.12
515.29	392.12
515.506	1255.12
515.721	434.12
515.937	142.12
516.153	97.12
516.369	88.12
516.585	92.12
516.801	81.12
517.016	96.12
