Data from Uncirc_1982_H10_HRD10591_00074.txt Node
Date: Wed Jan 03 12:29:39 EST 2024
User: Yrep
Spectrometer: HR+D1059
Trigger mode: 1
Integration Time (sec): 1.000000E-1
Scans to average: 1
Electric dark correction enabled: true
Nonlinearity correction enabled: false
Boxcar width: 0
XAxis mode: Wavelengths
Number of Pixels in Spectrum: 2048
>>>>>Begin Spectral Data<<<<<
223.165	-10.94
223.4	-10.94
223.635	-10.94
223.869	-27.94
224.104	-11.94
224.338	-9.94
224.573	-22.94
224.808	-17.94
225.042	-4.94
225.277	-6.94
225.511	-1.94
225.746	11.06
225.98	7.06
226.215	19.06
226.449	10.06
226.683	5.06
226.918	25.06
227.152	38.06
227.387	32.06
227.621	30.06
227.856	56.06
228.09	32.06
228.324	61.06
228.559	51.06
228.793	51.06
229.027	61.06
229.262	55.06
229.496	56.06
229.73	80.06
229.964	76.06
230.199	88.06
230.433	73.06
230.667	91.06
230.901	74.06
231.136	78.06
231.37	84.06
231.604	65.06
231.838	68.06
232.072	68.06
232.306	70.06
232.541	78.06
232.775	82.06
233.009	76.06
233.243	86.06
233.477	80.06
233.711	84.06
233.945	75.06
234.179	70.06
234.413	75.06
234.647	81.06
234.881	78.06
235.115	65.06
235.349	72.06
235.583	82.06
235.817	75.06
236.051	84.06
236.285	65.06
236.519	80.06
236.753	74.06
236.987	80.06
237.221	66.06
237.455	76.06
237.689	75.06
237.922	79.06
238.156	64.06
238.39	82.06
238.624	68.06
238.858	61.06
239.091	85.06
239.325	68.06
239.559	67.06
239.793	70.06
240.027	67.06
240.26	78.06
240.494	78.06
240.728	73.06
240.961	78.06
241.195	80.06
241.429	79.06
241.662	69.06
241.896	72.06
242.13	79.06
242.363	70.06
242.597	83.06
242.83	66.06
243.064	88.06
243.298	75.06
243.531	71.06
243.765	65.06
243.998	70.06
244.232	84.06
244.465	87.06
244.699	80.06
244.932	80.06
245.166	80.06
245.399	76.06
245.633	60.06
245.866	75.06
246.099	85.06
246.333	89.06
246.566	72.06
246.8	72.06
247.033	78.06
247.266	92.06
247.5	74.06
247.733	66.06
247.966	70.06
248.2	80.06
248.433	80.06
248.666	66.06
248.899	82.06
249.133	76.06
249.366	80.06
249.599	90.06
249.832	83.06
250.066	80.06
250.299	75.06
250.532	65.06
250.765	75.06
250.998	78.06
251.231	80.06
251.465	79.06
251.698	75.06
251.931	74.06
252.164	80.06
252.397	67.06
252.63	66.06
252.863	79.06
253.096	71.06
253.329	66.06
253.562	72.06
253.795	79.06
254.028	78.06
254.261	88.06
254.494	72.06
254.727	81.06
254.96	82.06
255.193	75.06
255.426	80.06
255.659	76.06
255.892	96.06
256.124	85.06
256.357	80.06
256.59	80.06
256.823	79.06
257.056	86.06
257.289	74.06
257.521	82.06
257.754	82.06
257.987	88.06
258.22	92.06
258.452	90.06
258.685	68.06
258.918	86.06
259.151	62.06
259.383	82.06
259.616	83.06
259.849	88.06
260.081	71.06
260.314	79.06
260.547	78.06
260.779	88.06
261.012	87.06
261.244	83.06
261.477	89.06
261.71	69.06
261.942	94.06
262.175	102.06
262.407	85.06
262.64	74.06
262.872	78.06
263.105	87.06
263.337	81.06
263.57	80.06
263.802	82.06
264.035	81.06
264.267	68.06
264.499	82.06
264.732	70.06
264.964	79.06
265.197	92.06
265.429	81.06
265.661	73.06
265.894	79.06
266.126	83.06
266.358	82.06
266.591	65.06
266.823	79.06
267.055	76.06
267.287	78.06
267.52	73.06
267.752	91.06
267.984	71.06
268.216	74.06
268.448	84.06
268.681	75.06
268.913	79.06
269.145	79.06
269.377	78.06
269.609	79.06
269.841	80.06
270.073	91.06
270.306	80.06
270.538	78.06
270.77	73.06
271.002	74.06
271.234	100.06
271.466	90.06
271.698	78.06
271.93	90.06
272.162	82.06
272.394	88.06
272.626	72.06
272.858	81.06
273.09	80.06
273.322	72.06
273.553	75.06
273.785	84.06
274.017	88.06
274.249	87.06
274.481	67.06
274.713	80.06
274.945	65.06
275.176	80.06
275.408	73.06
275.64	94.06
275.872	86.06
276.104	94.06
276.335	76.06
276.567	85.06
276.799	86.06
277.031	91.06
277.262	87.06
277.494	96.06
277.726	94.06
277.957	79.06
278.189	68.06
278.421	97.06
278.652	80.06
278.884	78.06
279.115	78.06
279.347	87.06
279.579	91.06
279.81	80.06
280.042	70.06
280.273	90.06
280.505	80.06
280.736	85.06
280.968	77.06
281.199	79.06
281.431	99.06
281.662	83.06
281.894	87.06
282.125	83.06
282.356	98.06
282.588	120.06
282.819	119.06
283.051	89.06
283.282	90.06
283.513	92.06
283.745	66.06
283.976	86.06
284.207	81.06
284.439	89.06
284.67	76.06
284.901	78.06
285.132	92.06
285.364	98.06
285.595	84.06
285.826	93.06
286.057	92.06
286.288	82.06
286.52	74.06
286.751	77.06
286.982	82.06
287.213	70.06
287.444	94.06
287.675	80.06
287.906	88.06
288.138	69.06
288.369	75.06
288.6	63.06
288.831	82.06
289.062	72.06
289.293	98.06
289.524	91.06
289.755	92.06
289.986	92.06
290.217	95.06
290.448	92.06
290.679	81.06
290.91	88.06
291.141	80.06
291.371	91.06
291.602	96.06
291.833	101.06
292.064	90.06
292.295	89.06
292.526	90.06
292.757	98.06
292.987	80.06
293.218	84.06
293.449	81.06
293.68	96.06
293.91	95.06
294.141	90.06
294.372	91.06
294.603	83.06
294.833	88.06
295.064	94.06
295.295	87.06
295.525	93.06
295.756	92.06
295.987	108.06
296.217	121.06
296.448	117.06
296.679	99.06
296.909	86.06
297.14	75.06
297.37	86.06
297.601	86.06
297.831	88.06
298.062	78.06
298.292	96.06
298.523	86.06
298.753	88.06
298.984	91.06
299.214	85.06
299.445	69.06
299.675	101.06
299.905	91.06
300.136	90.06
300.366	96.06
300.597	96.06
300.827	96.06
301.057	102.06
301.288	107.06
301.518	98.06
301.748	75.06
301.979	91.06
302.209	94.06
302.439	85.06
302.669	89.06
302.9	86.06
303.13	72.06
303.36	88.06
303.59	86.06
303.82	82.06
304.051	99.06
304.281	88.06
304.511	98.06
304.741	78.06
304.971	80.06
305.201	86.06
305.431	99.06
305.661	100.06
305.891	97.06
306.121	94.06
306.352	90.06
306.582	96.06
306.812	94.06
307.042	84.06
307.272	90.06
307.502	90.06
307.731	92.06
307.961	107.06
308.191	70.06
308.421	82.06
308.651	87.06
308.881	84.06
309.111	92.06
309.341	85.06
309.571	90.06
309.8	79.06
310.03	97.06
310.26	88.06
310.49	90.06
310.72	96.06
310.949	97.06
311.179	96.06
311.409	103.06
311.639	98.06
311.868	91.06
312.098	95.06
312.328	80.06
312.557	99.06
312.787	95.06
313.017	88.06
313.246	94.06
313.476	103.06
313.706	100.06
313.935	78.06
314.165	82.06
314.394	90.06
314.624	94.06
314.853	98.06
315.083	91.06
315.312	90.06
315.542	85.06
315.771	94.06
316.001	88.06
316.23	92.06
316.46	79.06
316.689	87.06
316.919	88.06
317.148	89.06
317.377	88.06
317.607	87.06
317.836	97.06
318.065	99.06
318.295	90.06
318.524	89.06
318.753	96.06
318.983	91.06
319.212	92.06
319.441	97.06
319.67	108.06
319.9	96.06
320.129	92.06
320.358	88.06
320.587	96.06
320.816	89.06
321.046	93.06
321.275	92.06
321.504	84.06
321.733	85.06
321.962	99.06
322.191	85.06
322.42	94.06
322.649	95.06
322.878	97.06
323.108	106.06
323.337	130.06
323.566	125.06
323.795	133.06
324.024	184.06
324.253	318.06
324.482	680.06
324.71	1362.06
324.939	1764.06
325.168	667.06
325.397	203.06
325.626	130.06
325.855	128.06
326.084	103.06
326.313	115.06
326.542	142.06
326.77	204.06
326.999	374.06
327.228	798.06
327.457	1400.06
327.686	1120.06
327.914	313.06
328.143	168.06
328.372	139.06
328.6	120.06
328.829	114.06
329.058	118.06
329.287	114.06
329.515	116.06
329.744	96.06
329.972	107.06
330.201	118.06
330.43	108.06
330.658	112.06
330.887	116.06
331.115	116.06
331.344	102.06
331.572	100.06
331.801	97.06
332.03	91.06
332.258	92.06
332.486	96.06
332.715	95.06
332.943	90.06
333.172	98.06
333.4	103.06
333.629	99.06
333.857	99.06
334.085	95.06
334.314	105.06
334.542	135.06
334.771	111.06
334.999	94.06
335.227	88.06
335.455	97.06
335.684	91.06
335.912	92.06
336.14	103.06
336.369	110.06
336.597	108.06
336.825	99.06
337.053	90.06
337.281	81.06
337.51	91.06
337.738	95.06
337.966	88.06
338.194	109.06
338.422	98.06
338.65	85.06
338.878	88.06
339.106	82.06
339.334	103.06
339.562	92.06
339.79	100.06
340.018	88.06
340.246	98.06
340.474	82.06
340.702	103.06
340.93	107.06
341.158	98.06
341.386	98.06
341.614	100.06
341.842	98.06
342.07	89.06
342.298	92.06
342.526	96.06
342.754	82.06
342.981	78.06
343.209	73.06
343.437	91.06
343.665	85.06
343.893	89.06
344.12	98.06
344.348	91.06
344.576	78.06
344.804	84.06
345.031	90.06
345.259	88.06
345.487	88.06
345.714	91.06
345.942	95.06
346.17	92.06
346.397	77.06
346.625	93.06
346.853	87.06
347.08	87.06
347.308	92.06
347.535	71.06
347.763	99.06
347.99	100.06
348.218	106.06
348.445	89.06
348.673	90.06
348.9	108.06
349.128	87.06
349.355	80.06
349.583	93.06
349.81	95.06
350.037	96.06
350.265	93.06
350.492	100.06
350.72	88.06
350.947	112.06
351.174	96.06
351.402	98.06
351.629	96.06
351.856	98.06
352.083	98.06
352.311	99.06
352.538	110.06
352.765	111.06
352.992	103.06
353.22	99.06
353.447	103.06
353.674	108.06
353.901	97.06
354.128	113.06
354.355	103.06
354.583	95.06
354.81	103.06
355.037	92.06
355.264	78.06
355.491	88.06
355.718	100.06
355.945	102.06
356.172	98.06
356.399	99.06
356.626	100.06
356.853	90.06
357.08	86.06
357.307	85.06
357.534	101.06
357.761	104.06
357.988	100.06
358.215	103.06
358.441	94.06
358.668	91.06
358.895	91.06
359.122	85.06
359.349	71.06
359.576	83.06
359.802	93.06
360.029	95.06
360.256	103.06
360.483	101.06
360.709	79.06
360.936	84.06
361.163	98.06
361.39	78.06
361.616	79.06
361.843	90.06
362.07	93.06
362.296	86.06
362.523	73.06
362.749	86.06
362.976	82.06
363.203	104.06
363.429	94.06
363.656	86.06
363.882	82.06
364.109	91.06
364.335	98.06
364.562	97.06
364.788	79.06
365.015	88.06
365.241	89.06
365.468	101.06
365.694	98.06
365.92	80.06
366.147	87.06
366.373	87.06
366.599	95.06
366.826	89.06
367.052	86.06
367.278	104.06
367.505	87.06
367.731	87.06
367.957	87.06
368.184	86.06
368.41	91.06
368.636	96.06
368.862	116.06
369.089	102.06
369.315	105.06
369.541	99.06
369.767	100.06
369.993	92.06
370.219	85.06
370.445	90.06
370.672	94.06
370.898	102.06
371.124	86.06
371.35	92.06
371.576	94.06
371.802	85.06
372.028	82.06
372.254	90.06
372.48	76.06
372.706	102.06
372.932	88.06
373.158	88.06
373.384	86.06
373.61	96.06
373.835	93.06
374.061	90.06
374.287	86.06
374.513	81.06
374.739	92.06
374.965	97.06
375.191	80.06
375.416	92.06
375.642	83.06
375.868	84.06
376.094	98.06
376.319	95.06
376.545	104.06
376.771	82.06
376.997	98.06
377.222	86.06
377.448	85.06
377.674	93.06
377.899	91.06
378.125	79.06
378.35	88.06
378.576	90.06
378.802	94.06
379.027	78.06
379.253	83.06
379.478	83.06
379.704	83.06
379.929	94.06
380.155	94.06
380.38	100.06
380.606	88.06
380.831	102.06
381.057	82.06
381.282	86.06
381.507	100.06
381.733	84.06
381.958	88.06
382.184	100.06
382.409	97.06
382.634	94.06
382.86	83.06
383.085	80.06
383.31	100.06
383.535	94.06
383.761	94.06
383.986	99.06
384.211	86.06
384.436	89.06
384.662	79.06
384.887	102.06
385.112	108.06
385.337	108.06
385.562	104.06
385.787	107.06
386.013	111.06
386.238	106.06
386.463	120.06
386.688	102.06
386.913	94.06
387.138	83.06
387.363	94.06
387.588	94.06
387.813	98.06
388.038	105.06
388.263	120.06
388.488	98.06
388.713	92.06
388.938	106.06
389.163	92.06
389.387	97.06
389.612	100.06
389.837	96.06
390.062	98.06
390.287	88.06
390.512	96.06
390.736	89.06
390.961	93.06
391.186	87.06
391.411	91.06
391.636	84.06
391.86	87.06
392.085	92.06
392.31	86.06
392.534	98.06
392.759	94.06
392.984	88.06
393.208	79.06
393.433	88.06
393.658	87.06
393.882	92.06
394.107	89.06
394.331	97.06
394.556	87.06
394.78	91.06
395.005	92.06
395.229	89.06
395.454	93.06
395.678	73.06
395.903	97.06
396.127	82.06
396.352	79.06
396.576	84.06
396.801	87.06
397.025	84.06
397.249	96.06
397.474	89.06
397.698	71.06
397.922	94.06
398.147	90.06
398.371	88.06
398.595	86.06
398.82	79.06
399.044	87.06
399.268	83.06
399.492	86.06
399.717	88.06
399.941	99.06
400.165	92.06
400.389	83.06
400.613	90.06
400.837	73.06
401.062	80.06
401.286	76.06
401.51	87.06
401.734	89.06
401.958	88.06
402.182	100.06
402.406	127.06
402.63	102.06
402.854	95.06
403.078	80.06
403.302	101.06
403.526	74.06
403.75	70.06
403.974	80.06
404.198	76.06
404.422	96.06
404.645	87.06
404.869	78.06
405.093	92.06
405.317	96.06
405.541	91.06
405.765	91.06
405.988	79.06
406.212	149.06
406.436	166.06
406.66	118.06
406.883	83.06
407.107	75.06
407.331	88.06
407.555	79.06
407.778	92.06
408.002	97.06
408.226	86.06
408.449	84.06
408.673	86.06
408.896	80.06
409.12	95.06
409.344	80.06
409.567	76.06
409.791	83.06
410.014	78.06
410.238	86.06
410.461	91.06
410.685	93.06
410.908	91.06
411.132	97.06
411.355	101.06
411.578	95.06
411.802	101.06
412.025	90.06
412.249	86.06
412.472	93.06
412.695	91.06
412.919	85.06
413.142	83.06
413.365	87.06
413.589	86.06
413.812	90.06
414.035	82.06
414.258	79.06
414.482	74.06
414.705	94.06
414.928	81.06
415.151	81.06
415.374	95.06
415.597	90.06
415.821	83.06
416.044	86.06
416.267	80.06
416.49	98.06
416.713	87.06
416.936	91.06
417.159	91.06
417.382	100.06
417.605	84.06
417.828	94.06
418.051	85.06
418.274	78.06
418.497	83.06
418.72	75.06
418.943	75.06
419.166	82.06
419.389	101.06
419.611	84.06
419.834	91.06
420.057	92.06
420.28	75.06
420.503	80.06
420.726	71.06
420.948	87.06
421.171	98.06
421.394	104.06
421.617	87.06
421.839	66.06
422.062	78.06
422.285	91.06
422.507	99.06
422.73	108.06
422.953	85.06
423.175	92.06
423.398	92.06
423.621	97.06
423.843	84.06
424.066	73.06
424.288	90.06
424.511	88.06
424.733	83.06
424.956	83.06
425.178	108.06
425.401	87.06
425.623	96.06
425.846	96.06
426.068	103.06
426.291	88.06
426.513	76.06
426.735	72.06
426.958	103.06
427.18	97.06
427.402	116.06
427.625	137.06
427.847	116.06
428.069	112.06
428.292	88.06
428.514	80.06
428.736	75.06
428.958	95.06
429.181	88.06
429.403	92.06
429.625	89.06
429.847	87.06
430.069	85.06
430.292	98.06
430.514	76.06
430.736	77.06
430.958	102.06
431.18	90.06
431.402	80.06
431.624	93.06
431.846	78.06
432.068	80.06
432.29	80.06
432.512	93.06
432.734	78.06
432.956	86.06
433.178	97.06
433.4	92.06
433.622	86.06
433.844	79.06
434.066	82.06
434.287	108.06
434.509	91.06
434.731	78.06
434.953	89.06
435.175	74.06
435.397	77.06
435.618	88.06
435.84	103.06
436.062	108.06
436.284	95.06
436.505	97.06
436.727	98.06
436.949	85.06
437.17	84.06
437.392	88.06
437.614	89.06
437.835	100.06
438.057	94.06
438.278	95.06
438.5	92.06
438.721	104.06
438.943	90.06
439.165	84.06
439.386	92.06
439.608	100.06
439.829	99.06
440.05	106.06
440.272	120.06
440.493	92.06
440.715	84.06
440.936	87.06
441.158	88.06
441.379	94.06
441.6	105.06
441.822	87.06
442.043	94.06
442.264	108.06
442.486	94.06
442.707	82.06
442.928	98.06
443.149	113.06
443.371	108.06
443.592	95.06
443.813	100.06
444.034	94.06
444.255	96.06
444.476	92.06
444.698	75.06
444.919	86.06
445.14	135.06
445.361	109.06
445.582	106.06
445.803	119.06
446.024	125.06
446.245	110.06
446.466	104.06
446.687	103.06
446.908	91.06
447.129	86.06
447.35	86.06
447.571	91.06
447.792	95.06
448.013	89.06
448.234	100.06
448.455	96.06
448.675	99.06
448.896	117.06
449.117	83.06
449.338	91.06
449.559	124.06
449.779	115.06
450	72.06
450.221	81.06
450.442	89.06
450.662	93.06
450.883	100.06
451.104	101.06
451.324	72.06
451.545	80.06
451.766	95.06
451.986	65.06
452.207	102.06
452.428	90.06
452.648	98.06
452.869	80.06
453.089	88.06
453.31	102.06
453.53	75.06
453.751	79.06
453.971	89.06
454.192	91.06
454.412	90.06
454.633	81.06
454.853	68.06
455.073	72.06
455.294	90.06
455.514	85.06
455.734	85.06
455.955	69.06
456.175	76.06
456.395	89.06
456.616	83.06
456.836	88.06
457.056	101.06
457.276	83.06
457.497	95.06
457.717	82.06
457.937	79.06
458.157	85.06
458.377	78.06
458.598	89.06
458.818	134.06
459.038	126.06
459.258	113.06
459.478	82.06
459.698	78.06
459.918	88.06
460.138	81.06
460.358	95.06
460.578	90.06
460.798	84.06
461.018	70.06
461.238	75.06
461.458	87.06
461.678	80.06
461.898	91.06
462.118	78.06
462.338	83.06
462.558	74.06
462.777	74.06
462.997	89.06
463.217	82.06
463.437	71.06
463.657	92.06
463.876	84.06
464.096	81.06
464.316	87.06
464.536	91.06
464.755	84.06
464.975	93.06
465.195	129.06
465.414	133.06
465.634	97.06
465.854	97.06
466.073	84.06
466.293	74.06
466.512	96.06
466.732	90.06
466.951	78.06
467.171	95.06
467.391	80.06
467.61	96.06
467.829	99.06
468.049	97.06
468.268	82.06
468.488	98.06
468.707	96.06
468.927	82.06
469.146	96.06
469.365	90.06
469.585	81.06
469.804	78.06
470.023	84.06
470.243	86.06
470.462	79.06
470.681	92.06
470.901	82.06
471.12	88.06
471.339	89.06
471.558	101.06
471.777	83.06
471.997	103.06
472.216	118.06
472.435	139.06
472.654	75.06
472.873	94.06
473.092	94.06
473.311	94.06
473.53	84.06
473.749	90.06
473.968	96.06
474.187	87.06
474.406	107.06
474.625	90.06
474.844	92.06
475.063	94.06
475.282	85.06
475.501	67.06
475.72	88.06
475.939	82.06
476.158	91.06
476.377	73.06
476.596	90.06
476.814	84.06
477.033	95.06
477.252	66.06
477.471	84.06
477.69	84.06
477.908	82.06
478.127	87.06
478.346	96.06
478.564	95.06
478.783	84.06
479.002	81.06
479.22	78.06
479.439	95.06
479.658	89.06
479.876	96.06
480.095	84.06
480.313	94.06
480.532	97.06
480.751	82.06
480.969	105.06
481.188	178.06
481.406	137.06
481.624	97.06
481.843	96.06
482.061	89.06
482.28	74.06
482.498	99.06
482.717	106.06
482.935	88.06
483.153	78.06
483.372	81.06
483.59	85.06
483.808	84.06
484.027	70.06
484.245	86.06
484.463	88.06
484.681	91.06
484.9	86.06
485.118	107.06
485.336	83.06
485.554	96.06
485.772	93.06
485.99	91.06
486.209	94.06
486.427	99.06
486.645	105.06
486.863	112.06
487.081	106.06
487.299	96.06
487.517	92.06
487.735	88.06
487.953	97.06
488.171	101.06
488.389	92.06
488.607	92.06
488.825	90.06
489.043	88.06
489.261	87.06
489.479	94.06
489.696	82.06
489.914	96.06
490.132	69.06
490.35	90.06
490.568	100.06
490.786	88.06
491.003	98.06
491.221	84.06
491.439	85.06
491.657	102.06
491.874	73.06
492.092	84.06
492.31	96.06
492.527	68.06
492.745	85.06
492.963	92.06
493.18	86.06
493.398	88.06
493.615	97.06
493.833	93.06
494.05	91.06
494.268	93.06
494.485	90.06
494.703	91.06
494.92	91.06
495.138	90.06
495.355	86.06
495.573	87.06
495.79	92.06
496.008	97.06
496.225	80.06
496.442	78.06
496.66	87.06
496.877	82.06
497.094	83.06
497.312	91.06
497.529	83.06
497.746	94.06
497.963	94.06
498.181	79.06
498.398	90.06
498.615	91.06
498.832	92.06
499.049	73.06
499.267	91.06
499.484	99.06
499.701	87.06
499.918	96.06
500.135	99.06
500.352	84.06
500.569	104.06
500.786	90.06
501.003	71.06
501.22	98.06
501.437	97.06
501.654	85.06
501.871	83.06
502.088	78.06
502.305	83.06
502.522	79.06
502.739	85.06
502.956	89.06
503.172	85.06
503.389	71.06
503.606	88.06
503.823	112.06
504.04	99.06
504.256	97.06
504.473	82.06
504.69	91.06
504.907	90.06
505.123	89.06
505.34	85.06
505.557	92.06
505.773	105.06
505.99	80.06
506.207	85.06
506.423	89.06
506.64	79.06
506.856	88.06
507.073	87.06
507.289	90.06
507.506	74.06
507.722	104.06
507.939	102.06
508.155	84.06
508.372	93.06
508.588	84.06
508.805	88.06
509.021	90.06
509.238	87.06
509.454	81.06
509.67	100.06
509.887	107.06
510.103	123.06
510.319	203.06
510.536	643.06
510.752	1847.06
510.968	500.06
511.184	131.06
511.401	111.06
511.617	93.06
511.833	92.06
512.049	92.06
512.265	91.06
512.481	89.06
512.698	95.06
512.914	80.06
513.13	83.06
513.346	96.06
513.562	87.06
513.778	83.06
513.994	80.06
514.21	88.06
514.426	97.06
514.642	116.06
514.858	116.06
515.074	131.06
515.29	342.06
515.506	1058.06
515.721	379.06
515.937	131.06
516.153	95.06
516.369	98.06
516.585	90.06
516.801	107.06
517.016	104.06
