Data from Uncirc_1982_H10_HRD10591_00095.txt Node
Date: Wed Jan 03 12:29:44 EST 2024
User: Yrep
Spectrometer: HR+D1059
Trigger mode: 1
Integration Time (sec): 1.000000E-1
Scans to average: 1
Electric dark correction enabled: true
Nonlinearity correction enabled: false
Boxcar width: 0
XAxis mode: Wavelengths
Number of Pixels in Spectrum: 2048
>>>>>Begin Spectral Data<<<<<
223.165	-8.81
223.4	-8.81
223.635	-8.81
223.869	-20.81
224.104	-21.81
224.338	-3.81
224.573	-14.81
224.808	-24.81
225.042	-9.81
225.277	2.19
225.511	-2.81
225.746	-3.81
225.98	8.19
226.215	8.19
226.449	19.19
226.683	32.19
226.918	17.19
227.152	24.19
227.387	42.19
227.621	47.19
227.856	32.19
228.09	50.19
228.324	48.19
228.559	58.19
228.793	55.19
229.027	46.19
229.262	57.19
229.496	72.19
229.73	66.19
229.964	66.19
230.199	65.19
230.433	79.19
230.667	69.19
230.901	76.19
231.136	78.19
231.37	70.19
231.604	62.19
231.838	61.19
232.072	74.19
232.306	70.19
232.541	96.19
232.775	80.19
233.009	87.19
233.243	79.19
233.477	74.19
233.711	63.19
233.945	70.19
234.179	74.19
234.413	84.19
234.647	78.19
234.881	67.19
235.115	78.19
235.349	77.19
235.583	59.19
235.817	73.19
236.051	60.19
236.285	81.19
236.519	68.19
236.753	77.19
236.987	66.19
237.221	76.19
237.455	78.19
237.689	90.19
237.922	78.19
238.156	68.19
238.39	72.19
238.624	56.19
238.858	73.19
239.091	78.19
239.325	68.19
239.559	79.19
239.793	80.19
240.027	74.19
240.26	72.19
240.494	78.19
240.728	82.19
240.961	73.19
241.195	71.19
241.429	86.19
241.662	92.19
241.896	62.19
242.13	64.19
242.363	68.19
242.597	67.19
242.83	64.19
243.064	71.19
243.298	79.19
243.531	71.19
243.765	76.19
243.998	70.19
244.232	80.19
244.465	73.19
244.699	82.19
244.932	77.19
245.166	61.19
245.399	80.19
245.633	83.19
245.866	66.19
246.099	67.19
246.333	66.19
246.566	85.19
246.8	63.19
247.033	72.19
247.266	73.19
247.5	81.19
247.733	76.19
247.966	78.19
248.2	72.19
248.433	78.19
248.666	71.19
248.899	76.19
249.133	81.19
249.366	96.19
249.599	86.19
249.832	77.19
250.066	72.19
250.299	78.19
250.532	73.19
250.765	69.19
250.998	80.19
251.231	83.19
251.465	88.19
251.698	70.19
251.931	76.19
252.164	74.19
252.397	82.19
252.63	80.19
252.863	83.19
253.096	66.19
253.329	83.19
253.562	80.19
253.795	74.19
254.028	88.19
254.261	82.19
254.494	81.19
254.727	80.19
254.96	86.19
255.193	82.19
255.426	63.19
255.659	81.19
255.892	82.19
256.124	70.19
256.357	53.19
256.59	70.19
256.823	80.19
257.056	76.19
257.289	61.19
257.521	89.19
257.754	88.19
257.987	88.19
258.22	84.19
258.452	79.19
258.685	74.19
258.918	74.19
259.151	77.19
259.383	88.19
259.616	76.19
259.849	83.19
260.081	67.19
260.314	80.19
260.547	89.19
260.779	78.19
261.012	76.19
261.244	88.19
261.477	81.19
261.71	91.19
261.942	89.19
262.175	109.19
262.407	87.19
262.64	82.19
262.872	90.19
263.105	86.19
263.337	89.19
263.57	77.19
263.802	85.19
264.035	81.19
264.267	86.19
264.499	71.19
264.732	79.19
264.964	79.19
265.197	77.19
265.429	80.19
265.661	91.19
265.894	78.19
266.126	64.19
266.358	70.19
266.591	80.19
266.823	72.19
267.055	80.19
267.287	76.19
267.52	82.19
267.752	72.19
267.984	74.19
268.216	69.19
268.448	80.19
268.681	66.19
268.913	75.19
269.145	68.19
269.377	77.19
269.609	78.19
269.841	80.19
270.073	85.19
270.306	74.19
270.538	73.19
270.77	69.19
271.002	77.19
271.234	70.19
271.466	82.19
271.698	84.19
271.93	79.19
272.162	81.19
272.394	100.19
272.626	91.19
272.858	88.19
273.09	85.19
273.322	84.19
273.553	80.19
273.785	68.19
274.017	82.19
274.249	81.19
274.481	80.19
274.713	77.19
274.945	90.19
275.176	86.19
275.408	85.19
275.64	65.19
275.872	76.19
276.104	80.19
276.335	87.19
276.567	89.19
276.799	99.19
277.031	76.19
277.262	86.19
277.494	92.19
277.726	87.19
277.957	96.19
278.189	92.19
278.421	91.19
278.652	60.19
278.884	67.19
279.115	78.19
279.347	84.19
279.579	91.19
279.81	80.19
280.042	81.19
280.273	86.19
280.505	74.19
280.736	88.19
280.968	96.19
281.199	70.19
281.431	92.19
281.662	71.19
281.894	79.19
282.125	105.19
282.356	99.19
282.588	110.19
282.819	93.19
283.051	93.19
283.282	74.19
283.513	80.19
283.745	88.19
283.976	82.19
284.207	80.19
284.439	84.19
284.67	79.19
284.901	73.19
285.132	85.19
285.364	63.19
285.595	80.19
285.826	80.19
286.057	74.19
286.288	93.19
286.52	88.19
286.751	84.19
286.982	72.19
287.213	76.19
287.444	83.19
287.675	81.19
287.906	87.19
288.138	97.19
288.369	82.19
288.6	85.19
288.831	78.19
289.062	80.19
289.293	79.19
289.524	80.19
289.755	92.19
289.986	90.19
290.217	84.19
290.448	73.19
290.679	83.19
290.91	81.19
291.141	73.19
291.371	95.19
291.602	78.19
291.833	81.19
292.064	74.19
292.295	80.19
292.526	76.19
292.757	84.19
292.987	90.19
293.218	77.19
293.449	84.19
293.68	85.19
293.91	93.19
294.141	79.19
294.372	82.19
294.603	99.19
294.833	86.19
295.064	84.19
295.295	85.19
295.525	73.19
295.756	94.19
295.987	100.19
296.217	112.19
296.448	98.19
296.679	82.19
296.909	83.19
297.14	97.19
297.37	94.19
297.601	76.19
297.831	72.19
298.062	80.19
298.292	96.19
298.523	82.19
298.753	83.19
298.984	78.19
299.214	86.19
299.445	86.19
299.675	86.19
299.905	73.19
300.136	81.19
300.366	96.19
300.597	65.19
300.827	95.19
301.057	95.19
301.288	99.19
301.518	93.19
301.748	87.19
301.979	100.19
302.209	83.19
302.439	87.19
302.669	84.19
302.9	79.19
303.13	90.19
303.36	97.19
303.59	80.19
303.82	89.19
304.051	93.19
304.281	83.19
304.511	91.19
304.741	82.19
304.971	78.19
305.201	93.19
305.431	94.19
305.661	86.19
305.891	88.19
306.121	97.19
306.352	84.19
306.582	92.19
306.812	85.19
307.042	85.19
307.272	74.19
307.502	88.19
307.731	86.19
307.961	92.19
308.191	84.19
308.421	84.19
308.651	84.19
308.881	83.19
309.111	82.19
309.341	98.19
309.571	82.19
309.8	87.19
310.03	77.19
310.26	95.19
310.49	90.19
310.72	82.19
310.949	86.19
311.179	98.19
311.409	92.19
311.639	97.19
311.868	94.19
312.098	108.19
312.328	94.19
312.557	91.19
312.787	103.19
313.017	102.19
313.246	74.19
313.476	84.19
313.706	80.19
313.935	89.19
314.165	93.19
314.394	91.19
314.624	89.19
314.853	95.19
315.083	82.19
315.312	86.19
315.542	85.19
315.771	76.19
316.001	80.19
316.23	89.19
316.46	90.19
316.689	90.19
316.919	89.19
317.148	92.19
317.377	88.19
317.607	96.19
317.836	101.19
318.065	95.19
318.295	89.19
318.524	85.19
318.753	89.19
318.983	85.19
319.212	95.19
319.441	95.19
319.67	95.19
319.9	94.19
320.129	83.19
320.358	81.19
320.587	90.19
320.816	102.19
321.046	92.19
321.275	92.19
321.504	95.19
321.733	91.19
321.962	81.19
322.191	89.19
322.42	85.19
322.649	92.19
322.878	104.19
323.108	118.19
323.337	104.19
323.566	96.19
323.795	145.19
324.024	174.19
324.253	311.19
324.482	646.19
324.71	1262.19
324.939	1666.19
325.168	622.19
325.397	187.19
325.626	132.19
325.855	112.19
326.084	112.19
326.313	116.19
326.542	132.19
326.77	196.19
326.999	362.19
327.228	740.19
327.457	1321.19
327.686	1033.19
327.914	304.19
328.143	174.19
328.372	132.19
328.6	105.19
328.829	110.19
329.058	118.19
329.287	120.19
329.515	108.19
329.744	92.19
329.972	82.19
330.201	114.19
330.43	116.19
330.658	110.19
330.887	118.19
331.115	111.19
331.344	98.19
331.572	89.19
331.801	109.19
332.03	93.19
332.258	86.19
332.486	98.19
332.715	100.19
332.943	78.19
333.172	93.19
333.4	87.19
333.629	95.19
333.857	108.19
334.085	90.19
334.314	89.19
334.542	128.19
334.771	118.19
334.999	111.19
335.227	95.19
335.455	98.19
335.684	86.19
335.912	101.19
336.14	103.19
336.369	95.19
336.597	93.19
336.825	84.19
337.053	92.19
337.281	87.19
337.51	86.19
337.738	89.19
337.966	92.19
338.194	78.19
338.422	82.19
338.65	90.19
338.878	88.19
339.106	86.19
339.334	94.19
339.562	90.19
339.79	95.19
340.018	87.19
340.246	77.19
340.474	82.19
340.702	81.19
340.93	85.19
341.158	87.19
341.386	80.19
341.614	90.19
341.842	98.19
342.07	76.19
342.298	92.19
342.526	79.19
342.754	84.19
342.981	87.19
343.209	101.19
343.437	100.19
343.665	96.19
343.893	86.19
344.12	94.19
344.348	86.19
344.576	81.19
344.804	77.19
345.031	93.19
345.259	90.19
345.487	83.19
345.714	87.19
345.942	89.19
346.17	84.19
346.397	75.19
346.625	81.19
346.853	86.19
347.08	82.19
347.308	95.19
347.535	100.19
347.763	93.19
347.99	95.19
348.218	89.19
348.445	85.19
348.673	93.19
348.9	96.19
349.128	86.19
349.355	103.19
349.583	98.19
349.81	88.19
350.037	87.19
350.265	80.19
350.492	100.19
350.72	92.19
350.947	85.19
351.174	112.19
351.402	109.19
351.629	99.19
351.856	95.19
352.083	86.19
352.311	97.19
352.538	86.19
352.765	98.19
352.992	111.19
353.22	99.19
353.447	89.19
353.674	97.19
353.901	96.19
354.128	87.19
354.355	67.19
354.583	79.19
354.81	88.19
355.037	89.19
355.264	80.19
355.491	98.19
355.718	84.19
355.945	101.19
356.172	84.19
356.399	87.19
356.626	93.19
356.853	87.19
357.08	108.19
357.307	101.19
357.534	86.19
357.761	88.19
357.988	100.19
358.215	89.19
358.441	66.19
358.668	92.19
358.895	94.19
359.122	89.19
359.349	90.19
359.576	90.19
359.802	88.19
360.029	86.19
360.256	91.19
360.483	86.19
360.709	93.19
360.936	68.19
361.163	78.19
361.39	99.19
361.616	90.19
361.843	88.19
362.07	89.19
362.296	86.19
362.523	89.19
362.749	90.19
362.976	78.19
363.203	86.19
363.429	69.19
363.656	94.19
363.882	80.19
364.109	84.19
364.335	86.19
364.562	84.19
364.788	90.19
365.015	84.19
365.241	88.19
365.468	95.19
365.694	83.19
365.92	82.19
366.147	86.19
366.373	90.19
366.599	80.19
366.826	89.19
367.052	77.19
367.278	89.19
367.505	96.19
367.731	85.19
367.957	96.19
368.184	87.19
368.41	99.19
368.636	99.19
368.862	112.19
369.089	99.19
369.315	98.19
369.541	105.19
369.767	98.19
369.993	78.19
370.219	85.19
370.445	80.19
370.672	77.19
370.898	74.19
371.124	81.19
371.35	90.19
371.576	85.19
371.802	66.19
372.028	92.19
372.254	93.19
372.48	103.19
372.706	81.19
372.932	92.19
373.158	99.19
373.384	88.19
373.61	79.19
373.835	66.19
374.061	80.19
374.287	94.19
374.513	92.19
374.739	88.19
374.965	84.19
375.191	89.19
375.416	81.19
375.642	89.19
375.868	77.19
376.094	87.19
376.319	84.19
376.545	83.19
376.771	88.19
376.997	84.19
377.222	81.19
377.448	92.19
377.674	94.19
377.899	90.19
378.125	68.19
378.35	85.19
378.576	71.19
378.802	89.19
379.027	84.19
379.253	86.19
379.478	95.19
379.704	95.19
379.929	85.19
380.155	76.19
380.38	84.19
380.606	80.19
380.831	87.19
381.057	87.19
381.282	87.19
381.507	99.19
381.733	95.19
381.958	97.19
382.184	93.19
382.409	86.19
382.634	80.19
382.86	98.19
383.085	97.19
383.31	93.19
383.535	109.19
383.761	96.19
383.986	90.19
384.211	89.19
384.436	88.19
384.662	87.19
384.887	87.19
385.112	87.19
385.337	98.19
385.562	100.19
385.787	96.19
386.013	91.19
386.238	92.19
386.463	100.19
386.688	97.19
386.913	97.19
387.138	105.19
387.363	109.19
387.588	84.19
387.813	85.19
388.038	100.19
388.263	100.19
388.488	116.19
388.713	102.19
388.938	90.19
389.163	101.19
389.387	110.19
389.612	88.19
389.837	80.19
390.062	89.19
390.287	77.19
390.512	91.19
390.736	93.19
390.961	80.19
391.186	96.19
391.411	99.19
391.636	94.19
391.86	86.19
392.085	90.19
392.31	85.19
392.534	102.19
392.759	87.19
392.984	85.19
393.208	98.19
393.433	80.19
393.658	84.19
393.882	78.19
394.107	81.19
394.331	88.19
394.556	90.19
394.78	91.19
395.005	110.19
395.229	81.19
395.454	101.19
395.678	68.19
395.903	75.19
396.127	78.19
396.352	79.19
396.576	66.19
396.801	95.19
397.025	73.19
397.249	90.19
397.474	81.19
397.698	83.19
397.922	78.19
398.147	74.19
398.371	89.19
398.595	83.19
398.82	98.19
399.044	94.19
399.268	63.19
399.492	82.19
399.717	83.19
399.941	77.19
400.165	90.19
400.389	79.19
400.613	65.19
400.837	80.19
401.062	90.19
401.286	77.19
401.51	80.19
401.734	88.19
401.958	94.19
402.182	102.19
402.406	132.19
402.63	97.19
402.854	83.19
403.078	85.19
403.302	89.19
403.526	79.19
403.75	80.19
403.974	72.19
404.198	101.19
404.422	84.19
404.645	84.19
404.869	86.19
405.093	98.19
405.317	86.19
405.541	99.19
405.765	89.19
405.988	98.19
406.212	137.19
406.436	170.19
406.66	105.19
406.883	95.19
407.107	94.19
407.331	85.19
407.555	89.19
407.778	93.19
408.002	71.19
408.226	76.19
408.449	100.19
408.673	92.19
408.896	80.19
409.12	86.19
409.344	80.19
409.567	63.19
409.791	98.19
410.014	93.19
410.238	89.19
410.461	100.19
410.685	95.19
410.908	92.19
411.132	98.19
411.355	110.19
411.578	80.19
411.802	82.19
412.025	83.19
412.249	86.19
412.472	86.19
412.695	79.19
412.919	87.19
413.142	97.19
413.365	83.19
413.589	72.19
413.812	73.19
414.035	73.19
414.258	76.19
414.482	85.19
414.705	76.19
414.928	88.19
415.151	79.19
415.374	92.19
415.597	79.19
415.821	105.19
416.044	91.19
416.267	85.19
416.49	95.19
416.713	80.19
416.936	97.19
417.159	90.19
417.382	89.19
417.605	89.19
417.828	84.19
418.051	86.19
418.274	82.19
418.497	82.19
418.72	82.19
418.943	82.19
419.166	74.19
419.389	74.19
419.611	72.19
419.834	95.19
420.057	84.19
420.28	76.19
420.503	78.19
420.726	94.19
420.948	94.19
421.171	83.19
421.394	90.19
421.617	68.19
421.839	79.19
422.062	81.19
422.285	88.19
422.507	89.19
422.73	105.19
422.953	82.19
423.175	80.19
423.398	92.19
423.621	88.19
423.843	82.19
424.066	85.19
424.288	87.19
424.511	89.19
424.733	90.19
424.956	92.19
425.178	95.19
425.401	88.19
425.623	84.19
425.846	81.19
426.068	71.19
426.291	77.19
426.513	76.19
426.735	88.19
426.958	83.19
427.18	89.19
427.402	109.19
427.625	122.19
427.847	117.19
428.069	101.19
428.292	84.19
428.514	70.19
428.736	88.19
428.958	73.19
429.181	86.19
429.403	87.19
429.625	78.19
429.847	83.19
430.069	81.19
430.292	87.19
430.514	78.19
430.736	94.19
430.958	79.19
431.18	78.19
431.402	80.19
431.624	67.19
431.846	91.19
432.068	73.19
432.29	73.19
432.512	85.19
432.734	81.19
432.956	92.19
433.178	95.19
433.4	93.19
433.622	67.19
433.844	88.19
434.066	83.19
434.287	90.19
434.509	84.19
434.731	87.19
434.953	83.19
435.175	94.19
435.397	80.19
435.618	94.19
435.84	85.19
436.062	107.19
436.284	106.19
436.505	75.19
436.727	88.19
436.949	92.19
437.17	87.19
437.392	80.19
437.614	96.19
437.835	109.19
438.057	96.19
438.278	90.19
438.5	99.19
438.721	118.19
438.943	94.19
439.165	95.19
439.386	98.19
439.608	72.19
439.829	86.19
440.05	106.19
440.272	107.19
440.493	100.19
440.715	89.19
440.936	93.19
441.158	82.19
441.379	82.19
441.6	78.19
441.822	94.19
442.043	76.19
442.264	87.19
442.486	85.19
442.707	79.19
442.928	98.19
443.149	101.19
443.371	120.19
443.592	99.19
443.813	94.19
444.034	93.19
444.255	95.19
444.476	88.19
444.698	90.19
444.919	81.19
445.14	125.19
445.361	117.19
445.582	98.19
445.803	123.19
446.024	125.19
446.245	116.19
446.466	102.19
446.687	97.19
446.908	79.19
447.129	87.19
447.35	83.19
447.571	67.19
447.792	92.19
448.013	97.19
448.234	74.19
448.455	89.19
448.675	93.19
448.896	83.19
449.117	98.19
449.338	88.19
449.559	126.19
449.779	121.19
450	89.19
450.221	86.19
450.442	87.19
450.662	74.19
450.883	97.19
451.104	85.19
451.324	80.19
451.545	88.19
451.766	88.19
451.986	94.19
452.207	91.19
452.428	86.19
452.648	88.19
452.869	94.19
453.089	92.19
453.31	99.19
453.53	80.19
453.751	86.19
453.971	79.19
454.192	103.19
454.412	75.19
454.633	80.19
454.853	100.19
455.073	87.19
455.294	80.19
455.514	78.19
455.734	81.19
455.955	70.19
456.175	81.19
456.395	72.19
456.616	68.19
456.836	88.19
457.056	78.19
457.276	78.19
457.497	78.19
457.717	77.19
457.937	89.19
458.157	81.19
458.377	75.19
458.598	100.19
458.818	108.19
459.038	127.19
459.258	90.19
459.478	81.19
459.698	62.19
459.918	68.19
460.138	80.19
460.358	84.19
460.578	87.19
460.798	90.19
461.018	86.19
461.238	80.19
461.458	88.19
461.678	76.19
461.898	89.19
462.118	80.19
462.338	79.19
462.558	79.19
462.777	93.19
462.997	95.19
463.217	82.19
463.437	84.19
463.657	81.19
463.876	76.19
464.096	83.19
464.316	79.19
464.536	74.19
464.755	78.19
464.975	106.19
465.195	132.19
465.414	123.19
465.634	62.19
465.854	70.19
466.073	99.19
466.293	86.19
466.512	81.19
466.732	92.19
466.951	90.19
467.171	81.19
467.391	88.19
467.61	92.19
467.829	89.19
468.049	81.19
468.268	73.19
468.488	64.19
468.707	92.19
468.927	87.19
469.146	85.19
469.365	76.19
469.585	82.19
469.804	76.19
470.023	83.19
470.243	82.19
470.462	72.19
470.681	88.19
470.901	82.19
471.12	84.19
471.339	82.19
471.558	82.19
471.777	84.19
471.997	79.19
472.216	95.19
472.435	120.19
472.654	100.19
472.873	90.19
473.092	74.19
473.311	76.19
473.53	69.19
473.749	74.19
473.968	83.19
474.187	83.19
474.406	92.19
474.625	81.19
474.844	94.19
475.063	84.19
475.282	79.19
475.501	86.19
475.72	80.19
475.939	87.19
476.158	86.19
476.377	69.19
476.596	80.19
476.814	100.19
477.033	90.19
477.252	83.19
477.471	93.19
477.69	84.19
477.908	75.19
478.127	90.19
478.346	87.19
478.564	88.19
478.783	83.19
479.002	98.19
479.22	66.19
479.439	88.19
479.658	96.19
479.876	70.19
480.095	98.19
480.313	82.19
480.532	80.19
480.751	85.19
480.969	106.19
481.188	158.19
481.406	122.19
481.624	104.19
481.843	83.19
482.061	97.19
482.28	84.19
482.498	69.19
482.717	84.19
482.935	87.19
483.153	82.19
483.372	78.19
483.59	77.19
483.808	90.19
484.027	84.19
484.245	87.19
484.463	101.19
484.681	88.19
484.9	86.19
485.118	90.19
485.336	89.19
485.554	100.19
485.772	90.19
485.99	107.19
486.209	102.19
486.427	101.19
486.645	99.19
486.863	104.19
487.081	89.19
487.299	93.19
487.517	86.19
487.735	80.19
487.953	92.19
488.171	94.19
488.389	87.19
488.607	97.19
488.825	94.19
489.043	90.19
489.261	86.19
489.479	76.19
489.696	92.19
489.914	74.19
490.132	78.19
490.35	86.19
490.568	79.19
490.786	90.19
491.003	85.19
491.221	87.19
491.439	82.19
491.657	82.19
491.874	89.19
492.092	92.19
492.31	88.19
492.527	84.19
492.745	83.19
492.963	74.19
493.18	90.19
493.398	92.19
493.615	100.19
493.833	85.19
494.05	97.19
494.268	90.19
494.485	93.19
494.703	87.19
494.92	82.19
495.138	88.19
495.355	94.19
495.573	95.19
495.79	92.19
496.008	88.19
496.225	97.19
496.442	81.19
496.66	98.19
496.877	91.19
497.094	96.19
497.312	85.19
497.529	94.19
497.746	78.19
497.963	96.19
498.181	84.19
498.398	87.19
498.615	102.19
498.832	79.19
499.049	81.19
499.267	94.19
499.484	89.19
499.701	88.19
499.918	96.19
500.135	90.19
500.352	97.19
500.569	92.19
500.786	85.19
501.003	94.19
501.22	86.19
501.437	81.19
501.654	105.19
501.871	94.19
502.088	99.19
502.305	91.19
502.522	83.19
502.739	92.19
502.956	62.19
503.172	81.19
503.389	87.19
503.606	95.19
503.823	85.19
504.04	88.19
504.256	82.19
504.473	90.19
504.69	93.19
504.907	85.19
505.123	86.19
505.34	80.19
505.557	82.19
505.773	101.19
505.99	102.19
506.207	84.19
506.423	86.19
506.64	86.19
506.856	90.19
507.073	84.19
507.289	96.19
507.506	108.19
507.722	106.19
507.939	92.19
508.155	82.19
508.372	91.19
508.588	96.19
508.805	81.19
509.021	92.19
509.238	96.19
509.454	94.19
509.67	82.19
509.887	108.19
510.103	117.19
510.319	170.19
510.536	600.19
510.752	1770.19
510.968	504.19
511.184	133.19
511.401	89.19
511.617	89.19
511.833	82.19
512.049	93.19
512.265	93.19
512.481	81.19
512.698	76.19
512.914	92.19
513.13	84.19
513.346	79.19
513.562	95.19
513.778	81.19
513.994	94.19
514.21	82.19
514.426	95.19
514.642	108.19
514.858	100.19
515.074	130.19
515.29	343.19
515.506	956.19
515.721	372.19
515.937	133.19
516.153	106.19
516.369	97.19
516.585	86.19
516.801	91.19
517.016	86.19
517.232	88.19
517.448	89.19
517.664	86.19
517.879	88.19
