Data from Uncirc_1982_H10_HRD10591_00049.txt Node
Date: Wed Jan 03 12:29:34 EST 2024
User: Yrep
Spectrometer: HR+D1059
Trigger mode: 1
Integration Time (sec): 1.000000E-1
Scans to average: 1
Electric dark correction enabled: true
Nonlinearity correction enabled: false
Boxcar width: 0
XAxis mode: Wavelengths
Number of Pixels in Spectrum: 2048
>>>>>Begin Spectral Data<<<<<
223.165	-22.06
223.4	-22.06
223.635	-22.06
223.869	-23.06
224.104	-12.06
224.338	-7.06
224.573	-25.06
224.808	-35.06
225.042	-7.06
225.277	1.94
225.511	-10.06
225.746	-10.06
225.98	7.94
226.215	19.94
226.449	28.94
226.683	22.94
226.918	31.94
227.152	37.94
227.387	28.94
227.621	21.94
227.856	44.94
228.09	53.94
228.324	48.94
228.559	59.94
228.793	62.94
229.027	53.94
229.262	73.94
229.496	70.94
229.73	83.94
229.964	83.94
230.199	68.94
230.433	64.94
230.667	68.94
230.901	75.94
231.136	71.94
231.37	73.94
231.604	71.94
231.838	75.94
232.072	80.94
232.306	74.94
232.541	78.94
232.775	90.94
233.009	80.94
233.243	88.94
233.477	91.94
233.711	74.94
233.945	65.94
234.179	71.94
234.413	72.94
234.647	67.94
234.881	79.94
235.115	73.94
235.349	70.94
235.583	70.94
235.817	89.94
236.051	95.94
236.285	59.94
236.519	72.94
236.753	81.94
236.987	81.94
237.221	88.94
237.455	85.94
237.689	80.94
237.922	71.94
238.156	77.94
238.39	69.94
238.624	59.94
238.858	82.94
239.091	90.94
239.325	80.94
239.559	83.94
239.793	90.94
240.027	75.94
240.26	66.94
240.494	69.94
240.728	66.94
240.961	84.94
241.195	84.94
241.429	71.94
241.662	86.94
241.896	77.94
242.13	88.94
242.363	80.94
242.597	79.94
242.83	70.94
243.064	71.94
243.298	75.94
243.531	83.94
243.765	83.94
243.998	84.94
244.232	94.94
244.465	72.94
244.699	69.94
244.932	76.94
245.166	82.94
245.399	92.94
245.633	89.94
245.866	80.94
246.099	74.94
246.333	80.94
246.566	83.94
246.8	84.94
247.033	67.94
247.266	81.94
247.5	83.94
247.733	87.94
247.966	60.94
248.2	69.94
248.433	82.94
248.666	75.94
248.899	82.94
249.133	87.94
249.366	84.94
249.599	93.94
249.832	88.94
250.066	72.94
250.299	94.94
250.532	81.94
250.765	69.94
250.998	81.94
251.231	80.94
251.465	60.94
251.698	76.94
251.931	75.94
252.164	79.94
252.397	88.94
252.63	75.94
252.863	85.94
253.096	76.94
253.329	80.94
253.562	96.94
253.795	80.94
254.028	76.94
254.261	88.94
254.494	59.94
254.727	78.94
254.96	85.94
255.193	70.94
255.426	75.94
255.659	86.94
255.892	76.94
256.124	89.94
256.357	82.94
256.59	81.94
256.823	75.94
257.056	76.94
257.289	70.94
257.521	74.94
257.754	76.94
257.987	84.94
258.22	82.94
258.452	75.94
258.685	79.94
258.918	65.94
259.151	67.94
259.383	81.94
259.616	88.94
259.849	81.94
260.081	85.94
260.314	84.94
260.547	87.94
260.779	73.94
261.012	96.94
261.244	72.94
261.477	90.94
261.71	97.94
261.942	108.94
262.175	115.94
262.407	79.94
262.64	71.94
262.872	85.94
263.105	76.94
263.337	87.94
263.57	70.94
263.802	71.94
264.035	88.94
264.267	95.94
264.499	80.94
264.732	81.94
264.964	84.94
265.197	94.94
265.429	89.94
265.661	77.94
265.894	83.94
266.126	87.94
266.358	82.94
266.591	86.94
266.823	87.94
267.055	69.94
267.287	79.94
267.52	74.94
267.752	88.94
267.984	90.94
268.216	92.94
268.448	77.94
268.681	71.94
268.913	81.94
269.145	98.94
269.377	92.94
269.609	86.94
269.841	85.94
270.073	81.94
270.306	87.94
270.538	81.94
270.77	83.94
271.002	95.94
271.234	72.94
271.466	87.94
271.698	83.94
271.93	94.94
272.162	83.94
272.394	88.94
272.626	91.94
272.858	77.94
273.09	95.94
273.322	79.94
273.553	80.94
273.785	90.94
274.017	87.94
274.249	85.94
274.481	94.94
274.713	101.94
274.945	72.94
275.176	87.94
275.408	83.94
275.64	83.94
275.872	84.94
276.104	73.94
276.335	93.94
276.567	108.94
276.799	91.94
277.031	85.94
277.262	82.94
277.494	75.94
277.726	80.94
277.957	88.94
278.189	82.94
278.421	82.94
278.652	77.94
278.884	79.94
279.115	81.94
279.347	76.94
279.579	88.94
279.81	89.94
280.042	82.94
280.273	79.94
280.505	90.94
280.736	89.94
280.968	87.94
281.199	95.94
281.431	91.94
281.662	82.94
281.894	90.94
282.125	107.94
282.356	112.94
282.588	117.94
282.819	101.94
283.051	93.94
283.282	82.94
283.513	87.94
283.745	95.94
283.976	91.94
284.207	93.94
284.439	82.94
284.67	91.94
284.901	97.94
285.132	83.94
285.364	59.94
285.595	79.94
285.826	95.94
286.057	94.94
286.288	83.94
286.52	82.94
286.751	85.94
286.982	88.94
287.213	83.94
287.444	88.94
287.675	90.94
287.906	87.94
288.138	95.94
288.369	95.94
288.6	96.94
288.831	82.94
289.062	89.94
289.293	85.94
289.524	76.94
289.755	81.94
289.986	89.94
290.217	88.94
290.448	90.94
290.679	79.94
290.91	76.94
291.141	84.94
291.371	89.94
291.602	71.94
291.833	76.94
292.064	93.94
292.295	76.94
292.526	86.94
292.757	86.94
292.987	92.94
293.218	86.94
293.449	104.94
293.68	83.94
293.91	89.94
294.141	85.94
294.372	82.94
294.603	95.94
294.833	89.94
295.064	91.94
295.295	80.94
295.525	86.94
295.756	83.94
295.987	109.94
296.217	131.94
296.448	115.94
296.679	88.94
296.909	83.94
297.14	95.94
297.37	100.94
297.601	76.94
297.831	81.94
298.062	81.94
298.292	82.94
298.523	89.94
298.753	98.94
298.984	92.94
299.214	105.94
299.445	98.94
299.675	100.94
299.905	85.94
300.136	91.94
300.366	82.94
300.597	84.94
300.827	102.94
301.057	105.94
301.288	98.94
301.518	83.94
301.748	90.94
301.979	113.94
302.209	102.94
302.439	93.94
302.669	70.94
302.9	85.94
303.13	91.94
303.36	95.94
303.59	92.94
303.82	108.94
304.051	98.94
304.281	99.94
304.511	95.94
304.741	75.94
304.971	78.94
305.201	95.94
305.431	87.94
305.661	93.94
305.891	97.94
306.121	103.94
306.352	113.94
306.582	111.94
306.812	85.94
307.042	95.94
307.272	97.94
307.502	86.94
307.731	101.94
307.961	90.94
308.191	71.94
308.421	92.94
308.651	89.94
308.881	100.94
309.111	88.94
309.341	93.94
309.571	96.94
309.8	101.94
310.03	96.94
310.26	89.94
310.49	93.94
310.72	96.94
310.949	95.94
311.179	85.94
311.409	101.94
311.639	84.94
311.868	101.94
312.098	85.94
312.328	95.94
312.557	100.94
312.787	98.94
313.017	100.94
313.246	87.94
313.476	91.94
313.706	89.94
313.935	85.94
314.165	84.94
314.394	100.94
314.624	91.94
314.853	103.94
315.083	99.94
315.312	93.94
315.542	82.94
315.771	83.94
316.001	81.94
316.23	104.94
316.46	99.94
316.689	91.94
316.919	96.94
317.148	96.94
317.377	102.94
317.607	93.94
317.836	83.94
318.065	67.94
318.295	96.94
318.524	81.94
318.753	85.94
318.983	91.94
319.212	99.94
319.441	97.94
319.67	84.94
319.9	87.94
320.129	79.94
320.358	80.94
320.587	99.94
320.816	90.94
321.046	98.94
321.275	101.94
321.504	92.94
321.733	83.94
321.962	91.94
322.191	99.94
322.42	104.94
322.649	99.94
322.878	112.94
323.108	104.94
323.337	109.94
323.566	119.94
323.795	129.94
324.024	196.94
324.253	347.94
324.482	729.94
324.71	1463.94
324.939	1925.94
325.168	709.94
325.397	229.94
325.626	156.94
325.855	119.94
326.084	120.94
326.313	132.94
326.542	147.94
326.77	203.94
326.999	388.94
327.228	836.94
327.457	1532.94
327.686	1233.94
327.914	338.94
328.143	177.94
328.372	148.94
328.6	122.94
328.829	98.94
329.058	123.94
329.287	119.94
329.515	107.94
329.744	77.94
329.972	91.94
330.201	110.94
330.43	122.94
330.658	126.94
330.887	151.94
331.115	124.94
331.344	79.94
331.572	104.94
331.801	91.94
332.03	94.94
332.258	101.94
332.486	93.94
332.715	100.94
332.943	92.94
333.172	99.94
333.4	84.94
333.629	109.94
333.857	99.94
334.085	89.94
334.314	99.94
334.542	114.94
334.771	125.94
334.999	103.94
335.227	105.94
335.455	93.94
335.684	98.94
335.912	91.94
336.14	92.94
336.369	113.94
336.597	104.94
336.825	102.94
337.053	98.94
337.281	96.94
337.51	84.94
337.738	93.94
337.966	76.94
338.194	73.94
338.422	90.94
338.65	89.94
338.878	83.94
339.106	107.94
339.334	96.94
339.562	83.94
339.79	95.94
340.018	107.94
340.246	89.94
340.474	97.94
340.702	83.94
340.93	87.94
341.158	95.94
341.386	85.94
341.614	92.94
341.842	76.94
342.07	90.94
342.298	74.94
342.526	89.94
342.754	103.94
342.981	94.94
343.209	72.94
343.437	102.94
343.665	92.94
343.893	84.94
344.12	86.94
344.348	85.94
344.576	91.94
344.804	92.94
345.031	88.94
345.259	86.94
345.487	83.94
345.714	97.94
345.942	84.94
346.17	106.94
346.397	90.94
346.625	83.94
346.853	81.94
347.08	80.94
347.308	85.94
347.535	92.94
347.763	90.94
347.99	87.94
348.218	103.94
348.445	87.94
348.673	88.94
348.9	93.94
349.128	107.94
349.355	101.94
349.583	90.94
349.81	92.94
350.037	84.94
350.265	92.94
350.492	88.94
350.72	95.94
350.947	104.94
351.174	96.94
351.402	96.94
351.629	113.94
351.856	112.94
352.083	94.94
352.311	107.94
352.538	96.94
352.765	125.94
352.992	110.94
353.22	118.94
353.447	104.94
353.674	106.94
353.901	104.94
354.128	103.94
354.355	92.94
354.583	94.94
354.81	99.94
355.037	104.94
355.264	89.94
355.491	82.94
355.718	88.94
355.945	111.94
356.172	91.94
356.399	81.94
356.626	92.94
356.853	97.94
357.08	105.94
357.307	82.94
357.534	87.94
357.761	103.94
357.988	90.94
358.215	108.94
358.441	80.94
358.668	91.94
358.895	77.94
359.122	85.94
359.349	67.94
359.576	110.94
359.802	99.94
360.029	109.94
360.256	88.94
360.483	87.94
360.709	94.94
360.936	99.94
361.163	75.94
361.39	90.94
361.616	101.94
361.843	95.94
362.07	91.94
362.296	73.94
362.523	87.94
362.749	91.94
362.976	98.94
363.203	94.94
363.429	91.94
363.656	85.94
363.882	90.94
364.109	99.94
364.335	77.94
364.562	97.94
364.788	92.94
365.015	94.94
365.241	97.94
365.468	108.94
365.694	100.94
365.92	89.94
366.147	86.94
366.373	81.94
366.599	88.94
366.826	88.94
367.052	83.94
367.278	98.94
367.505	98.94
367.731	80.94
367.957	82.94
368.184	90.94
368.41	90.94
368.636	105.94
368.862	102.94
369.089	83.94
369.315	101.94
369.541	106.94
369.767	89.94
369.993	82.94
370.219	88.94
370.445	96.94
370.672	91.94
370.898	77.94
371.124	92.94
371.35	84.94
371.576	88.94
371.802	86.94
372.028	89.94
372.254	87.94
372.48	83.94
372.706	93.94
372.932	75.94
373.158	76.94
373.384	84.94
373.61	82.94
373.835	83.94
374.061	76.94
374.287	97.94
374.513	85.94
374.739	84.94
374.965	99.94
375.191	95.94
375.416	106.94
375.642	76.94
375.868	92.94
376.094	83.94
376.319	99.94
376.545	86.94
376.771	99.94
376.997	90.94
377.222	92.94
377.448	87.94
377.674	91.94
377.899	88.94
378.125	81.94
378.35	81.94
378.576	82.94
378.802	90.94
379.027	84.94
379.253	92.94
379.478	96.94
379.704	101.94
379.929	79.94
380.155	97.94
380.38	99.94
380.606	100.94
380.831	97.94
381.057	102.94
381.282	100.94
381.507	98.94
381.733	94.94
381.958	101.94
382.184	97.94
382.409	95.94
382.634	91.94
382.86	104.94
383.085	95.94
383.31	95.94
383.535	110.94
383.761	94.94
383.986	97.94
384.211	106.94
384.436	108.94
384.662	95.94
384.887	92.94
385.112	107.94
385.337	111.94
385.562	99.94
385.787	97.94
386.013	110.94
386.238	105.94
386.463	107.94
386.688	103.94
386.913	100.94
387.138	116.94
387.363	91.94
387.588	107.94
387.813	97.94
388.038	103.94
388.263	104.94
388.488	94.94
388.713	91.94
388.938	90.94
389.163	91.94
389.387	103.94
389.612	93.94
389.837	85.94
390.062	84.94
390.287	83.94
390.512	92.94
390.736	72.94
390.961	95.94
391.186	85.94
391.411	95.94
391.636	87.94
391.86	96.94
392.085	93.94
392.31	89.94
392.534	90.94
392.759	88.94
392.984	90.94
393.208	85.94
393.433	79.94
393.658	76.94
393.882	81.94
394.107	91.94
394.331	87.94
394.556	72.94
394.78	88.94
395.005	91.94
395.229	99.94
395.454	85.94
395.678	74.94
395.903	79.94
396.127	106.94
396.352	89.94
396.576	84.94
396.801	91.94
397.025	100.94
397.249	88.94
397.474	87.94
397.698	92.94
397.922	73.94
398.147	92.94
398.371	87.94
398.595	91.94
398.82	83.94
399.044	82.94
399.268	86.94
399.492	92.94
399.717	93.94
399.941	82.94
400.165	91.94
400.389	79.94
400.613	92.94
400.837	90.94
401.062	87.94
401.286	88.94
401.51	85.94
401.734	86.94
401.958	93.94
402.182	118.94
402.406	135.94
402.63	117.94
402.854	95.94
403.078	93.94
403.302	98.94
403.526	75.94
403.75	88.94
403.974	89.94
404.198	96.94
404.422	80.94
404.645	88.94
404.869	98.94
405.093	96.94
405.317	93.94
405.541	91.94
405.765	102.94
405.988	99.94
406.212	140.94
406.436	185.94
406.66	142.94
406.883	97.94
407.107	105.94
407.331	105.94
407.555	85.94
407.778	81.94
408.002	75.94
408.226	75.94
408.449	93.94
408.673	96.94
408.896	101.94
409.12	92.94
409.344	88.94
409.567	70.94
409.791	81.94
410.014	84.94
410.238	91.94
410.461	83.94
410.685	94.94
410.908	91.94
411.132	91.94
411.355	107.94
411.578	77.94
411.802	91.94
412.025	96.94
412.249	81.94
412.472	85.94
412.695	90.94
412.919	90.94
413.142	96.94
413.365	87.94
413.589	95.94
413.812	102.94
414.035	92.94
414.258	92.94
414.482	86.94
414.705	79.94
414.928	101.94
415.151	91.94
415.374	84.94
415.597	87.94
415.821	77.94
416.044	97.94
416.267	104.94
416.49	90.94
416.713	97.94
416.936	94.94
417.159	92.94
417.382	100.94
417.605	80.94
417.828	88.94
418.051	86.94
418.274	85.94
418.497	89.94
418.72	91.94
418.943	96.94
419.166	82.94
419.389	83.94
419.611	94.94
419.834	97.94
420.057	85.94
420.28	81.94
420.503	83.94
420.726	87.94
420.948	94.94
421.171	96.94
421.394	104.94
421.617	91.94
421.839	89.94
422.062	102.94
422.285	88.94
422.507	92.94
422.73	94.94
422.953	98.94
423.175	86.94
423.398	84.94
423.621	97.94
423.843	85.94
424.066	81.94
424.288	69.94
424.511	87.94
424.733	103.94
424.956	107.94
425.178	91.94
425.401	89.94
425.623	102.94
425.846	81.94
426.068	85.94
426.291	98.94
426.513	87.94
426.735	88.94
426.958	100.94
427.18	108.94
427.402	130.94
427.625	136.94
427.847	115.94
428.069	104.94
428.292	80.94
428.514	82.94
428.736	77.94
428.958	87.94
429.181	83.94
429.403	96.94
429.625	72.94
429.847	83.94
430.069	109.94
430.292	99.94
430.514	87.94
430.736	93.94
430.958	91.94
431.18	101.94
431.402	79.94
431.624	80.94
431.846	83.94
432.068	67.94
432.29	72.94
432.512	89.94
432.734	86.94
432.956	72.94
433.178	91.94
433.4	97.94
433.622	83.94
433.844	86.94
434.066	95.94
434.287	91.94
434.509	83.94
434.731	91.94
434.953	78.94
435.175	77.94
435.397	87.94
435.618	87.94
435.84	91.94
436.062	106.94
436.284	108.94
436.505	88.94
436.727	96.94
436.949	99.94
437.17	91.94
437.392	88.94
437.614	87.94
437.835	100.94
438.057	100.94
438.278	107.94
438.5	99.94
438.721	114.94
438.943	89.94
439.165	90.94
439.386	83.94
439.608	70.94
439.829	91.94
440.05	112.94
440.272	95.94
440.493	95.94
440.715	90.94
440.936	84.94
441.158	94.94
441.379	85.94
441.6	83.94
441.822	80.94
442.043	89.94
442.264	89.94
442.486	89.94
442.707	89.94
442.928	93.94
443.149	117.94
443.371	116.94
443.592	99.94
443.813	107.94
444.034	92.94
444.255	95.94
444.476	91.94
444.698	87.94
444.919	81.94
445.14	137.94
445.361	134.94
445.582	109.94
445.803	109.94
446.024	121.94
446.245	127.94
446.466	114.94
446.687	90.94
446.908	89.94
447.129	83.94
447.35	83.94
447.571	88.94
447.792	90.94
448.013	113.94
448.234	113.94
448.455	102.94
448.675	108.94
448.896	92.94
449.117	105.94
449.338	93.94
449.559	128.94
449.779	117.94
450	97.94
450.221	97.94
450.442	75.94
450.662	98.94
450.883	100.94
451.104	88.94
451.324	79.94
451.545	80.94
451.766	72.94
451.986	90.94
452.207	87.94
452.428	95.94
452.648	84.94
452.869	109.94
453.089	107.94
453.31	111.94
453.53	103.94
453.751	88.94
453.971	91.94
454.192	88.94
454.412	82.94
454.633	94.94
454.853	83.94
455.073	64.94
455.294	81.94
455.514	93.94
455.734	93.94
455.955	91.94
456.175	72.94
456.395	88.94
456.616	86.94
456.836	96.94
457.056	85.94
457.276	91.94
457.497	90.94
457.717	92.94
457.937	84.94
458.157	88.94
458.377	76.94
458.598	107.94
458.818	138.94
459.038	128.94
459.258	98.94
459.478	81.94
459.698	86.94
459.918	92.94
460.138	90.94
460.358	88.94
460.578	86.94
460.798	96.94
461.018	86.94
461.238	78.94
461.458	79.94
461.678	86.94
461.898	82.94
462.118	91.94
462.338	87.94
462.558	83.94
462.777	82.94
462.997	90.94
463.217	85.94
463.437	89.94
463.657	84.94
463.876	97.94
464.096	94.94
464.316	88.94
464.536	90.94
464.755	98.94
464.975	98.94
465.195	143.94
465.414	131.94
465.634	92.94
465.854	91.94
466.073	87.94
466.293	93.94
466.512	77.94
466.732	75.94
466.951	86.94
467.171	82.94
467.391	87.94
467.61	86.94
467.829	91.94
468.049	103.94
468.268	109.94
468.488	66.94
468.707	80.94
468.927	92.94
469.146	82.94
469.365	81.94
469.585	84.94
469.804	96.94
470.023	90.94
470.243	93.94
470.462	97.94
470.681	101.94
470.901	95.94
471.12	93.94
471.339	95.94
471.558	94.94
471.777	95.94
471.997	100.94
472.216	104.94
472.435	144.94
472.654	90.94
472.873	88.94
473.092	81.94
473.311	76.94
473.53	89.94
473.749	84.94
473.968	92.94
474.187	106.94
474.406	84.94
474.625	87.94
474.844	104.94
475.063	84.94
475.282	81.94
475.501	83.94
475.72	86.94
475.939	80.94
476.158	95.94
476.377	68.94
476.596	101.94
476.814	100.94
477.033	84.94
477.252	100.94
477.471	74.94
477.69	79.94
477.908	79.94
478.127	85.94
478.346	85.94
478.564	99.94
478.783	91.94
479.002	91.94
479.22	91.94
479.439	89.94
479.658	101.94
479.876	95.94
480.095	96.94
480.313	87.94
480.532	77.94
480.751	79.94
480.969	114.94
481.188	203.94
481.406	152.94
481.624	99.94
481.843	84.94
482.061	90.94
482.28	83.94
482.498	90.94
482.717	89.94
482.935	81.94
483.153	96.94
483.372	74.94
483.59	79.94
483.808	87.94
484.027	94.94
484.245	99.94
484.463	90.94
484.681	94.94
484.9	86.94
485.118	100.94
485.336	79.94
485.554	97.94
485.772	81.94
485.99	92.94
486.209	100.94
486.427	112.94
486.645	111.94
486.863	103.94
487.081	94.94
487.299	99.94
487.517	107.94
487.735	97.94
487.953	91.94
488.171	86.94
488.389	99.94
488.607	97.94
488.825	89.94
489.043	88.94
489.261	98.94
489.479	96.94
489.696	83.94
489.914	85.94
490.132	100.94
490.35	97.94
490.568	96.94
490.786	87.94
491.003	89.94
491.221	107.94
491.439	106.94
491.657	87.94
491.874	82.94
492.092	86.94
492.31	76.94
492.527	99.94
492.745	103.94
492.963	90.94
493.18	99.94
493.398	99.94
493.615	80.94
493.833	82.94
494.05	87.94
494.268	87.94
494.485	88.94
494.703	98.94
494.92	80.94
495.138	74.94
495.355	85.94
495.573	90.94
495.79	95.94
496.008	96.94
496.225	84.94
496.442	83.94
496.66	88.94
496.877	94.94
497.094	106.94
497.312	91.94
497.529	93.94
497.746	91.94
497.963	83.94
498.181	71.94
498.398	96.94
498.615	124.94
498.832	103.94
499.049	93.94
499.267	88.94
499.484	96.94
499.701	86.94
499.918	75.94
500.135	93.94
500.352	93.94
500.569	87.94
500.786	93.94
501.003	94.94
501.22	97.94
501.437	79.94
501.654	90.94
501.871	87.94
502.088	99.94
502.305	86.94
502.522	102.94
502.739	87.94
502.956	99.94
503.172	97.94
503.389	101.94
503.606	103.94
503.823	97.94
504.04	93.94
504.256	86.94
504.473	94.94
504.69	79.94
504.907	96.94
505.123	94.94
505.34	76.94
505.557	89.94
505.773	88.94
505.99	92.94
506.207	83.94
506.423	81.94
506.64	97.94
506.856	85.94
507.073	82.94
507.289	87.94
507.506	90.94
507.722	96.94
507.939	84.94
508.155	89.94
508.372	98.94
508.588	89.94
508.805	93.94
509.021	77.94
509.238	92.94
509.454	101.94
509.67	87.94
509.887	114.94
510.103	118.94
510.319	194.94
510.536	666.94
510.752	1970.94
510.968	543.94
511.184	159.94
511.401	101.94
511.617	97.94
511.833	104.94
512.049	91.94
512.265	93.94
512.481	96.94
512.698	100.94
512.914	91.94
513.13	96.94
513.346	95.94
513.562	92.94
513.778	87.94
513.994	108.94
514.21	100.94
514.426	112.94
514.642	112.94
514.858	114.94
515.074	140.94
515.29	380.94
515.506	1164.94
515.721	431.94
515.937	143.94
516.153	119.94
516.369	104.94
