Data from Uncirc_1982_H10_HRD10591_00016.txt Node
Date: Wed Jan 03 12:29:28 EST 2024
User: Yrep
Spectrometer: HR+D1059
Trigger mode: 1
Integration Time (sec): 1.000000E-1
Scans to average: 1
Electric dark correction enabled: true
Nonlinearity correction enabled: false
Boxcar width: 0
XAxis mode: Wavelengths
Number of Pixels in Spectrum: 2048
>>>>>Begin Spectral Data<<<<<
223.165	-9.19
223.4	-9.19
223.635	-9.19
223.869	-14.19
224.104	-20.19
224.338	-18.19
224.573	-18.19
224.808	-6.19
225.042	2.81
225.277	-4.19
225.511	-16.19
225.746	-4.19
225.98	8.81
226.215	5.81
226.449	8.81
226.683	24.81
226.918	21.81
227.152	37.81
227.387	51.81
227.621	39.81
227.856	47.81
228.09	49.81
228.324	42.81
228.559	51.81
228.793	73.81
229.027	41.81
229.262	58.81
229.496	70.81
229.73	77.81
229.964	79.81
230.199	58.81
230.433	73.81
230.667	71.81
230.901	82.81
231.136	83.81
231.37	93.81
231.604	77.81
231.838	70.81
232.072	81.81
232.306	83.81
232.541	69.81
232.775	72.81
233.009	78.81
233.243	81.81
233.477	82.81
233.711	87.81
233.945	67.81
234.179	62.81
234.413	83.81
234.647	67.81
234.881	70.81
235.115	83.81
235.349	81.81
235.583	76.81
235.817	90.81
236.051	67.81
236.285	64.81
236.519	77.81
236.753	66.81
236.987	82.81
237.221	70.81
237.455	76.81
237.689	59.81
237.922	69.81
238.156	82.81
238.39	77.81
238.624	61.81
238.858	71.81
239.091	71.81
239.325	68.81
239.559	80.81
239.793	83.81
240.027	78.81
240.26	84.81
240.494	79.81
240.728	71.81
240.961	84.81
241.195	67.81
241.429	81.81
241.662	80.81
241.896	70.81
242.13	71.81
242.363	78.81
242.597	65.81
242.83	81.81
243.064	82.81
243.298	92.81
243.531	78.81
243.765	84.81
243.998	84.81
244.232	82.81
244.465	67.81
244.699	67.81
244.932	79.81
245.166	78.81
245.399	67.81
245.633	63.81
245.866	70.81
246.099	82.81
246.333	82.81
246.566	87.81
246.8	81.81
247.033	72.81
247.266	79.81
247.5	64.81
247.733	59.81
247.966	77.81
248.2	81.81
248.433	65.81
248.666	75.81
248.899	73.81
249.133	66.81
249.366	86.81
249.599	84.81
249.832	80.81
250.066	81.81
250.299	85.81
250.532	64.81
250.765	71.81
250.998	66.81
251.231	74.81
251.465	79.81
251.698	88.81
251.931	79.81
252.164	86.81
252.397	84.81
252.63	64.81
252.863	84.81
253.096	81.81
253.329	73.81
253.562	78.81
253.795	86.81
254.028	84.81
254.261	68.81
254.494	85.81
254.727	87.81
254.96	69.81
255.193	73.81
255.426	72.81
255.659	71.81
255.892	80.81
256.124	85.81
256.357	91.81
256.59	69.81
256.823	74.81
257.056	85.81
257.289	72.81
257.521	71.81
257.754	97.81
257.987	90.81
258.22	83.81
258.452	89.81
258.685	75.81
258.918	100.81
259.151	85.81
259.383	69.81
259.616	73.81
259.849	86.81
260.081	78.81
260.314	61.81
260.547	75.81
260.779	84.81
261.012	81.81
261.244	74.81
261.477	93.81
261.71	85.81
261.942	97.81
262.175	100.81
262.407	81.81
262.64	79.81
262.872	87.81
263.105	75.81
263.337	80.81
263.57	77.81
263.802	72.81
264.035	70.81
264.267	75.81
264.499	80.81
264.732	75.81
264.964	98.81
265.197	69.81
265.429	80.81
265.661	74.81
265.894	76.81
266.126	88.81
266.358	84.81
266.591	70.81
266.823	87.81
267.055	87.81
267.287	84.81
267.52	82.81
267.752	78.81
267.984	80.81
268.216	70.81
268.448	79.81
268.681	77.81
268.913	77.81
269.145	69.81
269.377	69.81
269.609	82.81
269.841	74.81
270.073	63.81
270.306	82.81
270.538	90.81
270.77	81.81
271.002	82.81
271.234	94.81
271.466	80.81
271.698	85.81
271.93	81.81
272.162	71.81
272.394	87.81
272.626	83.81
272.858	79.81
273.09	78.81
273.322	86.81
273.553	67.81
273.785	86.81
274.017	89.81
274.249	97.81
274.481	81.81
274.713	84.81
274.945	94.81
275.176	88.81
275.408	92.81
275.64	81.81
275.872	86.81
276.104	80.81
276.335	89.81
276.567	104.81
276.799	101.81
277.031	78.81
277.262	100.81
277.494	84.81
277.726	97.81
277.957	75.81
278.189	75.81
278.421	72.81
278.652	77.81
278.884	97.81
279.115	82.81
279.347	83.81
279.579	83.81
279.81	85.81
280.042	96.81
280.273	97.81
280.505	83.81
280.736	75.81
280.968	82.81
281.199	87.81
281.431	79.81
281.662	88.81
281.894	75.81
282.125	93.81
282.356	98.81
282.588	109.81
282.819	97.81
283.051	86.81
283.282	83.81
283.513	87.81
283.745	86.81
283.976	83.81
284.207	87.81
284.439	84.81
284.67	81.81
284.901	82.81
285.132	98.81
285.364	88.81
285.595	74.81
285.826	101.81
286.057	91.81
286.288	85.81
286.52	103.81
286.751	85.81
286.982	87.81
287.213	86.81
287.444	94.81
287.675	72.81
287.906	89.81
288.138	96.81
288.369	77.81
288.6	79.81
288.831	89.81
289.062	90.81
289.293	88.81
289.524	86.81
289.755	79.81
289.986	78.81
290.217	77.81
290.448	83.81
290.679	79.81
290.91	74.81
291.141	87.81
291.371	81.81
291.602	91.81
291.833	75.81
292.064	77.81
292.295	86.81
292.526	81.81
292.757	96.81
292.987	78.81
293.218	86.81
293.449	74.81
293.68	86.81
293.91	79.81
294.141	79.81
294.372	101.81
294.603	92.81
294.833	77.81
295.064	97.81
295.295	86.81
295.525	89.81
295.756	107.81
295.987	96.81
296.217	101.81
296.448	109.81
296.679	81.81
296.909	82.81
297.14	74.81
297.37	93.81
297.601	94.81
297.831	90.81
298.062	89.81
298.292	94.81
298.523	87.81
298.753	81.81
298.984	79.81
299.214	83.81
299.445	86.81
299.675	98.81
299.905	95.81
300.136	96.81
300.366	93.81
300.597	97.81
300.827	94.81
301.057	110.81
301.288	95.81
301.518	104.81
301.748	87.81
301.979	94.81
302.209	81.81
302.439	81.81
302.669	84.81
302.9	91.81
303.13	78.81
303.36	85.81
303.59	97.81
303.82	105.81
304.051	82.81
304.281	83.81
304.511	75.81
304.741	80.81
304.971	81.81
305.201	83.81
305.431	91.81
305.661	98.81
305.891	79.81
306.121	105.81
306.352	99.81
306.582	100.81
306.812	89.81
307.042	94.81
307.272	99.81
307.502	99.81
307.731	87.81
307.961	74.81
308.191	84.81
308.421	85.81
308.651	103.81
308.881	82.81
309.111	87.81
309.341	90.81
309.571	95.81
309.8	98.81
310.03	82.81
310.26	83.81
310.49	89.81
310.72	73.81
310.949	84.81
311.179	102.81
311.409	90.81
311.639	70.81
311.868	88.81
312.098	101.81
312.328	90.81
312.557	94.81
312.787	89.81
313.017	93.81
313.246	82.81
313.476	85.81
313.706	89.81
313.935	87.81
314.165	91.81
314.394	99.81
314.624	103.81
314.853	90.81
315.083	88.81
315.312	95.81
315.542	93.81
315.771	98.81
316.001	81.81
316.23	89.81
316.46	89.81
316.689	86.81
316.919	81.81
317.148	82.81
317.377	91.81
317.607	86.81
317.836	98.81
318.065	83.81
318.295	83.81
318.524	88.81
318.753	90.81
318.983	92.81
319.212	98.81
319.441	101.81
319.67	118.81
319.9	93.81
320.129	77.81
320.358	88.81
320.587	86.81
320.816	95.81
321.046	103.81
321.275	87.81
321.504	93.81
321.733	82.81
321.962	91.81
322.191	96.81
322.42	101.81
322.649	104.81
322.878	94.81
323.108	98.81
323.337	113.81
323.566	112.81
323.795	138.81
324.024	151.81
324.253	330.81
324.482	653.81
324.71	1366.81
324.939	1765.81
325.168	648.81
325.397	205.81
325.626	120.81
325.855	118.81
326.084	101.81
326.313	112.81
326.542	126.81
326.77	190.81
326.999	386.81
327.228	769.81
327.457	1387.81
327.686	1088.81
327.914	305.81
328.143	167.81
328.372	129.81
328.6	106.81
328.829	99.81
329.058	114.81
329.287	116.81
329.515	109.81
329.744	89.81
329.972	91.81
330.201	94.81
330.43	127.81
330.658	108.81
330.887	125.81
331.115	98.81
331.344	96.81
331.572	91.81
331.801	90.81
332.03	84.81
332.258	91.81
332.486	96.81
332.715	95.81
332.943	106.81
333.172	84.81
333.4	93.81
333.629	103.81
333.857	105.81
334.085	108.81
334.314	108.81
334.542	117.81
334.771	118.81
334.999	93.81
335.227	95.81
335.455	98.81
335.684	93.81
335.912	87.81
336.14	102.81
336.369	85.81
336.597	107.81
336.825	109.81
337.053	90.81
337.281	82.81
337.51	101.81
337.738	88.81
337.966	89.81
338.194	83.81
338.422	94.81
338.65	90.81
338.878	104.81
339.106	90.81
339.334	102.81
339.562	77.81
339.79	94.81
340.018	77.81
340.246	90.81
340.474	80.81
340.702	94.81
340.93	86.81
341.158	79.81
341.386	99.81
341.614	87.81
341.842	85.81
342.07	85.81
342.298	84.81
342.526	81.81
342.754	87.81
342.981	81.81
343.209	83.81
343.437	95.81
343.665	96.81
343.893	99.81
344.12	105.81
344.348	101.81
344.576	82.81
344.804	98.81
345.031	100.81
345.259	103.81
345.487	76.81
345.714	100.81
345.942	88.81
346.17	95.81
346.397	97.81
346.625	87.81
346.853	104.81
347.08	89.81
347.308	84.81
347.535	109.81
347.763	89.81
347.99	97.81
348.218	99.81
348.445	108.81
348.673	96.81
348.9	101.81
349.128	94.81
349.355	97.81
349.583	82.81
349.81	90.81
350.037	97.81
350.265	91.81
350.492	87.81
350.72	104.81
350.947	104.81
351.174	106.81
351.402	104.81
351.629	89.81
351.856	98.81
352.083	103.81
352.311	95.81
352.538	91.81
352.765	94.81
352.992	106.81
353.22	98.81
353.447	85.81
353.674	106.81
353.901	93.81
354.128	94.81
354.355	91.81
354.583	95.81
354.81	102.81
355.037	92.81
355.264	98.81
355.491	98.81
355.718	89.81
355.945	104.81
356.172	84.81
356.399	90.81
356.626	109.81
356.853	91.81
357.08	86.81
357.307	87.81
357.534	80.81
357.761	96.81
357.988	108.81
358.215	101.81
358.441	101.81
358.668	87.81
358.895	91.81
359.122	78.81
359.349	97.81
359.576	78.81
359.802	82.81
360.029	103.81
360.256	93.81
360.483	84.81
360.709	85.81
360.936	77.81
361.163	90.81
361.39	95.81
361.616	94.81
361.843	95.81
362.07	86.81
362.296	81.81
362.523	77.81
362.749	92.81
362.976	79.81
363.203	74.81
363.429	75.81
363.656	99.81
363.882	89.81
364.109	100.81
364.335	93.81
364.562	93.81
364.788	82.81
365.015	82.81
365.241	86.81
365.468	100.81
365.694	93.81
365.92	80.81
366.147	91.81
366.373	93.81
366.599	83.81
366.826	96.81
367.052	101.81
367.278	84.81
367.505	77.81
367.731	100.81
367.957	93.81
368.184	92.81
368.41	103.81
368.636	110.81
368.862	90.81
369.089	95.81
369.315	93.81
369.541	94.81
369.767	99.81
369.993	61.81
370.219	88.81
370.445	92.81
370.672	83.81
370.898	92.81
371.124	87.81
371.35	87.81
371.576	85.81
371.802	101.81
372.028	78.81
372.254	96.81
372.48	82.81
372.706	89.81
372.932	99.81
373.158	96.81
373.384	83.81
373.61	88.81
373.835	85.81
374.061	85.81
374.287	86.81
374.513	89.81
374.739	81.81
374.965	80.81
375.191	89.81
375.416	89.81
375.642	87.81
375.868	99.81
376.094	82.81
376.319	104.81
376.545	88.81
376.771	90.81
376.997	87.81
377.222	87.81
377.448	92.81
377.674	93.81
377.899	89.81
378.125	102.81
378.35	77.81
378.576	87.81
378.802	91.81
379.027	94.81
379.253	85.81
379.478	84.81
379.704	93.81
379.929	101.81
380.155	101.81
380.38	102.81
380.606	95.81
380.831	90.81
381.057	114.81
381.282	112.81
381.507	106.81
381.733	111.81
381.958	100.81
382.184	91.81
382.409	98.81
382.634	98.81
382.86	108.81
383.085	111.81
383.31	102.81
383.535	98.81
383.761	103.81
383.986	94.81
384.211	117.81
384.436	102.81
384.662	111.81
384.887	120.81
385.112	118.81
385.337	114.81
385.562	123.81
385.787	119.81
386.013	116.81
386.238	109.81
386.463	98.81
386.688	119.81
386.913	105.81
387.138	118.81
387.363	103.81
387.588	107.81
387.813	110.81
388.038	120.81
388.263	127.81
388.488	112.81
388.713	106.81
388.938	96.81
389.163	97.81
389.387	88.81
389.612	99.81
389.837	111.81
390.062	87.81
390.287	97.81
390.512	79.81
390.736	107.81
390.961	91.81
391.186	88.81
391.411	94.81
391.636	110.81
391.86	87.81
392.085	82.81
392.31	89.81
392.534	82.81
392.759	90.81
392.984	82.81
393.208	92.81
393.433	86.81
393.658	93.81
393.882	83.81
394.107	78.81
394.331	78.81
394.556	84.81
394.78	80.81
395.005	79.81
395.229	85.81
395.454	98.81
395.678	85.81
395.903	85.81
396.127	99.81
396.352	92.81
396.576	85.81
396.801	95.81
397.025	90.81
397.249	90.81
397.474	86.81
397.698	90.81
397.922	82.81
398.147	81.81
398.371	96.81
398.595	72.81
398.82	65.81
399.044	108.81
399.268	83.81
399.492	87.81
399.717	109.81
399.941	90.81
400.165	78.81
400.389	78.81
400.613	77.81
400.837	81.81
401.062	106.81
401.286	79.81
401.51	95.81
401.734	93.81
401.958	95.81
402.182	94.81
402.406	135.81
402.63	110.81
402.854	88.81
403.078	78.81
403.302	94.81
403.526	84.81
403.75	78.81
403.974	97.81
404.198	65.81
404.422	84.81
404.645	82.81
404.869	95.81
405.093	87.81
405.317	95.81
405.541	95.81
405.765	93.81
405.988	103.81
406.212	136.81
406.436	163.81
406.66	118.81
406.883	87.81
407.107	98.81
407.331	94.81
407.555	86.81
407.778	102.81
408.002	88.81
408.226	68.81
408.449	85.81
408.673	73.81
408.896	94.81
409.12	81.81
409.344	84.81
409.567	73.81
409.791	89.81
410.014	96.81
410.238	99.81
410.461	95.81
410.685	95.81
410.908	103.81
411.132	105.81
411.355	109.81
411.578	101.81
411.802	95.81
412.025	94.81
412.249	86.81
412.472	77.81
412.695	89.81
412.919	89.81
413.142	77.81
413.365	85.81
413.589	80.81
413.812	86.81
414.035	81.81
414.258	98.81
414.482	92.81
414.705	104.81
414.928	91.81
415.151	89.81
415.374	76.81
415.597	84.81
415.821	79.81
416.044	80.81
416.267	87.81
416.49	93.81
416.713	97.81
416.936	94.81
417.159	96.81
417.382	89.81
417.605	85.81
417.828	83.81
418.051	95.81
418.274	87.81
418.497	100.81
418.72	80.81
418.943	110.81
419.166	89.81
419.389	74.81
419.611	87.81
419.834	87.81
420.057	98.81
420.28	88.81
420.503	84.81
420.726	72.81
420.948	78.81
421.171	92.81
421.394	95.81
421.617	87.81
421.839	98.81
422.062	87.81
422.285	88.81
422.507	100.81
422.73	96.81
422.953	90.81
423.175	78.81
423.398	81.81
423.621	88.81
423.843	91.81
424.066	94.81
424.288	90.81
424.511	80.81
424.733	100.81
424.956	101.81
425.178	83.81
425.401	94.81
425.623	94.81
425.846	72.81
426.068	101.81
426.291	81.81
426.513	85.81
426.735	85.81
426.958	88.81
427.18	96.81
427.402	102.81
427.625	137.81
427.847	125.81
428.069	93.81
428.292	88.81
428.514	85.81
428.736	94.81
428.958	91.81
429.181	92.81
429.403	85.81
429.625	75.81
429.847	73.81
430.069	79.81
430.292	87.81
430.514	91.81
430.736	93.81
430.958	93.81
431.18	72.81
431.402	88.81
431.624	86.81
431.846	80.81
432.068	80.81
432.29	79.81
432.512	89.81
432.734	89.81
432.956	82.81
433.178	97.81
433.4	88.81
433.622	96.81
433.844	74.81
434.066	102.81
434.287	97.81
434.509	83.81
434.731	98.81
434.953	93.81
435.175	74.81
435.397	98.81
435.618	73.81
435.84	89.81
436.062	111.81
436.284	101.81
436.505	98.81
436.727	86.81
436.949	96.81
437.17	94.81
437.392	87.81
437.614	92.81
437.835	85.81
438.057	104.81
438.278	89.81
438.5	102.81
438.721	110.81
438.943	97.81
439.165	78.81
439.386	81.81
439.608	85.81
439.829	90.81
440.05	115.81
440.272	124.81
440.493	99.81
440.715	78.81
440.936	72.81
441.158	89.81
441.379	98.81
441.6	92.81
441.822	97.81
442.043	82.81
442.264	91.81
442.486	107.81
442.707	102.81
442.928	93.81
443.149	109.81
443.371	107.81
443.592	97.81
443.813	91.81
444.034	91.81
444.255	97.81
444.476	82.81
444.698	81.81
444.919	81.81
445.14	138.81
445.361	113.81
445.582	103.81
445.803	111.81
446.024	108.81
446.245	129.81
446.466	102.81
446.687	95.81
446.908	85.81
447.129	71.81
447.35	77.81
447.571	94.81
447.792	70.81
448.013	86.81
448.234	85.81
448.455	94.81
448.675	93.81
448.896	101.81
449.117	92.81
449.338	93.81
449.559	107.81
449.779	101.81
450	72.81
450.221	89.81
450.442	96.81
450.662	83.81
450.883	87.81
451.104	89.81
451.324	75.81
451.545	77.81
451.766	75.81
451.986	81.81
452.207	81.81
452.428	89.81
452.648	94.81
452.869	100.81
453.089	99.81
453.31	109.81
453.53	90.81
453.751	97.81
453.971	93.81
454.192	96.81
454.412	87.81
454.633	69.81
454.853	85.81
455.073	74.81
455.294	55.81
455.514	98.81
455.734	90.81
455.955	97.81
456.175	97.81
456.395	88.81
456.616	91.81
456.836	82.81
457.056	87.81
457.276	85.81
457.497	90.81
457.717	87.81
457.937	94.81
458.157	82.81
458.377	98.81
458.598	90.81
458.818	113.81
459.038	119.81
459.258	97.81
459.478	72.81
459.698	95.81
459.918	83.81
460.138	83.81
460.358	83.81
460.578	92.81
460.798	93.81
461.018	79.81
461.238	81.81
461.458	74.81
461.678	81.81
461.898	87.81
462.118	90.81
462.338	87.81
462.558	77.81
462.777	81.81
462.997	81.81
463.217	74.81
463.437	84.81
463.657	79.81
463.876	82.81
464.096	81.81
464.316	93.81
464.536	98.81
464.755	70.81
464.975	108.81
465.195	113.81
465.414	108.81
465.634	83.81
465.854	79.81
466.073	90.81
466.293	80.81
466.512	80.81
466.732	87.81
466.951	89.81
467.171	91.81
467.391	79.81
467.61	93.81
467.829	96.81
468.049	86.81
468.268	102.81
468.488	101.81
468.707	70.81
468.927	90.81
469.146	81.81
469.365	79.81
469.585	86.81
469.804	92.81
470.023	99.81
470.243	94.81
470.462	98.81
470.681	103.81
470.901	72.81
471.12	88.81
471.339	93.81
471.558	87.81
471.777	95.81
471.997	88.81
472.216	106.81
472.435	117.81
472.654	100.81
472.873	85.81
473.092	86.81
473.311	85.81
473.53	69.81
473.749	81.81
473.968	89.81
474.187	78.81
474.406	93.81
474.625	81.81
474.844	82.81
475.063	92.81
475.282	85.81
475.501	90.81
475.72	105.81
475.939	97.81
476.158	89.81
476.377	84.81
476.596	78.81
476.814	99.81
477.033	87.81
477.252	80.81
477.471	85.81
477.69	84.81
477.908	88.81
478.127	87.81
478.346	86.81
478.564	84.81
478.783	90.81
479.002	91.81
479.22	81.81
479.439	96.81
479.658	73.81
479.876	93.81
480.095	90.81
480.313	110.81
480.532	79.81
480.751	91.81
480.969	89.81
481.188	159.81
481.406	141.81
481.624	96.81
481.843	86.81
482.061	93.81
482.28	93.81
482.498	89.81
482.717	85.81
482.935	92.81
483.153	82.81
483.372	85.81
483.59	93.81
483.808	77.81
484.027	79.81
484.245	78.81
484.463	85.81
484.681	89.81
484.9	83.81
485.118	82.81
485.336	100.81
485.554	102.81
485.772	103.81
485.99	94.81
486.209	85.81
486.427	96.81
486.645	88.81
486.863	95.81
487.081	104.81
487.299	94.81
487.517	92.81
487.735	95.81
487.953	97.81
488.171	102.81
488.389	90.81
488.607	83.81
488.825	95.81
489.043	87.81
489.261	104.81
489.479	95.81
489.696	92.81
489.914	87.81
490.132	71.81
490.35	89.81
490.568	87.81
490.786	87.81
491.003	87.81
491.221	84.81
491.439	81.81
491.657	97.81
491.874	89.81
492.092	81.81
492.31	93.81
492.527	85.81
492.745	79.81
492.963	86.81
493.18	103.81
493.398	93.81
493.615	96.81
493.833	102.81
494.05	84.81
494.268	110.81
494.485	88.81
494.703	68.81
494.92	92.81
495.138	89.81
495.355	100.81
495.573	98.81
495.79	89.81
496.008	96.81
496.225	98.81
496.442	88.81
496.66	96.81
496.877	81.81
497.094	96.81
497.312	86.81
497.529	87.81
497.746	92.81
497.963	87.81
498.181	90.81
498.398	98.81
498.615	109.81
498.832	96.81
499.049	81.81
499.267	88.81
499.484	82.81
499.701	79.81
499.918	91.81
500.135	67.81
500.352	89.81
500.569	101.81
500.786	86.81
501.003	88.81
501.22	99.81
501.437	96.81
501.654	86.81
501.871	91.81
502.088	87.81
502.305	89.81
502.522	101.81
502.739	96.81
502.956	92.81
503.172	89.81
503.389	98.81
503.606	108.81
503.823	95.81
504.04	97.81
504.256	88.81
504.473	89.81
504.69	87.81
504.907	88.81
505.123	70.81
505.34	78.81
505.557	82.81
505.773	100.81
505.99	94.81
506.207	79.81
506.423	78.81
506.64	94.81
506.856	90.81
507.073	85.81
507.289	91.81
507.506	81.81
507.722	107.81
507.939	87.81
508.155	83.81
508.372	91.81
508.588	87.81
508.805	88.81
509.021	82.81
509.238	87.81
509.454	102.81
509.67	99.81
509.887	105.81
510.103	114.81
510.319	166.81
510.536	534.81
510.752	1554.81
510.968	448.81
511.184	119.81
511.401	91.81
511.617	86.81
511.833	83.81
512.049	102.81
512.265	93.81
512.481	83.81
512.698	81.81
512.914	89.81
513.13	95.81
513.346	89.81
513.562	97.81
513.778	104.81
513.994	87.81
514.21	97.81
514.426	86.81
514.642	103.81
514.858	122.81
515.074	143.81
515.29	308.81
515.506	873.81
515.721	341.81
515.937	128.81
516.153	105.81
516.369	100.81
516.585	105.81
516.801	99.81
