Data from Uncirc_1982_H10_HRD10591_00052.txt Node
Date: Wed Jan 03 12:29:35 EST 2024
User: Yrep
Spectrometer: HR+D1059
Trigger mode: 1
Integration Time (sec): 1.000000E-1
Scans to average: 1
Electric dark correction enabled: true
Nonlinearity correction enabled: false
Boxcar width: 0
XAxis mode: Wavelengths
Number of Pixels in Spectrum: 2048
>>>>>Begin Spectral Data<<<<<
223.165	-20.62
223.4	-20.62
223.635	-20.62
223.869	-18.62
224.104	-13.62
224.338	3.38
224.573	-7.62
224.808	-4.62
225.042	-20.62
225.277	-15.62
225.511	-3.62
225.746	1.38
225.98	12.38
226.215	7.38
226.449	7.38
226.683	15.38
226.918	17.38
227.152	40.38
227.387	30.38
227.621	29.38
227.856	45.38
228.09	52.38
228.324	50.38
228.559	60.38
228.793	47.38
229.027	60.38
229.262	86.38
229.496	58.38
229.73	68.38
229.964	76.38
230.199	74.38
230.433	80.38
230.667	81.38
230.901	65.38
231.136	81.38
231.37	78.38
231.604	92.38
231.838	83.38
232.072	91.38
232.306	82.38
232.541	79.38
232.775	95.38
233.009	80.38
233.243	87.38
233.477	72.38
233.711	81.38
233.945	85.38
234.179	71.38
234.413	67.38
234.647	76.38
234.881	79.38
235.115	76.38
235.349	74.38
235.583	83.38
235.817	82.38
236.051	82.38
236.285	80.38
236.519	89.38
236.753	72.38
236.987	72.38
237.221	84.38
237.455	78.38
237.689	78.38
237.922	82.38
238.156	77.38
238.39	81.38
238.624	87.38
238.858	68.38
239.091	68.38
239.325	81.38
239.559	83.38
239.793	76.38
240.027	77.38
240.26	69.38
240.494	74.38
240.728	70.38
240.961	75.38
241.195	81.38
241.429	65.38
241.662	56.38
241.896	76.38
242.13	81.38
242.363	77.38
242.597	63.38
242.83	59.38
243.064	95.38
243.298	89.38
243.531	87.38
243.765	69.38
243.998	79.38
244.232	79.38
244.465	85.38
244.699	80.38
244.932	75.38
245.166	86.38
245.399	79.38
245.633	77.38
245.866	74.38
246.099	70.38
246.333	90.38
246.566	76.38
246.8	89.38
247.033	75.38
247.266	90.38
247.5	92.38
247.733	91.38
247.966	72.38
248.2	75.38
248.433	82.38
248.666	84.38
248.899	90.38
249.133	70.38
249.366	76.38
249.599	89.38
249.832	89.38
250.066	91.38
250.299	81.38
250.532	91.38
250.765	79.38
250.998	68.38
251.231	79.38
251.465	84.38
251.698	75.38
251.931	79.38
252.164	64.38
252.397	93.38
252.63	72.38
252.863	71.38
253.096	79.38
253.329	76.38
253.562	81.38
253.795	88.38
254.028	81.38
254.261	79.38
254.494	79.38
254.727	72.38
254.96	73.38
255.193	86.38
255.426	82.38
255.659	80.38
255.892	75.38
256.124	79.38
256.357	90.38
256.59	88.38
256.823	73.38
257.056	98.38
257.289	74.38
257.521	79.38
257.754	74.38
257.987	85.38
258.22	77.38
258.452	85.38
258.685	89.38
258.918	70.38
259.151	86.38
259.383	85.38
259.616	87.38
259.849	72.38
260.081	83.38
260.314	85.38
260.547	93.38
260.779	85.38
261.012	70.38
261.244	80.38
261.477	89.38
261.71	95.38
261.942	91.38
262.175	104.38
262.407	83.38
262.64	84.38
262.872	79.38
263.105	89.38
263.337	85.38
263.57	69.38
263.802	83.38
264.035	87.38
264.267	87.38
264.499	87.38
264.732	91.38
264.964	89.38
265.197	84.38
265.429	75.38
265.661	83.38
265.894	79.38
266.126	93.38
266.358	87.38
266.591	77.38
266.823	85.38
267.055	79.38
267.287	88.38
267.52	88.38
267.752	83.38
267.984	81.38
268.216	82.38
268.448	71.38
268.681	77.38
268.913	79.38
269.145	83.38
269.377	97.38
269.609	76.38
269.841	80.38
270.073	90.38
270.306	81.38
270.538	91.38
270.77	71.38
271.002	90.38
271.234	87.38
271.466	92.38
271.698	93.38
271.93	98.38
272.162	90.38
272.394	81.38
272.626	86.38
272.858	89.38
273.09	92.38
273.322	76.38
273.553	80.38
273.785	72.38
274.017	83.38
274.249	80.38
274.481	87.38
274.713	82.38
274.945	85.38
275.176	71.38
275.408	94.38
275.64	72.38
275.872	88.38
276.104	83.38
276.335	94.38
276.567	97.38
276.799	99.38
277.031	83.38
277.262	80.38
277.494	73.38
277.726	86.38
277.957	67.38
278.189	95.38
278.421	87.38
278.652	94.38
278.884	85.38
279.115	76.38
279.347	80.38
279.579	78.38
279.81	82.38
280.042	92.38
280.273	95.38
280.505	79.38
280.736	94.38
280.968	81.38
281.199	68.38
281.431	92.38
281.662	80.38
281.894	77.38
282.125	100.38
282.356	106.38
282.588	107.38
282.819	87.38
283.051	90.38
283.282	87.38
283.513	81.38
283.745	81.38
283.976	96.38
284.207	91.38
284.439	86.38
284.67	75.38
284.901	93.38
285.132	85.38
285.364	92.38
285.595	81.38
285.826	88.38
286.057	82.38
286.288	88.38
286.52	83.38
286.751	90.38
286.982	79.38
287.213	83.38
287.444	90.38
287.675	95.38
287.906	83.38
288.138	88.38
288.369	97.38
288.6	81.38
288.831	81.38
289.062	79.38
289.293	78.38
289.524	84.38
289.755	89.38
289.986	93.38
290.217	92.38
290.448	90.38
290.679	86.38
290.91	81.38
291.141	75.38
291.371	92.38
291.602	83.38
291.833	89.38
292.064	76.38
292.295	81.38
292.526	98.38
292.757	97.38
292.987	83.38
293.218	87.38
293.449	86.38
293.68	88.38
293.91	105.38
294.141	87.38
294.372	83.38
294.603	95.38
294.833	74.38
295.064	90.38
295.295	98.38
295.525	92.38
295.756	107.38
295.987	107.38
296.217	125.38
296.448	117.38
296.679	85.38
296.909	84.38
297.14	61.38
297.37	71.38
297.601	91.38
297.831	95.38
298.062	94.38
298.292	79.38
298.523	92.38
298.753	88.38
298.984	94.38
299.214	90.38
299.445	86.38
299.675	93.38
299.905	84.38
300.136	81.38
300.366	81.38
300.597	90.38
300.827	87.38
301.057	87.38
301.288	97.38
301.518	80.38
301.748	100.38
301.979	108.38
302.209	85.38
302.439	89.38
302.669	83.38
302.9	81.38
303.13	88.38
303.36	75.38
303.59	96.38
303.82	100.38
304.051	73.38
304.281	91.38
304.511	91.38
304.741	92.38
304.971	95.38
305.201	85.38
305.431	87.38
305.661	72.38
305.891	100.38
306.121	102.38
306.352	113.38
306.582	106.38
306.812	95.38
307.042	83.38
307.272	98.38
307.502	90.38
307.731	85.38
307.961	103.38
308.191	74.38
308.421	90.38
308.651	102.38
308.881	93.38
309.111	100.38
309.341	93.38
309.571	99.38
309.8	95.38
310.03	92.38
310.26	80.38
310.49	87.38
310.72	93.38
310.949	87.38
311.179	100.38
311.409	114.38
311.639	84.38
311.868	84.38
312.098	90.38
312.328	101.38
312.557	97.38
312.787	119.38
313.017	97.38
313.246	104.38
313.476	92.38
313.706	99.38
313.935	99.38
314.165	84.38
314.394	105.38
314.624	89.38
314.853	89.38
315.083	89.38
315.312	92.38
315.542	93.38
315.771	86.38
316.001	85.38
316.23	91.38
316.46	92.38
316.689	88.38
316.919	89.38
317.148	101.38
317.377	81.38
317.607	96.38
317.836	98.38
318.065	93.38
318.295	88.38
318.524	89.38
318.753	95.38
318.983	81.38
319.212	89.38
319.441	90.38
319.67	89.38
319.9	88.38
320.129	83.38
320.358	97.38
320.587	91.38
320.816	92.38
321.046	100.38
321.275	79.38
321.504	95.38
321.733	96.38
321.962	92.38
322.191	99.38
322.42	100.38
322.649	117.38
322.878	121.38
323.108	92.38
323.337	109.38
323.566	117.38
323.795	125.38
324.024	167.38
324.253	311.38
324.482	681.38
324.71	1381.38
324.939	1719.38
325.168	666.38
325.397	191.38
325.626	147.38
325.855	128.38
326.084	127.38
326.313	126.38
326.542	136.38
326.77	197.38
326.999	376.38
327.228	770.38
327.457	1376.38
327.686	1079.38
327.914	315.38
328.143	164.38
328.372	149.38
328.6	111.38
328.829	103.38
329.058	119.38
329.287	104.38
329.515	117.38
329.744	109.38
329.972	102.38
330.201	110.38
330.43	112.38
330.658	116.38
330.887	112.38
331.115	105.38
331.344	93.38
331.572	95.38
331.801	96.38
332.03	90.38
332.258	86.38
332.486	80.38
332.715	91.38
332.943	101.38
333.172	93.38
333.4	101.38
333.629	104.38
333.857	111.38
334.085	91.38
334.314	107.38
334.542	133.38
334.771	117.38
334.999	103.38
335.227	100.38
335.455	107.38
335.684	101.38
335.912	84.38
336.14	91.38
336.369	94.38
336.597	88.38
336.825	97.38
337.053	88.38
337.281	97.38
337.51	94.38
337.738	96.38
337.966	97.38
338.194	96.38
338.422	86.38
338.65	97.38
338.878	95.38
339.106	93.38
339.334	89.38
339.562	94.38
339.79	87.38
340.018	89.38
340.246	107.38
340.474	99.38
340.702	93.38
340.93	105.38
341.158	97.38
341.386	95.38
341.614	80.38
341.842	100.38
342.07	89.38
342.298	99.38
342.526	88.38
342.754	95.38
342.981	82.38
343.209	90.38
343.437	86.38
343.665	74.38
343.893	88.38
344.12	91.38
344.348	84.38
344.576	93.38
344.804	69.38
345.031	96.38
345.259	91.38
345.487	88.38
345.714	83.38
345.942	82.38
346.17	74.38
346.397	74.38
346.625	100.38
346.853	83.38
347.08	96.38
347.308	91.38
347.535	89.38
347.763	99.38
347.99	91.38
348.218	105.38
348.445	105.38
348.673	96.38
348.9	91.38
349.128	116.38
349.355	103.38
349.583	74.38
349.81	67.38
350.037	95.38
350.265	91.38
350.492	100.38
350.72	104.38
350.947	97.38
351.174	112.38
351.402	99.38
351.629	98.38
351.856	103.38
352.083	90.38
352.311	101.38
352.538	103.38
352.765	112.38
352.992	114.38
353.22	100.38
353.447	109.38
353.674	104.38
353.901	103.38
354.128	99.38
354.355	83.38
354.583	96.38
354.81	89.38
355.037	101.38
355.264	96.38
355.491	92.38
355.718	94.38
355.945	82.38
356.172	100.38
356.399	104.38
356.626	86.38
356.853	90.38
357.08	92.38
357.307	93.38
357.534	92.38
357.761	95.38
357.988	97.38
358.215	94.38
358.441	106.38
358.668	84.38
358.895	100.38
359.122	88.38
359.349	96.38
359.576	85.38
359.802	93.38
360.029	107.38
360.256	95.38
360.483	94.38
360.709	84.38
360.936	87.38
361.163	86.38
361.39	82.38
361.616	81.38
361.843	79.38
362.07	88.38
362.296	87.38
362.523	97.38
362.749	84.38
362.976	86.38
363.203	100.38
363.429	84.38
363.656	87.38
363.882	94.38
364.109	92.38
364.335	87.38
364.562	93.38
364.788	91.38
365.015	80.38
365.241	104.38
365.468	104.38
365.694	93.38
365.92	98.38
366.147	96.38
366.373	97.38
366.599	82.38
366.826	97.38
367.052	99.38
367.278	96.38
367.505	91.38
367.731	75.38
367.957	82.38
368.184	88.38
368.41	101.38
368.636	118.38
368.862	120.38
369.089	84.38
369.315	89.38
369.541	81.38
369.767	92.38
369.993	102.38
370.219	98.38
370.445	84.38
370.672	86.38
370.898	95.38
371.124	86.38
371.35	92.38
371.576	90.38
371.802	97.38
372.028	102.38
372.254	96.38
372.48	89.38
372.706	84.38
372.932	91.38
373.158	92.38
373.384	79.38
373.61	77.38
373.835	81.38
374.061	98.38
374.287	79.38
374.513	87.38
374.739	86.38
374.965	100.38
375.191	97.38
375.416	90.38
375.642	88.38
375.868	86.38
376.094	68.38
376.319	91.38
376.545	99.38
376.771	81.38
376.997	91.38
377.222	91.38
377.448	88.38
377.674	69.38
377.899	80.38
378.125	97.38
378.35	84.38
378.576	97.38
378.802	86.38
379.027	91.38
379.253	101.38
379.478	74.38
379.704	89.38
379.929	93.38
380.155	89.38
380.38	79.38
380.606	83.38
380.831	90.38
381.057	90.38
381.282	97.38
381.507	85.38
381.733	98.38
381.958	91.38
382.184	102.38
382.409	101.38
382.634	99.38
382.86	100.38
383.085	107.38
383.31	100.38
383.535	101.38
383.761	102.38
383.986	94.38
384.211	102.38
384.436	86.38
384.662	104.38
384.887	116.38
385.112	107.38
385.337	103.38
385.562	105.38
385.787	120.38
386.013	113.38
386.238	122.38
386.463	94.38
386.688	97.38
386.913	96.38
387.138	102.38
387.363	111.38
387.588	107.38
387.813	98.38
388.038	116.38
388.263	105.38
388.488	112.38
388.713	92.38
388.938	91.38
389.163	103.38
389.387	81.38
389.612	102.38
389.837	91.38
390.062	95.38
390.287	93.38
390.512	101.38
390.736	104.38
390.961	88.38
391.186	102.38
391.411	92.38
391.636	81.38
391.86	81.38
392.085	75.38
392.31	84.38
392.534	92.38
392.759	80.38
392.984	89.38
393.208	81.38
393.433	85.38
393.658	82.38
393.882	79.38
394.107	77.38
394.331	83.38
394.556	85.38
394.78	88.38
395.005	89.38
395.229	89.38
395.454	89.38
395.678	70.38
395.903	94.38
396.127	84.38
396.352	89.38
396.576	86.38
396.801	93.38
397.025	92.38
397.249	88.38
397.474	86.38
397.698	88.38
397.922	96.38
398.147	92.38
398.371	85.38
398.595	90.38
398.82	91.38
399.044	89.38
399.268	86.38
399.492	85.38
399.717	90.38
399.941	94.38
400.165	97.38
400.389	93.38
400.613	92.38
400.837	99.38
401.062	79.38
401.286	92.38
401.51	79.38
401.734	87.38
401.958	95.38
402.182	100.38
402.406	143.38
402.63	108.38
402.854	82.38
403.078	84.38
403.302	99.38
403.526	88.38
403.75	97.38
403.974	88.38
404.198	84.38
404.422	106.38
404.645	90.38
404.869	92.38
405.093	89.38
405.317	111.38
405.541	92.38
405.765	97.38
405.988	123.38
406.212	143.38
406.436	174.38
406.66	121.38
406.883	96.38
407.107	70.38
407.331	91.38
407.555	93.38
407.778	108.38
408.002	87.38
408.226	73.38
408.449	79.38
408.673	74.38
408.896	81.38
409.12	80.38
409.344	91.38
409.567	87.38
409.791	71.38
410.014	87.38
410.238	92.38
410.461	87.38
410.685	90.38
410.908	105.38
411.132	111.38
411.355	83.38
411.578	82.38
411.802	89.38
412.025	96.38
412.249	92.38
412.472	91.38
412.695	101.38
412.919	95.38
413.142	89.38
413.365	83.38
413.589	96.38
413.812	83.38
414.035	83.38
414.258	103.38
414.482	77.38
414.705	86.38
414.928	87.38
415.151	87.38
415.374	79.38
415.597	96.38
415.821	96.38
416.044	86.38
416.267	79.38
416.49	95.38
416.713	83.38
416.936	102.38
417.159	83.38
417.382	79.38
417.605	88.38
417.828	80.38
418.051	75.38
418.274	82.38
418.497	106.38
418.72	85.38
418.943	89.38
419.166	108.38
419.389	83.38
419.611	88.38
419.834	97.38
420.057	84.38
420.28	85.38
420.503	83.38
420.726	84.38
420.948	88.38
421.171	100.38
421.394	84.38
421.617	96.38
421.839	97.38
422.062	103.38
422.285	89.38
422.507	88.38
422.73	93.38
422.953	92.38
423.175	84.38
423.398	78.38
423.621	89.38
423.843	95.38
424.066	88.38
424.288	89.38
424.511	81.38
424.733	102.38
424.956	96.38
425.178	96.38
425.401	98.38
425.623	87.38
425.846	96.38
426.068	81.38
426.291	90.38
426.513	87.38
426.735	95.38
426.958	90.38
427.18	113.38
427.402	124.38
427.625	150.38
427.847	109.38
428.069	128.38
428.292	101.38
428.514	93.38
428.736	75.38
428.958	65.38
429.181	88.38
429.403	86.38
429.625	75.38
429.847	90.38
430.069	101.38
430.292	91.38
430.514	86.38
430.736	89.38
430.958	92.38
431.18	86.38
431.402	73.38
431.624	75.38
431.846	98.38
432.068	105.38
432.29	91.38
432.512	89.38
432.734	86.38
432.956	91.38
433.178	96.38
433.4	101.38
433.622	92.38
433.844	96.38
434.066	77.38
434.287	92.38
434.509	87.38
434.731	102.38
434.953	83.38
435.175	89.38
435.397	94.38
435.618	93.38
435.84	103.38
436.062	118.38
436.284	99.38
436.505	92.38
436.727	93.38
436.949	84.38
437.17	87.38
437.392	87.38
437.614	74.38
437.835	88.38
438.057	97.38
438.278	95.38
438.5	96.38
438.721	119.38
438.943	102.38
439.165	96.38
439.386	82.38
439.608	87.38
439.829	92.38
440.05	116.38
440.272	117.38
440.493	105.38
440.715	80.38
440.936	79.38
441.158	90.38
441.379	84.38
441.6	91.38
441.822	93.38
442.043	93.38
442.264	108.38
442.486	82.38
442.707	84.38
442.928	97.38
443.149	103.38
443.371	99.38
443.592	103.38
443.813	100.38
444.034	98.38
444.255	96.38
444.476	75.38
444.698	89.38
444.919	85.38
445.14	124.38
445.361	126.38
445.582	108.38
445.803	115.38
446.024	129.38
446.245	121.38
446.466	102.38
446.687	93.38
446.908	89.38
447.129	103.38
447.35	98.38
447.571	76.38
447.792	81.38
448.013	95.38
448.234	93.38
448.455	93.38
448.675	84.38
448.896	95.38
449.117	81.38
449.338	97.38
449.559	120.38
449.779	113.38
450	93.38
450.221	83.38
450.442	88.38
450.662	89.38
450.883	85.38
451.104	99.38
451.324	87.38
451.545	74.38
451.766	92.38
451.986	74.38
452.207	91.38
452.428	94.38
452.648	94.38
452.869	113.38
453.089	107.38
453.31	94.38
453.53	76.38
453.751	100.38
453.971	95.38
454.192	112.38
454.412	90.38
454.633	93.38
454.853	77.38
455.073	84.38
455.294	81.38
455.514	97.38
455.734	87.38
455.955	81.38
456.175	83.38
456.395	80.38
456.616	73.38
456.836	67.38
457.056	82.38
457.276	88.38
457.497	104.38
457.717	79.38
457.937	89.38
458.157	87.38
458.377	88.38
458.598	96.38
458.818	131.38
459.038	136.38
459.258	110.38
459.478	83.38
459.698	77.38
459.918	77.38
460.138	80.38
460.358	95.38
460.578	92.38
460.798	98.38
461.018	82.38
461.238	88.38
461.458	87.38
461.678	90.38
461.898	81.38
462.118	73.38
462.338	90.38
462.558	86.38
462.777	82.38
462.997	76.38
463.217	86.38
463.437	94.38
463.657	88.38
463.876	88.38
464.096	95.38
464.316	107.38
464.536	98.38
464.755	82.38
464.975	107.38
465.195	144.38
465.414	135.38
465.634	101.38
465.854	97.38
466.073	63.38
466.293	77.38
466.512	80.38
466.732	77.38
466.951	79.38
467.171	87.38
467.391	89.38
467.61	105.38
467.829	106.38
468.049	95.38
468.268	85.38
468.488	83.38
468.707	80.38
468.927	85.38
469.146	103.38
469.365	77.38
469.585	83.38
469.804	93.38
470.023	105.38
470.243	110.38
470.462	97.38
470.681	99.38
470.901	75.38
471.12	84.38
471.339	95.38
471.558	88.38
471.777	84.38
471.997	95.38
472.216	105.38
472.435	147.38
472.654	97.38
472.873	84.38
473.092	99.38
473.311	83.38
473.53	90.38
473.749	85.38
473.968	93.38
474.187	99.38
474.406	95.38
474.625	77.38
474.844	84.38
475.063	81.38
475.282	87.38
475.501	84.38
475.72	80.38
475.939	80.38
476.158	90.38
476.377	91.38
476.596	82.38
476.814	69.38
477.033	92.38
477.252	91.38
477.471	93.38
477.69	90.38
477.908	83.38
478.127	88.38
478.346	98.38
478.564	97.38
478.783	99.38
479.002	100.38
479.22	88.38
479.439	100.38
479.658	84.38
479.876	85.38
480.095	82.38
480.313	93.38
480.532	104.38
480.751	95.38
480.969	114.38
481.188	179.38
481.406	145.38
481.624	89.38
481.843	85.38
482.061	87.38
482.28	79.38
482.498	87.38
482.717	91.38
482.935	85.38
483.153	92.38
483.372	86.38
483.59	81.38
483.808	79.38
484.027	86.38
484.245	104.38
484.463	103.38
484.681	108.38
484.9	100.38
485.118	87.38
485.336	97.38
485.554	97.38
485.772	105.38
485.99	99.38
486.209	97.38
486.427	100.38
486.645	121.38
486.863	97.38
487.081	98.38
487.299	92.38
487.517	80.38
487.735	89.38
487.953	90.38
488.171	116.38
488.389	102.38
488.607	105.38
488.825	94.38
489.043	93.38
489.261	86.38
489.479	82.38
489.696	82.38
489.914	92.38
490.132	91.38
490.35	72.38
490.568	87.38
490.786	97.38
491.003	70.38
491.221	91.38
491.439	98.38
491.657	110.38
491.874	83.38
492.092	91.38
492.31	98.38
492.527	90.38
492.745	95.38
492.963	76.38
493.18	79.38
493.398	91.38
493.615	94.38
493.833	91.38
494.05	89.38
494.268	84.38
494.485	73.38
494.703	83.38
494.92	83.38
495.138	95.38
495.355	90.38
495.573	88.38
495.79	89.38
496.008	84.38
496.225	92.38
496.442	94.38
496.66	92.38
496.877	83.38
497.094	91.38
497.312	93.38
497.529	100.38
497.746	92.38
497.963	97.38
498.181	81.38
498.398	93.38
498.615	114.38
498.832	96.38
499.049	94.38
499.267	91.38
499.484	80.38
499.701	90.38
499.918	95.38
500.135	91.38
500.352	94.38
500.569	88.38
500.786	80.38
501.003	92.38
501.22	86.38
501.437	92.38
501.654	77.38
501.871	100.38
502.088	82.38
502.305	86.38
502.522	101.38
502.739	89.38
502.956	94.38
503.172	83.38
503.389	97.38
503.606	103.38
503.823	105.38
504.04	91.38
504.256	96.38
504.473	94.38
504.69	84.38
504.907	87.38
505.123	75.38
505.34	85.38
505.557	90.38
505.773	86.38
505.99	85.38
506.207	89.38
506.423	96.38
506.64	74.38
506.856	78.38
507.073	85.38
507.289	90.38
507.506	71.38
507.722	115.38
507.939	101.38
508.155	95.38
508.372	93.38
508.588	97.38
508.805	96.38
509.021	91.38
509.238	98.38
509.454	104.38
509.67	108.38
509.887	103.38
510.103	115.38
510.319	190.38
510.536	617.38
510.752	1860.38
510.968	527.38
511.184	133.38
511.401	106.38
511.617	107.38
511.833	93.38
512.049	103.38
512.265	97.38
512.481	103.38
512.698	107.38
512.914	100.38
513.13	88.38
513.346	97.38
513.562	96.38
513.778	89.38
513.994	90.38
514.21	94.38
514.426	107.38
514.642	113.38
514.858	121.38
515.074	147.38
515.29	371.38
515.506	1114.38
515.721	403.38
515.937	119.38
516.153	106.38
516.369	99.38
