Data from Uncirc_1982_H10_HRD10591_00006.txt Node
Date: Wed Jan 03 12:29:26 EST 2024
User: Yrep
Spectrometer: HR+D1059
Trigger mode: 1
Integration Time (sec): 1.000000E-1
Scans to average: 1
Electric dark correction enabled: true
Nonlinearity correction enabled: false
Boxcar width: 0
XAxis mode: Wavelengths
Number of Pixels in Spectrum: 2048
>>>>>Begin Spectral Data<<<<<
223.165	-11.25
223.4	-11.25
223.635	-11.25
223.869	-28.25
224.104	-14.25
224.338	-18.25
224.573	-18.25
224.808	-7.25
225.042	-18.25
225.277	-6.25
225.511	-1.25
225.746	1.75
225.98	1.75
226.215	6.75
226.449	28.75
226.683	22.75
226.918	29.75
227.152	31.75
227.387	40.75
227.621	42.75
227.856	45.75
228.09	54.75
228.324	50.75
228.559	69.75
228.793	65.75
229.027	70.75
229.262	71.75
229.496	69.75
229.73	67.75
229.964	66.75
230.199	81.75
230.433	63.75
230.667	81.75
230.901	73.75
231.136	75.75
231.37	87.75
231.604	62.75
231.838	89.75
232.072	77.75
232.306	91.75
232.541	86.75
232.775	81.75
233.009	83.75
233.243	85.75
233.477	79.75
233.711	77.75
233.945	69.75
234.179	82.75
234.413	91.75
234.647	91.75
234.881	74.75
235.115	68.75
235.349	77.75
235.583	84.75
235.817	87.75
236.051	82.75
236.285	93.75
236.519	82.75
236.753	84.75
236.987	86.75
237.221	80.75
237.455	87.75
237.689	79.75
237.922	69.75
238.156	80.75
238.39	87.75
238.624	76.75
238.858	70.75
239.091	93.75
239.325	76.75
239.559	61.75
239.793	84.75
240.027	78.75
240.26	76.75
240.494	87.75
240.728	78.75
240.961	85.75
241.195	84.75
241.429	63.75
241.662	72.75
241.896	68.75
242.13	85.75
242.363	67.75
242.597	83.75
242.83	93.75
243.064	88.75
243.298	87.75
243.531	76.75
243.765	93.75
243.998	83.75
244.232	79.75
244.465	75.75
244.699	92.75
244.932	83.75
245.166	73.75
245.399	71.75
245.633	78.75
245.866	88.75
246.099	76.75
246.333	77.75
246.566	72.75
246.8	76.75
247.033	101.75
247.266	89.75
247.5	97.75
247.733	78.75
247.966	81.75
248.2	81.75
248.433	78.75
248.666	87.75
248.899	87.75
249.133	91.75
249.366	97.75
249.599	87.75
249.832	74.75
250.066	81.75
250.299	83.75
250.532	69.75
250.765	91.75
250.998	91.75
251.231	87.75
251.465	77.75
251.698	77.75
251.931	86.75
252.164	68.75
252.397	84.75
252.63	85.75
252.863	86.75
253.096	81.75
253.329	74.75
253.562	76.75
253.795	86.75
254.028	87.75
254.261	76.75
254.494	94.75
254.727	83.75
254.96	86.75
255.193	83.75
255.426	92.75
255.659	82.75
255.892	93.75
256.124	85.75
256.357	68.75
256.59	79.75
256.823	75.75
257.056	90.75
257.289	93.75
257.521	86.75
257.754	88.75
257.987	94.75
258.22	82.75
258.452	93.75
258.685	75.75
258.918	86.75
259.151	91.75
259.383	91.75
259.616	90.75
259.849	83.75
260.081	84.75
260.314	87.75
260.547	75.75
260.779	87.75
261.012	81.75
261.244	86.75
261.477	93.75
261.71	101.75
261.942	93.75
262.175	101.75
262.407	76.75
262.64	69.75
262.872	67.75
263.105	78.75
263.337	88.75
263.57	98.75
263.802	82.75
264.035	89.75
264.267	85.75
264.499	68.75
264.732	83.75
264.964	74.75
265.197	88.75
265.429	78.75
265.661	88.75
265.894	71.75
266.126	83.75
266.358	82.75
266.591	77.75
266.823	77.75
267.055	95.75
267.287	94.75
267.52	92.75
267.752	77.75
267.984	89.75
268.216	87.75
268.448	78.75
268.681	81.75
268.913	92.75
269.145	75.75
269.377	77.75
269.609	78.75
269.841	97.75
270.073	91.75
270.306	74.75
270.538	85.75
270.77	78.75
271.002	93.75
271.234	76.75
271.466	79.75
271.698	88.75
271.93	79.75
272.162	89.75
272.394	85.75
272.626	97.75
272.858	73.75
273.09	81.75
273.322	83.75
273.553	90.75
273.785	75.75
274.017	93.75
274.249	92.75
274.481	95.75
274.713	63.75
274.945	79.75
275.176	90.75
275.408	89.75
275.64	92.75
275.872	81.75
276.104	93.75
276.335	90.75
276.567	92.75
276.799	85.75
277.031	88.75
277.262	95.75
277.494	98.75
277.726	84.75
277.957	87.75
278.189	98.75
278.421	92.75
278.652	93.75
278.884	81.75
279.115	81.75
279.347	81.75
279.579	82.75
279.81	91.75
280.042	74.75
280.273	91.75
280.505	78.75
280.736	85.75
280.968	85.75
281.199	95.75
281.431	95.75
281.662	79.75
281.894	94.75
282.125	80.75
282.356	104.75
282.588	124.75
282.819	101.75
283.051	74.75
283.282	90.75
283.513	86.75
283.745	93.75
283.976	88.75
284.207	73.75
284.439	93.75
284.67	99.75
284.901	82.75
285.132	74.75
285.364	78.75
285.595	89.75
285.826	85.75
286.057	94.75
286.288	81.75
286.52	90.75
286.751	75.75
286.982	82.75
287.213	93.75
287.444	99.75
287.675	105.75
287.906	85.75
288.138	76.75
288.369	72.75
288.6	83.75
288.831	93.75
289.062	74.75
289.293	89.75
289.524	84.75
289.755	83.75
289.986	68.75
290.217	98.75
290.448	78.75
290.679	85.75
290.91	93.75
291.141	95.75
291.371	86.75
291.602	86.75
291.833	101.75
292.064	94.75
292.295	89.75
292.526	96.75
292.757	100.75
292.987	93.75
293.218	86.75
293.449	96.75
293.68	87.75
293.91	85.75
294.141	87.75
294.372	78.75
294.603	96.75
294.833	89.75
295.064	98.75
295.295	63.75
295.525	82.75
295.756	93.75
295.987	111.75
296.217	108.75
296.448	115.75
296.679	90.75
296.909	89.75
297.14	79.75
297.37	96.75
297.601	103.75
297.831	105.75
298.062	94.75
298.292	99.75
298.523	83.75
298.753	82.75
298.984	89.75
299.214	86.75
299.445	92.75
299.675	97.75
299.905	81.75
300.136	94.75
300.366	95.75
300.597	77.75
300.827	87.75
301.057	85.75
301.288	84.75
301.518	94.75
301.748	74.75
301.979	89.75
302.209	93.75
302.439	88.75
302.669	85.75
302.9	78.75
303.13	82.75
303.36	91.75
303.59	105.75
303.82	105.75
304.051	92.75
304.281	97.75
304.511	91.75
304.741	99.75
304.971	80.75
305.201	87.75
305.431	89.75
305.661	81.75
305.891	81.75
306.121	91.75
306.352	87.75
306.582	100.75
306.812	81.75
307.042	85.75
307.272	81.75
307.502	109.75
307.731	85.75
307.961	88.75
308.191	98.75
308.421	92.75
308.651	94.75
308.881	106.75
309.111	93.75
309.341	79.75
309.571	93.75
309.8	92.75
310.03	82.75
310.26	105.75
310.49	97.75
310.72	100.75
310.949	88.75
311.179	99.75
311.409	99.75
311.639	84.75
311.868	87.75
312.098	97.75
312.328	85.75
312.557	92.75
312.787	99.75
313.017	95.75
313.246	87.75
313.476	108.75
313.706	100.75
313.935	90.75
314.165	98.75
314.394	98.75
314.624	91.75
314.853	104.75
315.083	97.75
315.312	92.75
315.542	87.75
315.771	87.75
316.001	97.75
316.23	99.75
316.46	93.75
316.689	98.75
316.919	85.75
317.148	93.75
317.377	85.75
317.607	87.75
317.836	94.75
318.065	93.75
318.295	91.75
318.524	71.75
318.753	86.75
318.983	102.75
319.212	102.75
319.441	81.75
319.67	90.75
319.9	86.75
320.129	90.75
320.358	99.75
320.587	92.75
320.816	100.75
321.046	104.75
321.275	106.75
321.504	102.75
321.733	98.75
321.962	108.75
322.191	109.75
322.42	100.75
322.649	102.75
322.878	106.75
323.108	113.75
323.337	93.75
323.566	101.75
323.795	132.75
324.024	170.75
324.253	314.75
324.482	627.75
324.71	1264.75
324.939	1694.75
325.168	630.75
325.397	221.75
325.626	122.75
325.855	124.75
326.084	118.75
326.313	137.75
326.542	141.75
326.77	198.75
326.999	351.75
327.228	742.75
327.457	1335.75
327.686	1065.75
327.914	291.75
328.143	169.75
328.372	141.75
328.6	134.75
328.829	110.75
329.058	115.75
329.287	104.75
329.515	108.75
329.744	100.75
329.972	98.75
330.201	96.75
330.43	123.75
330.658	106.75
330.887	120.75
331.115	109.75
331.344	101.75
331.572	95.75
331.801	95.75
332.03	99.75
332.258	98.75
332.486	93.75
332.715	102.75
332.943	85.75
333.172	84.75
333.4	106.75
333.629	95.75
333.857	93.75
334.085	113.75
334.314	105.75
334.542	112.75
334.771	110.75
334.999	109.75
335.227	109.75
335.455	92.75
335.684	98.75
335.912	103.75
336.14	98.75
336.369	93.75
336.597	98.75
336.825	91.75
337.053	93.75
337.281	77.75
337.51	99.75
337.738	93.75
337.966	99.75
338.194	75.75
338.422	94.75
338.65	97.75
338.878	93.75
339.106	92.75
339.334	102.75
339.562	86.75
339.79	89.75
340.018	96.75
340.246	97.75
340.474	93.75
340.702	98.75
340.93	71.75
341.158	79.75
341.386	93.75
341.614	85.75
341.842	102.75
342.07	81.75
342.298	87.75
342.526	93.75
342.754	92.75
342.981	92.75
343.209	92.75
343.437	101.75
343.665	82.75
343.893	78.75
344.12	96.75
344.348	91.75
344.576	110.75
344.804	97.75
345.031	95.75
345.259	103.75
345.487	90.75
345.714	85.75
345.942	100.75
346.17	89.75
346.397	89.75
346.625	107.75
346.853	103.75
347.08	95.75
347.308	100.75
347.535	99.75
347.763	88.75
347.99	96.75
348.218	97.75
348.445	86.75
348.673	78.75
348.9	93.75
349.128	102.75
349.355	105.75
349.583	97.75
349.81	77.75
350.037	89.75
350.265	89.75
350.492	115.75
350.72	91.75
350.947	106.75
351.174	96.75
351.402	110.75
351.629	120.75
351.856	103.75
352.083	97.75
352.311	105.75
352.538	105.75
352.765	90.75
352.992	101.75
353.22	103.75
353.447	94.75
353.674	107.75
353.901	103.75
354.128	94.75
354.355	101.75
354.583	97.75
354.81	108.75
355.037	95.75
355.264	91.75
355.491	101.75
355.718	94.75
355.945	94.75
356.172	87.75
356.399	97.75
356.626	93.75
356.853	84.75
357.08	85.75
357.307	86.75
357.534	100.75
357.761	99.75
357.988	99.75
358.215	86.75
358.441	90.75
358.668	101.75
358.895	87.75
359.122	93.75
359.349	90.75
359.576	76.75
359.802	95.75
360.029	99.75
360.256	97.75
360.483	89.75
360.709	89.75
360.936	109.75
361.163	87.75
361.39	74.75
361.616	91.75
361.843	85.75
362.07	95.75
362.296	93.75
362.523	92.75
362.749	89.75
362.976	100.75
363.203	105.75
363.429	95.75
363.656	97.75
363.882	81.75
364.109	80.75
364.335	102.75
364.562	101.75
364.788	99.75
365.015	93.75
365.241	91.75
365.468	98.75
365.694	106.75
365.92	103.75
366.147	93.75
366.373	97.75
366.599	92.75
366.826	97.75
367.052	87.75
367.278	95.75
367.505	90.75
367.731	94.75
367.957	88.75
368.184	90.75
368.41	86.75
368.636	102.75
368.862	112.75
369.089	101.75
369.315	86.75
369.541	98.75
369.767	91.75
369.993	100.75
370.219	94.75
370.445	94.75
370.672	100.75
370.898	89.75
371.124	97.75
371.35	89.75
371.576	79.75
371.802	92.75
372.028	96.75
372.254	82.75
372.48	95.75
372.706	82.75
372.932	98.75
373.158	84.75
373.384	94.75
373.61	86.75
373.835	90.75
374.061	105.75
374.287	83.75
374.513	66.75
374.739	85.75
374.965	96.75
375.191	94.75
375.416	93.75
375.642	95.75
375.868	90.75
376.094	94.75
376.319	99.75
376.545	83.75
376.771	101.75
376.997	100.75
377.222	100.75
377.448	90.75
377.674	102.75
377.899	83.75
378.125	94.75
378.35	100.75
378.576	83.75
378.802	99.75
379.027	89.75
379.253	90.75
379.478	93.75
379.704	106.75
379.929	109.75
380.155	83.75
380.38	99.75
380.606	105.75
380.831	115.75
381.057	101.75
381.282	105.75
381.507	97.75
381.733	104.75
381.958	107.75
382.184	115.75
382.409	101.75
382.634	126.75
382.86	105.75
383.085	113.75
383.31	122.75
383.535	112.75
383.761	102.75
383.986	105.75
384.211	117.75
384.436	115.75
384.662	110.75
384.887	111.75
385.112	124.75
385.337	145.75
385.562	127.75
385.787	128.75
386.013	149.75
386.238	135.75
386.463	126.75
386.688	135.75
386.913	137.75
387.138	118.75
387.363	133.75
387.588	118.75
387.813	109.75
388.038	122.75
388.263	138.75
388.488	138.75
388.713	110.75
388.938	97.75
389.163	105.75
389.387	101.75
389.612	87.75
389.837	86.75
390.062	99.75
390.287	104.75
390.512	97.75
390.736	98.75
390.961	90.75
391.186	99.75
391.411	98.75
391.636	93.75
391.86	93.75
392.085	89.75
392.31	90.75
392.534	97.75
392.759	104.75
392.984	90.75
393.208	75.75
393.433	93.75
393.658	74.75
393.882	98.75
394.107	93.75
394.331	82.75
394.556	101.75
394.78	107.75
395.005	98.75
395.229	84.75
395.454	86.75
395.678	88.75
395.903	86.75
396.127	83.75
396.352	89.75
396.576	78.75
396.801	99.75
397.025	75.75
397.249	82.75
397.474	99.75
397.698	83.75
397.922	89.75
398.147	89.75
398.371	92.75
398.595	83.75
398.82	83.75
399.044	89.75
399.268	103.75
399.492	95.75
399.717	97.75
399.941	99.75
400.165	90.75
400.389	85.75
400.613	92.75
400.837	95.75
401.062	93.75
401.286	79.75
401.51	95.75
401.734	89.75
401.958	87.75
402.182	99.75
402.406	122.75
402.63	92.75
402.854	84.75
403.078	91.75
403.302	91.75
403.526	85.75
403.75	86.75
403.974	77.75
404.198	81.75
404.422	86.75
404.645	88.75
404.869	84.75
405.093	93.75
405.317	89.75
405.541	82.75
405.765	104.75
405.988	107.75
406.212	146.75
406.436	167.75
406.66	120.75
406.883	89.75
407.107	98.75
407.331	93.75
407.555	99.75
407.778	95.75
408.002	100.75
408.226	83.75
408.449	99.75
408.673	94.75
408.896	96.75
409.12	104.75
409.344	96.75
409.567	92.75
409.791	94.75
410.014	86.75
410.238	76.75
410.461	93.75
410.685	105.75
410.908	103.75
411.132	107.75
411.355	93.75
411.578	94.75
411.802	93.75
412.025	90.75
412.249	97.75
412.472	92.75
412.695	99.75
412.919	99.75
413.142	91.75
413.365	75.75
413.589	87.75
413.812	107.75
414.035	97.75
414.258	85.75
414.482	100.75
414.705	92.75
414.928	85.75
415.151	94.75
415.374	101.75
415.597	97.75
415.821	101.75
416.044	118.75
416.267	87.75
416.49	84.75
416.713	77.75
416.936	95.75
417.159	90.75
417.382	90.75
417.605	81.75
417.828	88.75
418.051	91.75
418.274	99.75
418.497	87.75
418.72	99.75
418.943	93.75
419.166	92.75
419.389	72.75
419.611	100.75
419.834	88.75
420.057	98.75
420.28	85.75
420.503	101.75
420.726	70.75
420.948	93.75
421.171	91.75
421.394	102.75
421.617	90.75
421.839	79.75
422.062	89.75
422.285	89.75
422.507	100.75
422.73	98.75
422.953	90.75
423.175	100.75
423.398	89.75
423.621	106.75
423.843	77.75
424.066	87.75
424.288	99.75
424.511	106.75
424.733	93.75
424.956	88.75
425.178	86.75
425.401	86.75
425.623	98.75
425.846	89.75
426.068	87.75
426.291	76.75
426.513	83.75
426.735	85.75
426.958	86.75
427.18	113.75
427.402	126.75
427.625	145.75
427.847	106.75
428.069	91.75
428.292	88.75
428.514	77.75
428.736	73.75
428.958	75.75
429.181	95.75
429.403	86.75
429.625	80.75
429.847	86.75
430.069	86.75
430.292	90.75
430.514	87.75
430.736	102.75
430.958	93.75
431.18	90.75
431.402	91.75
431.624	86.75
431.846	79.75
432.068	91.75
432.29	90.75
432.512	86.75
432.734	87.75
432.956	98.75
433.178	81.75
433.4	97.75
433.622	95.75
433.844	90.75
434.066	97.75
434.287	92.75
434.509	91.75
434.731	95.75
434.953	97.75
435.175	83.75
435.397	84.75
435.618	90.75
435.84	102.75
436.062	97.75
436.284	108.75
436.505	99.75
436.727	98.75
436.949	90.75
437.17	96.75
437.392	79.75
437.614	85.75
437.835	86.75
438.057	98.75
438.278	95.75
438.5	99.75
438.721	103.75
438.943	92.75
439.165	94.75
439.386	75.75
439.608	103.75
439.829	107.75
440.05	106.75
440.272	123.75
440.493	90.75
440.715	93.75
440.936	74.75
441.158	91.75
441.379	95.75
441.6	90.75
441.822	100.75
442.043	87.75
442.264	100.75
442.486	98.75
442.707	93.75
442.928	105.75
443.149	102.75
443.371	94.75
443.592	91.75
443.813	101.75
444.034	99.75
444.255	102.75
444.476	95.75
444.698	86.75
444.919	86.75
445.14	141.75
445.361	128.75
445.582	110.75
445.803	122.75
446.024	124.75
446.245	99.75
446.466	105.75
446.687	102.75
446.908	84.75
447.129	84.75
447.35	82.75
447.571	102.75
447.792	79.75
448.013	81.75
448.234	99.75
448.455	92.75
448.675	111.75
448.896	100.75
449.117	96.75
449.338	100.75
449.559	110.75
449.779	122.75
450	98.75
450.221	81.75
450.442	103.75
450.662	79.75
450.883	88.75
451.104	103.75
451.324	100.75
451.545	89.75
451.766	91.75
451.986	85.75
452.207	82.75
452.428	94.75
452.648	89.75
452.869	81.75
453.089	107.75
453.31	107.75
453.53	82.75
453.751	83.75
453.971	79.75
454.192	97.75
454.412	97.75
454.633	92.75
454.853	78.75
455.073	89.75
455.294	91.75
455.514	94.75
455.734	88.75
455.955	91.75
456.175	98.75
456.395	94.75
456.616	88.75
456.836	93.75
457.056	81.75
457.276	70.75
457.497	81.75
457.717	89.75
457.937	78.75
458.157	85.75
458.377	90.75
458.598	103.75
458.818	98.75
459.038	112.75
459.258	104.75
459.478	85.75
459.698	96.75
459.918	93.75
460.138	97.75
460.358	86.75
460.578	75.75
460.798	83.75
461.018	95.75
461.238	94.75
461.458	89.75
461.678	95.75
461.898	85.75
462.118	82.75
462.338	79.75
462.558	88.75
462.777	81.75
462.997	99.75
463.217	90.75
463.437	83.75
463.657	99.75
463.876	86.75
464.096	81.75
464.316	92.75
464.536	77.75
464.755	94.75
464.975	94.75
465.195	124.75
465.414	118.75
465.634	82.75
465.854	71.75
466.073	89.75
466.293	69.75
466.512	97.75
466.732	94.75
466.951	71.75
467.171	99.75
467.391	101.75
467.61	103.75
467.829	87.75
468.049	95.75
468.268	82.75
468.488	81.75
468.707	80.75
468.927	85.75
469.146	82.75
469.365	97.75
469.585	85.75
469.804	94.75
470.023	91.75
470.243	85.75
470.462	108.75
470.681	95.75
470.901	92.75
471.12	100.75
471.339	86.75
471.558	85.75
471.777	87.75
471.997	82.75
472.216	105.75
472.435	120.75
472.654	95.75
472.873	77.75
473.092	93.75
473.311	85.75
473.53	92.75
473.749	81.75
473.968	96.75
474.187	87.75
474.406	97.75
474.625	102.75
474.844	80.75
475.063	83.75
475.282	95.75
475.501	82.75
475.72	96.75
475.939	93.75
476.158	101.75
476.377	93.75
476.596	95.75
476.814	73.75
477.033	94.75
477.252	82.75
477.471	93.75
477.69	78.75
477.908	100.75
478.127	99.75
478.346	78.75
478.564	83.75
478.783	92.75
479.002	95.75
479.22	87.75
479.439	76.75
479.658	102.75
479.876	108.75
480.095	93.75
480.313	86.75
480.532	98.75
480.751	99.75
480.969	110.75
481.188	159.75
481.406	123.75
481.624	89.75
481.843	92.75
482.061	91.75
482.28	81.75
482.498	89.75
482.717	91.75
482.935	92.75
483.153	94.75
483.372	86.75
483.59	84.75
483.808	89.75
484.027	108.75
484.245	98.75
484.463	91.75
484.681	98.75
484.9	99.75
485.118	90.75
485.336	82.75
485.554	93.75
485.772	114.75
485.99	105.75
486.209	97.75
486.427	96.75
486.645	104.75
486.863	114.75
487.081	101.75
487.299	100.75
487.517	83.75
487.735	95.75
487.953	102.75
488.171	94.75
488.389	100.75
488.607	102.75
488.825	95.75
489.043	89.75
489.261	86.75
489.479	99.75
489.696	99.75
489.914	85.75
490.132	108.75
490.35	94.75
490.568	82.75
490.786	89.75
491.003	92.75
491.221	74.75
491.439	83.75
491.657	87.75
491.874	95.75
492.092	77.75
492.31	101.75
492.527	78.75
492.745	91.75
492.963	102.75
493.18	96.75
493.398	85.75
493.615	104.75
493.833	107.75
494.05	86.75
494.268	91.75
494.485	92.75
494.703	88.75
494.92	98.75
495.138	107.75
495.355	87.75
495.573	100.75
495.79	90.75
496.008	103.75
496.225	103.75
496.442	95.75
496.66	97.75
496.877	94.75
497.094	93.75
497.312	103.75
497.529	79.75
497.746	106.75
497.963	94.75
498.181	95.75
498.398	93.75
498.615	100.75
498.832	90.75
499.049	103.75
499.267	85.75
499.484	82.75
499.701	95.75
499.918	95.75
500.135	91.75
500.352	117.75
500.569	90.75
500.786	76.75
501.003	97.75
501.22	93.75
501.437	73.75
501.654	89.75
501.871	101.75
502.088	83.75
502.305	105.75
502.522	93.75
502.739	95.75
502.956	92.75
503.172	96.75
503.389	100.75
503.606	89.75
503.823	102.75
504.04	93.75
504.256	97.75
504.473	95.75
504.69	70.75
504.907	92.75
505.123	95.75
505.34	93.75
505.557	106.75
505.773	104.75
505.99	93.75
506.207	79.75
506.423	93.75
506.64	94.75
506.856	92.75
507.073	92.75
507.289	93.75
507.506	94.75
507.722	107.75
507.939	103.75
508.155	100.75
508.372	91.75
508.588	92.75
508.805	81.75
509.021	97.75
509.238	88.75
509.454	95.75
509.67	103.75
509.887	107.75
510.103	123.75
510.319	160.75
510.536	483.75
510.752	1387.75
510.968	409.75
511.184	131.75
511.401	99.75
511.617	111.75
511.833	100.75
512.049	83.75
512.265	97.75
512.481	83.75
512.698	101.75
512.914	82.75
513.13	94.75
513.346	85.75
513.562	98.75
513.778	86.75
513.994	92.75
514.21	92.75
514.426	107.75
514.642	113.75
514.858	96.75
515.074	131.75
515.29	287.75
515.506	812.75
515.721	312.75
515.937	130.75
