Data from Uncirc_1982_H10_HRD10591_00051.txt Node
Date: Wed Jan 03 12:29:35 EST 2024
User: Yrep
Spectrometer: HR+D1059
Trigger mode: 1
Integration Time (sec): 1.000000E-1
Scans to average: 1
Electric dark correction enabled: true
Nonlinearity correction enabled: false
Boxcar width: 0
XAxis mode: Wavelengths
Number of Pixels in Spectrum: 2048
>>>>>Begin Spectral Data<<<<<
223.165	-20.12
223.4	-20.12
223.635	-20.12
223.869	-18.12
224.104	-23.12
224.338	-17.12
224.573	-11.12
224.808	-18.12
225.042	-12.12
225.277	-13.12
225.511	-13.12
225.746	7.88
225.98	7.88
226.215	13.88
226.449	27.88
226.683	24.88
226.918	16.88
227.152	46.88
227.387	46.88
227.621	36.88
227.856	43.88
228.09	50.88
228.324	50.88
228.559	59.88
228.793	61.88
229.027	64.88
229.262	69.88
229.496	76.88
229.73	75.88
229.964	86.88
230.199	76.88
230.433	65.88
230.667	76.88
230.901	82.88
231.136	87.88
231.37	75.88
231.604	76.88
231.838	77.88
232.072	83.88
232.306	61.88
232.541	77.88
232.775	66.88
233.009	71.88
233.243	87.88
233.477	81.88
233.711	75.88
233.945	69.88
234.179	82.88
234.413	88.88
234.647	86.88
234.881	71.88
235.115	94.88
235.349	82.88
235.583	90.88
235.817	75.88
236.051	73.88
236.285	78.88
236.519	68.88
236.753	65.88
236.987	82.88
237.221	78.88
237.455	79.88
237.689	72.88
237.922	90.88
238.156	69.88
238.39	70.88
238.624	93.88
238.858	77.88
239.091	72.88
239.325	74.88
239.559	58.88
239.793	68.88
240.027	77.88
240.26	80.88
240.494	84.88
240.728	69.88
240.961	76.88
241.195	74.88
241.429	81.88
241.662	82.88
241.896	78.88
242.13	84.88
242.363	84.88
242.597	83.88
242.83	72.88
243.064	61.88
243.298	66.88
243.531	80.88
243.765	84.88
243.998	77.88
244.232	78.88
244.465	85.88
244.699	79.88
244.932	67.88
245.166	80.88
245.399	90.88
245.633	70.88
245.866	70.88
246.099	73.88
246.333	75.88
246.566	83.88
246.8	75.88
247.033	92.88
247.266	83.88
247.5	88.88
247.733	84.88
247.966	85.88
248.2	84.88
248.433	98.88
248.666	67.88
248.899	78.88
249.133	100.88
249.366	94.88
249.599	77.88
249.832	83.88
250.066	76.88
250.299	74.88
250.532	86.88
250.765	81.88
250.998	77.88
251.231	77.88
251.465	72.88
251.698	69.88
251.931	65.88
252.164	74.88
252.397	80.88
252.63	85.88
252.863	76.88
253.096	78.88
253.329	85.88
253.562	78.88
253.795	88.88
254.028	76.88
254.261	84.88
254.494	82.88
254.727	93.88
254.96	93.88
255.193	78.88
255.426	77.88
255.659	61.88
255.892	87.88
256.124	83.88
256.357	67.88
256.59	77.88
256.823	77.88
257.056	56.88
257.289	88.88
257.521	88.88
257.754	76.88
257.987	84.88
258.22	86.88
258.452	75.88
258.685	76.88
258.918	81.88
259.151	93.88
259.383	82.88
259.616	84.88
259.849	91.88
260.081	83.88
260.314	85.88
260.547	62.88
260.779	75.88
261.012	76.88
261.244	70.88
261.477	80.88
261.71	96.88
261.942	96.88
262.175	95.88
262.407	80.88
262.64	99.88
262.872	88.88
263.105	80.88
263.337	84.88
263.57	76.88
263.802	76.88
264.035	82.88
264.267	78.88
264.499	85.88
264.732	88.88
264.964	75.88
265.197	90.88
265.429	94.88
265.661	72.88
265.894	90.88
266.126	65.88
266.358	84.88
266.591	84.88
266.823	87.88
267.055	88.88
267.287	82.88
267.52	78.88
267.752	87.88
267.984	75.88
268.216	86.88
268.448	76.88
268.681	86.88
268.913	88.88
269.145	96.88
269.377	82.88
269.609	86.88
269.841	98.88
270.073	91.88
270.306	76.88
270.538	98.88
270.77	82.88
271.002	88.88
271.234	92.88
271.466	91.88
271.698	87.88
271.93	90.88
272.162	61.88
272.394	86.88
272.626	78.88
272.858	103.88
273.09	85.88
273.322	80.88
273.553	84.88
273.785	81.88
274.017	87.88
274.249	78.88
274.481	83.88
274.713	86.88
274.945	81.88
275.176	77.88
275.408	97.88
275.64	91.88
275.872	108.88
276.104	104.88
276.335	91.88
276.567	89.88
276.799	104.88
277.031	112.88
277.262	93.88
277.494	92.88
277.726	90.88
277.957	86.88
278.189	91.88
278.421	89.88
278.652	97.88
278.884	99.88
279.115	94.88
279.347	76.88
279.579	84.88
279.81	86.88
280.042	75.88
280.273	84.88
280.505	87.88
280.736	86.88
280.968	94.88
281.199	93.88
281.431	89.88
281.662	85.88
281.894	95.88
282.125	97.88
282.356	107.88
282.588	122.88
282.819	100.88
283.051	83.88
283.282	94.88
283.513	92.88
283.745	84.88
283.976	82.88
284.207	92.88
284.439	81.88
284.67	82.88
284.901	69.88
285.132	86.88
285.364	88.88
285.595	84.88
285.826	88.88
286.057	88.88
286.288	70.88
286.52	84.88
286.751	84.88
286.982	71.88
287.213	82.88
287.444	92.88
287.675	82.88
287.906	97.88
288.138	88.88
288.369	98.88
288.6	93.88
288.831	90.88
289.062	91.88
289.293	92.88
289.524	86.88
289.755	96.88
289.986	90.88
290.217	91.88
290.448	92.88
290.679	92.88
290.91	92.88
291.141	88.88
291.371	102.88
291.602	86.88
291.833	98.88
292.064	101.88
292.295	95.88
292.526	81.88
292.757	91.88
292.987	96.88
293.218	96.88
293.449	93.88
293.68	91.88
293.91	92.88
294.141	87.88
294.372	72.88
294.603	80.88
294.833	82.88
295.064	81.88
295.295	87.88
295.525	92.88
295.756	91.88
295.987	99.88
296.217	132.88
296.448	111.88
296.679	79.88
296.909	96.88
297.14	86.88
297.37	85.88
297.601	87.88
297.831	90.88
298.062	86.88
298.292	97.88
298.523	76.88
298.753	76.88
298.984	85.88
299.214	84.88
299.445	95.88
299.675	96.88
299.905	85.88
300.136	84.88
300.366	91.88
300.597	82.88
300.827	90.88
301.057	102.88
301.288	109.88
301.518	98.88
301.748	92.88
301.979	90.88
302.209	90.88
302.439	75.88
302.669	85.88
302.9	72.88
303.13	103.88
303.36	98.88
303.59	100.88
303.82	100.88
304.051	70.88
304.281	87.88
304.511	98.88
304.741	78.88
304.971	96.88
305.201	82.88
305.431	88.88
305.661	86.88
305.891	96.88
306.121	86.88
306.352	90.88
306.582	101.88
306.812	85.88
307.042	84.88
307.272	85.88
307.502	90.88
307.731	97.88
307.961	100.88
308.191	90.88
308.421	88.88
308.651	92.88
308.881	112.88
309.111	98.88
309.341	105.88
309.571	96.88
309.8	105.88
310.03	111.88
310.26	91.88
310.49	92.88
310.72	98.88
310.949	109.88
311.179	91.88
311.409	83.88
311.639	101.88
311.868	91.88
312.098	92.88
312.328	93.88
312.557	101.88
312.787	103.88
313.017	95.88
313.246	82.88
313.476	96.88
313.706	98.88
313.935	96.88
314.165	93.88
314.394	110.88
314.624	98.88
314.853	102.88
315.083	92.88
315.312	90.88
315.542	101.88
315.771	90.88
316.001	94.88
316.23	98.88
316.46	87.88
316.689	85.88
316.919	85.88
317.148	92.88
317.377	98.88
317.607	100.88
317.836	88.88
318.065	99.88
318.295	81.88
318.524	73.88
318.753	97.88
318.983	97.88
319.212	92.88
319.441	112.88
319.67	105.88
319.9	90.88
320.129	96.88
320.358	92.88
320.587	94.88
320.816	108.88
321.046	85.88
321.275	95.88
321.504	94.88
321.733	94.88
321.962	90.88
322.191	92.88
322.42	93.88
322.649	107.88
322.878	106.88
323.108	109.88
323.337	108.88
323.566	125.88
323.795	129.88
324.024	169.88
324.253	347.88
324.482	699.88
324.71	1483.88
324.939	1941.88
325.168	713.88
325.397	230.88
325.626	129.88
325.855	106.88
326.084	113.88
326.313	128.88
326.542	136.88
326.77	203.88
326.999	429.88
327.228	830.88
327.457	1515.88
327.686	1192.88
327.914	340.88
328.143	196.88
328.372	137.88
328.6	116.88
328.829	101.88
329.058	123.88
329.287	116.88
329.515	93.88
329.744	97.88
329.972	98.88
330.201	112.88
330.43	141.88
330.658	121.88
330.887	128.88
331.115	103.88
331.344	102.88
331.572	109.88
331.801	89.88
332.03	112.88
332.258	93.88
332.486	95.88
332.715	85.88
332.943	83.88
333.172	85.88
333.4	82.88
333.629	98.88
333.857	100.88
334.085	93.88
334.314	113.88
334.542	135.88
334.771	132.88
334.999	102.88
335.227	88.88
335.455	100.88
335.684	94.88
335.912	101.88
336.14	102.88
336.369	96.88
336.597	99.88
336.825	91.88
337.053	96.88
337.281	94.88
337.51	93.88
337.738	92.88
337.966	107.88
338.194	85.88
338.422	92.88
338.65	95.88
338.878	96.88
339.106	97.88
339.334	82.88
339.562	86.88
339.79	87.88
340.018	84.88
340.246	103.88
340.474	88.88
340.702	86.88
340.93	91.88
341.158	81.88
341.386	89.88
341.614	81.88
341.842	96.88
342.07	94.88
342.298	86.88
342.526	94.88
342.754	91.88
342.981	100.88
343.209	84.88
343.437	84.88
343.665	96.88
343.893	97.88
344.12	105.88
344.348	90.88
344.576	98.88
344.804	89.88
345.031	97.88
345.259	105.88
345.487	88.88
345.714	90.88
345.942	88.88
346.17	101.88
346.397	93.88
346.625	93.88
346.853	101.88
347.08	83.88
347.308	76.88
347.535	96.88
347.763	89.88
347.99	101.88
348.218	94.88
348.445	101.88
348.673	92.88
348.9	99.88
349.128	96.88
349.355	103.88
349.583	97.88
349.81	86.88
350.037	85.88
350.265	76.88
350.492	96.88
350.72	99.88
350.947	96.88
351.174	91.88
351.402	117.88
351.629	95.88
351.856	91.88
352.083	80.88
352.311	112.88
352.538	112.88
352.765	100.88
352.992	107.88
353.22	119.88
353.447	92.88
353.674	100.88
353.901	101.88
354.128	98.88
354.355	85.88
354.583	92.88
354.81	92.88
355.037	101.88
355.264	101.88
355.491	100.88
355.718	95.88
355.945	96.88
356.172	97.88
356.399	101.88
356.626	98.88
356.853	80.88
357.08	92.88
357.307	77.88
357.534	93.88
357.761	86.88
357.988	106.88
358.215	103.88
358.441	89.88
358.668	103.88
358.895	86.88
359.122	92.88
359.349	89.88
359.576	85.88
359.802	94.88
360.029	115.88
360.256	113.88
360.483	87.88
360.709	73.88
360.936	96.88
361.163	86.88
361.39	95.88
361.616	99.88
361.843	95.88
362.07	86.88
362.296	102.88
362.523	76.88
362.749	88.88
362.976	89.88
363.203	91.88
363.429	101.88
363.656	90.88
363.882	94.88
364.109	95.88
364.335	104.88
364.562	97.88
364.788	95.88
365.015	84.88
365.241	103.88
365.468	98.88
365.694	91.88
365.92	102.88
366.147	80.88
366.373	96.88
366.599	92.88
366.826	86.88
367.052	101.88
367.278	75.88
367.505	78.88
367.731	93.88
367.957	84.88
368.184	93.88
368.41	103.88
368.636	114.88
368.862	109.88
369.089	104.88
369.315	83.88
369.541	69.88
369.767	97.88
369.993	92.88
370.219	93.88
370.445	90.88
370.672	88.88
370.898	78.88
371.124	89.88
371.35	84.88
371.576	90.88
371.802	89.88
372.028	72.88
372.254	85.88
372.48	102.88
372.706	89.88
372.932	88.88
373.158	92.88
373.384	84.88
373.61	98.88
373.835	94.88
374.061	88.88
374.287	91.88
374.513	99.88
374.739	75.88
374.965	84.88
375.191	88.88
375.416	83.88
375.642	101.88
375.868	74.88
376.094	98.88
376.319	87.88
376.545	82.88
376.771	92.88
376.997	86.88
377.222	92.88
377.448	78.88
377.674	85.88
377.899	89.88
378.125	98.88
378.35	90.88
378.576	76.88
378.802	68.88
379.027	90.88
379.253	92.88
379.478	87.88
379.704	99.88
379.929	107.88
380.155	103.88
380.38	103.88
380.606	110.88
380.831	93.88
381.057	100.88
381.282	99.88
381.507	99.88
381.733	99.88
381.958	107.88
382.184	97.88
382.409	99.88
382.634	102.88
382.86	116.88
383.085	91.88
383.31	104.88
383.535	100.88
383.761	104.88
383.986	106.88
384.211	110.88
384.436	98.88
384.662	97.88
384.887	90.88
385.112	88.88
385.337	107.88
385.562	102.88
385.787	97.88
386.013	108.88
386.238	106.88
386.463	99.88
386.688	113.88
386.913	91.88
387.138	104.88
387.363	103.88
387.588	96.88
387.813	110.88
388.038	98.88
388.263	105.88
388.488	100.88
388.713	93.88
388.938	96.88
389.163	94.88
389.387	106.88
389.612	92.88
389.837	102.88
390.062	100.88
390.287	106.88
390.512	95.88
390.736	83.88
390.961	96.88
391.186	83.88
391.411	94.88
391.636	83.88
391.86	99.88
392.085	86.88
392.31	86.88
392.534	89.88
392.759	84.88
392.984	98.88
393.208	84.88
393.433	88.88
393.658	66.88
393.882	74.88
394.107	68.88
394.331	83.88
394.556	93.88
394.78	90.88
395.005	85.88
395.229	81.88
395.454	86.88
395.678	84.88
395.903	98.88
396.127	93.88
396.352	81.88
396.576	84.88
396.801	90.88
397.025	90.88
397.249	83.88
397.474	88.88
397.698	67.88
397.922	80.88
398.147	90.88
398.371	91.88
398.595	86.88
398.82	94.88
399.044	82.88
399.268	85.88
399.492	75.88
399.717	93.88
399.941	93.88
400.165	91.88
400.389	85.88
400.613	88.88
400.837	83.88
401.062	88.88
401.286	84.88
401.51	73.88
401.734	104.88
401.958	93.88
402.182	119.88
402.406	141.88
402.63	106.88
402.854	84.88
403.078	85.88
403.302	88.88
403.526	88.88
403.75	92.88
403.974	104.88
404.198	76.88
404.422	87.88
404.645	86.88
404.869	97.88
405.093	94.88
405.317	101.88
405.541	88.88
405.765	108.88
405.988	103.88
406.212	144.88
406.436	217.88
406.66	118.88
406.883	100.88
407.107	93.88
407.331	90.88
407.555	91.88
407.778	100.88
408.002	100.88
408.226	96.88
408.449	83.88
408.673	92.88
408.896	89.88
409.12	92.88
409.344	82.88
409.567	98.88
409.791	90.88
410.014	103.88
410.238	88.88
410.461	86.88
410.685	98.88
410.908	89.88
411.132	103.88
411.355	110.88
411.578	77.88
411.802	96.88
412.025	88.88
412.249	105.88
412.472	104.88
412.695	98.88
412.919	84.88
413.142	102.88
413.365	81.88
413.589	78.88
413.812	76.88
414.035	100.88
414.258	100.88
414.482	94.88
414.705	97.88
414.928	96.88
415.151	102.88
415.374	89.88
415.597	84.88
415.821	95.88
416.044	80.88
416.267	88.88
416.49	95.88
416.713	90.88
416.936	72.88
417.159	80.88
417.382	85.88
417.605	101.88
417.828	102.88
418.051	88.88
418.274	89.88
418.497	84.88
418.72	72.88
418.943	93.88
419.166	82.88
419.389	81.88
419.611	89.88
419.834	77.88
420.057	96.88
420.28	84.88
420.503	85.88
420.726	81.88
420.948	81.88
421.171	97.88
421.394	97.88
421.617	95.88
421.839	93.88
422.062	88.88
422.285	95.88
422.507	99.88
422.73	100.88
422.953	97.88
423.175	86.88
423.398	88.88
423.621	77.88
423.843	91.88
424.066	84.88
424.288	87.88
424.511	82.88
424.733	81.88
424.956	106.88
425.178	95.88
425.401	101.88
425.623	105.88
425.846	93.88
426.068	72.88
426.291	88.88
426.513	94.88
426.735	80.88
426.958	96.88
427.18	102.88
427.402	121.88
427.625	142.88
427.847	112.88
428.069	113.88
428.292	96.88
428.514	82.88
428.736	82.88
428.958	82.88
429.181	79.88
429.403	90.88
429.625	90.88
429.847	82.88
430.069	97.88
430.292	85.88
430.514	92.88
430.736	93.88
430.958	92.88
431.18	91.88
431.402	84.88
431.624	72.88
431.846	86.88
432.068	88.88
432.29	88.88
432.512	86.88
432.734	99.88
432.956	94.88
433.178	90.88
433.4	89.88
433.622	86.88
433.844	97.88
434.066	93.88
434.287	101.88
434.509	88.88
434.731	73.88
434.953	90.88
435.175	103.88
435.397	81.88
435.618	97.88
435.84	93.88
436.062	112.88
436.284	116.88
436.505	101.88
436.727	93.88
436.949	86.88
437.17	96.88
437.392	98.88
437.614	89.88
437.835	95.88
438.057	101.88
438.278	95.88
438.5	96.88
438.721	120.88
438.943	100.88
439.165	87.88
439.386	86.88
439.608	83.88
439.829	93.88
440.05	122.88
440.272	120.88
440.493	98.88
440.715	88.88
440.936	96.88
441.158	85.88
441.379	82.88
441.6	93.88
441.822	84.88
442.043	92.88
442.264	102.88
442.486	104.88
442.707	76.88
442.928	87.88
443.149	113.88
443.371	121.88
443.592	99.88
443.813	124.88
444.034	96.88
444.255	84.88
444.476	93.88
444.698	95.88
444.919	88.88
445.14	140.88
445.361	104.88
445.582	98.88
445.803	125.88
446.024	112.88
446.245	114.88
446.466	107.88
446.687	90.88
446.908	97.88
447.129	80.88
447.35	86.88
447.571	103.88
447.792	78.88
448.013	92.88
448.234	112.88
448.455	96.88
448.675	109.88
448.896	122.88
449.117	100.88
449.338	107.88
449.559	125.88
449.779	140.88
450	85.88
450.221	82.88
450.442	74.88
450.662	89.88
450.883	87.88
451.104	114.88
451.324	88.88
451.545	78.88
451.766	80.88
451.986	80.88
452.207	80.88
452.428	93.88
452.648	98.88
452.869	97.88
453.089	102.88
453.31	118.88
453.53	104.88
453.751	103.88
453.971	99.88
454.192	97.88
454.412	92.88
454.633	88.88
454.853	82.88
455.073	88.88
455.294	89.88
455.514	108.88
455.734	83.88
455.955	61.88
456.175	77.88
456.395	88.88
456.616	89.88
456.836	82.88
457.056	92.88
457.276	87.88
457.497	97.88
457.717	90.88
457.937	86.88
458.157	80.88
458.377	97.88
458.598	102.88
458.818	125.88
459.038	136.88
459.258	103.88
459.478	74.88
459.698	90.88
459.918	92.88
460.138	85.88
460.358	88.88
460.578	89.88
460.798	98.88
461.018	91.88
461.238	85.88
461.458	91.88
461.678	96.88
461.898	83.88
462.118	76.88
462.338	76.88
462.558	83.88
462.777	75.88
462.997	73.88
463.217	96.88
463.437	77.88
463.657	91.88
463.876	92.88
464.096	82.88
464.316	88.88
464.536	89.88
464.755	100.88
464.975	107.88
465.195	136.88
465.414	154.88
465.634	90.88
465.854	90.88
466.073	98.88
466.293	84.88
466.512	95.88
466.732	84.88
466.951	104.88
467.171	93.88
467.391	84.88
467.61	107.88
467.829	93.88
468.049	92.88
468.268	96.88
468.488	92.88
468.707	91.88
468.927	67.88
469.146	90.88
469.365	74.88
469.585	99.88
469.804	103.88
470.023	77.88
470.243	86.88
470.462	88.88
470.681	105.88
470.901	96.88
471.12	99.88
471.339	89.88
471.558	96.88
471.777	73.88
471.997	76.88
472.216	109.88
472.435	125.88
472.654	108.88
472.873	97.88
473.092	98.88
473.311	73.88
473.53	88.88
473.749	86.88
473.968	82.88
474.187	99.88
474.406	92.88
474.625	78.88
474.844	93.88
475.063	84.88
475.282	90.88
475.501	93.88
475.72	85.88
475.939	90.88
476.158	90.88
476.377	93.88
476.596	90.88
476.814	106.88
477.033	102.88
477.252	74.88
477.471	94.88
477.69	90.88
477.908	88.88
478.127	79.88
478.346	91.88
478.564	89.88
478.783	96.88
479.002	90.88
479.22	90.88
479.439	103.88
479.658	93.88
479.876	92.88
480.095	88.88
480.313	101.88
480.532	78.88
480.751	93.88
480.969	116.88
481.188	180.88
481.406	137.88
481.624	84.88
481.843	72.88
482.061	102.88
482.28	87.88
482.498	81.88
482.717	107.88
482.935	86.88
483.153	86.88
483.372	110.88
483.59	80.88
483.808	98.88
484.027	81.88
484.245	92.88
484.463	91.88
484.681	98.88
484.9	92.88
485.118	94.88
485.336	81.88
485.554	98.88
485.772	101.88
485.99	100.88
486.209	109.88
486.427	88.88
486.645	106.88
486.863	107.88
487.081	100.88
487.299	99.88
487.517	100.88
487.735	100.88
487.953	95.88
488.171	106.88
488.389	93.88
488.607	91.88
488.825	100.88
489.043	90.88
489.261	79.88
489.479	84.88
489.696	93.88
489.914	83.88
490.132	100.88
490.35	88.88
490.568	104.88
490.786	90.88
491.003	74.88
491.221	94.88
491.439	86.88
491.657	98.88
491.874	88.88
492.092	82.88
492.31	85.88
492.527	96.88
492.745	88.88
492.963	96.88
493.18	103.88
493.398	92.88
493.615	89.88
493.833	73.88
494.05	94.88
494.268	89.88
494.485	84.88
494.703	92.88
494.92	75.88
495.138	92.88
495.355	107.88
495.573	93.88
495.79	97.88
496.008	88.88
496.225	96.88
496.442	85.88
496.66	89.88
496.877	85.88
497.094	85.88
497.312	86.88
497.529	82.88
497.746	104.88
497.963	84.88
498.181	104.88
498.398	102.88
498.615	114.88
498.832	96.88
499.049	95.88
499.267	86.88
499.484	78.88
499.701	93.88
499.918	97.88
500.135	95.88
500.352	87.88
500.569	97.88
500.786	84.88
501.003	83.88
501.22	100.88
501.437	90.88
501.654	109.88
501.871	92.88
502.088	94.88
502.305	88.88
502.522	101.88
502.739	83.88
502.956	93.88
503.172	88.88
503.389	85.88
503.606	101.88
503.823	107.88
504.04	95.88
504.256	82.88
504.473	82.88
504.69	86.88
504.907	79.88
505.123	85.88
505.34	102.88
505.557	87.88
505.773	107.88
505.99	95.88
506.207	98.88
506.423	90.88
506.64	96.88
506.856	90.88
507.073	109.88
507.289	95.88
507.506	96.88
507.722	102.88
507.939	105.88
508.155	97.88
508.372	94.88
508.588	85.88
508.805	89.88
509.021	100.88
509.238	94.88
509.454	93.88
509.67	102.88
509.887	103.88
510.103	119.88
510.319	186.88
510.536	670.88
510.752	2021.88
510.968	555.88
511.184	148.88
511.401	104.88
511.617	93.88
511.833	94.88
512.049	75.88
512.265	84.88
512.481	90.88
512.698	100.88
512.914	78.88
513.13	90.88
513.346	92.88
513.562	87.88
513.778	88.88
513.994	85.88
514.21	100.88
514.426	102.88
514.642	126.88
514.858	116.88
515.074	160.88
515.29	391.88
515.506	1168.88
515.721	434.88
515.937	122.88
