Data from Uncirc_1982_H10_HRD10591_00078.txt Node
Date: Wed Jan 03 12:29:40 EST 2024
User: Yrep
Spectrometer: HR+D1059
Trigger mode: 1
Integration Time (sec): 1.000000E-1
Scans to average: 1
Electric dark correction enabled: true
Nonlinearity correction enabled: false
Boxcar width: 0
XAxis mode: Wavelengths
Number of Pixels in Spectrum: 2048
>>>>>Begin Spectral Data<<<<<
223.165	-16.25
223.4	-16.25
223.635	-16.25
223.869	-21.25
224.104	-10.25
224.338	-12.25
224.573	-17.25
224.808	-9.25
225.042	-13.25
225.277	-9.25
225.511	-6.25
225.746	-6.25
225.98	19.75
226.215	1.75
226.449	19.75
226.683	24.75
226.918	20.75
227.152	34.75
227.387	28.75
227.621	36.75
227.856	47.75
228.09	56.75
228.324	36.75
228.559	57.75
228.793	70.75
229.027	69.75
229.262	67.75
229.496	61.75
229.73	90.75
229.964	96.75
230.199	83.75
230.433	91.75
230.667	86.75
230.901	80.75
231.136	68.75
231.37	75.75
231.604	72.75
231.838	70.75
232.072	81.75
232.306	76.75
232.541	82.75
232.775	80.75
233.009	74.75
233.243	78.75
233.477	83.75
233.711	80.75
233.945	83.75
234.179	85.75
234.413	94.75
234.647	74.75
234.881	88.75
235.115	99.75
235.349	72.75
235.583	83.75
235.817	71.75
236.051	76.75
236.285	81.75
236.519	75.75
236.753	69.75
236.987	74.75
237.221	93.75
237.455	92.75
237.689	80.75
237.922	86.75
238.156	89.75
238.39	77.75
238.624	70.75
238.858	82.75
239.091	80.75
239.325	85.75
239.559	67.75
239.793	78.75
240.027	63.75
240.26	97.75
240.494	82.75
240.728	67.75
240.961	80.75
241.195	74.75
241.429	66.75
241.662	62.75
241.896	75.75
242.13	75.75
242.363	83.75
242.597	76.75
242.83	70.75
243.064	63.75
243.298	86.75
243.531	84.75
243.765	88.75
243.998	83.75
244.232	84.75
244.465	71.75
244.699	62.75
244.932	74.75
245.166	75.75
245.399	76.75
245.633	53.75
245.866	74.75
246.099	82.75
246.333	98.75
246.566	71.75
246.8	73.75
247.033	81.75
247.266	71.75
247.5	86.75
247.733	86.75
247.966	73.75
248.2	72.75
248.433	81.75
248.666	61.75
248.899	82.75
249.133	77.75
249.366	83.75
249.599	103.75
249.832	94.75
250.066	79.75
250.299	80.75
250.532	87.75
250.765	89.75
250.998	74.75
251.231	81.75
251.465	78.75
251.698	76.75
251.931	82.75
252.164	84.75
252.397	83.75
252.63	86.75
252.863	88.75
253.096	83.75
253.329	82.75
253.562	75.75
253.795	71.75
254.028	72.75
254.261	74.75
254.494	75.75
254.727	76.75
254.96	72.75
255.193	72.75
255.426	89.75
255.659	81.75
255.892	75.75
256.124	87.75
256.357	76.75
256.59	86.75
256.823	87.75
257.056	71.75
257.289	71.75
257.521	84.75
257.754	77.75
257.987	72.75
258.22	66.75
258.452	80.75
258.685	74.75
258.918	89.75
259.151	73.75
259.383	81.75
259.616	75.75
259.849	73.75
260.081	76.75
260.314	88.75
260.547	85.75
260.779	102.75
261.012	88.75
261.244	69.75
261.477	93.75
261.71	102.75
261.942	99.75
262.175	109.75
262.407	73.75
262.64	81.75
262.872	89.75
263.105	93.75
263.337	91.75
263.57	76.75
263.802	86.75
264.035	103.75
264.267	81.75
264.499	81.75
264.732	88.75
264.964	74.75
265.197	88.75
265.429	80.75
265.661	89.75
265.894	76.75
266.126	90.75
266.358	81.75
266.591	91.75
266.823	76.75
267.055	84.75
267.287	86.75
267.52	89.75
267.752	86.75
267.984	87.75
268.216	75.75
268.448	83.75
268.681	82.75
268.913	90.75
269.145	83.75
269.377	89.75
269.609	88.75
269.841	99.75
270.073	84.75
270.306	75.75
270.538	74.75
270.77	95.75
271.002	75.75
271.234	80.75
271.466	92.75
271.698	104.75
271.93	81.75
272.162	83.75
272.394	102.75
272.626	90.75
272.858	75.75
273.09	90.75
273.322	88.75
273.553	84.75
273.785	98.75
274.017	88.75
274.249	92.75
274.481	77.75
274.713	89.75
274.945	76.75
275.176	86.75
275.408	95.75
275.64	84.75
275.872	84.75
276.104	89.75
276.335	100.75
276.567	88.75
276.799	108.75
277.031	96.75
277.262	88.75
277.494	97.75
277.726	84.75
277.957	84.75
278.189	75.75
278.421	96.75
278.652	86.75
278.884	86.75
279.115	103.75
279.347	87.75
279.579	75.75
279.81	92.75
280.042	79.75
280.273	99.75
280.505	78.75
280.736	84.75
280.968	82.75
281.199	89.75
281.431	86.75
281.662	88.75
281.894	81.75
282.125	94.75
282.356	119.75
282.588	121.75
282.819	113.75
283.051	89.75
283.282	84.75
283.513	94.75
283.745	93.75
283.976	83.75
284.207	77.75
284.439	92.75
284.67	81.75
284.901	82.75
285.132	84.75
285.364	84.75
285.595	96.75
285.826	89.75
286.057	66.75
286.288	92.75
286.52	75.75
286.751	84.75
286.982	81.75
287.213	86.75
287.444	89.75
287.675	88.75
287.906	87.75
288.138	85.75
288.369	83.75
288.6	104.75
288.831	75.75
289.062	94.75
289.293	87.75
289.524	92.75
289.755	86.75
289.986	89.75
290.217	86.75
290.448	92.75
290.679	82.75
290.91	93.75
291.141	81.75
291.371	97.75
291.602	82.75
291.833	84.75
292.064	97.75
292.295	83.75
292.526	91.75
292.757	93.75
292.987	77.75
293.218	95.75
293.449	89.75
293.68	79.75
293.91	98.75
294.141	92.75
294.372	84.75
294.603	85.75
294.833	77.75
295.064	73.75
295.295	94.75
295.525	85.75
295.756	99.75
295.987	89.75
296.217	120.75
296.448	125.75
296.679	98.75
296.909	85.75
297.14	89.75
297.37	97.75
297.601	93.75
297.831	92.75
298.062	75.75
298.292	97.75
298.523	90.75
298.753	78.75
298.984	82.75
299.214	87.75
299.445	86.75
299.675	105.75
299.905	105.75
300.136	93.75
300.366	96.75
300.597	91.75
300.827	80.75
301.057	100.75
301.288	103.75
301.518	91.75
301.748	86.75
301.979	89.75
302.209	89.75
302.439	81.75
302.669	92.75
302.9	90.75
303.13	90.75
303.36	91.75
303.59	108.75
303.82	98.75
304.051	104.75
304.281	88.75
304.511	92.75
304.741	88.75
304.971	83.75
305.201	78.75
305.431	85.75
305.661	94.75
305.891	100.75
306.121	88.75
306.352	88.75
306.582	98.75
306.812	87.75
307.042	85.75
307.272	96.75
307.502	97.75
307.731	106.75
307.961	86.75
308.191	86.75
308.421	73.75
308.651	80.75
308.881	94.75
309.111	79.75
309.341	100.75
309.571	104.75
309.8	93.75
310.03	84.75
310.26	87.75
310.49	93.75
310.72	91.75
310.949	102.75
311.179	92.75
311.409	79.75
311.639	97.75
311.868	92.75
312.098	98.75
312.328	103.75
312.557	106.75
312.787	90.75
313.017	91.75
313.246	99.75
313.476	80.75
313.706	102.75
313.935	100.75
314.165	92.75
314.394	98.75
314.624	96.75
314.853	92.75
315.083	101.75
315.312	84.75
315.542	88.75
315.771	98.75
316.001	87.75
316.23	76.75
316.46	82.75
316.689	91.75
316.919	85.75
317.148	102.75
317.377	92.75
317.607	96.75
317.836	97.75
318.065	99.75
318.295	79.75
318.524	90.75
318.753	102.75
318.983	94.75
319.212	100.75
319.441	109.75
319.67	108.75
319.9	107.75
320.129	111.75
320.358	86.75
320.587	88.75
320.816	82.75
321.046	92.75
321.275	108.75
321.504	99.75
321.733	102.75
321.962	88.75
322.191	102.75
322.42	100.75
322.649	102.75
322.878	109.75
323.108	109.75
323.337	120.75
323.566	128.75
323.795	122.75
324.024	200.75
324.253	345.75
324.482	710.75
324.71	1396.75
324.939	1822.75
325.168	678.75
325.397	218.75
325.626	134.75
325.855	126.75
326.084	128.75
326.313	138.75
326.542	155.75
326.77	202.75
326.999	418.75
327.228	812.75
327.457	1505.75
327.686	1140.75
327.914	333.75
328.143	182.75
328.372	163.75
328.6	115.75
328.829	118.75
329.058	109.75
329.287	102.75
329.515	100.75
329.744	96.75
329.972	104.75
330.201	102.75
330.43	126.75
330.658	129.75
330.887	112.75
331.115	98.75
331.344	83.75
331.572	93.75
331.801	109.75
332.03	107.75
332.258	96.75
332.486	90.75
332.715	95.75
332.943	100.75
333.172	107.75
333.4	99.75
333.629	99.75
333.857	102.75
334.085	116.75
334.314	103.75
334.542	118.75
334.771	120.75
334.999	99.75
335.227	100.75
335.455	93.75
335.684	102.75
335.912	106.75
336.14	87.75
336.369	82.75
336.597	93.75
336.825	96.75
337.053	100.75
337.281	94.75
337.51	76.75
337.738	98.75
337.966	104.75
338.194	94.75
338.422	95.75
338.65	105.75
338.878	85.75
339.106	94.75
339.334	88.75
339.562	93.75
339.79	100.75
340.018	91.75
340.246	100.75
340.474	92.75
340.702	103.75
340.93	97.75
341.158	88.75
341.386	96.75
341.614	90.75
341.842	84.75
342.07	92.75
342.298	86.75
342.526	99.75
342.754	96.75
342.981	87.75
343.209	104.75
343.437	105.75
343.665	88.75
343.893	94.75
344.12	96.75
344.348	92.75
344.576	91.75
344.804	104.75
345.031	92.75
345.259	97.75
345.487	98.75
345.714	94.75
345.942	100.75
346.17	100.75
346.397	101.75
346.625	103.75
346.853	96.75
347.08	92.75
347.308	99.75
347.535	96.75
347.763	89.75
347.99	88.75
348.218	106.75
348.445	96.75
348.673	105.75
348.9	90.75
349.128	110.75
349.355	87.75
349.583	91.75
349.81	92.75
350.037	100.75
350.265	105.75
350.492	102.75
350.72	83.75
350.947	93.75
351.174	103.75
351.402	106.75
351.629	101.75
351.856	90.75
352.083	85.75
352.311	110.75
352.538	96.75
352.765	112.75
352.992	129.75
353.22	105.75
353.447	105.75
353.674	107.75
353.901	100.75
354.128	107.75
354.355	85.75
354.583	94.75
354.81	84.75
355.037	91.75
355.264	109.75
355.491	89.75
355.718	91.75
355.945	98.75
356.172	93.75
356.399	108.75
356.626	107.75
356.853	87.75
357.08	89.75
357.307	93.75
357.534	86.75
357.761	89.75
357.988	107.75
358.215	91.75
358.441	78.75
358.668	93.75
358.895	91.75
359.122	99.75
359.349	76.75
359.576	84.75
359.802	108.75
360.029	96.75
360.256	101.75
360.483	93.75
360.709	103.75
360.936	108.75
361.163	104.75
361.39	84.75
361.616	82.75
361.843	89.75
362.07	95.75
362.296	90.75
362.523	88.75
362.749	85.75
362.976	97.75
363.203	96.75
363.429	103.75
363.656	85.75
363.882	85.75
364.109	95.75
364.335	91.75
364.562	83.75
364.788	95.75
365.015	105.75
365.241	86.75
365.468	97.75
365.694	98.75
365.92	81.75
366.147	87.75
366.373	102.75
366.599	90.75
366.826	91.75
367.052	90.75
367.278	97.75
367.505	101.75
367.731	87.75
367.957	84.75
368.184	93.75
368.41	97.75
368.636	105.75
368.862	111.75
369.089	91.75
369.315	89.75
369.541	89.75
369.767	81.75
369.993	92.75
370.219	101.75
370.445	87.75
370.672	80.75
370.898	93.75
371.124	89.75
371.35	83.75
371.576	85.75
371.802	86.75
372.028	96.75
372.254	103.75
372.48	97.75
372.706	85.75
372.932	91.75
373.158	99.75
373.384	80.75
373.61	95.75
373.835	85.75
374.061	101.75
374.287	84.75
374.513	96.75
374.739	80.75
374.965	80.75
375.191	84.75
375.416	92.75
375.642	96.75
375.868	82.75
376.094	90.75
376.319	85.75
376.545	86.75
376.771	77.75
376.997	84.75
377.222	86.75
377.448	97.75
377.674	97.75
377.899	91.75
378.125	84.75
378.35	84.75
378.576	84.75
378.802	92.75
379.027	108.75
379.253	101.75
379.478	82.75
379.704	92.75
379.929	109.75
380.155	97.75
380.38	95.75
380.606	99.75
380.831	90.75
381.057	96.75
381.282	102.75
381.507	88.75
381.733	84.75
381.958	100.75
382.184	109.75
382.409	97.75
382.634	109.75
382.86	109.75
383.085	90.75
383.31	80.75
383.535	104.75
383.761	99.75
383.986	97.75
384.211	101.75
384.436	90.75
384.662	92.75
384.887	99.75
385.112	100.75
385.337	104.75
385.562	97.75
385.787	103.75
386.013	105.75
386.238	111.75
386.463	101.75
386.688	104.75
386.913	84.75
387.138	106.75
387.363	94.75
387.588	106.75
387.813	103.75
388.038	105.75
388.263	120.75
388.488	102.75
388.713	95.75
388.938	106.75
389.163	106.75
389.387	101.75
389.612	92.75
389.837	98.75
390.062	97.75
390.287	87.75
390.512	86.75
390.736	89.75
390.961	86.75
391.186	93.75
391.411	93.75
391.636	86.75
391.86	80.75
392.085	88.75
392.31	75.75
392.534	74.75
392.759	80.75
392.984	85.75
393.208	89.75
393.433	94.75
393.658	94.75
393.882	88.75
394.107	84.75
394.331	81.75
394.556	92.75
394.78	102.75
395.005	89.75
395.229	100.75
395.454	78.75
395.678	77.75
395.903	84.75
396.127	89.75
396.352	94.75
396.576	88.75
396.801	89.75
397.025	93.75
397.249	95.75
397.474	88.75
397.698	92.75
397.922	94.75
398.147	88.75
398.371	87.75
398.595	78.75
398.82	89.75
399.044	82.75
399.268	74.75
399.492	92.75
399.717	73.75
399.941	94.75
400.165	96.75
400.389	96.75
400.613	95.75
400.837	100.75
401.062	87.75
401.286	88.75
401.51	91.75
401.734	85.75
401.958	98.75
402.182	116.75
402.406	128.75
402.63	112.75
402.854	76.75
403.078	92.75
403.302	87.75
403.526	81.75
403.75	87.75
403.974	86.75
404.198	81.75
404.422	89.75
404.645	100.75
404.869	80.75
405.093	77.75
405.317	101.75
405.541	111.75
405.765	88.75
405.988	109.75
406.212	150.75
406.436	181.75
406.66	110.75
406.883	95.75
407.107	90.75
407.331	88.75
407.555	93.75
407.778	84.75
408.002	92.75
408.226	82.75
408.449	84.75
408.673	94.75
408.896	97.75
409.12	88.75
409.344	97.75
409.567	92.75
409.791	93.75
410.014	98.75
410.238	101.75
410.461	100.75
410.685	91.75
410.908	89.75
411.132	98.75
411.355	97.75
411.578	97.75
411.802	99.75
412.025	78.75
412.249	101.75
412.472	100.75
412.695	93.75
412.919	96.75
413.142	80.75
413.365	82.75
413.589	100.75
413.812	81.75
414.035	94.75
414.258	76.75
414.482	77.75
414.705	86.75
414.928	104.75
415.151	86.75
415.374	88.75
415.597	86.75
415.821	95.75
416.044	97.75
416.267	92.75
416.49	96.75
416.713	87.75
416.936	84.75
417.159	86.75
417.382	98.75
417.605	88.75
417.828	92.75
418.051	97.75
418.274	92.75
418.497	74.75
418.72	77.75
418.943	80.75
419.166	96.75
419.389	88.75
419.611	78.75
419.834	90.75
420.057	89.75
420.28	70.75
420.503	89.75
420.726	94.75
420.948	85.75
421.171	84.75
421.394	90.75
421.617	87.75
421.839	94.75
422.062	78.75
422.285	93.75
422.507	94.75
422.73	85.75
422.953	85.75
423.175	86.75
423.398	96.75
423.621	79.75
423.843	80.75
424.066	102.75
424.288	93.75
424.511	86.75
424.733	93.75
424.956	86.75
425.178	96.75
425.401	98.75
425.623	109.75
425.846	89.75
426.068	92.75
426.291	96.75
426.513	105.75
426.735	83.75
426.958	85.75
427.18	94.75
427.402	129.75
427.625	136.75
427.847	114.75
428.069	114.75
428.292	87.75
428.514	84.75
428.736	91.75
428.958	96.75
429.181	95.75
429.403	74.75
429.625	82.75
429.847	90.75
430.069	83.75
430.292	91.75
430.514	73.75
430.736	85.75
430.958	91.75
431.18	80.75
431.402	106.75
431.624	88.75
431.846	81.75
432.068	83.75
432.29	94.75
432.512	92.75
432.734	87.75
432.956	84.75
433.178	96.75
433.4	95.75
433.622	78.75
433.844	85.75
434.066	99.75
434.287	91.75
434.509	107.75
434.731	101.75
434.953	81.75
435.175	103.75
435.397	81.75
435.618	86.75
435.84	92.75
436.062	108.75
436.284	102.75
436.505	102.75
436.727	106.75
436.949	101.75
437.17	94.75
437.392	88.75
437.614	82.75
437.835	99.75
438.057	114.75
438.278	92.75
438.5	98.75
438.721	102.75
438.943	97.75
439.165	96.75
439.386	85.75
439.608	82.75
439.829	102.75
440.05	108.75
440.272	115.75
440.493	103.75
440.715	98.75
440.936	84.75
441.158	96.75
441.379	85.75
441.6	95.75
441.822	91.75
442.043	89.75
442.264	87.75
442.486	104.75
442.707	92.75
442.928	85.75
443.149	132.75
443.371	115.75
443.592	102.75
443.813	105.75
444.034	105.75
444.255	82.75
444.476	98.75
444.698	96.75
444.919	91.75
445.14	133.75
445.361	132.75
445.582	117.75
445.803	126.75
446.024	121.75
446.245	124.75
446.466	99.75
446.687	83.75
446.908	74.75
447.129	103.75
447.35	83.75
447.571	95.75
447.792	73.75
448.013	98.75
448.234	98.75
448.455	103.75
448.675	104.75
448.896	102.75
449.117	87.75
449.338	98.75
449.559	127.75
449.779	119.75
450	102.75
450.221	94.75
450.442	82.75
450.662	87.75
450.883	101.75
451.104	105.75
451.324	93.75
451.545	92.75
451.766	86.75
451.986	85.75
452.207	78.75
452.428	74.75
452.648	92.75
452.869	104.75
453.089	97.75
453.31	115.75
453.53	86.75
453.751	89.75
453.971	97.75
454.192	116.75
454.412	90.75
454.633	80.75
454.853	83.75
455.073	78.75
455.294	91.75
455.514	99.75
455.734	65.75
455.955	92.75
456.175	77.75
456.395	77.75
456.616	83.75
456.836	86.75
457.056	86.75
457.276	84.75
457.497	84.75
457.717	80.75
457.937	73.75
458.157	82.75
458.377	72.75
458.598	96.75
458.818	129.75
459.038	136.75
459.258	99.75
459.478	91.75
459.698	77.75
459.918	101.75
460.138	78.75
460.358	75.75
460.578	94.75
460.798	89.75
461.018	88.75
461.238	84.75
461.458	81.75
461.678	83.75
461.898	66.75
462.118	94.75
462.338	92.75
462.558	90.75
462.777	100.75
462.997	81.75
463.217	92.75
463.437	93.75
463.657	86.75
463.876	89.75
464.096	86.75
464.316	100.75
464.536	87.75
464.755	98.75
464.975	110.75
465.195	144.75
465.414	126.75
465.634	95.75
465.854	89.75
466.073	94.75
466.293	94.75
466.512	72.75
466.732	84.75
466.951	106.75
467.171	96.75
467.391	94.75
467.61	102.75
467.829	95.75
468.049	91.75
468.268	100.75
468.488	86.75
468.707	82.75
468.927	77.75
469.146	91.75
469.365	90.75
469.585	81.75
469.804	90.75
470.023	100.75
470.243	72.75
470.462	90.75
470.681	96.75
470.901	94.75
471.12	93.75
471.339	102.75
471.558	80.75
471.777	91.75
471.997	83.75
472.216	101.75
472.435	135.75
472.654	75.75
472.873	82.75
473.092	74.75
473.311	89.75
473.53	90.75
473.749	87.75
473.968	96.75
474.187	106.75
474.406	98.75
474.625	101.75
474.844	92.75
475.063	77.75
475.282	96.75
475.501	83.75
475.72	69.75
475.939	86.75
476.158	96.75
476.377	85.75
476.596	89.75
476.814	82.75
477.033	69.75
477.252	82.75
477.471	86.75
477.69	85.75
477.908	87.75
478.127	91.75
478.346	91.75
478.564	99.75
478.783	91.75
479.002	100.75
479.22	82.75
479.439	96.75
479.658	75.75
479.876	91.75
480.095	81.75
480.313	91.75
480.532	95.75
480.751	107.75
480.969	116.75
481.188	179.75
481.406	162.75
481.624	82.75
481.843	86.75
482.061	81.75
482.28	79.75
482.498	101.75
482.717	91.75
482.935	84.75
483.153	99.75
483.372	104.75
483.59	81.75
483.808	90.75
484.027	82.75
484.245	85.75
484.463	86.75
484.681	102.75
484.9	100.75
485.118	94.75
485.336	99.75
485.554	90.75
485.772	99.75
485.99	94.75
486.209	82.75
486.427	104.75
486.645	103.75
486.863	102.75
487.081	97.75
487.299	84.75
487.517	92.75
487.735	96.75
487.953	86.75
488.171	86.75
488.389	104.75
488.607	89.75
488.825	83.75
489.043	88.75
489.261	95.75
489.479	84.75
489.696	89.75
489.914	81.75
490.132	80.75
490.35	96.75
490.568	84.75
490.786	89.75
491.003	93.75
491.221	86.75
491.439	90.75
491.657	85.75
491.874	85.75
492.092	85.75
492.31	88.75
492.527	100.75
492.745	86.75
492.963	84.75
493.18	91.75
493.398	92.75
493.615	108.75
493.833	105.75
494.05	92.75
494.268	87.75
494.485	88.75
494.703	92.75
494.92	83.75
495.138	94.75
495.355	96.75
495.573	82.75
495.79	89.75
496.008	107.75
496.225	91.75
496.442	96.75
496.66	91.75
496.877	99.75
497.094	91.75
497.312	99.75
497.529	88.75
497.746	102.75
497.963	92.75
498.181	92.75
498.398	103.75
498.615	112.75
498.832	102.75
499.049	89.75
499.267	87.75
499.484	92.75
499.701	76.75
499.918	84.75
500.135	107.75
500.352	76.75
500.569	92.75
500.786	88.75
501.003	92.75
501.22	102.75
501.437	97.75
501.654	96.75
501.871	109.75
502.088	91.75
502.305	101.75
502.522	86.75
502.739	82.75
502.956	100.75
503.172	104.75
503.389	83.75
503.606	112.75
503.823	99.75
504.04	99.75
504.256	86.75
504.473	89.75
504.69	82.75
504.907	89.75
505.123	93.75
505.34	96.75
505.557	108.75
505.773	85.75
505.99	92.75
506.207	89.75
506.423	95.75
506.64	97.75
506.856	92.75
507.073	97.75
507.289	95.75
507.506	83.75
507.722	96.75
507.939	102.75
508.155	97.75
508.372	90.75
508.588	95.75
508.805	100.75
509.021	84.75
509.238	100.75
509.454	95.75
509.67	105.75
509.887	96.75
510.103	121.75
510.319	201.75
510.536	648.75
510.752	1956.75
510.968	552.75
511.184	134.75
511.401	80.75
511.617	102.75
511.833	101.75
512.049	97.75
512.265	96.75
512.481	89.75
512.698	84.75
512.914	94.75
513.13	94.75
513.346	89.75
513.562	90.75
513.778	84.75
513.994	87.75
514.21	98.75
514.426	100.75
514.642	126.75
514.858	112.75
515.074	146.75
515.29	374.75
515.506	1099.75
515.721	414.75
