Data from Uncirc_1982_H10_HRD10591_00087.txt Node
Date: Wed Jan 03 12:29:42 EST 2024
User: Yrep
Spectrometer: HR+D1059
Trigger mode: 1
Integration Time (sec): 1.000000E-1
Scans to average: 1
Electric dark correction enabled: true
Nonlinearity correction enabled: false
Boxcar width: 0
XAxis mode: Wavelengths
Number of Pixels in Spectrum: 2048
>>>>>Begin Spectral Data<<<<<
223.165	-16.88
223.4	-16.88
223.635	-16.88
223.869	-28.88
224.104	-8.88
224.338	-18.88
224.573	-16.88
224.808	-18.88
225.042	-17.88
225.277	-3.88
225.511	-0.88
225.746	14.12
225.98	-3.88
226.215	8.12
226.449	27.12
226.683	24.12
226.918	30.12
227.152	32.12
227.387	46.12
227.621	37.12
227.856	43.12
228.09	50.12
228.324	62.12
228.559	33.12
228.793	62.12
229.027	58.12
229.262	55.12
229.496	70.12
229.73	78.12
229.964	76.12
230.199	74.12
230.433	80.12
230.667	59.12
230.901	69.12
231.136	81.12
231.37	90.12
231.604	86.12
231.838	82.12
232.072	89.12
232.306	81.12
232.541	83.12
232.775	86.12
233.009	74.12
233.243	87.12
233.477	75.12
233.711	92.12
233.945	87.12
234.179	82.12
234.413	80.12
234.647	86.12
234.881	70.12
235.115	88.12
235.349	75.12
235.583	87.12
235.817	82.12
236.051	82.12
236.285	96.12
236.519	85.12
236.753	83.12
236.987	82.12
237.221	78.12
237.455	80.12
237.689	76.12
237.922	88.12
238.156	90.12
238.39	82.12
238.624	73.12
238.858	72.12
239.091	87.12
239.325	80.12
239.559	87.12
239.793	78.12
240.027	86.12
240.26	74.12
240.494	75.12
240.728	80.12
240.961	73.12
241.195	87.12
241.429	86.12
241.662	88.12
241.896	86.12
242.13	76.12
242.363	81.12
242.597	84.12
242.83	92.12
243.064	80.12
243.298	82.12
243.531	83.12
243.765	87.12
243.998	78.12
244.232	84.12
244.465	79.12
244.699	78.12
244.932	91.12
245.166	84.12
245.399	78.12
245.633	72.12
245.866	72.12
246.099	82.12
246.333	82.12
246.566	79.12
246.8	89.12
247.033	66.12
247.266	50.12
247.5	80.12
247.733	73.12
247.966	78.12
248.2	71.12
248.433	83.12
248.666	75.12
248.899	78.12
249.133	83.12
249.366	105.12
249.599	92.12
249.832	75.12
250.066	69.12
250.299	88.12
250.532	72.12
250.765	82.12
250.998	84.12
251.231	66.12
251.465	72.12
251.698	76.12
251.931	89.12
252.164	85.12
252.397	90.12
252.63	103.12
252.863	70.12
253.096	78.12
253.329	95.12
253.562	85.12
253.795	87.12
254.028	91.12
254.261	87.12
254.494	76.12
254.727	84.12
254.96	100.12
255.193	87.12
255.426	90.12
255.659	75.12
255.892	91.12
256.124	82.12
256.357	96.12
256.59	76.12
256.823	73.12
257.056	79.12
257.289	68.12
257.521	96.12
257.754	82.12
257.987	86.12
258.22	77.12
258.452	83.12
258.685	79.12
258.918	91.12
259.151	83.12
259.383	66.12
259.616	86.12
259.849	80.12
260.081	68.12
260.314	85.12
260.547	82.12
260.779	78.12
261.012	92.12
261.244	90.12
261.477	80.12
261.71	80.12
261.942	102.12
262.175	94.12
262.407	92.12
262.64	102.12
262.872	83.12
263.105	80.12
263.337	75.12
263.57	78.12
263.802	92.12
264.035	79.12
264.267	76.12
264.499	87.12
264.732	70.12
264.964	98.12
265.197	89.12
265.429	75.12
265.661	83.12
265.894	87.12
266.126	90.12
266.358	83.12
266.591	91.12
266.823	76.12
267.055	84.12
267.287	82.12
267.52	88.12
267.752	101.12
267.984	80.12
268.216	86.12
268.448	90.12
268.681	82.12
268.913	78.12
269.145	92.12
269.377	77.12
269.609	84.12
269.841	82.12
270.073	94.12
270.306	92.12
270.538	76.12
270.77	87.12
271.002	90.12
271.234	75.12
271.466	84.12
271.698	84.12
271.93	80.12
272.162	93.12
272.394	82.12
272.626	89.12
272.858	93.12
273.09	95.12
273.322	84.12
273.553	92.12
273.785	70.12
274.017	70.12
274.249	86.12
274.481	98.12
274.713	78.12
274.945	78.12
275.176	92.12
275.408	74.12
275.64	86.12
275.872	80.12
276.104	85.12
276.335	82.12
276.567	98.12
276.799	110.12
277.031	100.12
277.262	94.12
277.494	92.12
277.726	74.12
277.957	76.12
278.189	79.12
278.421	79.12
278.652	88.12
278.884	92.12
279.115	91.12
279.347	88.12
279.579	94.12
279.81	84.12
280.042	99.12
280.273	84.12
280.505	100.12
280.736	83.12
280.968	104.12
281.199	94.12
281.431	101.12
281.662	87.12
281.894	106.12
282.125	106.12
282.356	116.12
282.588	134.12
282.819	97.12
283.051	101.12
283.282	78.12
283.513	84.12
283.745	95.12
283.976	88.12
284.207	83.12
284.439	87.12
284.67	92.12
284.901	88.12
285.132	90.12
285.364	84.12
285.595	89.12
285.826	92.12
286.057	95.12
286.288	86.12
286.52	86.12
286.751	70.12
286.982	81.12
287.213	93.12
287.444	108.12
287.675	83.12
287.906	94.12
288.138	86.12
288.369	92.12
288.6	104.12
288.831	106.12
289.062	82.12
289.293	87.12
289.524	94.12
289.755	84.12
289.986	85.12
290.217	92.12
290.448	100.12
290.679	99.12
290.91	90.12
291.141	91.12
291.371	102.12
291.602	90.12
291.833	93.12
292.064	93.12
292.295	86.12
292.526	83.12
292.757	95.12
292.987	80.12
293.218	96.12
293.449	92.12
293.68	95.12
293.91	97.12
294.141	94.12
294.372	93.12
294.603	97.12
294.833	101.12
295.064	73.12
295.295	84.12
295.525	94.12
295.756	94.12
295.987	117.12
296.217	126.12
296.448	97.12
296.679	96.12
296.909	80.12
297.14	89.12
297.37	91.12
297.601	87.12
297.831	75.12
298.062	81.12
298.292	104.12
298.523	97.12
298.753	96.12
298.984	84.12
299.214	93.12
299.445	88.12
299.675	101.12
299.905	93.12
300.136	100.12
300.366	92.12
300.597	80.12
300.827	97.12
301.057	96.12
301.288	77.12
301.518	95.12
301.748	103.12
301.979	101.12
302.209	98.12
302.439	100.12
302.669	81.12
302.9	104.12
303.13	89.12
303.36	96.12
303.59	71.12
303.82	103.12
304.051	100.12
304.281	92.12
304.511	93.12
304.741	80.12
304.971	76.12
305.201	92.12
305.431	73.12
305.661	82.12
305.891	92.12
306.121	99.12
306.352	111.12
306.582	94.12
306.812	96.12
307.042	114.12
307.272	109.12
307.502	106.12
307.731	88.12
307.961	113.12
308.191	84.12
308.421	94.12
308.651	97.12
308.881	73.12
309.111	88.12
309.341	91.12
309.571	104.12
309.8	78.12
310.03	95.12
310.26	89.12
310.49	113.12
310.72	109.12
310.949	96.12
311.179	94.12
311.409	99.12
311.639	88.12
311.868	110.12
312.098	89.12
312.328	97.12
312.557	92.12
312.787	106.12
313.017	98.12
313.246	101.12
313.476	99.12
313.706	95.12
313.935	99.12
314.165	105.12
314.394	94.12
314.624	93.12
314.853	99.12
315.083	94.12
315.312	86.12
315.542	96.12
315.771	92.12
316.001	100.12
316.23	85.12
316.46	88.12
316.689	93.12
316.919	102.12
317.148	85.12
317.377	90.12
317.607	100.12
317.836	98.12
318.065	89.12
318.295	94.12
318.524	86.12
318.753	94.12
318.983	102.12
319.212	90.12
319.441	111.12
319.67	130.12
319.9	95.12
320.129	84.12
320.358	96.12
320.587	100.12
320.816	104.12
321.046	104.12
321.275	103.12
321.504	95.12
321.733	94.12
321.962	94.12
322.191	88.12
322.42	102.12
322.649	119.12
322.878	121.12
323.108	110.12
323.337	129.12
323.566	130.12
323.795	127.12
324.024	198.12
324.253	356.12
324.482	763.12
324.71	1590.12
324.939	2155.12
325.168	810.12
325.397	246.12
325.626	140.12
325.855	127.12
326.084	120.12
326.313	134.12
326.542	151.12
326.77	220.12
326.999	420.12
327.228	894.12
327.457	1638.12
327.686	1340.12
327.914	350.12
328.143	190.12
328.372	131.12
328.6	118.12
328.829	107.12
329.058	122.12
329.287	112.12
329.515	93.12
329.744	94.12
329.972	89.12
330.201	104.12
330.43	122.12
330.658	121.12
330.887	116.12
331.115	110.12
331.344	101.12
331.572	101.12
331.801	101.12
332.03	100.12
332.258	96.12
332.486	95.12
332.715	88.12
332.943	93.12
333.172	107.12
333.4	98.12
333.629	115.12
333.857	109.12
334.085	99.12
334.314	106.12
334.542	130.12
334.771	115.12
334.999	102.12
335.227	99.12
335.455	92.12
335.684	83.12
335.912	87.12
336.14	78.12
336.369	108.12
336.597	86.12
336.825	96.12
337.053	93.12
337.281	97.12
337.51	88.12
337.738	88.12
337.966	103.12
338.194	101.12
338.422	97.12
338.65	103.12
338.878	97.12
339.106	94.12
339.334	86.12
339.562	87.12
339.79	86.12
340.018	78.12
340.246	106.12
340.474	91.12
340.702	114.12
340.93	90.12
341.158	92.12
341.386	88.12
341.614	109.12
341.842	97.12
342.07	83.12
342.298	95.12
342.526	87.12
342.754	89.12
342.981	99.12
343.209	99.12
343.437	106.12
343.665	86.12
343.893	89.12
344.12	79.12
344.348	84.12
344.576	108.12
344.804	87.12
345.031	93.12
345.259	96.12
345.487	92.12
345.714	106.12
345.942	91.12
346.17	88.12
346.397	82.12
346.625	93.12
346.853	101.12
347.08	94.12
347.308	98.12
347.535	98.12
347.763	100.12
347.99	102.12
348.218	112.12
348.445	99.12
348.673	102.12
348.9	77.12
349.128	77.12
349.355	96.12
349.583	80.12
349.81	104.12
350.037	107.12
350.265	94.12
350.492	96.12
350.72	92.12
350.947	98.12
351.174	107.12
351.402	91.12
351.629	107.12
351.856	91.12
352.083	97.12
352.311	101.12
352.538	114.12
352.765	102.12
352.992	111.12
353.22	112.12
353.447	96.12
353.674	94.12
353.901	102.12
354.128	100.12
354.355	105.12
354.583	96.12
354.81	95.12
355.037	90.12
355.264	103.12
355.491	74.12
355.718	87.12
355.945	103.12
356.172	96.12
356.399	107.12
356.626	89.12
356.853	102.12
357.08	91.12
357.307	98.12
357.534	95.12
357.761	100.12
357.988	104.12
358.215	94.12
358.441	88.12
358.668	94.12
358.895	102.12
359.122	89.12
359.349	83.12
359.576	78.12
359.802	94.12
360.029	101.12
360.256	101.12
360.483	94.12
360.709	96.12
360.936	89.12
361.163	92.12
361.39	102.12
361.616	92.12
361.843	79.12
362.07	98.12
362.296	88.12
362.523	102.12
362.749	90.12
362.976	91.12
363.203	95.12
363.429	103.12
363.656	95.12
363.882	95.12
364.109	84.12
364.335	109.12
364.562	85.12
364.788	104.12
365.015	90.12
365.241	83.12
365.468	103.12
365.694	108.12
365.92	116.12
366.147	102.12
366.373	99.12
366.599	74.12
366.826	96.12
367.052	100.12
367.278	104.12
367.505	103.12
367.731	85.12
367.957	91.12
368.184	102.12
368.41	101.12
368.636	121.12
368.862	119.12
369.089	101.12
369.315	103.12
369.541	98.12
369.767	82.12
369.993	102.12
370.219	95.12
370.445	98.12
370.672	93.12
370.898	112.12
371.124	90.12
371.35	104.12
371.576	84.12
371.802	92.12
372.028	97.12
372.254	82.12
372.48	92.12
372.706	82.12
372.932	98.12
373.158	85.12
373.384	95.12
373.61	101.12
373.835	93.12
374.061	92.12
374.287	96.12
374.513	96.12
374.739	93.12
374.965	90.12
375.191	72.12
375.416	90.12
375.642	87.12
375.868	96.12
376.094	98.12
376.319	94.12
376.545	102.12
376.771	103.12
376.997	90.12
377.222	89.12
377.448	77.12
377.674	94.12
377.899	91.12
378.125	96.12
378.35	96.12
378.576	91.12
378.802	94.12
379.027	90.12
379.253	90.12
379.478	86.12
379.704	91.12
379.929	82.12
380.155	89.12
380.38	89.12
380.606	95.12
380.831	90.12
381.057	104.12
381.282	94.12
381.507	108.12
381.733	105.12
381.958	87.12
382.184	92.12
382.409	107.12
382.634	105.12
382.86	100.12
383.085	103.12
383.31	106.12
383.535	96.12
383.761	98.12
383.986	91.12
384.211	104.12
384.436	99.12
384.662	96.12
384.887	94.12
385.112	87.12
385.337	110.12
385.562	98.12
385.787	98.12
386.013	112.12
386.238	111.12
386.463	105.12
386.688	120.12
386.913	117.12
387.138	111.12
387.363	91.12
387.588	94.12
387.813	94.12
388.038	115.12
388.263	111.12
388.488	111.12
388.713	101.12
388.938	88.12
389.163	102.12
389.387	92.12
389.612	99.12
389.837	102.12
390.062	96.12
390.287	88.12
390.512	107.12
390.736	109.12
390.961	97.12
391.186	90.12
391.411	96.12
391.636	96.12
391.86	101.12
392.085	84.12
392.31	87.12
392.534	92.12
392.759	103.12
392.984	94.12
393.208	90.12
393.433	94.12
393.658	103.12
393.882	95.12
394.107	83.12
394.331	94.12
394.556	96.12
394.78	90.12
395.005	85.12
395.229	82.12
395.454	73.12
395.678	100.12
395.903	86.12
396.127	79.12
396.352	84.12
396.576	94.12
396.801	92.12
397.025	79.12
397.249	90.12
397.474	95.12
397.698	93.12
397.922	76.12
398.147	101.12
398.371	102.12
398.595	95.12
398.82	90.12
399.044	85.12
399.268	95.12
399.492	88.12
399.717	90.12
399.941	97.12
400.165	102.12
400.389	87.12
400.613	85.12
400.837	87.12
401.062	98.12
401.286	92.12
401.51	94.12
401.734	87.12
401.958	104.12
402.182	117.12
402.406	143.12
402.63	111.12
402.854	96.12
403.078	87.12
403.302	84.12
403.526	96.12
403.75	95.12
403.974	94.12
404.198	100.12
404.422	94.12
404.645	100.12
404.869	100.12
405.093	85.12
405.317	98.12
405.541	99.12
405.765	110.12
405.988	117.12
406.212	151.12
406.436	193.12
406.66	130.12
406.883	96.12
407.107	88.12
407.331	92.12
407.555	86.12
407.778	106.12
408.002	80.12
408.226	93.12
408.449	86.12
408.673	76.12
408.896	87.12
409.12	96.12
409.344	92.12
409.567	87.12
409.791	114.12
410.014	109.12
410.238	103.12
410.461	89.12
410.685	103.12
410.908	94.12
411.132	110.12
411.355	99.12
411.578	95.12
411.802	94.12
412.025	89.12
412.249	83.12
412.472	89.12
412.695	108.12
412.919	109.12
413.142	100.12
413.365	102.12
413.589	91.12
413.812	95.12
414.035	87.12
414.258	83.12
414.482	72.12
414.705	97.12
414.928	84.12
415.151	92.12
415.374	119.12
415.597	98.12
415.821	97.12
416.044	90.12
416.267	88.12
416.49	112.12
416.713	95.12
416.936	92.12
417.159	87.12
417.382	89.12
417.605	92.12
417.828	94.12
418.051	92.12
418.274	96.12
418.497	95.12
418.72	55.12
418.943	95.12
419.166	79.12
419.389	90.12
419.611	69.12
419.834	85.12
420.057	99.12
420.28	102.12
420.503	94.12
420.726	78.12
420.948	99.12
421.171	94.12
421.394	100.12
421.617	98.12
421.839	103.12
422.062	102.12
422.285	88.12
422.507	95.12
422.73	100.12
422.953	93.12
423.175	86.12
423.398	98.12
423.621	96.12
423.843	82.12
424.066	84.12
424.288	88.12
424.511	111.12
424.733	103.12
424.956	115.12
425.178	100.12
425.401	101.12
425.623	110.12
425.846	87.12
426.068	102.12
426.291	103.12
426.513	105.12
426.735	88.12
426.958	93.12
427.18	84.12
427.402	126.12
427.625	164.12
427.847	142.12
428.069	116.12
428.292	79.12
428.514	96.12
428.736	87.12
428.958	92.12
429.181	92.12
429.403	87.12
429.625	97.12
429.847	101.12
430.069	109.12
430.292	77.12
430.514	82.12
430.736	84.12
430.958	78.12
431.18	106.12
431.402	71.12
431.624	87.12
431.846	96.12
432.068	87.12
432.29	84.12
432.512	85.12
432.734	92.12
432.956	97.12
433.178	91.12
433.4	107.12
433.622	101.12
433.844	94.12
434.066	96.12
434.287	85.12
434.509	93.12
434.731	94.12
434.953	85.12
435.175	95.12
435.397	89.12
435.618	106.12
435.84	112.12
436.062	115.12
436.284	92.12
436.505	104.12
436.727	102.12
436.949	95.12
437.17	99.12
437.392	90.12
437.614	100.12
437.835	106.12
438.057	119.12
438.278	100.12
438.5	96.12
438.721	129.12
438.943	108.12
439.165	88.12
439.386	75.12
439.608	100.12
439.829	99.12
440.05	118.12
440.272	118.12
440.493	95.12
440.715	86.12
440.936	92.12
441.158	90.12
441.379	84.12
441.6	99.12
441.822	85.12
442.043	89.12
442.264	102.12
442.486	97.12
442.707	101.12
442.928	116.12
443.149	127.12
443.371	119.12
443.592	98.12
443.813	114.12
444.034	106.12
444.255	82.12
444.476	98.12
444.698	83.12
444.919	84.12
445.14	135.12
445.361	122.12
445.582	105.12
445.803	142.12
446.024	114.12
446.245	131.12
446.466	103.12
446.687	91.12
446.908	93.12
447.129	86.12
447.35	86.12
447.571	88.12
447.792	83.12
448.013	108.12
448.234	88.12
448.455	100.12
448.675	106.12
448.896	110.12
449.117	95.12
449.338	93.12
449.559	123.12
449.779	126.12
450	106.12
450.221	86.12
450.442	87.12
450.662	101.12
450.883	95.12
451.104	103.12
451.324	85.12
451.545	77.12
451.766	86.12
451.986	85.12
452.207	82.12
452.428	90.12
452.648	106.12
452.869	107.12
453.089	125.12
453.31	101.12
453.53	100.12
453.751	80.12
453.971	101.12
454.192	106.12
454.412	86.12
454.633	76.12
454.853	96.12
455.073	85.12
455.294	101.12
455.514	88.12
455.734	80.12
455.955	80.12
456.175	96.12
456.395	82.12
456.616	82.12
456.836	87.12
457.056	89.12
457.276	86.12
457.497	88.12
457.717	87.12
457.937	99.12
458.157	95.12
458.377	88.12
458.598	94.12
458.818	129.12
459.038	132.12
459.258	112.12
459.478	100.12
459.698	93.12
459.918	96.12
460.138	74.12
460.358	92.12
460.578	95.12
460.798	93.12
461.018	101.12
461.238	95.12
461.458	93.12
461.678	87.12
461.898	94.12
462.118	94.12
462.338	84.12
462.558	96.12
462.777	85.12
462.997	87.12
463.217	93.12
463.437	88.12
463.657	89.12
463.876	73.12
464.096	93.12
464.316	92.12
464.536	104.12
464.755	82.12
464.975	100.12
465.195	155.12
465.414	139.12
465.634	86.12
465.854	84.12
466.073	86.12
466.293	98.12
466.512	92.12
466.732	90.12
466.951	87.12
467.171	84.12
467.391	105.12
467.61	120.12
467.829	91.12
468.049	87.12
468.268	109.12
468.488	94.12
468.707	94.12
468.927	99.12
469.146	79.12
469.365	71.12
469.585	84.12
469.804	99.12
470.023	105.12
470.243	100.12
470.462	113.12
470.681	90.12
470.901	86.12
471.12	110.12
471.339	90.12
471.558	95.12
471.777	89.12
471.997	99.12
472.216	102.12
472.435	138.12
472.654	92.12
472.873	88.12
473.092	79.12
473.311	87.12
473.53	92.12
473.749	87.12
473.968	105.12
474.187	100.12
474.406	111.12
474.625	96.12
474.844	90.12
475.063	89.12
475.282	86.12
475.501	96.12
475.72	88.12
475.939	102.12
476.158	106.12
476.377	98.12
476.596	91.12
476.814	87.12
477.033	102.12
477.252	91.12
477.471	98.12
477.69	90.12
477.908	96.12
478.127	91.12
478.346	103.12
478.564	95.12
478.783	89.12
479.002	90.12
479.22	85.12
479.439	111.12
479.658	95.12
479.876	102.12
480.095	86.12
480.313	101.12
480.532	110.12
480.751	91.12
480.969	101.12
481.188	207.12
481.406	137.12
481.624	90.12
481.843	110.12
482.061	89.12
482.28	101.12
482.498	82.12
482.717	100.12
482.935	90.12
483.153	84.12
483.372	95.12
483.59	83.12
483.808	89.12
484.027	92.12
484.245	89.12
484.463	101.12
484.681	98.12
484.9	96.12
485.118	86.12
485.336	88.12
485.554	99.12
485.772	101.12
485.99	108.12
486.209	108.12
486.427	104.12
486.645	118.12
486.863	104.12
487.081	112.12
487.299	103.12
487.517	89.12
487.735	91.12
487.953	96.12
488.171	99.12
488.389	101.12
488.607	92.12
488.825	90.12
489.043	91.12
489.261	87.12
489.479	88.12
489.696	82.12
489.914	86.12
490.132	100.12
490.35	110.12
490.568	99.12
490.786	95.12
491.003	86.12
491.221	103.12
491.439	94.12
491.657	88.12
491.874	108.12
492.092	101.12
492.31	107.12
492.527	94.12
492.745	82.12
492.963	95.12
493.18	104.12
493.398	91.12
493.615	93.12
493.833	105.12
494.05	86.12
494.268	97.12
494.485	92.12
494.703	84.12
494.92	110.12
495.138	88.12
495.355	100.12
495.573	87.12
495.79	92.12
496.008	103.12
496.225	100.12
496.442	100.12
496.66	92.12
496.877	90.12
497.094	97.12
497.312	94.12
497.529	82.12
497.746	93.12
497.963	102.12
498.181	113.12
498.398	105.12
498.615	118.12
498.832	114.12
499.049	100.12
499.267	95.12
499.484	86.12
499.701	92.12
499.918	98.12
500.135	88.12
500.352	99.12
500.569	90.12
500.786	82.12
501.003	87.12
501.22	90.12
501.437	84.12
501.654	97.12
501.871	97.12
502.088	89.12
502.305	95.12
502.522	93.12
502.739	96.12
502.956	82.12
503.172	86.12
503.389	99.12
503.606	93.12
503.823	100.12
504.04	78.12
504.256	92.12
504.473	103.12
504.69	105.12
504.907	103.12
505.123	94.12
505.34	98.12
505.557	94.12
505.773	104.12
505.99	95.12
506.207	106.12
506.423	93.12
506.64	101.12
506.856	94.12
507.073	92.12
507.289	92.12
507.506	105.12
507.722	108.12
507.939	105.12
508.155	106.12
508.372	97.12
508.588	108.12
508.805	90.12
509.021	110.12
509.238	85.12
509.454	90.12
509.67	119.12
509.887	110.12
510.103	121.12
510.319	200.12
510.536	659.12
510.752	2076.12
510.968	562.12
511.184	136.12
511.401	100.12
511.617	98.12
511.833	87.12
512.049	96.12
512.265	89.12
512.481	111.12
512.698	98.12
512.914	90.12
513.13	104.12
513.346	80.12
513.562	84.12
513.778	100.12
513.994	89.12
514.21	102.12
514.426	107.12
514.642	112.12
