Data from Uncirc_1982_H10_HRD10591_00073.txt Node
Date: Wed Jan 03 12:29:39 EST 2024
User: Yrep
Spectrometer: HR+D1059
Trigger mode: 1
Integration Time (sec): 1.000000E-1
Scans to average: 1
Electric dark correction enabled: true
Nonlinearity correction enabled: false
Boxcar width: 0
XAxis mode: Wavelengths
Number of Pixels in Spectrum: 2048
>>>>>Begin Spectral Data<<<<<
223.165	-22.94
223.4	-22.94
223.635	-22.94
223.869	-27.94
224.104	-11.94
224.338	-12.94
224.573	-9.94
224.808	-7.94
225.042	1.06
225.277	-11.94
225.511	1.06
225.746	-2.94
225.98	0.06
226.215	12.06
226.449	16.06
226.683	20.06
226.918	26.06
227.152	32.06
227.387	33.06
227.621	28.06
227.856	29.06
228.09	48.06
228.324	46.06
228.559	52.06
228.793	53.06
229.027	58.06
229.262	68.06
229.496	67.06
229.73	79.06
229.964	79.06
230.199	75.06
230.433	74.06
230.667	74.06
230.901	81.06
231.136	85.06
231.37	77.06
231.604	74.06
231.838	81.06
232.072	75.06
232.306	88.06
232.541	84.06
232.775	65.06
233.009	81.06
233.243	83.06
233.477	90.06
233.711	87.06
233.945	77.06
234.179	84.06
234.413	88.06
234.647	74.06
234.881	88.06
235.115	82.06
235.349	79.06
235.583	78.06
235.817	66.06
236.051	86.06
236.285	77.06
236.519	69.06
236.753	75.06
236.987	72.06
237.221	86.06
237.455	74.06
237.689	67.06
237.922	61.06
238.156	60.06
238.39	80.06
238.624	80.06
238.858	75.06
239.091	77.06
239.325	66.06
239.559	78.06
239.793	83.06
240.027	84.06
240.26	65.06
240.494	78.06
240.728	71.06
240.961	83.06
241.195	74.06
241.429	60.06
241.662	71.06
241.896	70.06
242.13	78.06
242.363	66.06
242.597	73.06
242.83	70.06
243.064	61.06
243.298	69.06
243.531	82.06
243.765	84.06
243.998	80.06
244.232	85.06
244.465	90.06
244.699	65.06
244.932	70.06
245.166	69.06
245.399	89.06
245.633	106.06
245.866	77.06
246.099	80.06
246.333	76.06
246.566	72.06
246.8	80.06
247.033	73.06
247.266	76.06
247.5	85.06
247.733	74.06
247.966	74.06
248.2	73.06
248.433	75.06
248.666	90.06
248.899	75.06
249.133	87.06
249.366	92.06
249.599	97.06
249.832	82.06
250.066	73.06
250.299	86.06
250.532	76.06
250.765	88.06
250.998	75.06
251.231	88.06
251.465	90.06
251.698	90.06
251.931	84.06
252.164	68.06
252.397	78.06
252.63	82.06
252.863	76.06
253.096	78.06
253.329	79.06
253.562	84.06
253.795	78.06
254.028	76.06
254.261	82.06
254.494	82.06
254.727	75.06
254.96	71.06
255.193	84.06
255.426	76.06
255.659	79.06
255.892	76.06
256.124	80.06
256.357	76.06
256.59	84.06
256.823	76.06
257.056	57.06
257.289	73.06
257.521	91.06
257.754	81.06
257.987	76.06
258.22	92.06
258.452	86.06
258.685	99.06
258.918	84.06
259.151	65.06
259.383	90.06
259.616	85.06
259.849	77.06
260.081	76.06
260.314	98.06
260.547	72.06
260.779	76.06
261.012	86.06
261.244	65.06
261.477	80.06
261.71	88.06
261.942	103.06
262.175	110.06
262.407	90.06
262.64	83.06
262.872	74.06
263.105	77.06
263.337	70.06
263.57	75.06
263.802	80.06
264.035	86.06
264.267	86.06
264.499	98.06
264.732	76.06
264.964	75.06
265.197	79.06
265.429	79.06
265.661	72.06
265.894	73.06
266.126	75.06
266.358	97.06
266.591	86.06
266.823	61.06
267.055	92.06
267.287	80.06
267.52	71.06
267.752	80.06
267.984	86.06
268.216	77.06
268.448	90.06
268.681	76.06
268.913	80.06
269.145	89.06
269.377	69.06
269.609	81.06
269.841	85.06
270.073	75.06
270.306	95.06
270.538	88.06
270.77	80.06
271.002	95.06
271.234	73.06
271.466	88.06
271.698	67.06
271.93	102.06
272.162	97.06
272.394	76.06
272.626	85.06
272.858	76.06
273.09	86.06
273.322	92.06
273.553	80.06
273.785	88.06
274.017	86.06
274.249	81.06
274.481	85.06
274.713	82.06
274.945	82.06
275.176	88.06
275.408	88.06
275.64	89.06
275.872	69.06
276.104	89.06
276.335	81.06
276.567	101.06
276.799	108.06
277.031	100.06
277.262	75.06
277.494	84.06
277.726	60.06
277.957	85.06
278.189	94.06
278.421	84.06
278.652	81.06
278.884	85.06
279.115	93.06
279.347	71.06
279.579	93.06
279.81	88.06
280.042	84.06
280.273	88.06
280.505	84.06
280.736	93.06
280.968	98.06
281.199	90.06
281.431	96.06
281.662	84.06
281.894	82.06
282.125	105.06
282.356	106.06
282.588	124.06
282.819	108.06
283.051	91.06
283.282	74.06
283.513	84.06
283.745	73.06
283.976	78.06
284.207	108.06
284.439	93.06
284.67	100.06
284.901	86.06
285.132	104.06
285.364	89.06
285.595	92.06
285.826	67.06
286.057	96.06
286.288	78.06
286.52	85.06
286.751	88.06
286.982	95.06
287.213	87.06
287.444	85.06
287.675	80.06
287.906	91.06
288.138	83.06
288.369	97.06
288.6	77.06
288.831	85.06
289.062	90.06
289.293	104.06
289.524	86.06
289.755	87.06
289.986	63.06
290.217	86.06
290.448	76.06
290.679	81.06
290.91	81.06
291.141	104.06
291.371	81.06
291.602	88.06
291.833	94.06
292.064	91.06
292.295	81.06
292.526	86.06
292.757	92.06
292.987	84.06
293.218	70.06
293.449	112.06
293.68	84.06
293.91	78.06
294.141	80.06
294.372	100.06
294.603	111.06
294.833	86.06
295.064	78.06
295.295	77.06
295.525	94.06
295.756	105.06
295.987	95.06
296.217	117.06
296.448	102.06
296.679	94.06
296.909	100.06
297.14	93.06
297.37	86.06
297.601	92.06
297.831	93.06
298.062	88.06
298.292	89.06
298.523	92.06
298.753	84.06
298.984	85.06
299.214	89.06
299.445	98.06
299.675	96.06
299.905	97.06
300.136	77.06
300.366	84.06
300.597	88.06
300.827	86.06
301.057	108.06
301.288	91.06
301.518	85.06
301.748	97.06
301.979	106.06
302.209	96.06
302.439	92.06
302.669	90.06
302.9	90.06
303.13	87.06
303.36	91.06
303.59	98.06
303.82	105.06
304.051	110.06
304.281	90.06
304.511	85.06
304.741	100.06
304.971	93.06
305.201	91.06
305.431	94.06
305.661	88.06
305.891	91.06
306.121	103.06
306.352	106.06
306.582	96.06
306.812	95.06
307.042	92.06
307.272	92.06
307.502	99.06
307.731	78.06
307.961	88.06
308.191	77.06
308.421	87.06
308.651	78.06
308.881	88.06
309.111	85.06
309.341	90.06
309.571	83.06
309.8	94.06
310.03	100.06
310.26	90.06
310.49	88.06
310.72	93.06
310.949	99.06
311.179	96.06
311.409	91.06
311.639	86.06
311.868	93.06
312.098	101.06
312.328	85.06
312.557	107.06
312.787	92.06
313.017	99.06
313.246	104.06
313.476	105.06
313.706	92.06
313.935	87.06
314.165	97.06
314.394	98.06
314.624	95.06
314.853	86.06
315.083	96.06
315.312	98.06
315.542	93.06
315.771	95.06
316.001	87.06
316.23	77.06
316.46	77.06
316.689	77.06
316.919	78.06
317.148	81.06
317.377	101.06
317.607	104.06
317.836	88.06
318.065	99.06
318.295	88.06
318.524	88.06
318.753	90.06
318.983	94.06
319.212	103.06
319.441	104.06
319.67	107.06
319.9	94.06
320.129	88.06
320.358	94.06
320.587	101.06
320.816	84.06
321.046	94.06
321.275	94.06
321.504	81.06
321.733	99.06
321.962	87.06
322.191	93.06
322.42	98.06
322.649	111.06
322.878	113.06
323.108	109.06
323.337	120.06
323.566	109.06
323.795	162.06
324.024	175.06
324.253	357.06
324.482	741.06
324.71	1526.06
324.939	2008.06
325.168	738.06
325.397	216.06
325.626	144.06
325.855	123.06
326.084	121.06
326.313	136.06
326.542	150.06
326.77	214.06
326.999	425.06
327.228	892.06
327.457	1606.06
327.686	1246.06
327.914	345.06
328.143	187.06
328.372	150.06
328.6	120.06
328.829	109.06
329.058	112.06
329.287	125.06
329.515	102.06
329.744	121.06
329.972	96.06
330.201	106.06
330.43	114.06
330.658	127.06
330.887	128.06
331.115	119.06
331.344	88.06
331.572	97.06
331.801	109.06
332.03	95.06
332.258	90.06
332.486	85.06
332.715	94.06
332.943	83.06
333.172	109.06
333.4	107.06
333.629	101.06
333.857	103.06
334.085	121.06
334.314	116.06
334.542	121.06
334.771	113.06
334.999	106.06
335.227	92.06
335.455	105.06
335.684	98.06
335.912	92.06
336.14	106.06
336.369	95.06
336.597	90.06
336.825	98.06
337.053	94.06
337.281	84.06
337.51	99.06
337.738	92.06
337.966	96.06
338.194	101.06
338.422	85.06
338.65	102.06
338.878	99.06
339.106	81.06
339.334	84.06
339.562	84.06
339.79	93.06
340.018	87.06
340.246	76.06
340.474	92.06
340.702	88.06
340.93	89.06
341.158	93.06
341.386	107.06
341.614	99.06
341.842	96.06
342.07	110.06
342.298	102.06
342.526	78.06
342.754	88.06
342.981	97.06
343.209	96.06
343.437	94.06
343.665	102.06
343.893	91.06
344.12	98.06
344.348	92.06
344.576	82.06
344.804	102.06
345.031	99.06
345.259	97.06
345.487	86.06
345.714	77.06
345.942	92.06
346.17	89.06
346.397	100.06
346.625	92.06
346.853	85.06
347.08	93.06
347.308	104.06
347.535	100.06
347.763	98.06
347.99	97.06
348.218	96.06
348.445	103.06
348.673	109.06
348.9	73.06
349.128	93.06
349.355	91.06
349.583	92.06
349.81	96.06
350.037	92.06
350.265	108.06
350.492	99.06
350.72	100.06
350.947	97.06
351.174	114.06
351.402	110.06
351.629	108.06
351.856	110.06
352.083	107.06
352.311	108.06
352.538	119.06
352.765	92.06
352.992	98.06
353.22	110.06
353.447	110.06
353.674	100.06
353.901	89.06
354.128	101.06
354.355	104.06
354.583	102.06
354.81	94.06
355.037	99.06
355.264	93.06
355.491	90.06
355.718	103.06
355.945	100.06
356.172	101.06
356.399	92.06
356.626	91.06
356.853	76.06
357.08	88.06
357.307	90.06
357.534	97.06
357.761	91.06
357.988	104.06
358.215	96.06
358.441	102.06
358.668	85.06
358.895	97.06
359.122	87.06
359.349	83.06
359.576	82.06
359.802	89.06
360.029	116.06
360.256	108.06
360.483	102.06
360.709	79.06
360.936	88.06
361.163	99.06
361.39	92.06
361.616	88.06
361.843	97.06
362.07	108.06
362.296	106.06
362.523	86.06
362.749	76.06
362.976	92.06
363.203	94.06
363.429	99.06
363.656	99.06
363.882	77.06
364.109	93.06
364.335	99.06
364.562	109.06
364.788	84.06
365.015	97.06
365.241	102.06
365.468	104.06
365.694	94.06
365.92	90.06
366.147	91.06
366.373	67.06
366.599	86.06
366.826	96.06
367.052	96.06
367.278	84.06
367.505	80.06
367.731	83.06
367.957	84.06
368.184	87.06
368.41	98.06
368.636	109.06
368.862	118.06
369.089	97.06
369.315	93.06
369.541	94.06
369.767	85.06
369.993	101.06
370.219	98.06
370.445	78.06
370.672	82.06
370.898	86.06
371.124	86.06
371.35	89.06
371.576	93.06
371.802	94.06
372.028	88.06
372.254	92.06
372.48	97.06
372.706	102.06
372.932	89.06
373.158	105.06
373.384	75.06
373.61	99.06
373.835	88.06
374.061	99.06
374.287	97.06
374.513	105.06
374.739	83.06
374.965	82.06
375.191	83.06
375.416	98.06
375.642	88.06
375.868	98.06
376.094	91.06
376.319	91.06
376.545	101.06
376.771	83.06
376.997	87.06
377.222	78.06
377.448	92.06
377.674	76.06
377.899	86.06
378.125	106.06
378.35	82.06
378.576	99.06
378.802	89.06
379.027	90.06
379.253	93.06
379.478	86.06
379.704	95.06
379.929	93.06
380.155	95.06
380.38	100.06
380.606	96.06
380.831	99.06
381.057	105.06
381.282	104.06
381.507	104.06
381.733	88.06
381.958	97.06
382.184	94.06
382.409	108.06
382.634	99.06
382.86	100.06
383.085	86.06
383.31	102.06
383.535	106.06
383.761	98.06
383.986	91.06
384.211	104.06
384.436	94.06
384.662	93.06
384.887	99.06
385.112	97.06
385.337	110.06
385.562	103.06
385.787	110.06
386.013	115.06
386.238	107.06
386.463	93.06
386.688	103.06
386.913	106.06
387.138	113.06
387.363	101.06
387.588	108.06
387.813	106.06
388.038	95.06
388.263	106.06
388.488	109.06
388.713	90.06
388.938	93.06
389.163	105.06
389.387	86.06
389.612	92.06
389.837	92.06
390.062	98.06
390.287	96.06
390.512	88.06
390.736	84.06
390.961	86.06
391.186	84.06
391.411	105.06
391.636	95.06
391.86	92.06
392.085	100.06
392.31	96.06
392.534	87.06
392.759	94.06
392.984	75.06
393.208	94.06
393.433	82.06
393.658	86.06
393.882	89.06
394.107	92.06
394.331	78.06
394.556	88.06
394.78	90.06
395.005	83.06
395.229	86.06
395.454	89.06
395.678	88.06
395.903	96.06
396.127	93.06
396.352	80.06
396.576	88.06
396.801	76.06
397.025	65.06
397.249	98.06
397.474	72.06
397.698	68.06
397.922	90.06
398.147	93.06
398.371	86.06
398.595	78.06
398.82	86.06
399.044	86.06
399.268	89.06
399.492	94.06
399.717	77.06
399.941	92.06
400.165	94.06
400.389	86.06
400.613	82.06
400.837	90.06
401.062	96.06
401.286	82.06
401.51	73.06
401.734	94.06
401.958	92.06
402.182	121.06
402.406	157.06
402.63	104.06
402.854	97.06
403.078	100.06
403.302	91.06
403.526	99.06
403.75	84.06
403.974	92.06
404.198	89.06
404.422	84.06
404.645	93.06
404.869	84.06
405.093	84.06
405.317	95.06
405.541	96.06
405.765	89.06
405.988	107.06
406.212	147.06
406.436	180.06
406.66	125.06
406.883	86.06
407.107	82.06
407.331	99.06
407.555	89.06
407.778	100.06
408.002	91.06
408.226	98.06
408.449	84.06
408.673	102.06
408.896	98.06
409.12	100.06
409.344	100.06
409.567	75.06
409.791	94.06
410.014	96.06
410.238	91.06
410.461	101.06
410.685	96.06
410.908	102.06
411.132	102.06
411.355	90.06
411.578	103.06
411.802	88.06
412.025	66.06
412.249	96.06
412.472	105.06
412.695	84.06
412.919	82.06
413.142	90.06
413.365	86.06
413.589	90.06
413.812	85.06
414.035	85.06
414.258	94.06
414.482	93.06
414.705	88.06
414.928	91.06
415.151	94.06
415.374	102.06
415.597	82.06
415.821	89.06
416.044	93.06
416.267	99.06
416.49	80.06
416.713	88.06
416.936	80.06
417.159	87.06
417.382	91.06
417.605	84.06
417.828	102.06
418.051	93.06
418.274	84.06
418.497	78.06
418.72	97.06
418.943	84.06
419.166	88.06
419.389	79.06
419.611	98.06
419.834	81.06
420.057	89.06
420.28	95.06
420.503	89.06
420.726	84.06
420.948	86.06
421.171	83.06
421.394	90.06
421.617	70.06
421.839	75.06
422.062	77.06
422.285	88.06
422.507	84.06
422.73	88.06
422.953	91.06
423.175	86.06
423.398	88.06
423.621	86.06
423.843	90.06
424.066	76.06
424.288	81.06
424.511	86.06
424.733	79.06
424.956	109.06
425.178	96.06
425.401	91.06
425.623	100.06
425.846	100.06
426.068	88.06
426.291	100.06
426.513	75.06
426.735	88.06
426.958	119.06
427.18	102.06
427.402	110.06
427.625	137.06
427.847	138.06
428.069	109.06
428.292	94.06
428.514	80.06
428.736	77.06
428.958	97.06
429.181	84.06
429.403	84.06
429.625	91.06
429.847	89.06
430.069	90.06
430.292	93.06
430.514	93.06
430.736	85.06
430.958	91.06
431.18	83.06
431.402	92.06
431.624	87.06
431.846	74.06
432.068	84.06
432.29	87.06
432.512	86.06
432.734	86.06
432.956	92.06
433.178	99.06
433.4	92.06
433.622	99.06
433.844	102.06
434.066	71.06
434.287	89.06
434.509	102.06
434.731	106.06
434.953	97.06
435.175	88.06
435.397	86.06
435.618	97.06
435.84	90.06
436.062	123.06
436.284	113.06
436.505	95.06
436.727	88.06
436.949	92.06
437.17	92.06
437.392	82.06
437.614	96.06
437.835	96.06
438.057	107.06
438.278	93.06
438.5	90.06
438.721	111.06
438.943	97.06
439.165	93.06
439.386	97.06
439.608	93.06
439.829	108.06
440.05	118.06
440.272	117.06
440.493	107.06
440.715	82.06
440.936	86.06
441.158	92.06
441.379	84.06
441.6	97.06
441.822	89.06
442.043	99.06
442.264	95.06
442.486	100.06
442.707	89.06
442.928	109.06
443.149	118.06
443.371	114.06
443.592	101.06
443.813	103.06
444.034	101.06
444.255	90.06
444.476	92.06
444.698	94.06
444.919	95.06
445.14	132.06
445.361	115.06
445.582	108.06
445.803	125.06
446.024	120.06
446.245	123.06
446.466	110.06
446.687	88.06
446.908	102.06
447.129	94.06
447.35	87.06
447.571	79.06
447.792	87.06
448.013	94.06
448.234	92.06
448.455	88.06
448.675	100.06
448.896	106.06
449.117	103.06
449.338	100.06
449.559	122.06
449.779	115.06
450	100.06
450.221	84.06
450.442	83.06
450.662	86.06
450.883	84.06
451.104	107.06
451.324	93.06
451.545	83.06
451.766	96.06
451.986	82.06
452.207	94.06
452.428	85.06
452.648	93.06
452.869	93.06
453.089	104.06
453.31	106.06
453.53	96.06
453.751	88.06
453.971	88.06
454.192	96.06
454.412	92.06
454.633	93.06
454.853	96.06
455.073	97.06
455.294	98.06
455.514	81.06
455.734	89.06
455.955	89.06
456.175	80.06
456.395	76.06
456.616	85.06
456.836	77.06
457.056	85.06
457.276	93.06
457.497	68.06
457.717	84.06
457.937	87.06
458.157	92.06
458.377	98.06
458.598	103.06
458.818	133.06
459.038	139.06
459.258	97.06
459.478	91.06
459.698	85.06
459.918	75.06
460.138	84.06
460.358	81.06
460.578	86.06
460.798	94.06
461.018	86.06
461.238	85.06
461.458	91.06
461.678	99.06
461.898	90.06
462.118	87.06
462.338	93.06
462.558	82.06
462.777	79.06
462.997	83.06
463.217	84.06
463.437	81.06
463.657	82.06
463.876	85.06
464.096	77.06
464.316	99.06
464.536	93.06
464.755	86.06
464.975	101.06
465.195	133.06
465.414	131.06
465.634	91.06
465.854	84.06
466.073	81.06
466.293	83.06
466.512	83.06
466.732	81.06
466.951	94.06
467.171	79.06
467.391	83.06
467.61	106.06
467.829	91.06
468.049	89.06
468.268	108.06
468.488	94.06
468.707	69.06
468.927	68.06
469.146	76.06
469.365	78.06
469.585	86.06
469.804	106.06
470.023	97.06
470.243	102.06
470.462	98.06
470.681	101.06
470.901	96.06
471.12	84.06
471.339	80.06
471.558	85.06
471.777	88.06
471.997	109.06
472.216	113.06
472.435	146.06
472.654	95.06
472.873	93.06
473.092	71.06
473.311	85.06
473.53	92.06
473.749	101.06
473.968	101.06
474.187	98.06
474.406	94.06
474.625	79.06
474.844	89.06
475.063	72.06
475.282	88.06
475.501	93.06
475.72	94.06
475.939	101.06
476.158	78.06
476.377	106.06
476.596	88.06
476.814	83.06
477.033	97.06
477.252	85.06
477.471	90.06
477.69	89.06
477.908	98.06
478.127	82.06
478.346	88.06
478.564	85.06
478.783	107.06
479.002	101.06
479.22	87.06
479.439	92.06
479.658	93.06
479.876	95.06
480.095	83.06
480.313	95.06
480.532	98.06
480.751	90.06
480.969	116.06
481.188	178.06
481.406	150.06
481.624	107.06
481.843	98.06
482.061	88.06
482.28	77.06
482.498	84.06
482.717	81.06
482.935	78.06
483.153	99.06
483.372	94.06
483.59	82.06
483.808	89.06
484.027	89.06
484.245	86.06
484.463	86.06
484.681	89.06
484.9	87.06
485.118	98.06
485.336	100.06
485.554	116.06
485.772	99.06
485.99	103.06
486.209	95.06
486.427	91.06
486.645	99.06
486.863	109.06
487.081	98.06
487.299	98.06
487.517	85.06
487.735	94.06
487.953	91.06
488.171	88.06
488.389	83.06
488.607	86.06
488.825	89.06
489.043	100.06
489.261	104.06
489.479	102.06
489.696	85.06
489.914	76.06
490.132	84.06
490.35	67.06
490.568	86.06
490.786	106.06
491.003	92.06
491.221	96.06
491.439	84.06
491.657	102.06
491.874	89.06
492.092	89.06
492.31	84.06
492.527	80.06
492.745	96.06
492.963	93.06
493.18	94.06
493.398	104.06
493.615	105.06
493.833	90.06
494.05	82.06
494.268	95.06
494.485	92.06
494.703	88.06
494.92	101.06
495.138	89.06
495.355	85.06
495.573	100.06
495.79	78.06
496.008	96.06
496.225	85.06
496.442	82.06
496.66	96.06
496.877	91.06
497.094	104.06
497.312	86.06
497.529	80.06
497.746	91.06
497.963	91.06
498.181	95.06
498.398	83.06
498.615	97.06
498.832	88.06
499.049	92.06
499.267	96.06
499.484	95.06
499.701	91.06
499.918	97.06
500.135	88.06
500.352	80.06
500.569	96.06
500.786	91.06
501.003	98.06
501.22	78.06
501.437	106.06
501.654	76.06
501.871	81.06
502.088	98.06
502.305	89.06
502.522	83.06
502.739	86.06
502.956	105.06
503.172	85.06
503.389	83.06
503.606	97.06
503.823	89.06
504.04	96.06
504.256	92.06
504.473	88.06
504.69	87.06
504.907	90.06
505.123	108.06
505.34	90.06
505.557	91.06
505.773	97.06
505.99	102.06
506.207	90.06
506.423	93.06
506.64	88.06
506.856	92.06
507.073	93.06
507.289	90.06
507.506	91.06
507.722	104.06
507.939	102.06
508.155	100.06
508.372	111.06
508.588	93.06
508.805	100.06
509.021	85.06
509.238	102.06
509.454	82.06
509.67	82.06
509.887	110.06
510.103	131.06
510.319	191.06
510.536	681.06
510.752	1996.06
510.968	555.06
511.184	140.06
511.401	107.06
511.617	97.06
511.833	98.06
512.049	93.06
512.265	93.06
512.481	84.06
512.698	100.06
512.914	94.06
513.13	81.06
513.346	93.06
513.562	83.06
513.778	93.06
513.994	85.06
514.21	97.06
514.426	110.06
514.642	113.06
514.858	106.06
515.074	158.06
515.29	379.06
515.506	1183.06
515.721	407.06
515.937	134.06
