Data from Uncirc_1982_H10_HRD10591_00063.txt Node
Date: Wed Jan 03 12:29:37 EST 2024
User: Yrep
Spectrometer: HR+D1059
Trigger mode: 1
Integration Time (sec): 1.000000E-1
Scans to average: 1
Electric dark correction enabled: true
Nonlinearity correction enabled: false
Boxcar width: 0
XAxis mode: Wavelengths
Number of Pixels in Spectrum: 2048
>>>>>Begin Spectral Data<<<<<
223.165	-25.94
223.4	-25.94
223.635	-25.94
223.869	-17.94
224.104	-22.94
224.338	-9.94
224.573	-17.94
224.808	-15.94
225.042	-18.94
225.277	-11.94
225.511	-11.94
225.746	5.06
225.98	20.06
226.215	9.06
226.449	28.06
226.683	22.06
226.918	34.06
227.152	35.06
227.387	44.06
227.621	40.06
227.856	50.06
228.09	46.06
228.324	58.06
228.559	62.06
228.793	65.06
229.027	74.06
229.262	66.06
229.496	72.06
229.73	82.06
229.964	68.06
230.199	78.06
230.433	83.06
230.667	77.06
230.901	74.06
231.136	77.06
231.37	81.06
231.604	62.06
231.838	85.06
232.072	80.06
232.306	80.06
232.541	83.06
232.775	51.06
233.009	92.06
233.243	82.06
233.477	88.06
233.711	75.06
233.945	94.06
234.179	69.06
234.413	76.06
234.647	71.06
234.881	58.06
235.115	80.06
235.349	90.06
235.583	88.06
235.817	74.06
236.051	81.06
236.285	68.06
236.519	88.06
236.753	80.06
236.987	61.06
237.221	90.06
237.455	67.06
237.689	78.06
237.922	83.06
238.156	81.06
238.39	69.06
238.624	72.06
238.858	67.06
239.091	80.06
239.325	93.06
239.559	88.06
239.793	72.06
240.027	80.06
240.26	69.06
240.494	84.06
240.728	77.06
240.961	76.06
241.195	90.06
241.429	78.06
241.662	86.06
241.896	76.06
242.13	56.06
242.363	70.06
242.597	70.06
242.83	68.06
243.064	65.06
243.298	66.06
243.531	80.06
243.765	86.06
243.998	74.06
244.232	85.06
244.465	86.06
244.699	85.06
244.932	75.06
245.166	76.06
245.399	61.06
245.633	80.06
245.866	68.06
246.099	80.06
246.333	74.06
246.566	91.06
246.8	70.06
247.033	83.06
247.266	82.06
247.5	104.06
247.733	76.06
247.966	79.06
248.2	96.06
248.433	84.06
248.666	81.06
248.899	81.06
249.133	83.06
249.366	110.06
249.599	83.06
249.832	81.06
250.066	70.06
250.299	76.06
250.532	94.06
250.765	82.06
250.998	90.06
251.231	66.06
251.465	70.06
251.698	66.06
251.931	73.06
252.164	71.06
252.397	59.06
252.63	69.06
252.863	100.06
253.096	84.06
253.329	82.06
253.562	71.06
253.795	73.06
254.028	75.06
254.261	77.06
254.494	80.06
254.727	82.06
254.96	77.06
255.193	83.06
255.426	69.06
255.659	71.06
255.892	84.06
256.124	82.06
256.357	86.06
256.59	91.06
256.823	76.06
257.056	80.06
257.289	71.06
257.521	80.06
257.754	78.06
257.987	69.06
258.22	67.06
258.452	84.06
258.685	90.06
258.918	69.06
259.151	68.06
259.383	84.06
259.616	68.06
259.849	84.06
260.081	76.06
260.314	88.06
260.547	91.06
260.779	88.06
261.012	82.06
261.244	85.06
261.477	83.06
261.71	90.06
261.942	114.06
262.175	106.06
262.407	93.06
262.64	80.06
262.872	88.06
263.105	85.06
263.337	86.06
263.57	88.06
263.802	76.06
264.035	86.06
264.267	83.06
264.499	70.06
264.732	83.06
264.964	80.06
265.197	86.06
265.429	90.06
265.661	76.06
265.894	88.06
266.126	77.06
266.358	76.06
266.591	87.06
266.823	75.06
267.055	77.06
267.287	74.06
267.52	71.06
267.752	75.06
267.984	87.06
268.216	76.06
268.448	83.06
268.681	85.06
268.913	82.06
269.145	97.06
269.377	80.06
269.609	71.06
269.841	84.06
270.073	74.06
270.306	88.06
270.538	84.06
270.77	84.06
271.002	84.06
271.234	91.06
271.466	82.06
271.698	89.06
271.93	76.06
272.162	86.06
272.394	83.06
272.626	72.06
272.858	92.06
273.09	87.06
273.322	90.06
273.553	85.06
273.785	91.06
274.017	75.06
274.249	84.06
274.481	86.06
274.713	83.06
274.945	86.06
275.176	80.06
275.408	77.06
275.64	73.06
275.872	94.06
276.104	89.06
276.335	96.06
276.567	84.06
276.799	98.06
277.031	91.06
277.262	80.06
277.494	81.06
277.726	77.06
277.957	80.06
278.189	82.06
278.421	76.06
278.652	80.06
278.884	84.06
279.115	72.06
279.347	88.06
279.579	96.06
279.81	96.06
280.042	96.06
280.273	92.06
280.505	86.06
280.736	93.06
280.968	91.06
281.199	92.06
281.431	84.06
281.662	82.06
281.894	82.06
282.125	85.06
282.356	107.06
282.588	122.06
282.819	113.06
283.051	82.06
283.282	105.06
283.513	90.06
283.745	81.06
283.976	92.06
284.207	80.06
284.439	94.06
284.67	89.06
284.901	86.06
285.132	89.06
285.364	89.06
285.595	96.06
285.826	72.06
286.057	85.06
286.288	86.06
286.52	74.06
286.751	84.06
286.982	91.06
287.213	91.06
287.444	92.06
287.675	73.06
287.906	80.06
288.138	86.06
288.369	98.06
288.6	104.06
288.831	73.06
289.062	88.06
289.293	82.06
289.524	90.06
289.755	84.06
289.986	88.06
290.217	90.06
290.448	78.06
290.679	96.06
290.91	99.06
291.141	70.06
291.371	91.06
291.602	88.06
291.833	90.06
292.064	102.06
292.295	88.06
292.526	92.06
292.757	87.06
292.987	90.06
293.218	93.06
293.449	87.06
293.68	92.06
293.91	104.06
294.141	95.06
294.372	95.06
294.603	87.06
294.833	91.06
295.064	84.06
295.295	101.06
295.525	93.06
295.756	105.06
295.987	101.06
296.217	103.06
296.448	98.06
296.679	74.06
296.909	85.06
297.14	94.06
297.37	74.06
297.601	80.06
297.831	88.06
298.062	88.06
298.292	82.06
298.523	91.06
298.753	88.06
298.984	87.06
299.214	96.06
299.445	99.06
299.675	101.06
299.905	100.06
300.136	83.06
300.366	76.06
300.597	105.06
300.827	81.06
301.057	94.06
301.288	91.06
301.518	95.06
301.748	87.06
301.979	96.06
302.209	77.06
302.439	87.06
302.669	82.06
302.9	76.06
303.13	84.06
303.36	100.06
303.59	101.06
303.82	106.06
304.051	94.06
304.281	100.06
304.511	80.06
304.741	96.06
304.971	75.06
305.201	98.06
305.431	90.06
305.661	99.06
305.891	93.06
306.121	86.06
306.352	93.06
306.582	82.06
306.812	89.06
307.042	114.06
307.272	98.06
307.502	88.06
307.731	90.06
307.961	92.06
308.191	91.06
308.421	75.06
308.651	65.06
308.881	82.06
309.111	77.06
309.341	103.06
309.571	92.06
309.8	75.06
310.03	95.06
310.26	94.06
310.49	99.06
310.72	96.06
310.949	86.06
311.179	104.06
311.409	82.06
311.639	85.06
311.868	76.06
312.098	85.06
312.328	85.06
312.557	92.06
312.787	95.06
313.017	112.06
313.246	96.06
313.476	91.06
313.706	104.06
313.935	82.06
314.165	108.06
314.394	88.06
314.624	88.06
314.853	75.06
315.083	92.06
315.312	82.06
315.542	95.06
315.771	93.06
316.001	107.06
316.23	81.06
316.46	81.06
316.689	94.06
316.919	82.06
317.148	97.06
317.377	97.06
317.607	91.06
317.836	94.06
318.065	84.06
318.295	91.06
318.524	90.06
318.753	96.06
318.983	91.06
319.212	91.06
319.441	93.06
319.67	99.06
319.9	85.06
320.129	88.06
320.358	95.06
320.587	97.06
320.816	92.06
321.046	91.06
321.275	104.06
321.504	87.06
321.733	96.06
321.962	103.06
322.191	103.06
322.42	103.06
322.649	102.06
322.878	104.06
323.108	114.06
323.337	104.06
323.566	129.06
323.795	134.06
324.024	192.06
324.253	334.06
324.482	672.06
324.71	1470.06
324.939	1876.06
325.168	697.06
325.397	231.06
325.626	164.06
325.855	122.06
326.084	118.06
326.313	120.06
326.542	139.06
326.77	206.06
326.999	422.06
327.228	808.06
327.457	1444.06
327.686	1170.06
327.914	312.06
328.143	174.06
328.372	145.06
328.6	114.06
328.829	118.06
329.058	110.06
329.287	134.06
329.515	91.06
329.744	99.06
329.972	105.06
330.201	108.06
330.43	123.06
330.658	114.06
330.887	120.06
331.115	107.06
331.344	87.06
331.572	97.06
331.801	90.06
332.03	82.06
332.258	88.06
332.486	76.06
332.715	99.06
332.943	99.06
333.172	92.06
333.4	89.06
333.629	90.06
333.857	106.06
334.085	103.06
334.314	114.06
334.542	122.06
334.771	121.06
334.999	102.06
335.227	106.06
335.455	104.06
335.684	107.06
335.912	113.06
336.14	97.06
336.369	101.06
336.597	92.06
336.825	84.06
337.053	93.06
337.281	94.06
337.51	99.06
337.738	81.06
337.966	96.06
338.194	104.06
338.422	77.06
338.65	97.06
338.878	98.06
339.106	78.06
339.334	104.06
339.562	99.06
339.79	92.06
340.018	85.06
340.246	104.06
340.474	80.06
340.702	93.06
340.93	96.06
341.158	97.06
341.386	97.06
341.614	83.06
341.842	96.06
342.07	85.06
342.298	82.06
342.526	91.06
342.754	89.06
342.981	79.06
343.209	93.06
343.437	93.06
343.665	97.06
343.893	89.06
344.12	94.06
344.348	91.06
344.576	76.06
344.804	89.06
345.031	80.06
345.259	80.06
345.487	82.06
345.714	89.06
345.942	105.06
346.17	104.06
346.397	95.06
346.625	86.06
346.853	97.06
347.08	83.06
347.308	86.06
347.535	95.06
347.763	108.06
347.99	100.06
348.218	101.06
348.445	96.06
348.673	86.06
348.9	90.06
349.128	86.06
349.355	85.06
349.583	87.06
349.81	94.06
350.037	78.06
350.265	92.06
350.492	113.06
350.72	89.06
350.947	102.06
351.174	97.06
351.402	100.06
351.629	96.06
351.856	92.06
352.083	103.06
352.311	100.06
352.538	99.06
352.765	99.06
352.992	110.06
353.22	116.06
353.447	104.06
353.674	94.06
353.901	105.06
354.128	100.06
354.355	89.06
354.583	101.06
354.81	92.06
355.037	98.06
355.264	95.06
355.491	96.06
355.718	97.06
355.945	102.06
356.172	88.06
356.399	88.06
356.626	86.06
356.853	97.06
357.08	92.06
357.307	91.06
357.534	93.06
357.761	100.06
357.988	105.06
358.215	95.06
358.441	92.06
358.668	88.06
358.895	100.06
359.122	91.06
359.349	98.06
359.576	95.06
359.802	102.06
360.029	99.06
360.256	101.06
360.483	96.06
360.709	80.06
360.936	107.06
361.163	98.06
361.39	98.06
361.616	97.06
361.843	89.06
362.07	101.06
362.296	108.06
362.523	91.06
362.749	93.06
362.976	89.06
363.203	87.06
363.429	95.06
363.656	82.06
363.882	87.06
364.109	98.06
364.335	93.06
364.562	88.06
364.788	88.06
365.015	85.06
365.241	80.06
365.468	98.06
365.694	100.06
365.92	92.06
366.147	82.06
366.373	85.06
366.599	102.06
366.826	88.06
367.052	98.06
367.278	82.06
367.505	93.06
367.731	85.06
367.957	82.06
368.184	91.06
368.41	107.06
368.636	90.06
368.862	103.06
369.089	93.06
369.315	84.06
369.541	103.06
369.767	91.06
369.993	83.06
370.219	84.06
370.445	94.06
370.672	88.06
370.898	94.06
371.124	89.06
371.35	86.06
371.576	95.06
371.802	90.06
372.028	90.06
372.254	80.06
372.48	89.06
372.706	88.06
372.932	102.06
373.158	88.06
373.384	95.06
373.61	91.06
373.835	92.06
374.061	104.06
374.287	89.06
374.513	83.06
374.739	90.06
374.965	99.06
375.191	99.06
375.416	88.06
375.642	87.06
375.868	101.06
376.094	98.06
376.319	90.06
376.545	91.06
376.771	84.06
376.997	83.06
377.222	91.06
377.448	84.06
377.674	89.06
377.899	78.06
378.125	95.06
378.35	86.06
378.576	97.06
378.802	101.06
379.027	78.06
379.253	101.06
379.478	94.06
379.704	82.06
379.929	88.06
380.155	92.06
380.38	84.06
380.606	96.06
380.831	94.06
381.057	93.06
381.282	80.06
381.507	107.06
381.733	92.06
381.958	87.06
382.184	93.06
382.409	115.06
382.634	109.06
382.86	101.06
383.085	97.06
383.31	83.06
383.535	110.06
383.761	95.06
383.986	102.06
384.211	102.06
384.436	94.06
384.662	94.06
384.887	91.06
385.112	107.06
385.337	104.06
385.562	102.06
385.787	97.06
386.013	101.06
386.238	112.06
386.463	112.06
386.688	95.06
386.913	97.06
387.138	108.06
387.363	100.06
387.588	110.06
387.813	103.06
388.038	116.06
388.263	113.06
388.488	117.06
388.713	93.06
388.938	86.06
389.163	96.06
389.387	96.06
389.612	86.06
389.837	92.06
390.062	94.06
390.287	87.06
390.512	98.06
390.736	93.06
390.961	88.06
391.186	90.06
391.411	100.06
391.636	83.06
391.86	75.06
392.085	88.06
392.31	90.06
392.534	91.06
392.759	79.06
392.984	100.06
393.208	92.06
393.433	88.06
393.658	95.06
393.882	75.06
394.107	83.06
394.331	84.06
394.556	90.06
394.78	93.06
395.005	88.06
395.229	91.06
395.454	83.06
395.678	96.06
395.903	96.06
396.127	91.06
396.352	88.06
396.576	84.06
396.801	82.06
397.025	81.06
397.249	87.06
397.474	92.06
397.698	90.06
397.922	93.06
398.147	83.06
398.371	98.06
398.595	90.06
398.82	81.06
399.044	93.06
399.268	93.06
399.492	104.06
399.717	87.06
399.941	99.06
400.165	102.06
400.389	95.06
400.613	94.06
400.837	76.06
401.062	85.06
401.286	84.06
401.51	77.06
401.734	78.06
401.958	89.06
402.182	116.06
402.406	132.06
402.63	108.06
402.854	95.06
403.078	82.06
403.302	88.06
403.526	74.06
403.75	87.06
403.974	102.06
404.198	86.06
404.422	95.06
404.645	88.06
404.869	97.06
405.093	90.06
405.317	105.06
405.541	99.06
405.765	93.06
405.988	105.06
406.212	118.06
406.436	193.06
406.66	121.06
406.883	90.06
407.107	102.06
407.331	108.06
407.555	105.06
407.778	91.06
408.002	78.06
408.226	90.06
408.449	104.06
408.673	82.06
408.896	74.06
409.12	81.06
409.344	82.06
409.567	85.06
409.791	93.06
410.014	114.06
410.238	94.06
410.461	99.06
410.685	88.06
410.908	98.06
411.132	104.06
411.355	99.06
411.578	80.06
411.802	76.06
412.025	86.06
412.249	84.06
412.472	98.06
412.695	86.06
412.919	101.06
413.142	82.06
413.365	89.06
413.589	84.06
413.812	93.06
414.035	94.06
414.258	85.06
414.482	90.06
414.705	107.06
414.928	92.06
415.151	89.06
415.374	83.06
415.597	82.06
415.821	88.06
416.044	101.06
416.267	112.06
416.49	90.06
416.713	79.06
416.936	98.06
417.159	87.06
417.382	105.06
417.605	92.06
417.828	94.06
418.051	91.06
418.274	84.06
418.497	69.06
418.72	91.06
418.943	82.06
419.166	81.06
419.389	88.06
419.611	88.06
419.834	111.06
420.057	86.06
420.28	80.06
420.503	90.06
420.726	76.06
420.948	86.06
421.171	86.06
421.394	87.06
421.617	92.06
421.839	93.06
422.062	85.06
422.285	101.06
422.507	93.06
422.73	74.06
422.953	85.06
423.175	89.06
423.398	84.06
423.621	92.06
423.843	84.06
424.066	93.06
424.288	82.06
424.511	93.06
424.733	84.06
424.956	104.06
425.178	98.06
425.401	77.06
425.623	84.06
425.846	94.06
426.068	91.06
426.291	98.06
426.513	97.06
426.735	83.06
426.958	86.06
427.18	106.06
427.402	120.06
427.625	131.06
427.847	109.06
428.069	114.06
428.292	86.06
428.514	88.06
428.736	82.06
428.958	85.06
429.181	94.06
429.403	90.06
429.625	98.06
429.847	85.06
430.069	84.06
430.292	83.06
430.514	80.06
430.736	81.06
430.958	84.06
431.18	85.06
431.402	89.06
431.624	78.06
431.846	75.06
432.068	96.06
432.29	95.06
432.512	95.06
432.734	86.06
432.956	82.06
433.178	114.06
433.4	114.06
433.622	86.06
433.844	104.06
434.066	100.06
434.287	77.06
434.509	94.06
434.731	84.06
434.953	89.06
435.175	84.06
435.397	90.06
435.618	102.06
435.84	94.06
436.062	111.06
436.284	106.06
436.505	104.06
436.727	90.06
436.949	90.06
437.17	94.06
437.392	73.06
437.614	93.06
437.835	105.06
438.057	115.06
438.278	107.06
438.5	92.06
438.721	109.06
438.943	118.06
439.165	84.06
439.386	91.06
439.608	105.06
439.829	96.06
440.05	104.06
440.272	130.06
440.493	87.06
440.715	90.06
440.936	88.06
441.158	84.06
441.379	92.06
441.6	96.06
441.822	82.06
442.043	101.06
442.264	108.06
442.486	106.06
442.707	97.06
442.928	99.06
443.149	96.06
443.371	116.06
443.592	99.06
443.813	108.06
444.034	106.06
444.255	101.06
444.476	85.06
444.698	87.06
444.919	95.06
445.14	142.06
445.361	114.06
445.582	105.06
445.803	109.06
446.024	107.06
446.245	109.06
446.466	114.06
446.687	78.06
446.908	95.06
447.129	99.06
447.35	105.06
447.571	97.06
447.792	109.06
448.013	82.06
448.234	85.06
448.455	90.06
448.675	96.06
448.896	114.06
449.117	94.06
449.338	85.06
449.559	97.06
449.779	114.06
450	89.06
450.221	88.06
450.442	81.06
450.662	90.06
450.883	97.06
451.104	104.06
451.324	101.06
451.545	90.06
451.766	75.06
451.986	104.06
452.207	84.06
452.428	88.06
452.648	94.06
452.869	98.06
453.089	99.06
453.31	85.06
453.53	86.06
453.751	85.06
453.971	105.06
454.192	87.06
454.412	85.06
454.633	90.06
454.853	77.06
455.073	86.06
455.294	87.06
455.514	94.06
455.734	97.06
455.955	89.06
456.175	86.06
456.395	80.06
456.616	74.06
456.836	90.06
457.056	103.06
457.276	92.06
457.497	104.06
457.717	83.06
457.937	94.06
458.157	81.06
458.377	76.06
458.598	88.06
458.818	116.06
459.038	128.06
459.258	105.06
459.478	100.06
459.698	91.06
459.918	82.06
460.138	89.06
460.358	93.06
460.578	66.06
460.798	88.06
461.018	102.06
461.238	86.06
461.458	99.06
461.678	83.06
461.898	87.06
462.118	77.06
462.338	83.06
462.558	94.06
462.777	83.06
462.997	84.06
463.217	86.06
463.437	77.06
463.657	83.06
463.876	88.06
464.096	95.06
464.316	95.06
464.536	92.06
464.755	92.06
464.975	95.06
465.195	137.06
465.414	119.06
465.634	93.06
465.854	80.06
466.073	74.06
466.293	91.06
466.512	84.06
466.732	84.06
466.951	92.06
467.171	85.06
467.391	96.06
467.61	104.06
467.829	89.06
468.049	100.06
468.268	100.06
468.488	76.06
468.707	91.06
468.927	93.06
469.146	86.06
469.365	74.06
469.585	82.06
469.804	74.06
470.023	81.06
470.243	88.06
470.462	93.06
470.681	91.06
470.901	85.06
471.12	75.06
471.339	86.06
471.558	85.06
471.777	88.06
471.997	96.06
472.216	101.06
472.435	140.06
472.654	99.06
472.873	88.06
473.092	97.06
473.311	69.06
473.53	81.06
473.749	90.06
473.968	98.06
474.187	102.06
474.406	83.06
474.625	98.06
474.844	90.06
475.063	92.06
475.282	90.06
475.501	88.06
475.72	99.06
475.939	75.06
476.158	81.06
476.377	86.06
476.596	73.06
476.814	94.06
477.033	108.06
477.252	101.06
477.471	85.06
477.69	82.06
477.908	93.06
478.127	100.06
478.346	92.06
478.564	83.06
478.783	103.06
479.002	96.06
479.22	90.06
479.439	81.06
479.658	94.06
479.876	99.06
480.095	98.06
480.313	79.06
480.532	91.06
480.751	106.06
480.969	108.06
481.188	186.06
481.406	148.06
481.624	111.06
481.843	82.06
482.061	93.06
482.28	94.06
482.498	85.06
482.717	80.06
482.935	88.06
483.153	77.06
483.372	96.06
483.59	92.06
483.808	92.06
484.027	81.06
484.245	91.06
484.463	77.06
484.681	89.06
484.9	88.06
485.118	89.06
485.336	90.06
485.554	103.06
485.772	105.06
485.99	104.06
486.209	106.06
486.427	97.06
486.645	107.06
486.863	106.06
487.081	88.06
487.299	99.06
487.517	95.06
487.735	94.06
487.953	87.06
488.171	103.06
488.389	85.06
488.607	108.06
488.825	100.06
489.043	73.06
489.261	90.06
489.479	99.06
489.696	84.06
489.914	92.06
490.132	86.06
490.35	104.06
490.568	83.06
490.786	87.06
491.003	74.06
491.221	86.06
491.439	91.06
491.657	91.06
491.874	96.06
492.092	92.06
492.31	86.06
492.527	97.06
492.745	92.06
492.963	85.06
493.18	88.06
493.398	96.06
493.615	102.06
493.833	104.06
494.05	95.06
494.268	86.06
494.485	74.06
494.703	86.06
494.92	85.06
495.138	72.06
495.355	86.06
495.573	94.06
495.79	98.06
496.008	93.06
496.225	82.06
496.442	98.06
496.66	99.06
496.877	85.06
497.094	106.06
497.312	111.06
497.529	106.06
497.746	86.06
497.963	81.06
498.181	82.06
498.398	80.06
498.615	112.06
498.832	96.06
499.049	88.06
499.267	92.06
499.484	82.06
499.701	91.06
499.918	95.06
500.135	70.06
500.352	94.06
500.569	72.06
500.786	114.06
501.003	100.06
501.22	80.06
501.437	86.06
501.654	97.06
501.871	101.06
502.088	91.06
502.305	102.06
502.522	84.06
502.739	85.06
502.956	95.06
503.172	96.06
503.389	91.06
503.606	80.06
503.823	75.06
504.04	95.06
504.256	90.06
504.473	89.06
504.69	102.06
504.907	98.06
505.123	109.06
505.34	90.06
505.557	105.06
505.773	98.06
505.99	90.06
506.207	99.06
506.423	92.06
506.64	95.06
506.856	99.06
507.073	105.06
507.289	84.06
507.506	87.06
507.722	109.06
507.939	99.06
508.155	96.06
508.372	89.06
508.588	92.06
508.805	96.06
509.021	96.06
509.238	86.06
509.454	88.06
509.67	84.06
509.887	94.06
510.103	120.06
510.319	200.06
510.536	636.06
510.752	1880.06
510.968	509.06
511.184	146.06
511.401	96.06
511.617	84.06
511.833	86.06
512.049	103.06
512.265	90.06
512.481	82.06
512.698	94.06
512.914	96.06
513.13	91.06
513.346	91.06
513.562	75.06
513.778	96.06
513.994	98.06
514.21	112.06
514.426	114.06
514.642	116.06
514.858	109.06
515.074	150.06
515.29	348.06
515.506	1088.06
515.721	400.06
515.937	126.06
516.153	98.06
