Data from Uncirc_1982_H10_HRD10591_00010.txt Node
Date: Wed Jan 03 12:29:27 EST 2024
User: Yrep
Spectrometer: HR+D1059
Trigger mode: 1
Integration Time (sec): 1.000000E-1
Scans to average: 1
Electric dark correction enabled: true
Nonlinearity correction enabled: false
Boxcar width: 0
XAxis mode: Wavelengths
Number of Pixels in Spectrum: 2048
>>>>>Begin Spectral Data<<<<<
223.165	-28.81
223.4	-28.81
223.635	-28.81
223.869	-14.81
224.104	-10.81
224.338	-13.81
224.573	-9.81
224.808	-17.81
225.042	-18.81
225.277	-7.81
225.511	8.19
225.746	-18.81
225.98	15.19
226.215	12.19
226.449	14.19
226.683	29.19
226.918	27.19
227.152	35.19
227.387	19.19
227.621	41.19
227.856	42.19
228.09	56.19
228.324	67.19
228.559	53.19
228.793	61.19
229.027	64.19
229.262	64.19
229.496	61.19
229.73	84.19
229.964	66.19
230.199	74.19
230.433	76.19
230.667	82.19
230.901	84.19
231.136	83.19
231.37	65.19
231.604	81.19
231.838	87.19
232.072	94.19
232.306	72.19
232.541	93.19
232.775	78.19
233.009	87.19
233.243	70.19
233.477	78.19
233.711	94.19
233.945	87.19
234.179	78.19
234.413	97.19
234.647	77.19
234.881	79.19
235.115	78.19
235.349	92.19
235.583	69.19
235.817	79.19
236.051	92.19
236.285	91.19
236.519	72.19
236.753	94.19
236.987	82.19
237.221	94.19
237.455	72.19
237.689	93.19
237.922	85.19
238.156	83.19
238.39	68.19
238.624	82.19
238.858	71.19
239.091	97.19
239.325	71.19
239.559	68.19
239.793	90.19
240.027	86.19
240.26	73.19
240.494	86.19
240.728	66.19
240.961	98.19
241.195	86.19
241.429	85.19
241.662	88.19
241.896	80.19
242.13	77.19
242.363	82.19
242.597	69.19
242.83	73.19
243.064	92.19
243.298	88.19
243.531	75.19
243.765	86.19
243.998	89.19
244.232	86.19
244.465	86.19
244.699	90.19
244.932	85.19
245.166	62.19
245.399	79.19
245.633	86.19
245.866	70.19
246.099	92.19
246.333	65.19
246.566	79.19
246.8	73.19
247.033	89.19
247.266	82.19
247.5	78.19
247.733	98.19
247.966	79.19
248.2	78.19
248.433	80.19
248.666	85.19
248.899	72.19
249.133	71.19
249.366	80.19
249.599	86.19
249.832	66.19
250.066	84.19
250.299	86.19
250.532	91.19
250.765	78.19
250.998	79.19
251.231	86.19
251.465	87.19
251.698	84.19
251.931	80.19
252.164	88.19
252.397	80.19
252.63	96.19
252.863	70.19
253.096	86.19
253.329	82.19
253.562	90.19
253.795	75.19
254.028	87.19
254.261	89.19
254.494	94.19
254.727	75.19
254.96	70.19
255.193	75.19
255.426	77.19
255.659	81.19
255.892	67.19
256.124	72.19
256.357	83.19
256.59	92.19
256.823	80.19
257.056	80.19
257.289	86.19
257.521	79.19
257.754	74.19
257.987	77.19
258.22	79.19
258.452	85.19
258.685	95.19
258.918	74.19
259.151	82.19
259.383	78.19
259.616	86.19
259.849	85.19
260.081	77.19
260.314	89.19
260.547	87.19
260.779	77.19
261.012	85.19
261.244	88.19
261.477	95.19
261.71	94.19
261.942	108.19
262.175	91.19
262.407	77.19
262.64	82.19
262.872	86.19
263.105	90.19
263.337	67.19
263.57	79.19
263.802	80.19
264.035	92.19
264.267	97.19
264.499	92.19
264.732	78.19
264.964	88.19
265.197	91.19
265.429	89.19
265.661	98.19
265.894	79.19
266.126	77.19
266.358	78.19
266.591	85.19
266.823	78.19
267.055	84.19
267.287	84.19
267.52	82.19
267.752	93.19
267.984	95.19
268.216	86.19
268.448	94.19
268.681	86.19
268.913	85.19
269.145	75.19
269.377	88.19
269.609	85.19
269.841	88.19
270.073	94.19
270.306	86.19
270.538	99.19
270.77	90.19
271.002	77.19
271.234	83.19
271.466	86.19
271.698	72.19
271.93	82.19
272.162	68.19
272.394	94.19
272.626	85.19
272.858	89.19
273.09	99.19
273.322	88.19
273.553	84.19
273.785	83.19
274.017	89.19
274.249	86.19
274.481	78.19
274.713	88.19
274.945	80.19
275.176	91.19
275.408	90.19
275.64	83.19
275.872	70.19
276.104	96.19
276.335	88.19
276.567	90.19
276.799	95.19
277.031	95.19
277.262	76.19
277.494	94.19
277.726	77.19
277.957	92.19
278.189	95.19
278.421	86.19
278.652	70.19
278.884	95.19
279.115	96.19
279.347	91.19
279.579	83.19
279.81	82.19
280.042	87.19
280.273	92.19
280.505	104.19
280.736	77.19
280.968	87.19
281.199	86.19
281.431	89.19
281.662	89.19
281.894	94.19
282.125	103.19
282.356	102.19
282.588	120.19
282.819	118.19
283.051	87.19
283.282	99.19
283.513	87.19
283.745	76.19
283.976	87.19
284.207	90.19
284.439	92.19
284.67	90.19
284.901	77.19
285.132	96.19
285.364	92.19
285.595	88.19
285.826	77.19
286.057	90.19
286.288	90.19
286.52	90.19
286.751	99.19
286.982	83.19
287.213	78.19
287.444	98.19
287.675	93.19
287.906	84.19
288.138	95.19
288.369	90.19
288.6	101.19
288.831	92.19
289.062	98.19
289.293	87.19
289.524	95.19
289.755	80.19
289.986	72.19
290.217	89.19
290.448	78.19
290.679	88.19
290.91	99.19
291.141	87.19
291.371	89.19
291.602	96.19
291.833	88.19
292.064	99.19
292.295	102.19
292.526	90.19
292.757	84.19
292.987	100.19
293.218	95.19
293.449	87.19
293.68	96.19
293.91	87.19
294.141	85.19
294.372	90.19
294.603	86.19
294.833	95.19
295.064	92.19
295.295	81.19
295.525	98.19
295.756	102.19
295.987	105.19
296.217	110.19
296.448	117.19
296.679	90.19
296.909	86.19
297.14	79.19
297.37	87.19
297.601	96.19
297.831	102.19
298.062	94.19
298.292	91.19
298.523	83.19
298.753	84.19
298.984	80.19
299.214	95.19
299.445	98.19
299.675	101.19
299.905	90.19
300.136	88.19
300.366	82.19
300.597	91.19
300.827	103.19
301.057	101.19
301.288	99.19
301.518	96.19
301.748	87.19
301.979	102.19
302.209	90.19
302.439	94.19
302.669	98.19
302.9	101.19
303.13	95.19
303.36	84.19
303.59	90.19
303.82	106.19
304.051	93.19
304.281	94.19
304.511	90.19
304.741	76.19
304.971	102.19
305.201	89.19
305.431	98.19
305.661	83.19
305.891	83.19
306.121	96.19
306.352	105.19
306.582	111.19
306.812	93.19
307.042	97.19
307.272	88.19
307.502	98.19
307.731	94.19
307.961	74.19
308.191	102.19
308.421	94.19
308.651	77.19
308.881	89.19
309.111	87.19
309.341	90.19
309.571	90.19
309.8	87.19
310.03	106.19
310.26	107.19
310.49	96.19
310.72	106.19
310.949	102.19
311.179	90.19
311.409	95.19
311.639	92.19
311.868	109.19
312.098	88.19
312.328	92.19
312.557	100.19
312.787	95.19
313.017	88.19
313.246	82.19
313.476	79.19
313.706	93.19
313.935	110.19
314.165	97.19
314.394	95.19
314.624	96.19
314.853	103.19
315.083	89.19
315.312	86.19
315.542	95.19
315.771	89.19
316.001	99.19
316.23	93.19
316.46	79.19
316.689	93.19
316.919	99.19
317.148	104.19
317.377	97.19
317.607	94.19
317.836	95.19
318.065	91.19
318.295	94.19
318.524	96.19
318.753	97.19
318.983	90.19
319.212	101.19
319.441	92.19
319.67	103.19
319.9	100.19
320.129	107.19
320.358	82.19
320.587	83.19
320.816	83.19
321.046	99.19
321.275	101.19
321.504	112.19
321.733	105.19
321.962	97.19
322.191	85.19
322.42	93.19
322.649	125.19
322.878	100.19
323.108	104.19
323.337	113.19
323.566	108.19
323.795	133.19
324.024	194.19
324.253	350.19
324.482	744.19
324.71	1491.19
324.939	1972.19
325.168	722.19
325.397	227.19
325.626	137.19
325.855	119.19
326.084	119.19
326.313	130.19
326.542	163.19
326.77	231.19
326.999	412.19
327.228	829.19
327.457	1533.19
327.686	1231.19
327.914	341.19
328.143	170.19
328.372	146.19
328.6	118.19
328.829	110.19
329.058	115.19
329.287	118.19
329.515	99.19
329.744	105.19
329.972	98.19
330.201	104.19
330.43	120.19
330.658	123.19
330.887	130.19
331.115	112.19
331.344	98.19
331.572	89.19
331.801	102.19
332.03	98.19
332.258	102.19
332.486	101.19
332.715	102.19
332.943	94.19
333.172	103.19
333.4	85.19
333.629	98.19
333.857	123.19
334.085	111.19
334.314	122.19
334.542	129.19
334.771	132.19
334.999	103.19
335.227	102.19
335.455	100.19
335.684	110.19
335.912	90.19
336.14	98.19
336.369	104.19
336.597	97.19
336.825	93.19
337.053	98.19
337.281	76.19
337.51	97.19
337.738	90.19
337.966	83.19
338.194	105.19
338.422	108.19
338.65	98.19
338.878	88.19
339.106	91.19
339.334	89.19
339.562	86.19
339.79	94.19
340.018	98.19
340.246	83.19
340.474	90.19
340.702	101.19
340.93	88.19
341.158	98.19
341.386	105.19
341.614	98.19
341.842	99.19
342.07	102.19
342.298	95.19
342.526	101.19
342.754	100.19
342.981	90.19
343.209	78.19
343.437	109.19
343.665	83.19
343.893	94.19
344.12	106.19
344.348	95.19
344.576	97.19
344.804	80.19
345.031	90.19
345.259	98.19
345.487	94.19
345.714	99.19
345.942	95.19
346.17	93.19
346.397	90.19
346.625	90.19
346.853	97.19
347.08	81.19
347.308	92.19
347.535	88.19
347.763	104.19
347.99	96.19
348.218	99.19
348.445	94.19
348.673	108.19
348.9	87.19
349.128	88.19
349.355	106.19
349.583	100.19
349.81	88.19
350.037	96.19
350.265	98.19
350.492	101.19
350.72	100.19
350.947	106.19
351.174	99.19
351.402	102.19
351.629	98.19
351.856	89.19
352.083	123.19
352.311	106.19
352.538	87.19
352.765	106.19
352.992	110.19
353.22	104.19
353.447	103.19
353.674	101.19
353.901	103.19
354.128	104.19
354.355	104.19
354.583	98.19
354.81	95.19
355.037	91.19
355.264	95.19
355.491	107.19
355.718	92.19
355.945	94.19
356.172	100.19
356.399	91.19
356.626	73.19
356.853	119.19
357.08	90.19
357.307	95.19
357.534	112.19
357.761	104.19
357.988	109.19
358.215	103.19
358.441	100.19
358.668	102.19
358.895	87.19
359.122	101.19
359.349	88.19
359.576	94.19
359.802	98.19
360.029	100.19
360.256	90.19
360.483	103.19
360.709	88.19
360.936	94.19
361.163	99.19
361.39	87.19
361.616	92.19
361.843	86.19
362.07	85.19
362.296	105.19
362.523	104.19
362.749	97.19
362.976	90.19
363.203	94.19
363.429	91.19
363.656	92.19
363.882	104.19
364.109	86.19
364.335	99.19
364.562	92.19
364.788	85.19
365.015	104.19
365.241	102.19
365.468	99.19
365.694	92.19
365.92	92.19
366.147	84.19
366.373	86.19
366.599	99.19
366.826	94.19
367.052	82.19
367.278	96.19
367.505	94.19
367.731	98.19
367.957	91.19
368.184	92.19
368.41	96.19
368.636	107.19
368.862	110.19
369.089	95.19
369.315	99.19
369.541	93.19
369.767	86.19
369.993	91.19
370.219	78.19
370.445	82.19
370.672	83.19
370.898	94.19
371.124	92.19
371.35	92.19
371.576	89.19
371.802	82.19
372.028	88.19
372.254	103.19
372.48	85.19
372.706	95.19
372.932	99.19
373.158	88.19
373.384	87.19
373.61	77.19
373.835	102.19
374.061	107.19
374.287	84.19
374.513	90.19
374.739	79.19
374.965	88.19
375.191	88.19
375.416	83.19
375.642	87.19
375.868	87.19
376.094	107.19
376.319	101.19
376.545	92.19
376.771	89.19
376.997	98.19
377.222	98.19
377.448	105.19
377.674	96.19
377.899	95.19
378.125	106.19
378.35	98.19
378.576	90.19
378.802	84.19
379.027	104.19
379.253	93.19
379.478	107.19
379.704	102.19
379.929	102.19
380.155	111.19
380.38	94.19
380.606	110.19
380.831	112.19
381.057	127.19
381.282	116.19
381.507	97.19
381.733	108.19
381.958	112.19
382.184	111.19
382.409	117.19
382.634	104.19
382.86	109.19
383.085	108.19
383.31	114.19
383.535	106.19
383.761	114.19
383.986	111.19
384.211	124.19
384.436	116.19
384.662	105.19
384.887	133.19
385.112	132.19
385.337	123.19
385.562	131.19
385.787	122.19
386.013	128.19
386.238	117.19
386.463	111.19
386.688	123.19
386.913	107.19
387.138	120.19
387.363	119.19
387.588	102.19
387.813	110.19
388.038	125.19
388.263	145.19
388.488	126.19
388.713	108.19
388.938	83.19
389.163	107.19
389.387	91.19
389.612	101.19
389.837	94.19
390.062	98.19
390.287	94.19
390.512	78.19
390.736	88.19
390.961	100.19
391.186	103.19
391.411	110.19
391.636	96.19
391.86	98.19
392.085	94.19
392.31	90.19
392.534	105.19
392.759	95.19
392.984	94.19
393.208	97.19
393.433	97.19
393.658	101.19
393.882	87.19
394.107	90.19
394.331	75.19
394.556	84.19
394.78	89.19
395.005	103.19
395.229	94.19
395.454	86.19
395.678	90.19
395.903	83.19
396.127	82.19
396.352	98.19
396.576	76.19
396.801	82.19
397.025	90.19
397.249	104.19
397.474	99.19
397.698	85.19
397.922	96.19
398.147	91.19
398.371	91.19
398.595	89.19
398.82	95.19
399.044	78.19
399.268	84.19
399.492	84.19
399.717	88.19
399.941	91.19
400.165	93.19
400.389	93.19
400.613	97.19
400.837	78.19
401.062	106.19
401.286	95.19
401.51	94.19
401.734	90.19
401.958	98.19
402.182	97.19
402.406	127.19
402.63	124.19
402.854	104.19
403.078	93.19
403.302	95.19
403.526	93.19
403.75	92.19
403.974	87.19
404.198	89.19
404.422	69.19
404.645	94.19
404.869	95.19
405.093	100.19
405.317	92.19
405.541	106.19
405.765	93.19
405.988	124.19
406.212	145.19
406.436	168.19
406.66	132.19
406.883	101.19
407.107	94.19
407.331	109.19
407.555	96.19
407.778	100.19
408.002	86.19
408.226	106.19
408.449	89.19
408.673	90.19
408.896	87.19
409.12	96.19
409.344	84.19
409.567	93.19
409.791	92.19
410.014	109.19
410.238	91.19
410.461	102.19
410.685	93.19
410.908	94.19
411.132	94.19
411.355	98.19
411.578	82.19
411.802	92.19
412.025	90.19
412.249	90.19
412.472	95.19
412.695	100.19
412.919	94.19
413.142	86.19
413.365	98.19
413.589	83.19
413.812	107.19
414.035	88.19
414.258	108.19
414.482	96.19
414.705	105.19
414.928	89.19
415.151	99.19
415.374	90.19
415.597	97.19
415.821	96.19
416.044	95.19
416.267	94.19
416.49	115.19
416.713	92.19
416.936	90.19
417.159	102.19
417.382	88.19
417.605	87.19
417.828	95.19
418.051	99.19
418.274	98.19
418.497	83.19
418.72	85.19
418.943	101.19
419.166	93.19
419.389	94.19
419.611	98.19
419.834	94.19
420.057	76.19
420.28	93.19
420.503	94.19
420.726	95.19
420.948	85.19
421.171	100.19
421.394	88.19
421.617	96.19
421.839	86.19
422.062	86.19
422.285	85.19
422.507	101.19
422.73	94.19
422.953	96.19
423.175	104.19
423.398	89.19
423.621	88.19
423.843	92.19
424.066	105.19
424.288	92.19
424.511	80.19
424.733	100.19
424.956	124.19
425.178	97.19
425.401	106.19
425.623	104.19
425.846	90.19
426.068	101.19
426.291	90.19
426.513	90.19
426.735	79.19
426.958	85.19
427.18	116.19
427.402	134.19
427.625	150.19
427.847	117.19
428.069	88.19
428.292	98.19
428.514	84.19
428.736	96.19
428.958	88.19
429.181	75.19
429.403	96.19
429.625	90.19
429.847	104.19
430.069	91.19
430.292	103.19
430.514	88.19
430.736	90.19
430.958	85.19
431.18	92.19
431.402	84.19
431.624	73.19
431.846	94.19
432.068	96.19
432.29	98.19
432.512	82.19
432.734	82.19
432.956	88.19
433.178	106.19
433.4	103.19
433.622	94.19
433.844	79.19
434.066	75.19
434.287	88.19
434.509	90.19
434.731	103.19
434.953	101.19
435.175	89.19
435.397	98.19
435.618	81.19
435.84	101.19
436.062	106.19
436.284	119.19
436.505	97.19
436.727	102.19
436.949	96.19
437.17	91.19
437.392	89.19
437.614	84.19
437.835	91.19
438.057	110.19
438.278	95.19
438.5	93.19
438.721	125.19
438.943	103.19
439.165	91.19
439.386	86.19
439.608	100.19
439.829	96.19
440.05	106.19
440.272	111.19
440.493	88.19
440.715	88.19
440.936	91.19
441.158	100.19
441.379	100.19
441.6	96.19
441.822	84.19
442.043	91.19
442.264	103.19
442.486	98.19
442.707	99.19
442.928	104.19
443.149	122.19
443.371	104.19
443.592	103.19
443.813	112.19
444.034	105.19
444.255	97.19
444.476	94.19
444.698	86.19
444.919	73.19
445.14	141.19
445.361	142.19
445.582	105.19
445.803	126.19
446.024	118.19
446.245	119.19
446.466	123.19
446.687	94.19
446.908	94.19
447.129	108.19
447.35	95.19
447.571	95.19
447.792	105.19
448.013	95.19
448.234	98.19
448.455	89.19
448.675	114.19
448.896	118.19
449.117	98.19
449.338	106.19
449.559	122.19
449.779	121.19
450	99.19
450.221	93.19
450.442	90.19
450.662	92.19
450.883	102.19
451.104	99.19
451.324	97.19
451.545	55.19
451.766	94.19
451.986	78.19
452.207	96.19
452.428	91.19
452.648	94.19
452.869	94.19
453.089	104.19
453.31	112.19
453.53	90.19
453.751	81.19
453.971	93.19
454.192	100.19
454.412	103.19
454.633	93.19
454.853	90.19
455.073	100.19
455.294	104.19
455.514	72.19
455.734	104.19
455.955	89.19
456.175	85.19
456.395	86.19
456.616	94.19
456.836	94.19
457.056	79.19
457.276	82.19
457.497	106.19
457.717	91.19
457.937	86.19
458.157	93.19
458.377	108.19
458.598	104.19
458.818	122.19
459.038	129.19
459.258	104.19
459.478	74.19
459.698	82.19
459.918	100.19
460.138	74.19
460.358	95.19
460.578	92.19
460.798	100.19
461.018	91.19
461.238	71.19
461.458	88.19
461.678	90.19
461.898	88.19
462.118	75.19
462.338	90.19
462.558	88.19
462.777	87.19
462.997	95.19
463.217	94.19
463.437	93.19
463.657	83.19
463.876	92.19
464.096	80.19
464.316	95.19
464.536	98.19
464.755	91.19
464.975	92.19
465.195	132.19
465.414	124.19
465.634	83.19
465.854	88.19
466.073	88.19
466.293	108.19
466.512	87.19
466.732	91.19
466.951	91.19
467.171	90.19
467.391	108.19
467.61	102.19
467.829	98.19
468.049	103.19
468.268	109.19
468.488	87.19
468.707	97.19
468.927	74.19
469.146	82.19
469.365	88.19
469.585	94.19
469.804	101.19
470.023	90.19
470.243	85.19
470.462	104.19
470.681	122.19
470.901	100.19
471.12	89.19
471.339	91.19
471.558	93.19
471.777	86.19
471.997	94.19
472.216	110.19
472.435	147.19
472.654	94.19
472.873	76.19
473.092	91.19
473.311	97.19
473.53	99.19
473.749	80.19
473.968	95.19
474.187	98.19
474.406	89.19
474.625	86.19
474.844	100.19
475.063	93.19
475.282	88.19
475.501	83.19
475.72	100.19
475.939	94.19
476.158	92.19
476.377	100.19
476.596	100.19
476.814	103.19
477.033	87.19
477.252	90.19
477.471	104.19
477.69	90.19
477.908	102.19
478.127	82.19
478.346	89.19
478.564	93.19
478.783	101.19
479.002	94.19
479.22	97.19
479.439	105.19
479.658	96.19
479.876	84.19
480.095	82.19
480.313	94.19
480.532	99.19
480.751	98.19
480.969	111.19
481.188	188.19
481.406	143.19
481.624	95.19
481.843	89.19
482.061	93.19
482.28	91.19
482.498	98.19
482.717	96.19
482.935	100.19
483.153	97.19
483.372	97.19
483.59	102.19
483.808	98.19
484.027	99.19
484.245	104.19
484.463	96.19
484.681	87.19
484.9	82.19
485.118	93.19
485.336	86.19
485.554	103.19
485.772	103.19
485.99	108.19
486.209	121.19
486.427	105.19
486.645	113.19
486.863	104.19
487.081	104.19
487.299	119.19
487.517	92.19
487.735	96.19
487.953	83.19
488.171	89.19
488.389	110.19
488.607	94.19
488.825	101.19
489.043	99.19
489.261	107.19
489.479	90.19
489.696	95.19
489.914	85.19
490.132	104.19
490.35	95.19
490.568	90.19
490.786	79.19
491.003	98.19
491.221	109.19
491.439	97.19
491.657	96.19
491.874	95.19
492.092	97.19
492.31	90.19
492.527	94.19
492.745	92.19
492.963	91.19
493.18	81.19
493.398	88.19
493.615	102.19
493.833	114.19
494.05	86.19
494.268	96.19
494.485	86.19
494.703	77.19
494.92	102.19
495.138	109.19
495.355	92.19
495.573	100.19
495.79	89.19
496.008	92.19
496.225	100.19
496.442	101.19
496.66	95.19
496.877	88.19
497.094	95.19
497.312	107.19
497.529	74.19
497.746	90.19
497.963	94.19
498.181	90.19
498.398	83.19
498.615	97.19
498.832	98.19
499.049	86.19
499.267	106.19
499.484	92.19
499.701	98.19
499.918	88.19
500.135	104.19
500.352	92.19
500.569	101.19
500.786	100.19
501.003	88.19
501.22	80.19
501.437	107.19
501.654	98.19
501.871	90.19
502.088	91.19
502.305	104.19
502.522	98.19
502.739	117.19
502.956	95.19
503.172	92.19
503.389	93.19
503.606	105.19
503.823	91.19
504.04	90.19
504.256	95.19
504.473	90.19
504.69	103.19
504.907	91.19
505.123	96.19
505.34	85.19
505.557	103.19
505.773	83.19
505.99	90.19
506.207	93.19
506.423	88.19
506.64	102.19
506.856	95.19
507.073	91.19
507.289	103.19
507.506	93.19
507.722	106.19
507.939	113.19
508.155	108.19
508.372	96.19
508.588	99.19
508.805	95.19
509.021	106.19
509.238	82.19
509.454	94.19
509.67	98.19
509.887	99.19
510.103	124.19
510.319	175.19
510.536	572.19
510.752	1634.19
510.968	471.19
511.184	133.19
511.401	99.19
511.617	97.19
511.833	82.19
512.049	94.19
512.265	98.19
512.481	107.19
512.698	110.19
512.914	88.19
513.13	90.19
513.346	112.19
513.562	93.19
513.778	88.19
513.994	98.19
514.21	101.19
514.426	105.19
514.642	137.19
514.858	119.19
