Data from Uncirc_1982_H10_HRD10591_00015.txt Node
Date: Wed Jan 03 12:29:28 EST 2024
User: Yrep
Spectrometer: HR+D1059
Trigger mode: 1
Integration Time (sec): 1.000000E-1
Scans to average: 1
Electric dark correction enabled: true
Nonlinearity correction enabled: false
Boxcar width: 0
XAxis mode: Wavelengths
Number of Pixels in Spectrum: 2048
>>>>>Begin Spectral Data<<<<<
223.165	-23.25
223.4	-23.25
223.635	-23.25
223.869	-17.25
224.104	-23.25
224.338	-26.25
224.573	-12.25
224.808	-8.25
225.042	-3.25
225.277	-0.25
225.511	-9.25
225.746	2.75
225.98	13.75
226.215	16.75
226.449	19.75
226.683	15.75
226.918	23.75
227.152	30.75
227.387	37.75
227.621	37.75
227.856	47.75
228.09	54.75
228.324	50.75
228.559	53.75
228.793	150.75
229.027	398.75
229.262	472.75
229.496	540.75
229.73	693.75
229.964	706.75
230.199	499.75
230.433	443.75
230.667	444.75
230.901	441.75
231.136	415.75
231.37	437.75
231.604	455.75
231.838	438.75
232.072	455.75
232.306	474.75
232.541	465.75
232.775	444.75
233.009	464.75
233.243	475.75
233.477	451.75
233.711	471.75
233.945	486.75
234.179	501.75
234.413	475.75
234.647	496.75
234.881	495.75
235.115	492.75
235.349	536.75
235.583	553.75
235.817	593.75
236.051	581.75
236.285	603.75
236.519	602.75
236.753	662.75
236.987	839.75
237.221	1203.75
237.455	1283.75
237.689	829.75
237.922	679.75
238.156	669.75
238.39	671.75
238.624	631.75
238.858	633.75
239.091	643.75
239.325	648.75
239.559	682.75
239.793	665.75
240.027	707.75
240.26	806.75
240.494	874.75
240.728	885.75
240.961	823.75
241.195	803.75
241.429	795.75
241.662	740.75
241.896	763.75
242.13	761.75
242.363	742.75
242.597	798.75
242.83	829.75
243.064	831.75
243.298	828.75
243.531	851.75
243.765	831.75
243.998	795.75
244.232	858.75
244.465	890.75
244.699	895.75
244.932	907.75
245.166	884.75
245.399	892.75
245.633	886.75
245.866	906.75
246.099	903.75
246.333	910.75
246.566	953.75
246.8	964.75
247.033	1023.75
247.266	1035.75
247.5	1077.75
247.733	1125.75
247.966	1132.75
248.2	1124.75
248.433	1132.75
248.666	1199.75
248.899	1298.75
249.133	1396.75
249.366	1347.75
249.599	1263.75
249.832	1175.75
250.066	1223.75
250.299	1271.75
250.532	1362.75
250.765	1510.75
250.998	1615.75
251.231	1587.75
251.465	1480.75
251.698	1389.75
251.931	1410.75
252.164	1349.75
252.397	1381.75
252.63	1384.75
252.863	1522.75
253.096	1592.75
253.329	1646.75
253.562	1585.75
253.795	1489.75
254.028	1498.75
254.261	1564.75
254.494	1682.75
254.727	1987.75
254.96	2093.75
255.193	1869.75
255.426	1701.75
255.659	1624.75
255.892	1655.75
256.124	1663.75
256.357	1704.75
256.59	1599.75
256.823	1517.75
257.056	1515.75
257.289	1533.75
257.521	1509.75
257.754	1526.75
257.987	1544.75
258.22	1493.75
258.452	1517.75
258.685	1547.75
258.918	1548.75
259.151	1579.75
259.383	1657.75
259.616	1642.75
259.849	1713.75
260.081	1878.75
260.314	1959.75
260.547	1933.75
260.779	1773.75
261.012	1759.75
261.244	1667.75
261.477	1611.75
261.71	1650.75
261.942	1685.75
262.175	1677.75
262.407	1648.75
262.64	1621.75
262.872	1560.75
263.105	1553.75
263.337	1570.75
263.57	1642.75
263.802	1627.75
264.035	1642.75
264.267	1646.75
264.499	1637.75
264.732	1666.75
264.964	1603.75
265.197	1687.75
265.429	1656.75
265.661	1707.75
265.894	1702.75
266.126	1715.75
266.358	1740.75
266.591	1726.75
266.823	1801.75
267.055	1819.75
267.287	1835.75
267.52	1795.75
267.752	1815.75
267.984	1807.75
268.216	1855.75
268.448	1830.75
268.681	1941.75
268.913	2028.75
269.145	2182.75
269.377	2274.75
269.609	2170.75
269.841	2155.75
270.073	2252.75
270.306	2517.75
270.538	2571.75
270.77	2527.75
271.002	2391.75
271.234	2298.75
271.466	2429.75
271.698	2536.75
271.93	2555.75
272.162	2551.75
272.394	2454.75
272.626	2376.75
272.858	2280.75
273.09	2219.75
273.322	2210.75
273.553	2169.75
273.785	2152.75
274.017	2138.75
274.249	2140.75
274.481	2201.75
274.713	2178.75
274.945	2204.75
275.176	2223.75
275.408	2206.75
275.64	2220.75
275.872	2198.75
276.104	2203.75
276.335	2208.75
276.567	2310.75
276.799	2467.75
277.031	2590.75
277.262	2686.75
277.494	2577.75
277.726	2436.75
277.957	2391.75
278.189	2353.75
278.421	2300.75
278.652	2345.75
278.884	2279.75
279.115	2315.75
279.347	2323.75
279.579	2331.75
279.81	2358.75
280.042	2308.75
280.273	2369.75
280.505	2373.75
280.736	2328.75
280.968	2369.75
281.199	2358.75
281.431	2417.75
281.662	2366.75
281.894	2450.75
282.125	2444.75
282.356	2554.75
282.588	2659.75
282.819	2538.75
283.051	2475.75
283.282	2452.75
283.513	2526.75
283.745	2558.75
283.976	2575.75
284.207	2552.75
284.439	2526.75
284.67	2526.75
284.901	2566.75
285.132	2542.75
285.364	2575.75
285.595	2543.75
285.826	2525.75
286.057	2633.75
286.288	2619.75
286.52	2623.75
286.751	2629.75
286.982	2673.75
287.213	2694.75
287.444	2662.75
287.675	2781.75
287.906	2787.75
288.138	2820.75
288.369	2791.75
288.6	2852.75
288.831	2772.75
289.062	2743.75
289.293	2708.75
289.524	2714.75
289.755	2740.75
289.986	2771.75
290.217	2760.75
290.448	2743.75
290.679	2779.75
290.91	2741.75
291.141	2745.75
291.371	2747.75
291.602	2782.75
291.833	2769.75
292.064	2769.75
292.295	2775.75
292.526	2768.75
292.757	2759.75
292.987	2723.75
293.218	2740.75
293.449	2789.75
293.68	2759.75
293.91	2789.75
294.141	2763.75
294.372	2751.75
294.603	2783.75
294.833	2818.75
295.064	2776.75
295.295	2841.75
295.525	2831.75
295.756	2837.75
295.987	2886.75
296.217	2988.75
296.448	3009.75
296.679	2869.75
296.909	2838.75
297.14	2910.75
297.37	2942.75
297.601	2945.75
297.831	2941.75
298.062	2938.75
298.292	3029.75
298.523	3035.75
298.753	3020.75
298.984	3043.75
299.214	3012.75
299.445	3005.75
299.675	3000.75
299.905	3085.75
300.136	3015.75
300.366	3096.75
300.597	3065.75
300.827	3153.75
301.057	3203.75
301.288	3204.75
301.518	3259.75
301.748	3188.75
301.979	3275.75
302.209	3301.75
302.439	3311.75
302.669	3225.75
302.9	3221.75
303.13	3186.75
303.36	3267.75
303.59	3241.75
303.82	3253.75
304.051	3289.75
304.281	3227.75
304.511	3130.75
304.741	3161.75
304.971	3205.75
305.201	3192.75
305.431	3168.75
305.661	3224.75
305.891	3138.75
306.121	3185.75
306.352	3202.75
306.582	3188.75
306.812	3112.75
307.042	3166.75
307.272	3161.75
307.502	3149.75
307.731	3193.75
307.961	3201.75
308.191	3134.75
308.421	3193.75
308.651	3113.75
308.881	3188.75
309.111	3233.75
309.341	3198.75
309.571	3301.75
309.8	3310.75
310.03	3402.75
310.26	3367.75
310.49	3374.75
310.72	3472.75
310.949	3506.75
311.179	3520.75
311.409	3452.75
311.639	3438.75
311.868	3409.75
312.098	3449.75
312.328	3526.75
312.557	3681.75
312.787	3657.75
313.017	3637.75
313.246	3564.75
313.476	3595.75
313.706	3578.75
313.935	3650.75
314.165	3753.75
314.394	3696.75
314.624	3646.75
314.853	3541.75
315.083	3585.75
315.312	3602.75
315.542	3550.75
315.771	3545.75
316.001	3560.75
316.23	3580.75
316.46	3575.75
316.689	3560.75
316.919	3527.75
317.148	3621.75
317.377	3567.75
317.607	3565.75
317.836	3523.75
318.065	3492.75
318.295	3461.75
318.524	3526.75
318.753	3532.75
318.983	3522.75
319.212	3439.75
319.441	3522.75
319.67	3513.75
319.9	3485.75
320.129	3534.75
320.358	3512.75
320.587	3522.75
320.816	3612.75
321.046	3637.75
321.275	3635.75
321.504	3595.75
321.733	3643.75
321.962	3659.75
322.191	3797.75
322.42	3818.75
322.649	3819.75
322.878	3896.75
323.108	3913.75
323.337	4105.75
323.566	4179.75
323.795	4388.75
324.024	4817.75
324.253	5960.75
324.482	8420.75
324.71	12857.75
324.939	14805.75
325.168	9246.75
325.397	5349.75
325.626	4569.75
325.855	4310.75
326.084	4299.75
326.313	4305.75
326.542	4433.75
326.77	4817.75
326.999	5771.75
327.228	8033.75
327.457	11629.75
327.686	10763.75
327.914	6039.75
328.143	5037.75
328.372	4829.75
328.6	4701.75
328.829	4626.75
329.058	4751.75
329.287	4700.75
329.515	4476.75
329.744	4446.75
329.972	4604.75
330.201	4640.75
330.43	4881.75
330.658	4949.75
330.887	5023.75
331.115	4783.75
331.344	4641.75
331.572	4566.75
331.801	4699.75
332.03	4666.75
332.258	4718.75
332.486	4627.75
332.715	4846.75
332.943	4929.75
333.172	5113.75
333.4	5258.75
333.629	5402.75
333.857	5518.75
334.085	5471.75
334.314	5497.75
334.542	5600.75
334.771	5506.75
334.999	5161.75
335.227	5080.75
335.455	4974.75
335.684	4834.75
335.912	4894.75
336.14	4748.75
336.369	4750.75
336.597	4800.75
336.825	4764.75
337.053	4697.75
337.281	4598.75
337.51	4554.75
337.738	4524.75
337.966	4459.75
338.194	4452.75
338.422	4369.75
338.65	4332.75
338.878	4325.75
339.106	4265.75
339.334	4320.75
339.562	4236.75
339.79	4172.75
340.018	4185.75
340.246	4167.75
340.474	4207.75
340.702	4125.75
340.93	4178.75
341.158	4207.75
341.386	4235.75
341.614	4227.75
341.842	4146.75
342.07	4162.75
342.298	4077.75
342.526	4137.75
342.754	4143.75
342.981	4107.75
343.209	4263.75
343.437	4438.75
343.665	4760.75
343.893	4981.75
344.12	5027.75
344.348	4737.75
344.576	4577.75
344.804	4501.75
345.031	4396.75
345.259	4353.75
345.487	4179.75
345.714	4097.75
345.942	4040.75
346.17	4016.75
346.397	4007.75
346.625	4035.75
346.853	3956.75
347.08	4034.75
347.308	4079.75
347.535	4009.75
347.763	4065.75
347.99	4067.75
348.218	4076.75
348.445	4053.75
348.673	4024.75
348.9	3944.75
349.128	3962.75
349.355	3872.75
349.583	3843.75
349.81	3862.75
350.037	3847.75
350.265	3849.75
350.492	3889.75
350.72	3778.75
350.947	3958.75
351.174	3939.75
351.402	3988.75
351.629	3923.75
351.856	3939.75
352.083	3925.75
352.311	3964.75
352.538	3980.75
352.765	3986.75
352.992	3868.75
353.22	3905.75
353.447	3823.75
353.674	3833.75
353.901	3813.75
354.128	3787.75
354.355	3813.75
354.583	3824.75
354.81	3834.75
355.037	3815.75
355.264	3867.75
355.491	3835.75
355.718	3818.75
355.945	3847.75
356.172	3820.75
356.399	3846.75
356.626	3842.75
356.853	3809.75
357.08	3756.75
357.307	3849.75
357.534	3816.75
357.761	3758.75
357.988	3817.75
358.215	3827.75
358.441	3864.75
358.668	3865.75
358.895	3879.75
359.122	3859.75
359.349	3935.75
359.576	4046.75
359.802	4145.75
360.029	4198.75
360.256	4233.75
360.483	4051.75
360.709	4002.75
360.936	3985.75
361.163	3966.75
361.39	3989.75
361.616	3976.75
361.843	3929.75
362.07	3926.75
362.296	4062.75
362.523	3978.75
362.749	3949.75
362.976	3912.75
363.203	3933.75
363.429	3878.75
363.656	3863.75
363.882	3885.75
364.109	3887.75
364.335	3805.75
364.562	3829.75
364.788	3864.75
365.015	3927.75
365.241	3868.75
365.468	3910.75
365.694	3957.75
365.92	3942.75
366.147	3844.75
366.373	3876.75
366.599	3919.75
366.826	3833.75
367.052	3822.75
367.278	3906.75
367.505	3935.75
367.731	3926.75
367.957	3953.75
368.184	3923.75
368.41	4004.75
368.636	4078.75
368.862	4055.75
369.089	3997.75
369.315	3980.75
369.541	4029.75
369.767	4029.75
369.993	4064.75
370.219	4071.75
370.445	4065.75
370.672	4049.75
370.898	4083.75
371.124	4127.75
371.35	4137.75
371.576	4149.75
371.802	4188.75
372.028	4113.75
372.254	4198.75
372.48	4209.75
372.706	4283.75
372.932	4369.75
373.158	4309.75
373.384	4207.75
373.61	4117.75
373.835	4268.75
374.061	4228.75
374.287	4296.75
374.513	4357.75
374.739	4501.75
374.965	4621.75
375.191	4607.75
375.416	4526.75
375.642	4406.75
375.868	4362.75
376.094	4248.75
376.319	4269.75
376.545	4236.75
376.771	4236.75
376.997	4189.75
377.222	4149.75
377.448	4199.75
377.674	4141.75
377.899	4121.75
378.125	4109.75
378.35	4154.75
378.576	4144.75
378.802	4178.75
379.027	4168.75
379.253	4179.75
379.478	4149.75
379.704	4151.75
379.929	4205.75
380.155	4171.75
380.38	4125.75
380.606	4207.75
380.831	4197.75
381.057	4252.75
381.282	4177.75
381.507	4251.75
381.733	4345.75
381.958	4323.75
382.184	4331.75
382.409	4427.75
382.634	4459.75
382.86	4494.75
383.085	4502.75
383.31	4561.75
383.535	4639.75
383.761	4693.75
383.986	4727.75
384.211	4893.75
384.436	4915.75
384.662	4963.75
384.887	5078.75
385.112	5049.75
385.337	5059.75
385.562	5056.75
385.787	5130.75
386.013	5212.75
386.238	5158.75
386.463	5091.75
386.688	5222.75
386.913	5050.75
387.138	5081.75
387.363	5037.75
387.588	5003.75
387.813	5020.75
388.038	4999.75
388.263	5069.75
388.488	5149.75
388.713	5025.75
388.938	5012.75
389.163	4936.75
389.387	5075.75
389.612	4921.75
389.837	4900.75
390.062	4885.75
390.287	4934.75
390.512	4953.75
390.736	5065.75
390.961	5106.75
391.186	5146.75
391.411	5337.75
391.636	5490.75
391.86	5637.75
392.085	5636.75
392.31	5545.75
392.534	5464.75
392.759	5375.75
392.984	5257.75
393.208	5310.75
393.433	5222.75
393.658	5211.75
393.882	5194.75
394.107	5203.75
394.331	5316.75
394.556	5266.75
394.78	5354.75
395.005	5377.75
395.229	5368.75
395.454	5525.75
395.678	5677.75
395.903	5656.75
396.127	5700.75
396.352	5426.75
396.576	5306.75
396.801	5317.75
397.025	5454.75
397.249	5427.75
397.474	5606.75
397.698	5661.75
397.922	5764.75
398.147	5805.75
398.371	5996.75
398.595	6090.75
398.82	6351.75
399.044	6874.75
399.268	7659.75
399.492	8684.75
399.717	9391.75
399.941	9095.75
400.165	8417.75
400.389	7792.75
400.613	7034.75
400.837	6657.75
401.062	6386.75
401.286	6404.75
401.51	6277.75
401.734	6328.75
401.958	6417.75
402.182	6497.75
402.406	6591.75
402.63	6656.75
402.854	6766.75
403.078	6757.75
403.302	7016.75
403.526	7181.75
403.75	7084.75
403.974	7187.75
404.198	7114.75
404.422	7252.75
404.645	7261.75
404.869	7246.75
405.093	7417.75
405.317	7614.75
405.541	7614.75
405.765	7126.75
405.988	6950.75
406.212	7102.75
406.436	7226.75
406.66	7426.75
406.883	7374.75
407.107	8021.75
407.331	8463.75
407.555	8956.75
407.778	8739.75
408.002	8021.75
408.226	7707.75
408.449	7548.75
408.673	7407.75
408.896	7493.75
409.12	7534.75
409.344	7237.75
409.567	6899.75
409.791	6958.75
410.014	6792.75
410.238	6785.75
410.461	6773.75
410.685	6823.75
410.908	6965.75
411.132	7017.75
411.355	7039.75
411.578	6791.75
411.802	6536.75
412.025	6588.75
412.249	6802.75
412.472	6945.75
412.695	7023.75
412.919	6622.75
413.142	6456.75
413.365	6355.75
413.589	6335.75
413.812	6181.75
414.035	6198.75
414.258	6219.75
414.482	6267.75
414.705	6348.75
414.928	6276.75
415.151	6246.75
415.374	6285.75
415.597	6156.75
415.821	6041.75
416.044	6107.75
416.267	6035.75
416.49	6080.75
416.713	6049.75
416.936	6122.75
417.159	6117.75
417.382	6195.75
417.605	6169.75
417.828	6350.75
418.051	6387.75
418.274	6323.75
418.497	6264.75
418.72	6493.75
418.943	6303.75
419.166	6659.75
419.389	7135.75
419.611	6940.75
419.834	6810.75
420.057	6676.75
420.28	6551.75
420.503	6398.75
420.726	6350.75
420.948	6440.75
421.171	6823.75
421.394	6705.75
421.617	6381.75
421.839	6382.75
422.062	6397.75
422.285	6577.75
422.507	7165.75
422.73	7557.75
422.953	7051.75
423.175	6793.75
423.398	6845.75
423.621	6772.75
423.843	7051.75
424.066	7019.75
424.288	6861.75
424.511	7062.75
424.733	7449.75
424.956	7742.75
425.178	7252.75
425.401	7390.75
425.623	7307.75
425.846	6575.75
426.068	6406.75
426.291	6320.75
426.513	6249.75
426.735	6348.75
426.958	6749.75
427.18	7432.75
427.402	8373.75
427.625	8288.75
427.847	7110.75
428.069	6529.75
428.292	6222.75
428.514	5859.75
428.736	5761.75
428.958	5756.75
429.181	5609.75
429.403	5583.75
429.625	5775.75
429.847	6031.75
430.069	6447.75
430.292	6124.75
430.514	5661.75
430.736	5593.75
430.958	5517.75
431.18	5442.75
431.402	5501.75
431.624	5510.75
431.846	5563.75
432.068	5553.75
432.29	5648.75
432.512	5556.75
432.734	5645.75
432.956	5537.75
433.178	5648.75
433.4	5640.75
433.622	5587.75
433.844	5611.75
434.066	5653.75
434.287	5708.75
434.509	5959.75
434.731	6208.75
434.953	6315.75
435.175	6343.75
435.397	6434.75
435.618	6418.75
435.84	6602.75
436.062	7297.75
436.284	7253.75
436.505	6226.75
436.727	5931.75
436.949	5752.75
437.17	5649.75
437.392	5561.75
437.614	5685.75
437.835	6095.75
438.057	6738.75
438.278	7339.75
438.5	7333.75
438.721	8090.75
438.943	7003.75
439.165	6040.75
439.386	5837.75
439.608	5883.75
439.829	6023.75
440.05	6205.75
440.272	6478.75
440.493	6054.75
440.715	5865.75
440.936	5833.75
441.158	5902.75
441.379	6018.75
441.6	6347.75
441.822	6561.75
442.043	6889.75
442.264	7588.75
442.486	7337.75
442.707	6625.75
442.928	6422.75
443.149	6561.75
443.371	6753.75
443.592	7299.75
443.813	8106.75
444.034	8137.75
444.255	7255.75
444.476	7118.75
444.698	7310.75
444.919	7327.75
445.14	7140.75
445.361	6879.75
445.582	6933.75
445.803	7346.75
446.024	7885.75
446.245	7613.75
446.466	6818.75
446.687	6105.75
446.908	5876.75
447.129	5577.75
447.35	5518.75
447.571	5419.75
447.792	5330.75
448.013	5373.75
448.234	5547.75
448.455	6089.75
448.675	7106.75
448.896	7574.75
449.117	6315.75
449.338	6385.75
449.559	7625.75
449.779	7826.75
450	6049.75
450.221	5530.75
450.442	5309.75
450.662	5219.75
450.883	5215.75
451.104	5340.75
451.324	5162.75
451.545	5089.75
451.766	4978.75
451.986	4911.75
452.207	4854.75
452.428	4805.75
452.648	4868.75
452.869	4939.75
453.089	4937.75
453.31	5037.75
453.53	4883.75
453.751	4800.75
453.971	4743.75
454.192	4894.75
454.412	4693.75
454.633	4790.75
454.853	4708.75
455.073	4762.75
455.294	5053.75
455.514	5484.75
455.734	5089.75
455.955	4633.75
456.175	4589.75
456.395	4526.75
456.616	4527.75
456.836	4502.75
457.056	4494.75
457.276	4364.75
457.497	4568.75
457.717	4556.75
457.937	4590.75
458.157	4665.75
458.377	4775.75
458.598	5107.75
458.818	5532.75
459.038	6065.75
459.258	6133.75
459.478	5681.75
459.698	5578.75
459.918	5733.75
460.138	5902.75
460.358	6068.75
460.578	6126.75
460.798	6181.75
461.018	6170.75
461.238	6090.75
461.458	6093.75
461.678	5997.75
461.898	6135.75
462.118	6199.75
462.338	6594.75
462.558	6734.75
462.777	7050.75
462.997	7622.75
463.217	8007.75
463.437	7752.75
463.657	7134.75
463.876	6934.75
464.096	7009.75
464.316	6984.75
464.536	7026.75
464.755	6788.75
464.975	6588.75
465.195	6562.75
465.414	6485.75
465.634	5861.75
465.854	5582.75
466.073	5437.75
466.293	5339.75
466.512	5135.75
466.732	5102.75
466.951	5065.75
467.171	5031.75
467.391	5137.75
467.61	5144.75
467.829	5021.75
468.049	5063.75
468.268	4965.75
468.488	4845.75
468.707	4834.75
468.927	4851.75
469.146	4870.75
469.365	4968.75
469.585	4909.75
469.804	5037.75
470.023	5213.75
470.243	5190.75
470.462	5281.75
470.681	5389.75
470.901	5311.75
471.12	5201.75
471.339	5108.75
471.558	5095.75
471.777	5057.75
471.997	4972.75
472.216	5001.75
472.435	5131.75
472.654	4961.75
472.873	4841.75
473.092	4890.75
473.311	4807.75
473.53	4941.75
473.749	4977.75
473.968	5312.75
474.187	6188.75
474.406	5782.75
474.625	5134.75
474.844	4941.75
475.063	4886.75
475.282	4853.75
475.501	4900.75
475.72	4878.75
475.939	4977.75
476.158	4993.75
476.377	5111.75
476.596	5054.75
476.814	5162.75
477.033	5235.75
477.252	5193.75
477.471	5435.75
477.69	5516.75
477.908	5593.75
478.127	5723.75
478.346	5859.75
478.564	5949.75
478.783	5907.75
479.002	6161.75
479.22	6172.75
479.439	6121.75
479.658	6289.75
479.876	6384.75
480.095	6558.75
480.313	6823.75
480.532	6860.75
480.751	6623.75
480.969	6575.75
481.188	6899.75
481.406	6607.75
481.624	6266.75
481.843	6040.75
482.061	5893.75
482.28	5801.75
482.498	5758.75
482.717	5749.75
482.935	5725.75
483.153	5725.75
483.372	5700.75
483.59	5673.75
483.808	5612.75
484.027	5658.75
484.245	5754.75
484.463	5828.75
484.681	5861.75
484.9	5883.75
485.118	5974.75
485.336	5947.75
485.554	6105.75
485.772	6070.75
485.99	6075.75
486.209	6170.75
486.427	6116.75
486.645	6153.75
486.863	6223.75
487.081	6165.75
487.299	6072.75
487.517	6103.75
487.735	6124.75
487.953	6065.75
