Data from Uncirc_1982_H10_HRD10591_00092.txt Node
Date: Wed Jan 03 12:29:43 EST 2024
User: Yrep
Spectrometer: HR+D1059
Trigger mode: 1
Integration Time (sec): 1.000000E-1
Scans to average: 1
Electric dark correction enabled: true
Nonlinearity correction enabled: false
Boxcar width: 0
XAxis mode: Wavelengths
Number of Pixels in Spectrum: 2048
>>>>>Begin Spectral Data<<<<<
223.165	-15.19
223.4	-15.19
223.635	-15.19
223.869	-20.19
224.104	-25.19
224.338	-25.19
224.573	-16.19
224.808	0.81
225.042	-12.19
225.277	3.81
225.511	11.81
225.746	6.81
225.98	7.81
226.215	11.81
226.449	4.81
226.683	17.81
226.918	25.81
227.152	22.81
227.387	38.81
227.621	40.81
227.856	38.81
228.09	40.81
228.324	49.81
228.559	74.81
228.793	58.81
229.027	54.81
229.262	64.81
229.496	67.81
229.73	70.81
229.964	80.81
230.199	81.81
230.433	66.81
230.667	66.81
230.901	86.81
231.136	80.81
231.37	85.81
231.604	68.81
231.838	68.81
232.072	75.81
232.306	79.81
232.541	74.81
232.775	85.81
233.009	89.81
233.243	75.81
233.477	75.81
233.711	74.81
233.945	74.81
234.179	90.81
234.413	78.81
234.647	78.81
234.881	82.81
235.115	83.81
235.349	77.81
235.583	70.81
235.817	70.81
236.051	59.81
236.285	73.81
236.519	83.81
236.753	66.81
236.987	82.81
237.221	85.81
237.455	70.81
237.689	78.81
237.922	73.81
238.156	74.81
238.39	67.81
238.624	74.81
238.858	65.81
239.091	84.81
239.325	74.81
239.559	88.81
239.793	76.81
240.027	69.81
240.26	68.81
240.494	84.81
240.728	71.81
240.961	60.81
241.195	72.81
241.429	73.81
241.662	84.81
241.896	84.81
242.13	62.81
242.363	83.81
242.597	75.81
242.83	80.81
243.064	78.81
243.298	67.81
243.531	59.81
243.765	72.81
243.998	74.81
244.232	90.81
244.465	71.81
244.699	82.81
244.932	75.81
245.166	69.81
245.399	72.81
245.633	70.81
245.866	80.81
246.099	86.81
246.333	78.81
246.566	79.81
246.8	83.81
247.033	66.81
247.266	62.81
247.5	67.81
247.733	74.81
247.966	93.81
248.2	86.81
248.433	86.81
248.666	72.81
248.899	70.81
249.133	76.81
249.366	69.81
249.599	74.81
249.832	78.81
250.066	66.81
250.299	75.81
250.532	74.81
250.765	85.81
250.998	75.81
251.231	85.81
251.465	75.81
251.698	67.81
251.931	80.81
252.164	74.81
252.397	92.81
252.63	92.81
252.863	68.81
253.096	83.81
253.329	80.81
253.562	82.81
253.795	81.81
254.028	85.81
254.261	84.81
254.494	72.81
254.727	69.81
254.96	84.81
255.193	75.81
255.426	81.81
255.659	84.81
255.892	71.81
256.124	76.81
256.357	78.81
256.59	77.81
256.823	86.81
257.056	79.81
257.289	82.81
257.521	68.81
257.754	72.81
257.987	83.81
258.22	84.81
258.452	74.81
258.685	91.81
258.918	84.81
259.151	90.81
259.383	88.81
259.616	98.81
259.849	86.81
260.081	71.81
260.314	70.81
260.547	73.81
260.779	82.81
261.012	90.81
261.244	72.81
261.477	86.81
261.71	76.81
261.942	91.81
262.175	105.81
262.407	94.81
262.64	81.81
262.872	76.81
263.105	74.81
263.337	81.81
263.57	87.81
263.802	75.81
264.035	82.81
264.267	74.81
264.499	74.81
264.732	97.81
264.964	94.81
265.197	80.81
265.429	80.81
265.661	70.81
265.894	81.81
266.126	91.81
266.358	90.81
266.591	89.81
266.823	84.81
267.055	75.81
267.287	84.81
267.52	82.81
267.752	81.81
267.984	75.81
268.216	95.81
268.448	84.81
268.681	71.81
268.913	84.81
269.145	75.81
269.377	86.81
269.609	65.81
269.841	101.81
270.073	90.81
270.306	91.81
270.538	78.81
270.77	75.81
271.002	83.81
271.234	73.81
271.466	67.81
271.698	83.81
271.93	86.81
272.162	85.81
272.394	88.81
272.626	93.81
272.858	66.81
273.09	88.81
273.322	84.81
273.553	68.81
273.785	81.81
274.017	96.81
274.249	94.81
274.481	72.81
274.713	83.81
274.945	82.81
275.176	83.81
275.408	84.81
275.64	79.81
275.872	91.81
276.104	88.81
276.335	98.81
276.567	104.81
276.799	83.81
277.031	86.81
277.262	74.81
277.494	89.81
277.726	86.81
277.957	96.81
278.189	69.81
278.421	81.81
278.652	82.81
278.884	80.81
279.115	84.81
279.347	87.81
279.579	87.81
279.81	83.81
280.042	80.81
280.273	80.81
280.505	75.81
280.736	86.81
280.968	80.81
281.199	89.81
281.431	97.81
281.662	85.81
281.894	86.81
282.125	93.81
282.356	99.81
282.588	112.81
282.819	105.81
283.051	88.81
283.282	74.81
283.513	88.81
283.745	73.81
283.976	72.81
284.207	88.81
284.439	72.81
284.67	88.81
284.901	72.81
285.132	91.81
285.364	81.81
285.595	82.81
285.826	92.81
286.057	74.81
286.288	69.81
286.52	78.81
286.751	91.81
286.982	78.81
287.213	77.81
287.444	84.81
287.675	75.81
287.906	86.81
288.138	72.81
288.369	75.81
288.6	89.81
288.831	76.81
289.062	88.81
289.293	92.81
289.524	78.81
289.755	76.81
289.986	99.81
290.217	92.81
290.448	87.81
290.679	87.81
290.91	90.81
291.141	87.81
291.371	98.81
291.602	80.81
291.833	87.81
292.064	80.81
292.295	90.81
292.526	78.81
292.757	72.81
292.987	84.81
293.218	98.81
293.449	80.81
293.68	94.81
293.91	86.81
294.141	84.81
294.372	80.81
294.603	102.81
294.833	90.81
295.064	96.81
295.295	84.81
295.525	94.81
295.756	101.81
295.987	90.81
296.217	115.81
296.448	102.81
296.679	84.81
296.909	85.81
297.14	93.81
297.37	83.81
297.601	84.81
297.831	73.81
298.062	75.81
298.292	76.81
298.523	93.81
298.753	82.81
298.984	102.81
299.214	87.81
299.445	92.81
299.675	83.81
299.905	96.81
300.136	86.81
300.366	72.81
300.597	89.81
300.827	86.81
301.057	108.81
301.288	104.81
301.518	86.81
301.748	91.81
301.979	82.81
302.209	79.81
302.439	78.81
302.669	102.81
302.9	86.81
303.13	94.81
303.36	87.81
303.59	82.81
303.82	96.81
304.051	93.81
304.281	73.81
304.511	87.81
304.741	78.81
304.971	87.81
305.201	74.81
305.431	92.81
305.661	94.81
305.891	88.81
306.121	102.81
306.352	85.81
306.582	90.81
306.812	95.81
307.042	82.81
307.272	95.81
307.502	94.81
307.731	91.81
307.961	90.81
308.191	92.81
308.421	91.81
308.651	86.81
308.881	90.81
309.111	93.81
309.341	100.81
309.571	102.81
309.8	100.81
310.03	84.81
310.26	88.81
310.49	73.81
310.72	89.81
310.949	117.81
311.179	92.81
311.409	74.81
311.639	96.81
311.868	99.81
312.098	95.81
312.328	91.81
312.557	94.81
312.787	106.81
313.017	102.81
313.246	96.81
313.476	90.81
313.706	74.81
313.935	87.81
314.165	90.81
314.394	98.81
314.624	86.81
314.853	89.81
315.083	91.81
315.312	96.81
315.542	86.81
315.771	92.81
316.001	75.81
316.23	96.81
316.46	92.81
316.689	71.81
316.919	101.81
317.148	87.81
317.377	75.81
317.607	80.81
317.836	86.81
318.065	96.81
318.295	86.81
318.524	85.81
318.753	90.81
318.983	87.81
319.212	94.81
319.441	98.81
319.67	102.81
319.9	89.81
320.129	83.81
320.358	87.81
320.587	104.81
320.816	92.81
321.046	98.81
321.275	91.81
321.504	89.81
321.733	85.81
321.962	94.81
322.191	81.81
322.42	90.81
322.649	91.81
322.878	89.81
323.108	98.81
323.337	129.81
323.566	115.81
323.795	131.81
324.024	163.81
324.253	330.81
324.482	688.81
324.71	1376.81
324.939	1767.81
325.168	668.81
325.397	206.81
325.626	132.81
325.855	117.81
326.084	105.81
326.313	128.81
326.542	142.81
326.77	188.81
326.999	378.81
327.228	788.81
327.457	1405.81
327.686	1102.81
327.914	306.81
328.143	187.81
328.372	131.81
328.6	134.81
328.829	112.81
329.058	103.81
329.287	102.81
329.515	95.81
329.744	98.81
329.972	89.81
330.201	111.81
330.43	128.81
330.658	107.81
330.887	126.81
331.115	122.81
331.344	95.81
331.572	127.81
331.801	82.81
332.03	87.81
332.258	93.81
332.486	87.81
332.715	91.81
332.943	86.81
333.172	96.81
333.4	99.81
333.629	102.81
333.857	107.81
334.085	97.81
334.314	91.81
334.542	123.81
334.771	110.81
334.999	116.81
335.227	102.81
335.455	84.81
335.684	98.81
335.912	81.81
336.14	96.81
336.369	94.81
336.597	89.81
336.825	83.81
337.053	82.81
337.281	91.81
337.51	71.81
337.738	92.81
337.966	88.81
338.194	82.81
338.422	90.81
338.65	91.81
338.878	88.81
339.106	88.81
339.334	82.81
339.562	86.81
339.79	66.81
340.018	82.81
340.246	91.81
340.474	75.81
340.702	91.81
340.93	84.81
341.158	83.81
341.386	94.81
341.614	88.81
341.842	90.81
342.07	97.81
342.298	82.81
342.526	84.81
342.754	75.81
342.981	76.81
343.209	85.81
343.437	104.81
343.665	85.81
343.893	85.81
344.12	103.81
344.348	85.81
344.576	88.81
344.804	99.81
345.031	94.81
345.259	91.81
345.487	82.81
345.714	107.81
345.942	78.81
346.17	92.81
346.397	82.81
346.625	75.81
346.853	85.81
347.08	76.81
347.308	95.81
347.535	99.81
347.763	85.81
347.99	90.81
348.218	88.81
348.445	95.81
348.673	103.81
348.9	87.81
349.128	94.81
349.355	87.81
349.583	87.81
349.81	74.81
350.037	88.81
350.265	94.81
350.492	96.81
350.72	74.81
350.947	103.81
351.174	88.81
351.402	113.81
351.629	97.81
351.856	87.81
352.083	106.81
352.311	86.81
352.538	88.81
352.765	115.81
352.992	99.81
353.22	97.81
353.447	98.81
353.674	95.81
353.901	102.81
354.128	100.81
354.355	106.81
354.583	92.81
354.81	98.81
355.037	96.81
355.264	94.81
355.491	87.81
355.718	102.81
355.945	82.81
356.172	100.81
356.399	112.81
356.626	103.81
356.853	87.81
357.08	86.81
357.307	87.81
357.534	87.81
357.761	96.81
357.988	84.81
358.215	98.81
358.441	86.81
358.668	94.81
358.895	79.81
359.122	107.81
359.349	92.81
359.576	76.81
359.802	84.81
360.029	102.81
360.256	87.81
360.483	92.81
360.709	98.81
360.936	102.81
361.163	88.81
361.39	92.81
361.616	96.81
361.843	93.81
362.07	92.81
362.296	101.81
362.523	78.81
362.749	86.81
362.976	96.81
363.203	87.81
363.429	85.81
363.656	85.81
363.882	87.81
364.109	90.81
364.335	81.81
364.562	93.81
364.788	85.81
365.015	84.81
365.241	107.81
365.468	102.81
365.694	89.81
365.92	80.81
366.147	99.81
366.373	88.81
366.599	96.81
366.826	88.81
367.052	85.81
367.278	101.81
367.505	100.81
367.731	71.81
367.957	84.81
368.184	97.81
368.41	90.81
368.636	86.81
368.862	99.81
369.089	92.81
369.315	98.81
369.541	83.81
369.767	95.81
369.993	86.81
370.219	83.81
370.445	87.81
370.672	87.81
370.898	97.81
371.124	76.81
371.35	73.81
371.576	78.81
371.802	96.81
372.028	91.81
372.254	97.81
372.48	78.81
372.706	74.81
372.932	80.81
373.158	89.81
373.384	89.81
373.61	91.81
373.835	99.81
374.061	89.81
374.287	89.81
374.513	101.81
374.739	93.81
374.965	84.81
375.191	76.81
375.416	89.81
375.642	89.81
375.868	85.81
376.094	89.81
376.319	90.81
376.545	80.81
376.771	88.81
376.997	83.81
377.222	89.81
377.448	85.81
377.674	82.81
377.899	86.81
378.125	87.81
378.35	98.81
378.576	102.81
378.802	91.81
379.027	92.81
379.253	103.81
379.478	83.81
379.704	92.81
379.929	80.81
380.155	96.81
380.38	94.81
380.606	89.81
380.831	88.81
381.057	82.81
381.282	80.81
381.507	84.81
381.733	83.81
381.958	99.81
382.184	90.81
382.409	96.81
382.634	84.81
382.86	84.81
383.085	96.81
383.31	98.81
383.535	98.81
383.761	87.81
383.986	91.81
384.211	99.81
384.436	85.81
384.662	86.81
384.887	94.81
385.112	90.81
385.337	97.81
385.562	94.81
385.787	96.81
386.013	104.81
386.238	94.81
386.463	109.81
386.688	99.81
386.913	84.81
387.138	108.81
387.363	103.81
387.588	102.81
387.813	101.81
388.038	108.81
388.263	112.81
388.488	105.81
388.713	87.81
388.938	94.81
389.163	82.81
389.387	92.81
389.612	108.81
389.837	95.81
390.062	92.81
390.287	96.81
390.512	86.81
390.736	94.81
390.961	79.81
391.186	98.81
391.411	88.81
391.636	80.81
391.86	86.81
392.085	103.81
392.31	78.81
392.534	83.81
392.759	85.81
392.984	66.81
393.208	76.81
393.433	71.81
393.658	86.81
393.882	74.81
394.107	76.81
394.331	78.81
394.556	71.81
394.78	91.81
395.005	78.81
395.229	92.81
395.454	84.81
395.678	86.81
395.903	82.81
396.127	73.81
396.352	98.81
396.576	84.81
396.801	76.81
397.025	85.81
397.249	70.81
397.474	87.81
397.698	82.81
397.922	95.81
398.147	83.81
398.371	85.81
398.595	88.81
398.82	80.81
399.044	80.81
399.268	83.81
399.492	68.81
399.717	76.81
399.941	94.81
400.165	103.81
400.389	89.81
400.613	92.81
400.837	86.81
401.062	86.81
401.286	90.81
401.51	76.81
401.734	82.81
401.958	83.81
402.182	97.81
402.406	113.81
402.63	94.81
402.854	88.81
403.078	82.81
403.302	82.81
403.526	89.81
403.75	78.81
403.974	86.81
404.198	88.81
404.422	80.81
404.645	84.81
404.869	98.81
405.093	87.81
405.317	106.81
405.541	104.81
405.765	90.81
405.988	95.81
406.212	120.81
406.436	183.81
406.66	115.81
406.883	78.81
407.107	94.81
407.331	96.81
407.555	95.81
407.778	75.81
408.002	82.81
408.226	94.81
408.449	108.81
408.673	78.81
408.896	100.81
409.12	81.81
409.344	86.81
409.567	72.81
409.791	91.81
410.014	93.81
410.238	86.81
410.461	90.81
410.685	82.81
410.908	92.81
411.132	92.81
411.355	96.81
411.578	99.81
411.802	87.81
412.025	84.81
412.249	91.81
412.472	89.81
412.695	78.81
412.919	89.81
413.142	78.81
413.365	80.81
413.589	75.81
413.812	63.81
414.035	75.81
414.258	88.81
414.482	91.81
414.705	89.81
414.928	82.81
415.151	80.81
415.374	82.81
415.597	88.81
415.821	95.81
416.044	87.81
416.267	78.81
416.49	83.81
416.713	98.81
416.936	86.81
417.159	75.81
417.382	91.81
417.605	85.81
417.828	89.81
418.051	84.81
418.274	93.81
418.497	84.81
418.72	85.81
418.943	88.81
419.166	98.81
419.389	99.81
419.611	78.81
419.834	90.81
420.057	88.81
420.28	71.81
420.503	75.81
420.726	83.81
420.948	70.81
421.171	95.81
421.394	71.81
421.617	71.81
421.839	84.81
422.062	87.81
422.285	67.81
422.507	94.81
422.73	96.81
422.953	87.81
423.175	90.81
423.398	96.81
423.621	83.81
423.843	74.81
424.066	92.81
424.288	73.81
424.511	84.81
424.733	90.81
424.956	94.81
425.178	86.81
425.401	95.81
425.623	96.81
425.846	93.81
426.068	84.81
426.291	93.81
426.513	88.81
426.735	75.81
426.958	86.81
427.18	82.81
427.402	123.81
427.625	127.81
427.847	118.81
428.069	111.81
428.292	76.81
428.514	80.81
428.736	83.81
428.958	78.81
429.181	88.81
429.403	87.81
429.625	76.81
429.847	78.81
430.069	88.81
430.292	78.81
430.514	74.81
430.736	82.81
430.958	64.81
431.18	84.81
431.402	93.81
431.624	83.81
431.846	87.81
432.068	93.81
432.29	70.81
432.512	83.81
432.734	70.81
432.956	88.81
433.178	103.81
433.4	109.81
433.622	102.81
433.844	93.81
434.066	99.81
434.287	84.81
434.509	79.81
434.731	81.81
434.953	82.81
435.175	70.81
435.397	83.81
435.618	84.81
435.84	73.81
436.062	110.81
436.284	83.81
436.505	97.81
436.727	101.81
436.949	90.81
437.17	84.81
437.392	82.81
437.614	83.81
437.835	88.81
438.057	112.81
438.278	86.81
438.5	98.81
438.721	107.81
438.943	85.81
439.165	81.81
439.386	98.81
439.608	92.81
439.829	91.81
440.05	105.81
440.272	118.81
440.493	91.81
440.715	89.81
440.936	76.81
441.158	91.81
441.379	84.81
441.6	78.81
441.822	89.81
442.043	99.81
442.264	91.81
442.486	99.81
442.707	91.81
442.928	92.81
443.149	112.81
443.371	121.81
443.592	106.81
443.813	108.81
444.034	98.81
444.255	97.81
444.476	78.81
444.698	87.81
444.919	78.81
445.14	147.81
445.361	122.81
445.582	98.81
445.803	119.81
446.024	114.81
446.245	127.81
446.466	102.81
446.687	86.81
446.908	78.81
447.129	83.81
447.35	89.81
447.571	90.81
447.792	82.81
448.013	103.81
448.234	94.81
448.455	96.81
448.675	104.81
448.896	109.81
449.117	95.81
449.338	95.81
449.559	112.81
449.779	105.81
450	96.81
450.221	74.81
450.442	88.81
450.662	102.81
450.883	94.81
451.104	100.81
451.324	88.81
451.545	87.81
451.766	80.81
451.986	90.81
452.207	88.81
452.428	97.81
452.648	94.81
452.869	100.81
453.089	101.81
453.31	115.81
453.53	82.81
453.751	76.81
453.971	102.81
454.192	105.81
454.412	87.81
454.633	82.81
454.853	75.81
455.073	78.81
455.294	88.81
455.514	106.81
455.734	106.81
455.955	86.81
456.175	91.81
456.395	94.81
456.616	98.81
456.836	94.81
457.056	72.81
457.276	82.81
457.497	100.81
457.717	78.81
457.937	95.81
458.157	84.81
458.377	93.81
458.598	98.81
458.818	116.81
459.038	105.81
459.258	99.81
459.478	95.81
459.698	84.81
459.918	94.81
460.138	78.81
460.358	78.81
460.578	87.81
460.798	82.81
461.018	85.81
461.238	87.81
461.458	78.81
461.678	92.81
461.898	95.81
462.118	93.81
462.338	81.81
462.558	88.81
462.777	76.81
462.997	86.81
463.217	68.81
463.437	78.81
463.657	71.81
463.876	89.81
464.096	101.81
464.316	68.81
464.536	82.81
464.755	82.81
464.975	91.81
465.195	129.81
465.414	120.81
465.634	86.81
465.854	87.81
466.073	90.81
466.293	89.81
466.512	78.81
466.732	86.81
466.951	83.81
467.171	88.81
467.391	82.81
467.61	113.81
467.829	87.81
468.049	98.81
468.268	81.81
468.488	79.81
468.707	83.81
468.927	84.81
469.146	85.81
469.365	101.81
469.585	59.81
469.804	91.81
470.023	88.81
470.243	86.81
470.462	89.81
470.681	102.81
470.901	91.81
471.12	80.81
471.339	88.81
471.558	79.81
471.777	86.81
471.997	90.81
472.216	99.81
472.435	128.81
472.654	109.81
472.873	105.81
473.092	87.81
473.311	93.81
473.53	86.81
473.749	89.81
473.968	98.81
474.187	102.81
474.406	93.81
474.625	83.81
474.844	94.81
475.063	75.81
475.282	92.81
475.501	82.81
475.72	67.81
475.939	86.81
476.158	97.81
476.377	81.81
476.596	100.81
476.814	100.81
477.033	94.81
477.252	96.81
477.471	79.81
477.69	85.81
477.908	101.81
478.127	87.81
478.346	89.81
478.564	88.81
478.783	82.81
479.002	87.81
479.22	79.81
479.439	90.81
479.658	88.81
479.876	94.81
480.095	97.81
480.313	88.81
480.532	74.81
480.751	93.81
480.969	109.81
481.188	177.81
481.406	134.81
481.624	87.81
481.843	90.81
482.061	72.81
482.28	92.81
482.498	82.81
482.717	92.81
482.935	84.81
483.153	94.81
483.372	88.81
483.59	90.81
483.808	86.81
484.027	91.81
484.245	94.81
484.463	92.81
484.681	91.81
484.9	87.81
485.118	109.81
485.336	100.81
485.554	92.81
485.772	103.81
485.99	99.81
486.209	109.81
486.427	100.81
486.645	103.81
486.863	97.81
487.081	82.81
487.299	103.81
487.517	92.81
487.735	88.81
487.953	103.81
488.171	81.81
488.389	96.81
488.607	80.81
488.825	91.81
489.043	78.81
489.261	92.81
489.479	86.81
489.696	85.81
489.914	82.81
490.132	87.81
490.35	106.81
490.568	83.81
490.786	82.81
491.003	79.81
491.221	83.81
491.439	96.81
491.657	99.81
491.874	83.81
492.092	90.81
492.31	89.81
492.527	75.81
492.745	78.81
492.963	85.81
493.18	92.81
493.398	101.81
493.615	100.81
493.833	98.81
494.05	91.81
494.268	98.81
494.485	98.81
494.703	81.81
494.92	89.81
495.138	102.81
495.355	92.81
495.573	81.81
495.79	85.81
496.008	88.81
496.225	81.81
496.442	75.81
496.66	97.81
496.877	86.81
497.094	96.81
497.312	81.81
497.529	80.81
497.746	90.81
497.963	103.81
498.181	80.81
498.398	80.81
498.615	101.81
498.832	91.81
499.049	99.81
499.267	88.81
499.484	91.81
499.701	106.81
499.918	91.81
500.135	89.81
500.352	96.81
500.569	79.81
500.786	80.81
501.003	94.81
501.22	82.81
501.437	86.81
501.654	93.81
501.871	78.81
502.088	97.81
502.305	94.81
502.522	97.81
502.739	92.81
502.956	88.81
503.172	100.81
503.389	99.81
503.606	97.81
503.823	76.81
504.04	73.81
504.256	87.81
504.473	94.81
504.69	78.81
504.907	105.81
505.123	103.81
505.34	84.81
505.557	84.81
505.773	83.81
505.99	90.81
506.207	92.81
506.423	76.81
506.64	83.81
506.856	93.81
507.073	97.81
507.289	80.81
507.506	93.81
507.722	92.81
507.939	100.81
508.155	105.81
508.372	85.81
508.588	89.81
508.805	92.81
509.021	86.81
509.238	84.81
509.454	95.81
509.67	110.81
509.887	103.81
510.103	117.81
510.319	191.81
510.536	606.81
510.752	1775.81
510.968	484.81
511.184	132.81
511.401	100.81
511.617	88.81
511.833	99.81
512.049	85.81
512.265	84.81
512.481	86.81
512.698	100.81
512.914	88.81
513.13	84.81
513.346	95.81
513.562	93.81
513.778	106.81
513.994	102.81
514.21	84.81
514.426	99.81
514.642	127.81
514.858	117.81
515.074	162.81
515.29	332.81
515.506	1015.81
515.721	376.81
515.937	133.81
516.153	112.81
516.369	89.81
516.585	104.81
516.801	91.81
517.016	91.81
517.232	96.81
