Data from Uncirc_1982_H10_HRD10591_00013.txt Node
Date: Wed Jan 03 12:29:27 EST 2024
User: Yrep
Spectrometer: HR+D1059
Trigger mode: 1
Integration Time (sec): 1.000000E-1
Scans to average: 1
Electric dark correction enabled: true
Nonlinearity correction enabled: false
Boxcar width: 0
XAxis mode: Wavelengths
Number of Pixels in Spectrum: 2048
>>>>>Begin Spectral Data<<<<<
223.165	-11.62
223.4	-11.62
223.635	-11.62
223.869	-7.62
224.104	-23.62
224.338	-3.62
224.573	-33.62
224.808	-16.62
225.042	-2.62
225.277	-11.62
225.511	-7.62
225.746	2.38
225.98	5.38
226.215	24.38
226.449	11.38
226.683	18.38
226.918	23.38
227.152	33.38
227.387	35.38
227.621	36.38
227.856	67.38
228.09	42.38
228.324	45.38
228.559	48.38
228.793	68.38
229.027	69.38
229.262	67.38
229.496	65.38
229.73	91.38
229.964	93.38
230.199	76.38
230.433	72.38
230.667	76.38
230.901	81.38
231.136	69.38
231.37	77.38
231.604	74.38
231.838	75.38
232.072	69.38
232.306	81.38
232.541	75.38
232.775	85.38
233.009	88.38
233.243	83.38
233.477	93.38
233.711	95.38
233.945	86.38
234.179	77.38
234.413	77.38
234.647	79.38
234.881	72.38
235.115	78.38
235.349	70.38
235.583	88.38
235.817	68.38
236.051	68.38
236.285	79.38
236.519	99.38
236.753	81.38
236.987	84.38
237.221	82.38
237.455	89.38
237.689	85.38
237.922	73.38
238.156	77.38
238.39	72.38
238.624	84.38
238.858	82.38
239.091	84.38
239.325	80.38
239.559	77.38
239.793	82.38
240.027	77.38
240.26	74.38
240.494	72.38
240.728	94.38
240.961	81.38
241.195	89.38
241.429	66.38
241.662	72.38
241.896	83.38
242.13	80.38
242.363	81.38
242.597	83.38
242.83	80.38
243.064	80.38
243.298	83.38
243.531	67.38
243.765	84.38
243.998	71.38
244.232	87.38
244.465	93.38
244.699	73.38
244.932	71.38
245.166	94.38
245.399	77.38
245.633	68.38
245.866	80.38
246.099	71.38
246.333	81.38
246.566	76.38
246.8	64.38
247.033	96.38
247.266	69.38
247.5	74.38
247.733	85.38
247.966	92.38
248.2	80.38
248.433	74.38
248.666	85.38
248.899	83.38
249.133	93.38
249.366	75.38
249.599	84.38
249.832	82.38
250.066	73.38
250.299	80.38
250.532	84.38
250.765	94.38
250.998	74.38
251.231	80.38
251.465	70.38
251.698	72.38
251.931	79.38
252.164	93.38
252.397	89.38
252.63	91.38
252.863	80.38
253.096	75.38
253.329	90.38
253.562	74.38
253.795	97.38
254.028	79.38
254.261	75.38
254.494	86.38
254.727	72.38
254.96	95.38
255.193	96.38
255.426	67.38
255.659	77.38
255.892	87.38
256.124	86.38
256.357	96.38
256.59	83.38
256.823	89.38
257.056	85.38
257.289	92.38
257.521	64.38
257.754	84.38
257.987	101.38
258.22	86.38
258.452	84.38
258.685	90.38
258.918	86.38
259.151	93.38
259.383	93.38
259.616	86.38
259.849	75.38
260.081	77.38
260.314	88.38
260.547	83.38
260.779	85.38
261.012	87.38
261.244	85.38
261.477	83.38
261.71	95.38
261.942	100.38
262.175	103.38
262.407	77.38
262.64	83.38
262.872	82.38
263.105	91.38
263.337	88.38
263.57	94.38
263.802	90.38
264.035	74.38
264.267	82.38
264.499	82.38
264.732	84.38
264.964	95.38
265.197	70.38
265.429	86.38
265.661	84.38
265.894	84.38
266.126	83.38
266.358	77.38
266.591	85.38
266.823	82.38
267.055	87.38
267.287	85.38
267.52	72.38
267.752	78.38
267.984	88.38
268.216	80.38
268.448	84.38
268.681	71.38
268.913	68.38
269.145	97.38
269.377	95.38
269.609	92.38
269.841	86.38
270.073	87.38
270.306	82.38
270.538	89.38
270.77	84.38
271.002	65.38
271.234	69.38
271.466	100.38
271.698	82.38
271.93	93.38
272.162	97.38
272.394	101.38
272.626	75.38
272.858	76.38
273.09	87.38
273.322	86.38
273.553	76.38
273.785	86.38
274.017	77.38
274.249	82.38
274.481	75.38
274.713	66.38
274.945	86.38
275.176	66.38
275.408	83.38
275.64	77.38
275.872	81.38
276.104	96.38
276.335	91.38
276.567	80.38
276.799	92.38
277.031	77.38
277.262	84.38
277.494	88.38
277.726	85.38
277.957	87.38
278.189	82.38
278.421	96.38
278.652	82.38
278.884	95.38
279.115	83.38
279.347	88.38
279.579	69.38
279.81	91.38
280.042	84.38
280.273	88.38
280.505	99.38
280.736	91.38
280.968	72.38
281.199	94.38
281.431	86.38
281.662	85.38
281.894	86.38
282.125	91.38
282.356	113.38
282.588	121.38
282.819	92.38
283.051	101.38
283.282	91.38
283.513	92.38
283.745	76.38
283.976	88.38
284.207	77.38
284.439	90.38
284.67	101.38
284.901	82.38
285.132	80.38
285.364	77.38
285.595	89.38
285.826	77.38
286.057	80.38
286.288	86.38
286.52	89.38
286.751	84.38
286.982	80.38
287.213	96.38
287.444	88.38
287.675	86.38
287.906	90.38
288.138	82.38
288.369	89.38
288.6	84.38
288.831	84.38
289.062	87.38
289.293	93.38
289.524	73.38
289.755	94.38
289.986	87.38
290.217	86.38
290.448	90.38
290.679	87.38
290.91	92.38
291.141	73.38
291.371	87.38
291.602	89.38
291.833	74.38
292.064	91.38
292.295	72.38
292.526	95.38
292.757	95.38
292.987	86.38
293.218	96.38
293.449	86.38
293.68	89.38
293.91	67.38
294.141	80.38
294.372	80.38
294.603	82.38
294.833	75.38
295.064	77.38
295.295	86.38
295.525	89.38
295.756	97.38
295.987	109.38
296.217	112.38
296.448	105.38
296.679	82.38
296.909	84.38
297.14	96.38
297.37	84.38
297.601	93.38
297.831	79.38
298.062	86.38
298.292	82.38
298.523	88.38
298.753	90.38
298.984	81.38
299.214	86.38
299.445	72.38
299.675	67.38
299.905	100.38
300.136	88.38
300.366	71.38
300.597	89.38
300.827	88.38
301.057	96.38
301.288	102.38
301.518	90.38
301.748	100.38
301.979	88.38
302.209	89.38
302.439	91.38
302.669	102.38
302.9	95.38
303.13	86.38
303.36	88.38
303.59	102.38
303.82	91.38
304.051	82.38
304.281	86.38
304.511	81.38
304.741	89.38
304.971	88.38
305.201	81.38
305.431	96.38
305.661	95.38
305.891	90.38
306.121	84.38
306.352	86.38
306.582	93.38
306.812	98.38
307.042	98.38
307.272	97.38
307.502	90.38
307.731	92.38
307.961	86.38
308.191	79.38
308.421	107.38
308.651	95.38
308.881	92.38
309.111	81.38
309.341	88.38
309.571	107.38
309.8	98.38
310.03	104.38
310.26	88.38
310.49	89.38
310.72	88.38
310.949	89.38
311.179	91.38
311.409	94.38
311.639	101.38
311.868	96.38
312.098	96.38
312.328	90.38
312.557	101.38
312.787	106.38
313.017	94.38
313.246	110.38
313.476	100.38
313.706	98.38
313.935	90.38
314.165	91.38
314.394	98.38
314.624	81.38
314.853	92.38
315.083	108.38
315.312	87.38
315.542	77.38
315.771	89.38
316.001	84.38
316.23	93.38
316.46	97.38
316.689	96.38
316.919	88.38
317.148	105.38
317.377	97.38
317.607	105.38
317.836	86.38
318.065	75.38
318.295	90.38
318.524	97.38
318.753	91.38
318.983	91.38
319.212	96.38
319.441	97.38
319.67	106.38
319.9	98.38
320.129	82.38
320.358	87.38
320.587	99.38
320.816	90.38
321.046	109.38
321.275	109.38
321.504	97.38
321.733	90.38
321.962	98.38
322.191	91.38
322.42	82.38
322.649	106.38
322.878	118.38
323.108	110.38
323.337	106.38
323.566	115.38
323.795	135.38
324.024	161.38
324.253	294.38
324.482	648.38
324.71	1322.38
324.939	1727.38
325.168	643.38
325.397	202.38
325.626	123.38
325.855	123.38
326.084	108.38
326.313	121.38
326.542	131.38
326.77	199.38
326.999	390.38
327.228	747.38
327.457	1387.38
327.686	1054.38
327.914	292.38
328.143	165.38
328.372	128.38
328.6	114.38
328.829	108.38
329.058	109.38
329.287	114.38
329.515	96.38
329.744	99.38
329.972	108.38
330.201	116.38
330.43	120.38
330.658	108.38
330.887	115.38
331.115	96.38
331.344	89.38
331.572	92.38
331.801	85.38
332.03	92.38
332.258	101.38
332.486	86.38
332.715	82.38
332.943	89.38
333.172	96.38
333.4	106.38
333.629	105.38
333.857	89.38
334.085	122.38
334.314	89.38
334.542	124.38
334.771	110.38
334.999	89.38
335.227	91.38
335.455	95.38
335.684	91.38
335.912	107.38
336.14	90.38
336.369	97.38
336.597	89.38
336.825	114.38
337.053	94.38
337.281	103.38
337.51	85.38
337.738	94.38
337.966	80.38
338.194	84.38
338.422	84.38
338.65	76.38
338.878	91.38
339.106	88.38
339.334	86.38
339.562	93.38
339.79	98.38
340.018	88.38
340.246	85.38
340.474	104.38
340.702	86.38
340.93	88.38
341.158	77.38
341.386	93.38
341.614	90.38
341.842	93.38
342.07	91.38
342.298	100.38
342.526	88.38
342.754	91.38
342.981	104.38
343.209	92.38
343.437	106.38
343.665	89.38
343.893	90.38
344.12	97.38
344.348	96.38
344.576	90.38
344.804	82.38
345.031	99.38
345.259	98.38
345.487	108.38
345.714	91.38
345.942	91.38
346.17	100.38
346.397	102.38
346.625	107.38
346.853	97.38
347.08	90.38
347.308	100.38
347.535	100.38
347.763	93.38
347.99	98.38
348.218	87.38
348.445	105.38
348.673	102.38
348.9	97.38
349.128	89.38
349.355	94.38
349.583	95.38
349.81	90.38
350.037	72.38
350.265	88.38
350.492	89.38
350.72	86.38
350.947	89.38
351.174	102.38
351.402	107.38
351.629	90.38
351.856	101.38
352.083	102.38
352.311	104.38
352.538	106.38
352.765	100.38
352.992	81.38
353.22	107.38
353.447	116.38
353.674	110.38
353.901	85.38
354.128	99.38
354.355	98.38
354.583	97.38
354.81	98.38
355.037	104.38
355.264	100.38
355.491	102.38
355.718	110.38
355.945	93.38
356.172	93.38
356.399	107.38
356.626	92.38
356.853	89.38
357.08	101.38
357.307	97.38
357.534	99.38
357.761	97.38
357.988	97.38
358.215	99.38
358.441	106.38
358.668	109.38
358.895	99.38
359.122	101.38
359.349	98.38
359.576	93.38
359.802	92.38
360.029	86.38
360.256	104.38
360.483	80.38
360.709	80.38
360.936	97.38
361.163	89.38
361.39	81.38
361.616	106.38
361.843	95.38
362.07	97.38
362.296	84.38
362.523	89.38
362.749	86.38
362.976	91.38
363.203	84.38
363.429	95.38
363.656	87.38
363.882	90.38
364.109	99.38
364.335	104.38
364.562	108.38
364.788	95.38
365.015	100.38
365.241	96.38
365.468	90.38
365.694	101.38
365.92	96.38
366.147	84.38
366.373	91.38
366.599	99.38
366.826	101.38
367.052	93.38
367.278	116.38
367.505	100.38
367.731	87.38
367.957	91.38
368.184	84.38
368.41	93.38
368.636	86.38
368.862	97.38
369.089	94.38
369.315	75.38
369.541	82.38
369.767	95.38
369.993	81.38
370.219	84.38
370.445	85.38
370.672	80.38
370.898	101.38
371.124	101.38
371.35	87.38
371.576	93.38
371.802	86.38
372.028	82.38
372.254	105.38
372.48	90.38
372.706	81.38
372.932	76.38
373.158	74.38
373.384	112.38
373.61	94.38
373.835	90.38
374.061	89.38
374.287	93.38
374.513	86.38
374.739	85.38
374.965	89.38
375.191	98.38
375.416	85.38
375.642	93.38
375.868	84.38
376.094	81.38
376.319	83.38
376.545	70.38
376.771	88.38
376.997	102.38
377.222	102.38
377.448	94.38
377.674	108.38
377.899	97.38
378.125	84.38
378.35	86.38
378.576	101.38
378.802	95.38
379.027	99.38
379.253	103.38
379.478	97.38
379.704	88.38
379.929	96.38
380.155	108.38
380.38	104.38
380.606	97.38
380.831	100.38
381.057	102.38
381.282	105.38
381.507	113.38
381.733	104.38
381.958	99.38
382.184	105.38
382.409	102.38
382.634	104.38
382.86	123.38
383.085	104.38
383.31	102.38
383.535	122.38
383.761	96.38
383.986	108.38
384.211	125.38
384.436	113.38
384.662	102.38
384.887	105.38
385.112	115.38
385.337	114.38
385.562	120.38
385.787	118.38
386.013	112.38
386.238	134.38
386.463	112.38
386.688	125.38
386.913	118.38
387.138	115.38
387.363	106.38
387.588	107.38
387.813	119.38
388.038	121.38
388.263	124.38
388.488	111.38
388.713	102.38
388.938	89.38
389.163	101.38
389.387	96.38
389.612	89.38
389.837	109.38
390.062	88.38
390.287	84.38
390.512	90.38
390.736	84.38
390.961	83.38
391.186	105.38
391.411	100.38
391.636	94.38
391.86	89.38
392.085	77.38
392.31	88.38
392.534	101.38
392.759	77.38
392.984	85.38
393.208	86.38
393.433	87.38
393.658	86.38
393.882	88.38
394.107	78.38
394.331	83.38
394.556	65.38
394.78	90.38
395.005	86.38
395.229	93.38
395.454	86.38
395.678	86.38
395.903	90.38
396.127	79.38
396.352	82.38
396.576	70.38
396.801	89.38
397.025	94.38
397.249	82.38
397.474	85.38
397.698	87.38
397.922	96.38
398.147	82.38
398.371	87.38
398.595	83.38
398.82	76.38
399.044	88.38
399.268	87.38
399.492	81.38
399.717	76.38
399.941	88.38
400.165	82.38
400.389	76.38
400.613	102.38
400.837	84.38
401.062	84.38
401.286	88.38
401.51	77.38
401.734	77.38
401.958	102.38
402.182	116.38
402.406	131.38
402.63	102.38
402.854	82.38
403.078	84.38
403.302	97.38
403.526	78.38
403.75	89.38
403.974	84.38
404.198	78.38
404.422	96.38
404.645	86.38
404.869	76.38
405.093	93.38
405.317	105.38
405.541	93.38
405.765	90.38
405.988	105.38
406.212	134.38
406.436	169.38
406.66	115.38
406.883	107.38
407.107	89.38
407.331	86.38
407.555	76.38
407.778	96.38
408.002	73.38
408.226	92.38
408.449	104.38
408.673	90.38
408.896	90.38
409.12	90.38
409.344	95.38
409.567	97.38
409.791	97.38
410.014	98.38
410.238	96.38
410.461	87.38
410.685	91.38
410.908	88.38
411.132	94.38
411.355	93.38
411.578	83.38
411.802	80.38
412.025	102.38
412.249	101.38
412.472	105.38
412.695	99.38
412.919	88.38
413.142	91.38
413.365	84.38
413.589	88.38
413.812	96.38
414.035	92.38
414.258	102.38
414.482	97.38
414.705	85.38
414.928	100.38
415.151	107.38
415.374	86.38
415.597	93.38
415.821	85.38
416.044	95.38
416.267	102.38
416.49	101.38
416.713	89.38
416.936	100.38
417.159	82.38
417.382	80.38
417.605	90.38
417.828	83.38
418.051	105.38
418.274	96.38
418.497	74.38
418.72	97.38
418.943	92.38
419.166	97.38
419.389	87.38
419.611	84.38
419.834	102.38
420.057	86.38
420.28	85.38
420.503	98.38
420.726	80.38
420.948	86.38
421.171	100.38
421.394	82.38
421.617	98.38
421.839	100.38
422.062	89.38
422.285	76.38
422.507	95.38
422.73	100.38
422.953	96.38
423.175	91.38
423.398	97.38
423.621	80.38
423.843	73.38
424.066	90.38
424.288	96.38
424.511	100.38
424.733	103.38
424.956	101.38
425.178	86.38
425.401	95.38
425.623	111.38
425.846	96.38
426.068	93.38
426.291	93.38
426.513	80.38
426.735	74.38
426.958	99.38
427.18	102.38
427.402	116.38
427.625	121.38
427.847	111.38
428.069	102.38
428.292	96.38
428.514	87.38
428.736	88.38
428.958	82.38
429.181	76.38
429.403	97.38
429.625	91.38
429.847	97.38
430.069	91.38
430.292	87.38
430.514	97.38
430.736	89.38
430.958	73.38
431.18	70.38
431.402	90.38
431.624	96.38
431.846	95.38
432.068	87.38
432.29	85.38
432.512	94.38
432.734	82.38
432.956	98.38
433.178	91.38
433.4	92.38
433.622	72.38
433.844	78.38
434.066	100.38
434.287	95.38
434.509	85.38
434.731	81.38
434.953	82.38
435.175	81.38
435.397	88.38
435.618	90.38
435.84	97.38
436.062	117.38
436.284	85.38
436.505	106.38
436.727	92.38
436.949	99.38
437.17	91.38
437.392	89.38
437.614	106.38
437.835	96.38
438.057	96.38
438.278	101.38
438.5	109.38
438.721	116.38
438.943	92.38
439.165	101.38
439.386	99.38
439.608	82.38
439.829	102.38
440.05	98.38
440.272	116.38
440.493	88.38
440.715	90.38
440.936	89.38
441.158	105.38
441.379	88.38
441.6	76.38
441.822	72.38
442.043	102.38
442.264	96.38
442.486	89.38
442.707	82.38
442.928	92.38
443.149	115.38
443.371	93.38
443.592	90.38
443.813	90.38
444.034	94.38
444.255	85.38
444.476	92.38
444.698	85.38
444.919	78.38
445.14	129.38
445.361	133.38
445.582	107.38
445.803	107.38
446.024	125.38
446.245	110.38
446.466	106.38
446.687	84.38
446.908	82.38
447.129	80.38
447.35	99.38
447.571	101.38
447.792	88.38
448.013	103.38
448.234	96.38
448.455	93.38
448.675	104.38
448.896	93.38
449.117	108.38
449.338	101.38
449.559	116.38
449.779	120.38
450	83.38
450.221	84.38
450.442	82.38
450.662	89.38
450.883	88.38
451.104	99.38
451.324	100.38
451.545	82.38
451.766	89.38
451.986	83.38
452.207	93.38
452.428	79.38
452.648	82.38
452.869	116.38
453.089	110.38
453.31	93.38
453.53	94.38
453.751	99.38
453.971	91.38
454.192	109.38
454.412	79.38
454.633	75.38
454.853	74.38
455.073	78.38
455.294	90.38
455.514	104.38
455.734	89.38
455.955	83.38
456.175	85.38
456.395	89.38
456.616	87.38
456.836	85.38
457.056	83.38
457.276	83.38
457.497	73.38
457.717	82.38
457.937	94.38
458.157	92.38
458.377	83.38
458.598	110.38
458.818	116.38
459.038	125.38
459.258	91.38
459.478	84.38
459.698	85.38
459.918	87.38
460.138	85.38
460.358	83.38
460.578	89.38
460.798	68.38
461.018	84.38
461.238	87.38
461.458	92.38
461.678	79.38
461.898	89.38
462.118	85.38
462.338	92.38
462.558	92.38
462.777	82.38
462.997	84.38
463.217	90.38
463.437	96.38
463.657	83.38
463.876	91.38
464.096	103.38
464.316	87.38
464.536	85.38
464.755	81.38
464.975	90.38
465.195	129.38
465.414	124.38
465.634	92.38
465.854	88.38
466.073	88.38
466.293	80.38
466.512	77.38
466.732	75.38
466.951	81.38
467.171	93.38
467.391	86.38
467.61	95.38
467.829	82.38
468.049	113.38
468.268	94.38
468.488	96.38
468.707	93.38
468.927	92.38
469.146	90.38
469.365	87.38
469.585	91.38
469.804	81.38
470.023	94.38
470.243	94.38
470.462	82.38
470.681	93.38
470.901	76.38
471.12	86.38
471.339	89.38
471.558	89.38
471.777	93.38
471.997	80.38
472.216	99.38
472.435	118.38
472.654	87.38
472.873	108.38
473.092	88.38
473.311	97.38
473.53	84.38
473.749	80.38
473.968	86.38
474.187	94.38
474.406	92.38
474.625	86.38
474.844	100.38
475.063	108.38
475.282	88.38
475.501	100.38
475.72	107.38
475.939	83.38
476.158	70.38
476.377	90.38
476.596	86.38
476.814	94.38
477.033	74.38
477.252	75.38
477.471	87.38
477.69	86.38
477.908	83.38
478.127	90.38
478.346	93.38
478.564	92.38
478.783	86.38
479.002	93.38
479.22	90.38
479.439	98.38
479.658	94.38
479.876	84.38
480.095	89.38
480.313	90.38
480.532	84.38
480.751	83.38
480.969	115.38
481.188	163.38
481.406	121.38
481.624	88.38
481.843	78.38
482.061	91.38
482.28	77.38
482.498	96.38
482.717	84.38
482.935	97.38
483.153	87.38
483.372	84.38
483.59	89.38
483.808	96.38
484.027	99.38
484.245	104.38
484.463	87.38
484.681	97.38
484.9	94.38
485.118	95.38
485.336	96.38
485.554	98.38
485.772	100.38
485.99	98.38
486.209	104.38
486.427	107.38
486.645	116.38
486.863	114.38
487.081	102.38
487.299	84.38
487.517	89.38
487.735	97.38
487.953	98.38
488.171	91.38
488.389	93.38
488.607	104.38
488.825	75.38
489.043	102.38
489.261	78.38
489.479	98.38
489.696	90.38
489.914	80.38
490.132	85.38
490.35	94.38
490.568	102.38
490.786	96.38
491.003	92.38
491.221	76.38
491.439	99.38
491.657	98.38
491.874	91.38
492.092	84.38
492.31	90.38
492.527	101.38
492.745	88.38
492.963	98.38
493.18	85.38
493.398	84.38
493.615	92.38
493.833	108.38
494.05	87.38
494.268	99.38
494.485	92.38
494.703	86.38
494.92	88.38
495.138	94.38
495.355	93.38
495.573	98.38
495.79	93.38
496.008	93.38
496.225	87.38
496.442	101.38
496.66	94.38
496.877	102.38
497.094	96.38
497.312	90.38
497.529	89.38
497.746	91.38
497.963	102.38
498.181	88.38
498.398	100.38
498.615	95.38
498.832	98.38
499.049	80.38
499.267	87.38
499.484	101.38
499.701	101.38
499.918	84.38
500.135	86.38
500.352	97.38
500.569	100.38
500.786	104.38
501.003	97.38
501.22	82.38
501.437	86.38
501.654	97.38
501.871	102.38
502.088	89.38
502.305	98.38
502.522	62.38
502.739	86.38
502.956	94.38
503.172	93.38
503.389	100.38
503.606	89.38
503.823	95.38
504.04	105.38
504.256	100.38
504.473	100.38
504.69	104.38
504.907	85.38
505.123	91.38
505.34	82.38
505.557	95.38
505.773	97.38
505.99	100.38
506.207	87.38
506.423	86.38
506.64	86.38
506.856	88.38
507.073	95.38
507.289	97.38
507.506	92.38
507.722	108.38
507.939	99.38
508.155	95.38
508.372	95.38
508.588	101.38
508.805	105.38
509.021	97.38
509.238	108.38
509.454	96.38
509.67	112.38
509.887	94.38
510.103	119.38
510.319	172.38
510.536	502.38
510.752	1428.38
510.968	404.38
511.184	118.38
511.401	103.38
511.617	102.38
511.833	95.38
512.049	112.38
512.265	92.38
512.481	85.38
512.698	117.38
512.914	94.38
513.13	89.38
513.346	85.38
513.562	112.38
513.778	89.38
513.994	112.38
514.21	110.38
514.426	100.38
514.642	105.38
514.858	105.38
515.074	136.38
515.29	295.38
515.506	834.38
515.721	326.38
