Data from Uncirc_1982_H10_HRD10591_00033.txt Node
Date: Wed Jan 03 12:29:31 EST 2024
User: Yrep
Spectrometer: HR+D1059
Trigger mode: 1
Integration Time (sec): 1.000000E-1
Scans to average: 1
Electric dark correction enabled: true
Nonlinearity correction enabled: false
Boxcar width: 0
XAxis mode: Wavelengths
Number of Pixels in Spectrum: 2048
>>>>>Begin Spectral Data<<<<<
223.165	-8.88
223.4	-8.88
223.635	-8.88
223.869	-14.88
224.104	-28.88
224.338	-16.88
224.573	-14.88
224.808	-17.88
225.042	-18.88
225.277	0.12
225.511	-2.88
225.746	9.12
225.98	0.12
226.215	18.12
226.449	13.12
226.683	30.12
226.918	22.12
227.152	31.12
227.387	34.12
227.621	38.12
227.856	48.12
228.09	45.12
228.324	33.12
228.559	49.12
228.793	54.12
229.027	62.12
229.262	60.12
229.496	72.12
229.73	72.12
229.964	79.12
230.199	64.12
230.433	63.12
230.667	65.12
230.901	77.12
231.136	72.12
231.37	67.12
231.604	80.12
231.838	69.12
232.072	85.12
232.306	77.12
232.541	82.12
232.775	89.12
233.009	87.12
233.243	83.12
233.477	83.12
233.711	82.12
233.945	83.12
234.179	80.12
234.413	64.12
234.647	77.12
234.881	83.12
235.115	66.12
235.349	73.12
235.583	81.12
235.817	88.12
236.051	79.12
236.285	67.12
236.519	85.12
236.753	75.12
236.987	77.12
237.221	93.12
237.455	81.12
237.689	71.12
237.922	63.12
238.156	69.12
238.39	64.12
238.624	78.12
238.858	65.12
239.091	85.12
239.325	62.12
239.559	79.12
239.793	73.12
240.027	81.12
240.26	70.12
240.494	80.12
240.728	81.12
240.961	71.12
241.195	85.12
241.429	73.12
241.662	53.12
241.896	90.12
242.13	70.12
242.363	85.12
242.597	79.12
242.83	83.12
243.064	58.12
243.298	81.12
243.531	83.12
243.765	63.12
243.998	75.12
244.232	67.12
244.465	82.12
244.699	75.12
244.932	63.12
245.166	79.12
245.399	80.12
245.633	71.12
245.866	68.12
246.099	75.12
246.333	77.12
246.566	71.12
246.8	68.12
247.033	84.12
247.266	72.12
247.5	81.12
247.733	80.12
247.966	75.12
248.2	80.12
248.433	73.12
248.666	71.12
248.899	89.12
249.133	79.12
249.366	97.12
249.599	94.12
249.832	74.12
250.066	85.12
250.299	65.12
250.532	80.12
250.765	96.12
250.998	72.12
251.231	78.12
251.465	89.12
251.698	90.12
251.931	78.12
252.164	71.12
252.397	89.12
252.63	71.12
252.863	72.12
253.096	94.12
253.329	75.12
253.562	85.12
253.795	82.12
254.028	64.12
254.261	84.12
254.494	71.12
254.727	79.12
254.96	77.12
255.193	72.12
255.426	83.12
255.659	74.12
255.892	87.12
256.124	66.12
256.357	89.12
256.59	68.12
256.823	92.12
257.056	59.12
257.289	74.12
257.521	75.12
257.754	85.12
257.987	74.12
258.22	75.12
258.452	63.12
258.685	73.12
258.918	72.12
259.151	66.12
259.383	95.12
259.616	82.12
259.849	68.12
260.081	89.12
260.314	59.12
260.547	74.12
260.779	81.12
261.012	71.12
261.244	85.12
261.477	82.12
261.71	80.12
261.942	90.12
262.175	103.12
262.407	79.12
262.64	75.12
262.872	85.12
263.105	74.12
263.337	83.12
263.57	85.12
263.802	80.12
264.035	91.12
264.267	71.12
264.499	87.12
264.732	75.12
264.964	82.12
265.197	81.12
265.429	70.12
265.661	94.12
265.894	85.12
266.126	80.12
266.358	77.12
266.591	86.12
266.823	82.12
267.055	72.12
267.287	70.12
267.52	81.12
267.752	81.12
267.984	91.12
268.216	81.12
268.448	82.12
268.681	78.12
268.913	75.12
269.145	87.12
269.377	71.12
269.609	81.12
269.841	74.12
270.073	82.12
270.306	74.12
270.538	88.12
270.77	88.12
271.002	66.12
271.234	79.12
271.466	74.12
271.698	85.12
271.93	83.12
272.162	81.12
272.394	84.12
272.626	85.12
272.858	79.12
273.09	84.12
273.322	95.12
273.553	70.12
273.785	83.12
274.017	80.12
274.249	89.12
274.481	65.12
274.713	83.12
274.945	81.12
275.176	77.12
275.408	87.12
275.64	98.12
275.872	82.12
276.104	88.12
276.335	89.12
276.567	93.12
276.799	83.12
277.031	94.12
277.262	94.12
277.494	80.12
277.726	82.12
277.957	81.12
278.189	78.12
278.421	83.12
278.652	83.12
278.884	76.12
279.115	74.12
279.347	81.12
279.579	85.12
279.81	78.12
280.042	90.12
280.273	90.12
280.505	89.12
280.736	87.12
280.968	80.12
281.199	87.12
281.431	67.12
281.662	77.12
281.894	92.12
282.125	92.12
282.356	106.12
282.588	134.12
282.819	120.12
283.051	81.12
283.282	88.12
283.513	85.12
283.745	95.12
283.976	83.12
284.207	97.12
284.439	96.12
284.67	95.12
284.901	79.12
285.132	77.12
285.364	89.12
285.595	77.12
285.826	85.12
286.057	95.12
286.288	94.12
286.52	81.12
286.751	92.12
286.982	86.12
287.213	68.12
287.444	77.12
287.675	86.12
287.906	76.12
288.138	88.12
288.369	82.12
288.6	95.12
288.831	73.12
289.062	91.12
289.293	83.12
289.524	81.12
289.755	90.12
289.986	85.12
290.217	95.12
290.448	87.12
290.679	90.12
290.91	85.12
291.141	91.12
291.371	72.12
291.602	81.12
291.833	79.12
292.064	85.12
292.295	85.12
292.526	92.12
292.757	77.12
292.987	81.12
293.218	73.12
293.449	83.12
293.68	74.12
293.91	83.12
294.141	93.12
294.372	86.12
294.603	83.12
294.833	78.12
295.064	89.12
295.295	85.12
295.525	90.12
295.756	106.12
295.987	106.12
296.217	124.12
296.448	101.12
296.679	97.12
296.909	88.12
297.14	92.12
297.37	89.12
297.601	81.12
297.831	81.12
298.062	68.12
298.292	71.12
298.523	90.12
298.753	93.12
298.984	104.12
299.214	87.12
299.445	93.12
299.675	90.12
299.905	107.12
300.136	95.12
300.366	84.12
300.597	83.12
300.827	81.12
301.057	94.12
301.288	99.12
301.518	88.12
301.748	71.12
301.979	103.12
302.209	81.12
302.439	99.12
302.669	106.12
302.9	90.12
303.13	90.12
303.36	99.12
303.59	105.12
303.82	99.12
304.051	96.12
304.281	87.12
304.511	80.12
304.741	91.12
304.971	93.12
305.201	88.12
305.431	85.12
305.661	97.12
305.891	96.12
306.121	96.12
306.352	90.12
306.582	111.12
306.812	81.12
307.042	93.12
307.272	102.12
307.502	83.12
307.731	93.12
307.961	79.12
308.191	81.12
308.421	80.12
308.651	83.12
308.881	99.12
309.111	85.12
309.341	77.12
309.571	87.12
309.8	94.12
310.03	94.12
310.26	101.12
310.49	79.12
310.72	96.12
310.949	105.12
311.179	90.12
311.409	87.12
311.639	90.12
311.868	91.12
312.098	77.12
312.328	93.12
312.557	91.12
312.787	96.12
313.017	93.12
313.246	91.12
313.476	93.12
313.706	84.12
313.935	101.12
314.165	94.12
314.394	91.12
314.624	90.12
314.853	101.12
315.083	89.12
315.312	100.12
315.542	89.12
315.771	94.12
316.001	106.12
316.23	81.12
316.46	83.12
316.689	91.12
316.919	97.12
317.148	86.12
317.377	90.12
317.607	95.12
317.836	84.12
318.065	89.12
318.295	86.12
318.524	89.12
318.753	90.12
318.983	89.12
319.212	82.12
319.441	84.12
319.67	101.12
319.9	96.12
320.129	85.12
320.358	78.12
320.587	101.12
320.816	93.12
321.046	97.12
321.275	86.12
321.504	97.12
321.733	97.12
321.962	91.12
322.191	92.12
322.42	99.12
322.649	98.12
322.878	98.12
323.108	107.12
323.337	118.12
323.566	125.12
323.795	131.12
324.024	175.12
324.253	335.12
324.482	666.12
324.71	1350.12
324.939	1773.12
325.168	659.12
325.397	222.12
325.626	122.12
325.855	122.12
326.084	114.12
326.313	120.12
326.542	147.12
326.77	217.12
326.999	374.12
327.228	781.12
327.457	1435.12
327.686	1113.12
327.914	303.12
328.143	167.12
328.372	121.12
328.6	104.12
328.829	113.12
329.058	111.12
329.287	108.12
329.515	107.12
329.744	86.12
329.972	97.12
330.201	103.12
330.43	114.12
330.658	106.12
330.887	121.12
331.115	111.12
331.344	94.12
331.572	100.12
331.801	74.12
332.03	91.12
332.258	87.12
332.486	95.12
332.715	105.12
332.943	101.12
333.172	93.12
333.4	89.12
333.629	90.12
333.857	84.12
334.085	98.12
334.314	115.12
334.542	144.12
334.771	119.12
334.999	98.12
335.227	104.12
335.455	93.12
335.684	74.12
335.912	101.12
336.14	113.12
336.369	81.12
336.597	87.12
336.825	98.12
337.053	87.12
337.281	75.12
337.51	83.12
337.738	96.12
337.966	90.12
338.194	82.12
338.422	97.12
338.65	89.12
338.878	81.12
339.106	97.12
339.334	85.12
339.562	85.12
339.79	86.12
340.018	95.12
340.246	85.12
340.474	82.12
340.702	87.12
340.93	77.12
341.158	98.12
341.386	88.12
341.614	100.12
341.842	75.12
342.07	93.12
342.298	86.12
342.526	91.12
342.754	94.12
342.981	91.12
343.209	78.12
343.437	83.12
343.665	97.12
343.893	75.12
344.12	79.12
344.348	82.12
344.576	97.12
344.804	89.12
345.031	80.12
345.259	85.12
345.487	105.12
345.714	87.12
345.942	86.12
346.17	72.12
346.397	85.12
346.625	96.12
346.853	81.12
347.08	81.12
347.308	98.12
347.535	88.12
347.763	94.12
347.99	93.12
348.218	95.12
348.445	99.12
348.673	105.12
348.9	79.12
349.128	99.12
349.355	79.12
349.583	80.12
349.81	85.12
350.037	94.12
350.265	97.12
350.492	91.12
350.72	107.12
350.947	91.12
351.174	98.12
351.402	102.12
351.629	88.12
351.856	89.12
352.083	99.12
352.311	106.12
352.538	109.12
352.765	113.12
352.992	120.12
353.22	91.12
353.447	93.12
353.674	107.12
353.901	93.12
354.128	99.12
354.355	99.12
354.583	91.12
354.81	89.12
355.037	98.12
355.264	101.12
355.491	82.12
355.718	87.12
355.945	96.12
356.172	100.12
356.399	90.12
356.626	80.12
356.853	102.12
357.08	86.12
357.307	85.12
357.534	72.12
357.761	106.12
357.988	91.12
358.215	103.12
358.441	96.12
358.668	92.12
358.895	92.12
359.122	72.12
359.349	77.12
359.576	85.12
359.802	81.12
360.029	104.12
360.256	97.12
360.483	87.12
360.709	85.12
360.936	96.12
361.163	90.12
361.39	98.12
361.616	83.12
361.843	100.12
362.07	99.12
362.296	78.12
362.523	85.12
362.749	89.12
362.976	90.12
363.203	89.12
363.429	82.12
363.656	85.12
363.882	89.12
364.109	90.12
364.335	100.12
364.562	65.12
364.788	69.12
365.015	85.12
365.241	95.12
365.468	95.12
365.694	109.12
365.92	89.12
366.147	93.12
366.373	80.12
366.599	86.12
366.826	93.12
367.052	77.12
367.278	86.12
367.505	89.12
367.731	85.12
367.957	80.12
368.184	88.12
368.41	90.12
368.636	96.12
368.862	110.12
369.089	103.12
369.315	98.12
369.541	86.12
369.767	66.12
369.993	68.12
370.219	82.12
370.445	85.12
370.672	78.12
370.898	79.12
371.124	81.12
371.35	77.12
371.576	78.12
371.802	101.12
372.028	82.12
372.254	91.12
372.48	100.12
372.706	97.12
372.932	96.12
373.158	76.12
373.384	83.12
373.61	86.12
373.835	85.12
374.061	83.12
374.287	84.12
374.513	79.12
374.739	84.12
374.965	88.12
375.191	87.12
375.416	80.12
375.642	80.12
375.868	96.12
376.094	82.12
376.319	74.12
376.545	86.12
376.771	100.12
376.997	93.12
377.222	88.12
377.448	87.12
377.674	79.12
377.899	92.12
378.125	80.12
378.35	89.12
378.576	94.12
378.802	90.12
379.027	95.12
379.253	102.12
379.478	94.12
379.704	92.12
379.929	85.12
380.155	100.12
380.38	85.12
380.606	89.12
380.831	92.12
381.057	113.12
381.282	94.12
381.507	108.12
381.733	100.12
381.958	102.12
382.184	107.12
382.409	97.12
382.634	109.12
382.86	99.12
383.085	103.12
383.31	91.12
383.535	103.12
383.761	95.12
383.986	97.12
384.211	98.12
384.436	99.12
384.662	105.12
384.887	103.12
385.112	97.12
385.337	96.12
385.562	115.12
385.787	101.12
386.013	112.12
386.238	106.12
386.463	105.12
386.688	99.12
386.913	105.12
387.138	109.12
387.363	97.12
387.588	102.12
387.813	85.12
388.038	101.12
388.263	115.12
388.488	103.12
388.713	88.12
388.938	107.12
389.163	106.12
389.387	96.12
389.612	87.12
389.837	86.12
390.062	89.12
390.287	87.12
390.512	100.12
390.736	97.12
390.961	93.12
391.186	99.12
391.411	89.12
391.636	74.12
391.86	79.12
392.085	81.12
392.31	82.12
392.534	88.12
392.759	90.12
392.984	82.12
393.208	84.12
393.433	82.12
393.658	75.12
393.882	88.12
394.107	78.12
394.331	88.12
394.556	87.12
394.78	80.12
395.005	76.12
395.229	95.12
395.454	88.12
395.678	77.12
395.903	85.12
396.127	79.12
396.352	91.12
396.576	93.12
396.801	92.12
397.025	81.12
397.249	71.12
397.474	77.12
397.698	97.12
397.922	85.12
398.147	85.12
398.371	77.12
398.595	74.12
398.82	89.12
399.044	82.12
399.268	89.12
399.492	86.12
399.717	75.12
399.941	86.12
400.165	93.12
400.389	86.12
400.613	91.12
400.837	85.12
401.062	99.12
401.286	74.12
401.51	86.12
401.734	74.12
401.958	96.12
402.182	110.12
402.406	115.12
402.63	92.12
402.854	67.12
403.078	82.12
403.302	81.12
403.526	82.12
403.75	91.12
403.974	79.12
404.198	87.12
404.422	79.12
404.645	87.12
404.869	99.12
405.093	95.12
405.317	93.12
405.541	111.12
405.765	97.12
405.988	97.12
406.212	135.12
406.436	184.12
406.66	118.12
406.883	101.12
407.107	100.12
407.331	73.12
407.555	97.12
407.778	81.12
408.002	84.12
408.226	86.12
408.449	95.12
408.673	106.12
408.896	82.12
409.12	90.12
409.344	86.12
409.567	100.12
409.791	80.12
410.014	93.12
410.238	85.12
410.461	77.12
410.685	86.12
410.908	77.12
411.132	88.12
411.355	80.12
411.578	98.12
411.802	93.12
412.025	85.12
412.249	90.12
412.472	96.12
412.695	102.12
412.919	102.12
413.142	84.12
413.365	90.12
413.589	89.12
413.812	77.12
414.035	82.12
414.258	95.12
414.482	96.12
414.705	80.12
414.928	98.12
415.151	69.12
415.374	105.12
415.597	89.12
415.821	84.12
416.044	80.12
416.267	92.12
416.49	89.12
416.713	86.12
416.936	101.12
417.159	91.12
417.382	93.12
417.605	85.12
417.828	75.12
418.051	95.12
418.274	74.12
418.497	90.12
418.72	86.12
418.943	74.12
419.166	88.12
419.389	91.12
419.611	88.12
419.834	85.12
420.057	84.12
420.28	80.12
420.503	73.12
420.726	91.12
420.948	81.12
421.171	89.12
421.394	72.12
421.617	89.12
421.839	77.12
422.062	82.12
422.285	87.12
422.507	95.12
422.73	93.12
422.953	73.12
423.175	77.12
423.398	88.12
423.621	87.12
423.843	80.12
424.066	75.12
424.288	82.12
424.511	77.12
424.733	96.12
424.956	88.12
425.178	100.12
425.401	94.12
425.623	84.12
425.846	97.12
426.068	96.12
426.291	96.12
426.513	88.12
426.735	99.12
426.958	89.12
427.18	80.12
427.402	100.12
427.625	135.12
427.847	116.12
428.069	94.12
428.292	86.12
428.514	83.12
428.736	65.12
428.958	84.12
429.181	77.12
429.403	87.12
429.625	73.12
429.847	96.12
430.069	86.12
430.292	88.12
430.514	82.12
430.736	93.12
430.958	95.12
431.18	91.12
431.402	77.12
431.624	85.12
431.846	90.12
432.068	90.12
432.29	108.12
432.512	90.12
432.734	73.12
432.956	87.12
433.178	104.12
433.4	89.12
433.622	89.12
433.844	70.12
434.066	95.12
434.287	90.12
434.509	91.12
434.731	99.12
434.953	94.12
435.175	77.12
435.397	97.12
435.618	90.12
435.84	84.12
436.062	102.12
436.284	107.12
436.505	91.12
436.727	98.12
436.949	94.12
437.17	94.12
437.392	83.12
437.614	82.12
437.835	99.12
438.057	107.12
438.278	86.12
438.5	101.12
438.721	98.12
438.943	90.12
439.165	88.12
439.386	88.12
439.608	81.12
439.829	99.12
440.05	115.12
440.272	122.12
440.493	98.12
440.715	87.12
440.936	83.12
441.158	89.12
441.379	81.12
441.6	95.12
441.822	95.12
442.043	90.12
442.264	100.12
442.486	93.12
442.707	77.12
442.928	87.12
443.149	114.12
443.371	93.12
443.592	90.12
443.813	98.12
444.034	98.12
444.255	83.12
444.476	78.12
444.698	87.12
444.919	92.12
445.14	144.12
445.361	110.12
445.582	101.12
445.803	123.12
446.024	111.12
446.245	114.12
446.466	105.12
446.687	97.12
446.908	93.12
447.129	89.12
447.35	87.12
447.571	89.12
447.792	85.12
448.013	80.12
448.234	96.12
448.455	78.12
448.675	98.12
448.896	94.12
449.117	92.12
449.338	107.12
449.559	106.12
449.779	119.12
450	90.12
450.221	80.12
450.442	81.12
450.662	96.12
450.883	116.12
451.104	101.12
451.324	83.12
451.545	89.12
451.766	90.12
451.986	80.12
452.207	87.12
452.428	89.12
452.648	81.12
452.869	108.12
453.089	93.12
453.31	90.12
453.53	98.12
453.751	89.12
453.971	86.12
454.192	100.12
454.412	77.12
454.633	84.12
454.853	82.12
455.073	77.12
455.294	82.12
455.514	74.12
455.734	84.12
455.955	83.12
456.175	83.12
456.395	93.12
456.616	87.12
456.836	75.12
457.056	71.12
457.276	73.12
457.497	77.12
457.717	81.12
457.937	86.12
458.157	96.12
458.377	83.12
458.598	95.12
458.818	119.12
459.038	125.12
459.258	90.12
459.478	76.12
459.698	85.12
459.918	93.12
460.138	77.12
460.358	78.12
460.578	82.12
460.798	87.12
461.018	87.12
461.238	80.12
461.458	85.12
461.678	74.12
461.898	80.12
462.118	79.12
462.338	83.12
462.558	90.12
462.777	90.12
462.997	79.12
463.217	98.12
463.437	80.12
463.657	79.12
463.876	79.12
464.096	85.12
464.316	87.12
464.536	84.12
464.755	91.12
464.975	97.12
465.195	137.12
465.414	142.12
465.634	87.12
465.854	90.12
466.073	93.12
466.293	95.12
466.512	74.12
466.732	94.12
466.951	83.12
467.171	90.12
467.391	94.12
467.61	87.12
467.829	93.12
468.049	99.12
468.268	98.12
468.488	81.12
468.707	96.12
468.927	69.12
469.146	81.12
469.365	83.12
469.585	77.12
469.804	87.12
470.023	84.12
470.243	79.12
470.462	93.12
470.681	103.12
470.901	93.12
471.12	85.12
471.339	82.12
471.558	85.12
471.777	91.12
471.997	86.12
472.216	90.12
472.435	126.12
472.654	79.12
472.873	79.12
473.092	83.12
473.311	78.12
473.53	83.12
473.749	87.12
473.968	106.12
474.187	88.12
474.406	86.12
474.625	97.12
474.844	89.12
475.063	101.12
475.282	92.12
475.501	90.12
475.72	80.12
475.939	93.12
476.158	90.12
476.377	75.12
476.596	77.12
476.814	81.12
477.033	89.12
477.252	73.12
477.471	69.12
477.69	92.12
477.908	90.12
478.127	96.12
478.346	86.12
478.564	83.12
478.783	84.12
479.002	89.12
479.22	93.12
479.439	100.12
479.658	97.12
479.876	101.12
480.095	83.12
480.313	89.12
480.532	98.12
480.751	93.12
480.969	113.12
481.188	192.12
481.406	134.12
481.624	93.12
481.843	85.12
482.061	76.12
482.28	68.12
482.498	104.12
482.717	88.12
482.935	93.12
483.153	82.12
483.372	78.12
483.59	80.12
483.808	93.12
484.027	79.12
484.245	89.12
484.463	95.12
484.681	85.12
484.9	101.12
485.118	92.12
485.336	90.12
485.554	80.12
485.772	98.12
485.99	102.12
486.209	108.12
486.427	98.12
486.645	116.12
486.863	100.12
487.081	94.12
487.299	96.12
487.517	94.12
487.735	93.12
487.953	83.12
488.171	92.12
488.389	96.12
488.607	99.12
488.825	85.12
489.043	102.12
489.261	83.12
489.479	77.12
489.696	83.12
489.914	80.12
490.132	95.12
490.35	80.12
490.568	85.12
490.786	74.12
491.003	84.12
491.221	95.12
491.439	86.12
491.657	95.12
491.874	94.12
492.092	96.12
492.31	91.12
492.527	72.12
492.745	83.12
492.963	88.12
493.18	89.12
493.398	74.12
493.615	94.12
493.833	87.12
494.05	84.12
494.268	75.12
494.485	73.12
494.703	78.12
494.92	99.12
495.138	84.12
495.355	71.12
495.573	90.12
495.79	99.12
496.008	97.12
496.225	76.12
496.442	85.12
496.66	95.12
496.877	89.12
497.094	98.12
497.312	94.12
497.529	82.12
497.746	98.12
497.963	82.12
498.181	97.12
498.398	100.12
498.615	104.12
498.832	106.12
499.049	102.12
499.267	95.12
499.484	73.12
499.701	83.12
499.918	94.12
500.135	92.12
500.352	95.12
500.569	96.12
500.786	102.12
501.003	87.12
501.22	85.12
501.437	82.12
501.654	86.12
501.871	98.12
502.088	86.12
502.305	89.12
502.522	82.12
502.739	98.12
502.956	87.12
503.172	76.12
503.389	84.12
503.606	90.12
503.823	84.12
504.04	85.12
504.256	93.12
504.473	82.12
504.69	66.12
504.907	84.12
505.123	85.12
505.34	96.12
505.557	93.12
505.773	85.12
505.99	96.12
506.207	82.12
506.423	79.12
506.64	83.12
506.856	103.12
507.073	65.12
507.289	96.12
507.506	80.12
507.722	94.12
507.939	107.12
508.155	85.12
508.372	98.12
508.588	70.12
508.805	103.12
509.021	91.12
509.238	95.12
509.454	104.12
509.67	101.12
509.887	117.12
510.103	118.12
510.319	184.12
510.536	648.12
510.752	1924.12
510.968	520.12
511.184	142.12
511.401	98.12
511.617	109.12
511.833	83.12
512.049	102.12
512.265	98.12
512.481	96.12
512.698	87.12
512.914	91.12
513.13	87.12
513.346	97.12
513.562	98.12
513.778	94.12
513.994	97.12
514.21	85.12
514.426	87.12
514.642	122.12
514.858	115.12
515.074	124.12
515.29	364.12
515.506	1095.12
515.721	400.12
515.937	141.12
516.153	89.12
516.369	88.12
516.585	91.12
516.801	90.12
517.016	97.12
517.232	81.12
