Data from Uncirc_1982_H10_HRD10591_00005.txt Node
Date: Wed Jan 03 12:29:26 EST 2024
User: Yrep
Spectrometer: HR+D1059
Trigger mode: 1
Integration Time (sec): 1.000000E-1
Scans to average: 1
Electric dark correction enabled: true
Nonlinearity correction enabled: false
Boxcar width: 0
XAxis mode: Wavelengths
Number of Pixels in Spectrum: 2048
>>>>>Begin Spectral Data<<<<<
223.165	-16.19
223.4	-16.19
223.635	-16.19
223.869	-18.19
224.104	-25.19
224.338	-13.19
224.573	-22.19
224.808	-13.19
225.042	1.81
225.277	0.81
225.511	6.81
225.746	-2.19
225.98	11.81
226.215	9.81
226.449	11.81
226.683	17.81
226.918	27.81
227.152	21.81
227.387	23.81
227.621	36.81
227.856	39.81
228.09	36.81
228.324	57.81
228.559	48.81
228.793	58.81
229.027	62.81
229.262	53.81
229.496	67.81
229.73	84.81
229.964	71.81
230.199	59.81
230.433	64.81
230.667	75.81
230.901	91.81
231.136	79.81
231.37	70.81
231.604	67.81
231.838	85.81
232.072	73.81
232.306	79.81
232.541	87.81
232.775	87.81
233.009	75.81
233.243	84.81
233.477	77.81
233.711	65.81
233.945	82.81
234.179	73.81
234.413	79.81
234.647	79.81
234.881	86.81
235.115	66.81
235.349	70.81
235.583	72.81
235.817	66.81
236.051	74.81
236.285	68.81
236.519	67.81
236.753	67.81
236.987	73.81
237.221	74.81
237.455	65.81
237.689	75.81
237.922	79.81
238.156	65.81
238.39	69.81
238.624	75.81
238.858	69.81
239.091	64.81
239.325	91.81
239.559	77.81
239.793	81.81
240.027	82.81
240.26	78.81
240.494	67.81
240.728	87.81
240.961	67.81
241.195	86.81
241.429	72.81
241.662	77.81
241.896	79.81
242.13	71.81
242.363	83.81
242.597	73.81
242.83	68.81
243.064	85.81
243.298	74.81
243.531	93.81
243.765	75.81
243.998	69.81
244.232	77.81
244.465	89.81
244.699	83.81
244.932	82.81
245.166	71.81
245.399	69.81
245.633	72.81
245.866	60.81
246.099	75.81
246.333	85.81
246.566	69.81
246.8	70.81
247.033	87.81
247.266	71.81
247.5	72.81
247.733	80.81
247.966	65.81
248.2	74.81
248.433	81.81
248.666	81.81
248.899	73.81
249.133	69.81
249.366	86.81
249.599	73.81
249.832	95.81
250.066	85.81
250.299	80.81
250.532	81.81
250.765	75.81
250.998	77.81
251.231	91.81
251.465	71.81
251.698	79.81
251.931	81.81
252.164	70.81
252.397	83.81
252.63	80.81
252.863	90.81
253.096	65.81
253.329	77.81
253.562	82.81
253.795	83.81
254.028	72.81
254.261	56.81
254.494	70.81
254.727	82.81
254.96	74.81
255.193	73.81
255.426	97.81
255.659	90.81
255.892	84.81
256.124	74.81
256.357	77.81
256.59	73.81
256.823	85.81
257.056	63.81
257.289	85.81
257.521	70.81
257.754	77.81
257.987	77.81
258.22	80.81
258.452	63.81
258.685	67.81
258.918	88.81
259.151	69.81
259.383	66.81
259.616	84.81
259.849	72.81
260.081	85.81
260.314	85.81
260.547	78.81
260.779	88.81
261.012	84.81
261.244	78.81
261.477	78.81
261.71	98.81
261.942	94.81
262.175	107.81
262.407	82.81
262.64	78.81
262.872	93.81
263.105	81.81
263.337	81.81
263.57	80.81
263.802	77.81
264.035	75.81
264.267	84.81
264.499	79.81
264.732	74.81
264.964	77.81
265.197	83.81
265.429	74.81
265.661	90.81
265.894	79.81
266.126	80.81
266.358	77.81
266.591	89.81
266.823	85.81
267.055	66.81
267.287	79.81
267.52	74.81
267.752	65.81
267.984	87.81
268.216	77.81
268.448	76.81
268.681	82.81
268.913	74.81
269.145	88.81
269.377	75.81
269.609	85.81
269.841	90.81
270.073	84.81
270.306	97.81
270.538	82.81
270.77	80.81
271.002	85.81
271.234	78.81
271.466	66.81
271.698	83.81
271.93	85.81
272.162	71.81
272.394	94.81
272.626	77.81
272.858	79.81
273.09	82.81
273.322	90.81
273.553	105.81
273.785	78.81
274.017	76.81
274.249	85.81
274.481	100.81
274.713	80.81
274.945	91.81
275.176	94.81
275.408	79.81
275.64	94.81
275.872	86.81
276.104	81.81
276.335	99.81
276.567	103.81
276.799	89.81
277.031	80.81
277.262	83.81
277.494	101.81
277.726	84.81
277.957	84.81
278.189	77.81
278.421	85.81
278.652	85.81
278.884	91.81
279.115	78.81
279.347	79.81
279.579	86.81
279.81	73.81
280.042	64.81
280.273	93.81
280.505	80.81
280.736	74.81
280.968	72.81
281.199	91.81
281.431	89.81
281.662	80.81
281.894	68.81
282.125	93.81
282.356	91.81
282.588	112.81
282.819	105.81
283.051	90.81
283.282	79.81
283.513	83.81
283.745	78.81
283.976	89.81
284.207	87.81
284.439	81.81
284.67	87.81
284.901	82.81
285.132	74.81
285.364	81.81
285.595	79.81
285.826	87.81
286.057	74.81
286.288	78.81
286.52	91.81
286.751	86.81
286.982	74.81
287.213	77.81
287.444	83.81
287.675	82.81
287.906	82.81
288.138	91.81
288.369	91.81
288.6	95.81
288.831	75.81
289.062	77.81
289.293	90.81
289.524	92.81
289.755	86.81
289.986	89.81
290.217	87.81
290.448	91.81
290.679	83.81
290.91	94.81
291.141	86.81
291.371	81.81
291.602	83.81
291.833	85.81
292.064	96.81
292.295	81.81
292.526	85.81
292.757	94.81
292.987	85.81
293.218	81.81
293.449	88.81
293.68	84.81
293.91	93.81
294.141	82.81
294.372	89.81
294.603	84.81
294.833	77.81
295.064	85.81
295.295	98.81
295.525	81.81
295.756	93.81
295.987	99.81
296.217	138.81
296.448	105.81
296.679	95.81
296.909	97.81
297.14	87.81
297.37	77.81
297.601	85.81
297.831	87.81
298.062	91.81
298.292	96.81
298.523	78.81
298.753	73.81
298.984	80.81
299.214	82.81
299.445	87.81
299.675	78.81
299.905	85.81
300.136	93.81
300.366	86.81
300.597	88.81
300.827	97.81
301.057	81.81
301.288	90.81
301.518	99.81
301.748	86.81
301.979	99.81
302.209	93.81
302.439	84.81
302.669	86.81
302.9	89.81
303.13	89.81
303.36	88.81
303.59	81.81
303.82	95.81
304.051	71.81
304.281	94.81
304.511	87.81
304.741	78.81
304.971	96.81
305.201	88.81
305.431	97.81
305.661	101.81
305.891	74.81
306.121	85.81
306.352	104.81
306.582	106.81
306.812	103.81
307.042	103.81
307.272	95.81
307.502	82.81
307.731	82.81
307.961	87.81
308.191	81.81
308.421	87.81
308.651	91.81
308.881	85.81
309.111	98.81
309.341	83.81
309.571	99.81
309.8	78.81
310.03	88.81
310.26	105.81
310.49	89.81
310.72	104.81
310.949	89.81
311.179	96.81
311.409	95.81
311.639	98.81
311.868	96.81
312.098	88.81
312.328	104.81
312.557	95.81
312.787	103.81
313.017	90.81
313.246	100.81
313.476	87.81
313.706	86.81
313.935	88.81
314.165	93.81
314.394	89.81
314.624	86.81
314.853	97.81
315.083	89.81
315.312	81.81
315.542	82.81
315.771	88.81
316.001	72.81
316.23	93.81
316.46	76.81
316.689	93.81
316.919	87.81
317.148	93.81
317.377	93.81
317.607	85.81
317.836	88.81
318.065	96.81
318.295	95.81
318.524	88.81
318.753	94.81
318.983	97.81
319.212	113.81
319.441	75.81
319.67	90.81
319.9	96.81
320.129	95.81
320.358	87.81
320.587	85.81
320.816	107.81
321.046	90.81
321.275	83.81
321.504	102.81
321.733	89.81
321.962	100.81
322.191	107.81
322.42	104.81
322.649	101.81
322.878	91.81
323.108	98.81
323.337	110.81
323.566	112.81
323.795	134.81
324.024	153.81
324.253	309.81
324.482	643.81
324.71	1298.81
324.939	1610.81
325.168	610.81
325.397	205.81
325.626	125.81
325.855	119.81
326.084	113.81
326.313	119.81
326.542	125.81
326.77	195.81
326.999	360.81
327.228	744.81
327.457	1341.81
327.686	1055.81
327.914	289.81
328.143	159.81
328.372	123.81
328.6	114.81
328.829	119.81
329.058	115.81
329.287	110.81
329.515	106.81
329.744	106.81
329.972	112.81
330.201	91.81
330.43	110.81
330.658	113.81
330.887	112.81
331.115	116.81
331.344	89.81
331.572	89.81
331.801	95.81
332.03	98.81
332.258	115.81
332.486	80.81
332.715	74.81
332.943	94.81
333.172	95.81
333.4	84.81
333.629	85.81
333.857	93.81
334.085	101.81
334.314	105.81
334.542	115.81
334.771	106.81
334.999	94.81
335.227	90.81
335.455	78.81
335.684	110.81
335.912	89.81
336.14	99.81
336.369	94.81
336.597	95.81
336.825	80.81
337.053	89.81
337.281	80.81
337.51	92.81
337.738	93.81
337.966	87.81
338.194	88.81
338.422	95.81
338.65	90.81
338.878	88.81
339.106	89.81
339.334	109.81
339.562	87.81
339.79	93.81
340.018	94.81
340.246	89.81
340.474	90.81
340.702	86.81
340.93	93.81
341.158	81.81
341.386	86.81
341.614	85.81
341.842	99.81
342.07	91.81
342.298	74.81
342.526	94.81
342.754	85.81
342.981	83.81
343.209	93.81
343.437	89.81
343.665	85.81
343.893	73.81
344.12	84.81
344.348	91.81
344.576	95.81
344.804	76.81
345.031	88.81
345.259	92.81
345.487	88.81
345.714	89.81
345.942	89.81
346.17	88.81
346.397	97.81
346.625	94.81
346.853	94.81
347.08	81.81
347.308	96.81
347.535	82.81
347.763	83.81
347.99	102.81
348.218	89.81
348.445	102.81
348.673	96.81
348.9	86.81
349.128	91.81
349.355	84.81
349.583	93.81
349.81	89.81
350.037	106.81
350.265	82.81
350.492	101.81
350.72	87.81
350.947	95.81
351.174	117.81
351.402	106.81
351.629	99.81
351.856	86.81
352.083	103.81
352.311	93.81
352.538	95.81
352.765	102.81
352.992	97.81
353.22	99.81
353.447	107.81
353.674	97.81
353.901	101.81
354.128	104.81
354.355	89.81
354.583	93.81
354.81	83.81
355.037	96.81
355.264	93.81
355.491	103.81
355.718	97.81
355.945	90.81
356.172	92.81
356.399	94.81
356.626	95.81
356.853	82.81
357.08	96.81
357.307	99.81
357.534	94.81
357.761	99.81
357.988	105.81
358.215	100.81
358.441	101.81
358.668	90.81
358.895	102.81
359.122	90.81
359.349	88.81
359.576	70.81
359.802	80.81
360.029	109.81
360.256	106.81
360.483	88.81
360.709	85.81
360.936	95.81
361.163	98.81
361.39	90.81
361.616	90.81
361.843	86.81
362.07	89.81
362.296	101.81
362.523	85.81
362.749	75.81
362.976	74.81
363.203	102.81
363.429	87.81
363.656	86.81
363.882	90.81
364.109	90.81
364.335	71.81
364.562	86.81
364.788	79.81
365.015	79.81
365.241	99.81
365.468	90.81
365.694	83.81
365.92	86.81
366.147	97.81
366.373	88.81
366.599	89.81
366.826	79.81
367.052	82.81
367.278	78.81
367.505	91.81
367.731	70.81
367.957	90.81
368.184	92.81
368.41	97.81
368.636	110.81
368.862	90.81
369.089	106.81
369.315	87.81
369.541	77.81
369.767	80.81
369.993	89.81
370.219	78.81
370.445	79.81
370.672	81.81
370.898	71.81
371.124	81.81
371.35	93.81
371.576	80.81
371.802	94.81
372.028	89.81
372.254	96.81
372.48	68.81
372.706	104.81
372.932	80.81
373.158	101.81
373.384	83.81
373.61	89.81
373.835	88.81
374.061	81.81
374.287	72.81
374.513	90.81
374.739	69.81
374.965	83.81
375.191	81.81
375.416	95.81
375.642	82.81
375.868	96.81
376.094	87.81
376.319	87.81
376.545	87.81
376.771	81.81
376.997	88.81
377.222	96.81
377.448	89.81
377.674	88.81
377.899	79.81
378.125	90.81
378.35	97.81
378.576	106.81
378.802	95.81
379.027	95.81
379.253	80.81
379.478	103.81
379.704	98.81
379.929	102.81
380.155	105.81
380.38	97.81
380.606	97.81
380.831	95.81
381.057	94.81
381.282	106.81
381.507	104.81
381.733	108.81
381.958	105.81
382.184	110.81
382.409	115.81
382.634	105.81
382.86	115.81
383.085	124.81
383.31	107.81
383.535	112.81
383.761	113.81
383.986	102.81
384.211	119.81
384.436	129.81
384.662	116.81
384.887	117.81
385.112	125.81
385.337	114.81
385.562	120.81
385.787	117.81
386.013	127.81
386.238	141.81
386.463	97.81
386.688	119.81
386.913	139.81
387.138	137.81
387.363	109.81
387.588	93.81
387.813	111.81
388.038	129.81
388.263	127.81
388.488	141.81
388.713	101.81
388.938	93.81
389.163	99.81
389.387	101.81
389.612	98.81
389.837	83.81
390.062	83.81
390.287	92.81
390.512	102.81
390.736	95.81
390.961	94.81
391.186	97.81
391.411	88.81
391.636	87.81
391.86	85.81
392.085	83.81
392.31	82.81
392.534	84.81
392.759	71.81
392.984	84.81
393.208	87.81
393.433	91.81
393.658	85.81
393.882	95.81
394.107	97.81
394.331	79.81
394.556	86.81
394.78	84.81
395.005	86.81
395.229	90.81
395.454	68.81
395.678	82.81
395.903	76.81
396.127	79.81
396.352	83.81
396.576	90.81
396.801	82.81
397.025	93.81
397.249	81.81
397.474	82.81
397.698	82.81
397.922	102.81
398.147	76.81
398.371	88.81
398.595	90.81
398.82	96.81
399.044	85.81
399.268	79.81
399.492	78.81
399.717	81.81
399.941	73.81
400.165	91.81
400.389	78.81
400.613	82.81
400.837	81.81
401.062	78.81
401.286	76.81
401.51	81.81
401.734	79.81
401.958	96.81
402.182	111.81
402.406	123.81
402.63	101.81
402.854	83.81
403.078	76.81
403.302	87.81
403.526	87.81
403.75	93.81
403.974	96.81
404.198	85.81
404.422	90.81
404.645	83.81
404.869	95.81
405.093	87.81
405.317	96.81
405.541	93.81
405.765	86.81
405.988	106.81
406.212	137.81
406.436	143.81
406.66	107.81
406.883	85.81
407.107	89.81
407.331	94.81
407.555	86.81
407.778	93.81
408.002	99.81
408.226	101.81
408.449	90.81
408.673	88.81
408.896	90.81
409.12	105.81
409.344	91.81
409.567	86.81
409.791	96.81
410.014	96.81
410.238	91.81
410.461	100.81
410.685	94.81
410.908	96.81
411.132	98.81
411.355	86.81
411.578	87.81
411.802	85.81
412.025	96.81
412.249	97.81
412.472	101.81
412.695	83.81
412.919	97.81
413.142	89.81
413.365	79.81
413.589	93.81
413.812	96.81
414.035	85.81
414.258	87.81
414.482	74.81
414.705	89.81
414.928	95.81
415.151	93.81
415.374	90.81
415.597	91.81
415.821	80.81
416.044	90.81
416.267	101.81
416.49	98.81
416.713	86.81
416.936	92.81
417.159	82.81
417.382	97.81
417.605	90.81
417.828	102.81
418.051	104.81
418.274	91.81
418.497	103.81
418.72	91.81
418.943	97.81
419.166	91.81
419.389	87.81
419.611	92.81
419.834	85.81
420.057	88.81
420.28	85.81
420.503	77.81
420.726	80.81
420.948	87.81
421.171	92.81
421.394	93.81
421.617	90.81
421.839	83.81
422.062	79.81
422.285	87.81
422.507	88.81
422.73	99.81
422.953	95.81
423.175	78.81
423.398	76.81
423.621	83.81
423.843	87.81
424.066	82.81
424.288	94.81
424.511	82.81
424.733	92.81
424.956	91.81
425.178	89.81
425.401	85.81
425.623	89.81
425.846	89.81
426.068	85.81
426.291	90.81
426.513	99.81
426.735	85.81
426.958	83.81
427.18	96.81
427.402	113.81
427.625	133.81
427.847	93.81
428.069	89.81
428.292	95.81
428.514	89.81
428.736	81.81
428.958	82.81
429.181	79.81
429.403	86.81
429.625	78.81
429.847	86.81
430.069	85.81
430.292	93.81
430.514	102.81
430.736	87.81
430.958	73.81
431.18	86.81
431.402	97.81
431.624	77.81
431.846	95.81
432.068	93.81
432.29	86.81
432.512	91.81
432.734	88.81
432.956	71.81
433.178	79.81
433.4	89.81
433.622	86.81
433.844	79.81
434.066	95.81
434.287	90.81
434.509	80.81
434.731	103.81
434.953	88.81
435.175	87.81
435.397	87.81
435.618	97.81
435.84	96.81
436.062	106.81
436.284	115.81
436.505	97.81
436.727	86.81
436.949	88.81
437.17	89.81
437.392	80.81
437.614	85.81
437.835	97.81
438.057	98.81
438.278	112.81
438.5	90.81
438.721	99.81
438.943	90.81
439.165	85.81
439.386	93.81
439.608	87.81
439.829	98.81
440.05	98.81
440.272	107.81
440.493	90.81
440.715	85.81
440.936	87.81
441.158	81.81
441.379	85.81
441.6	83.81
441.822	99.81
442.043	84.81
442.264	100.81
442.486	88.81
442.707	83.81
442.928	93.81
443.149	106.81
443.371	105.81
443.592	106.81
443.813	106.81
444.034	96.81
444.255	87.81
444.476	86.81
444.698	98.81
444.919	79.81
445.14	135.81
445.361	110.81
445.582	95.81
445.803	113.81
446.024	121.81
446.245	120.81
446.466	113.81
446.687	87.81
446.908	83.81
447.129	91.81
447.35	104.81
447.571	82.81
447.792	84.81
448.013	83.81
448.234	91.81
448.455	90.81
448.675	93.81
448.896	109.81
449.117	91.81
449.338	98.81
449.559	92.81
449.779	119.81
450	84.81
450.221	87.81
450.442	85.81
450.662	86.81
450.883	87.81
451.104	100.81
451.324	97.81
451.545	101.81
451.766	88.81
451.986	79.81
452.207	77.81
452.428	98.81
452.648	83.81
452.869	97.81
453.089	101.81
453.31	99.81
453.53	87.81
453.751	87.81
453.971	97.81
454.192	111.81
454.412	95.81
454.633	80.81
454.853	98.81
455.073	91.81
455.294	89.81
455.514	93.81
455.734	81.81
455.955	78.81
456.175	82.81
456.395	85.81
456.616	95.81
456.836	87.81
457.056	75.81
457.276	80.81
457.497	75.81
457.717	82.81
457.937	89.81
458.157	75.81
458.377	88.81
458.598	87.81
458.818	113.81
459.038	118.81
459.258	93.81
459.478	82.81
459.698	83.81
459.918	91.81
460.138	77.81
460.358	83.81
460.578	87.81
460.798	89.81
461.018	80.81
461.238	81.81
461.458	79.81
461.678	90.81
461.898	91.81
462.118	91.81
462.338	75.81
462.558	81.81
462.777	85.81
462.997	79.81
463.217	75.81
463.437	83.81
463.657	74.81
463.876	97.81
464.096	90.81
464.316	95.81
464.536	99.81
464.755	75.81
464.975	90.81
465.195	120.81
465.414	125.81
465.634	81.81
465.854	99.81
466.073	94.81
466.293	94.81
466.512	70.81
466.732	80.81
466.951	89.81
467.171	103.81
467.391	74.81
467.61	85.81
467.829	97.81
468.049	76.81
468.268	103.81
468.488	85.81
468.707	88.81
468.927	84.81
469.146	77.81
469.365	85.81
469.585	87.81
469.804	83.81
470.023	96.81
470.243	87.81
470.462	90.81
470.681	91.81
470.901	72.81
471.12	88.81
471.339	96.81
471.558	77.81
471.777	81.81
471.997	88.81
472.216	94.81
472.435	114.81
472.654	89.81
472.873	90.81
473.092	86.81
473.311	85.81
473.53	86.81
473.749	89.81
473.968	77.81
474.187	85.81
474.406	95.81
474.625	82.81
474.844	87.81
475.063	69.81
475.282	79.81
475.501	83.81
475.72	94.81
475.939	81.81
476.158	76.81
476.377	80.81
476.596	97.81
476.814	84.81
477.033	77.81
477.252	87.81
477.471	66.81
477.69	79.81
477.908	73.81
478.127	95.81
478.346	83.81
478.564	90.81
478.783	96.81
479.002	89.81
479.22	85.81
479.439	75.81
479.658	93.81
479.876	79.81
480.095	77.81
480.313	89.81
480.532	94.81
480.751	88.81
480.969	113.81
481.188	161.81
481.406	147.81
481.624	102.81
481.843	85.81
482.061	87.81
482.28	101.81
482.498	86.81
482.717	92.81
482.935	79.81
483.153	81.81
483.372	98.81
483.59	93.81
483.808	86.81
484.027	95.81
484.245	86.81
484.463	91.81
484.681	112.81
484.9	93.81
485.118	93.81
485.336	77.81
485.554	96.81
485.772	97.81
485.99	108.81
486.209	118.81
486.427	105.81
486.645	83.81
486.863	109.81
487.081	117.81
487.299	107.81
487.517	91.81
487.735	81.81
487.953	104.81
488.171	85.81
488.389	97.81
488.607	89.81
488.825	98.81
489.043	98.81
489.261	91.81
489.479	85.81
489.696	99.81
489.914	84.81
490.132	77.81
490.35	97.81
490.568	96.81
490.786	90.81
491.003	93.81
491.221	79.81
491.439	77.81
491.657	86.81
491.874	93.81
492.092	85.81
492.31	85.81
492.527	95.81
492.745	102.81
492.963	91.81
493.18	80.81
493.398	84.81
493.615	100.81
493.833	90.81
494.05	104.81
494.268	82.81
494.485	90.81
494.703	73.81
494.92	99.81
495.138	85.81
495.355	78.81
495.573	89.81
495.79	95.81
496.008	77.81
496.225	96.81
496.442	105.81
496.66	99.81
496.877	79.81
497.094	101.81
497.312	81.81
497.529	95.81
497.746	94.81
497.963	83.81
498.181	90.81
498.398	91.81
498.615	103.81
498.832	94.81
499.049	103.81
499.267	90.81
499.484	74.81
499.701	86.81
499.918	103.81
500.135	79.81
500.352	91.81
500.569	88.81
500.786	99.81
501.003	81.81
501.22	74.81
501.437	81.81
501.654	79.81
501.871	106.81
502.088	89.81
502.305	87.81
502.522	86.81
502.739	93.81
502.956	91.81
503.172	92.81
503.389	93.81
503.606	97.81
503.823	85.81
504.04	81.81
504.256	78.81
504.473	86.81
504.69	67.81
504.907	90.81
505.123	93.81
505.34	85.81
505.557	84.81
505.773	104.81
505.99	78.81
506.207	98.81
506.423	82.81
506.64	83.81
506.856	86.81
507.073	102.81
507.289	87.81
507.506	93.81
507.722	94.81
507.939	86.81
508.155	98.81
508.372	79.81
508.588	92.81
508.805	93.81
509.021	84.81
509.238	97.81
509.454	100.81
509.67	94.81
509.887	93.81
510.103	105.81
510.319	171.81
510.536	555.81
510.752	1525.81
510.968	448.81
511.184	131.81
511.401	99.81
511.617	99.81
511.833	75.81
512.049	84.81
512.265	92.81
512.481	97.81
512.698	94.81
512.914	101.81
513.13	106.81
513.346	89.81
513.562	79.81
513.778	106.81
513.994	91.81
514.21	76.81
514.426	99.81
514.642	121.81
514.858	117.81
515.074	136.81
515.29	308.81
515.506	877.81
515.721	350.81
515.937	120.81
516.153	93.81
516.369	112.81
516.585	94.81
516.801	96.81
517.016	91.81
