Data from Uncirc_1982_H10_HRD10591_00019.txt Node
Date: Wed Jan 03 12:29:28 EST 2024
User: Yrep
Spectrometer: HR+D1059
Trigger mode: 1
Integration Time (sec): 1.000000E-1
Scans to average: 1
Electric dark correction enabled: true
Nonlinearity correction enabled: false
Boxcar width: 0
XAxis mode: Wavelengths
Number of Pixels in Spectrum: 2048
>>>>>Begin Spectral Data<<<<<
223.165	-24.12
223.4	-24.12
223.635	-24.12
223.869	-11.12
224.104	-23.12
224.338	-17.12
224.573	-15.12
224.808	-5.12
225.042	-10.12
225.277	-8.12
225.511	0.88
225.746	3.88
225.98	12.88
226.215	21.88
226.449	15.88
226.683	17.88
226.918	20.88
227.152	19.88
227.387	24.88
227.621	39.88
227.856	46.88
228.09	44.88
228.324	39.88
228.559	48.88
228.793	67.88
229.027	54.88
229.262	61.88
229.496	61.88
229.73	66.88
229.964	84.88
230.199	71.88
230.433	98.88
230.667	81.88
230.901	64.88
231.136	83.88
231.37	73.88
231.604	86.88
231.838	93.88
232.072	74.88
232.306	73.88
232.541	68.88
232.775	74.88
233.009	73.88
233.243	76.88
233.477	67.88
233.711	92.88
233.945	93.88
234.179	82.88
234.413	70.88
234.647	65.88
234.881	70.88
235.115	72.88
235.349	69.88
235.583	73.88
235.817	84.88
236.051	78.88
236.285	69.88
236.519	61.88
236.753	87.88
236.987	74.88
237.221	73.88
237.455	57.88
237.689	70.88
237.922	74.88
238.156	85.88
238.39	79.88
238.624	78.88
238.858	82.88
239.091	67.88
239.325	81.88
239.559	61.88
239.793	79.88
240.027	78.88
240.26	73.88
240.494	77.88
240.728	59.88
240.961	65.88
241.195	69.88
241.429	74.88
241.662	74.88
241.896	75.88
242.13	81.88
242.363	66.88
242.597	93.88
242.83	80.88
243.064	66.88
243.298	66.88
243.531	73.88
243.765	62.88
243.998	73.88
244.232	84.88
244.465	74.88
244.699	65.88
244.932	80.88
245.166	73.88
245.399	71.88
245.633	85.88
245.866	77.88
246.099	70.88
246.333	79.88
246.566	75.88
246.8	70.88
247.033	80.88
247.266	64.88
247.5	65.88
247.733	69.88
247.966	79.88
248.2	70.88
248.433	66.88
248.666	73.88
248.899	82.88
249.133	85.88
249.366	88.88
249.599	86.88
249.832	82.88
250.066	83.88
250.299	68.88
250.532	74.88
250.765	81.88
250.998	70.88
251.231	81.88
251.465	77.88
251.698	68.88
251.931	68.88
252.164	74.88
252.397	72.88
252.63	69.88
252.863	73.88
253.096	78.88
253.329	91.88
253.562	85.88
253.795	78.88
254.028	85.88
254.261	75.88
254.494	74.88
254.727	87.88
254.96	70.88
255.193	75.88
255.426	85.88
255.659	66.88
255.892	83.88
256.124	86.88
256.357	74.88
256.59	79.88
256.823	87.88
257.056	88.88
257.289	82.88
257.521	86.88
257.754	70.88
257.987	78.88
258.22	79.88
258.452	67.88
258.685	69.88
258.918	75.88
259.151	77.88
259.383	82.88
259.616	73.88
259.849	79.88
260.081	82.88
260.314	89.88
260.547	80.88
260.779	81.88
261.012	79.88
261.244	87.88
261.477	96.88
261.71	93.88
261.942	93.88
262.175	94.88
262.407	84.88
262.64	81.88
262.872	77.88
263.105	74.88
263.337	85.88
263.57	78.88
263.802	83.88
264.035	86.88
264.267	75.88
264.499	84.88
264.732	96.88
264.964	96.88
265.197	81.88
265.429	89.88
265.661	89.88
265.894	86.88
266.126	83.88
266.358	67.88
266.591	77.88
266.823	77.88
267.055	81.88
267.287	77.88
267.52	79.88
267.752	86.88
267.984	82.88
268.216	78.88
268.448	81.88
268.681	80.88
268.913	89.88
269.145	62.88
269.377	95.88
269.609	93.88
269.841	86.88
270.073	89.88
270.306	81.88
270.538	80.88
270.77	74.88
271.002	81.88
271.234	81.88
271.466	82.88
271.698	85.88
271.93	68.88
272.162	79.88
272.394	79.88
272.626	74.88
272.858	81.88
273.09	81.88
273.322	85.88
273.553	87.88
273.785	95.88
274.017	94.88
274.249	74.88
274.481	88.88
274.713	70.88
274.945	62.88
275.176	88.88
275.408	82.88
275.64	74.88
275.872	91.88
276.104	89.88
276.335	81.88
276.567	88.88
276.799	86.88
277.031	96.88
277.262	89.88
277.494	99.88
277.726	87.88
277.957	93.88
278.189	93.88
278.421	90.88
278.652	82.88
278.884	77.88
279.115	66.88
279.347	88.88
279.579	75.88
279.81	87.88
280.042	80.88
280.273	81.88
280.505	84.88
280.736	87.88
280.968	95.88
281.199	73.88
281.431	81.88
281.662	83.88
281.894	83.88
282.125	84.88
282.356	99.88
282.588	116.88
282.819	103.88
283.051	90.88
283.282	73.88
283.513	90.88
283.745	82.88
283.976	91.88
284.207	84.88
284.439	81.88
284.67	87.88
284.901	71.88
285.132	76.88
285.364	89.88
285.595	96.88
285.826	82.88
286.057	82.88
286.288	75.88
286.52	91.88
286.751	82.88
286.982	73.88
287.213	82.88
287.444	85.88
287.675	91.88
287.906	85.88
288.138	87.88
288.369	99.88
288.6	95.88
288.831	85.88
289.062	91.88
289.293	73.88
289.524	70.88
289.755	94.88
289.986	86.88
290.217	90.88
290.448	87.88
290.679	78.88
290.91	95.88
291.141	80.88
291.371	69.88
291.602	81.88
291.833	79.88
292.064	85.88
292.295	74.88
292.526	84.88
292.757	87.88
292.987	83.88
293.218	89.88
293.449	85.88
293.68	91.88
293.91	82.88
294.141	80.88
294.372	93.88
294.603	67.88
294.833	68.88
295.064	89.88
295.295	83.88
295.525	81.88
295.756	93.88
295.987	104.88
296.217	111.88
296.448	107.88
296.679	73.88
296.909	89.88
297.14	72.88
297.37	71.88
297.601	103.88
297.831	93.88
298.062	100.88
298.292	105.88
298.523	80.88
298.753	93.88
298.984	80.88
299.214	79.88
299.445	98.88
299.675	96.88
299.905	89.88
300.136	81.88
300.366	90.88
300.597	77.88
300.827	68.88
301.057	84.88
301.288	95.88
301.518	80.88
301.748	89.88
301.979	106.88
302.209	79.88
302.439	86.88
302.669	79.88
302.9	87.88
303.13	88.88
303.36	88.88
303.59	102.88
303.82	105.88
304.051	96.88
304.281	85.88
304.511	93.88
304.741	84.88
304.971	82.88
305.201	87.88
305.431	72.88
305.661	89.88
305.891	77.88
306.121	85.88
306.352	84.88
306.582	89.88
306.812	87.88
307.042	105.88
307.272	98.88
307.502	100.88
307.731	95.88
307.961	81.88
308.191	78.88
308.421	95.88
308.651	91.88
308.881	96.88
309.111	83.88
309.341	82.88
309.571	87.88
309.8	88.88
310.03	103.88
310.26	86.88
310.49	83.88
310.72	92.88
310.949	89.88
311.179	93.88
311.409	82.88
311.639	85.88
311.868	82.88
312.098	83.88
312.328	86.88
312.557	87.88
312.787	97.88
313.017	91.88
313.246	86.88
313.476	91.88
313.706	84.88
313.935	85.88
314.165	97.88
314.394	90.88
314.624	93.88
314.853	101.88
315.083	101.88
315.312	82.88
315.542	96.88
315.771	80.88
316.001	90.88
316.23	83.88
316.46	94.88
316.689	88.88
316.919	91.88
317.148	72.88
317.377	81.88
317.607	88.88
317.836	96.88
318.065	91.88
318.295	68.88
318.524	85.88
318.753	93.88
318.983	103.88
319.212	88.88
319.441	65.88
319.67	100.88
319.9	99.88
320.129	87.88
320.358	97.88
320.587	101.88
320.816	81.88
321.046	102.88
321.275	93.88
321.504	95.88
321.733	90.88
321.962	82.88
322.191	88.88
322.42	97.88
322.649	111.88
322.878	93.88
323.108	106.88
323.337	105.88
323.566	121.88
323.795	120.88
324.024	170.88
324.253	313.88
324.482	671.88
324.71	1350.88
324.939	1717.88
325.168	649.88
325.397	205.88
325.626	130.88
325.855	118.88
326.084	118.88
326.313	127.88
326.542	137.88
326.77	200.88
326.999	378.88
327.228	773.88
327.457	1346.88
327.686	1109.88
327.914	311.88
328.143	159.88
328.372	119.88
328.6	102.88
328.829	106.88
329.058	105.88
329.287	105.88
329.515	91.88
329.744	98.88
329.972	93.88
330.201	89.88
330.43	116.88
330.658	108.88
330.887	119.88
331.115	107.88
331.344	101.88
331.572	102.88
331.801	97.88
332.03	102.88
332.258	93.88
332.486	79.88
332.715	95.88
332.943	98.88
333.172	76.88
333.4	90.88
333.629	91.88
333.857	103.88
334.085	101.88
334.314	113.88
334.542	114.88
334.771	106.88
334.999	87.88
335.227	91.88
335.455	95.88
335.684	89.88
335.912	87.88
336.14	86.88
336.369	101.88
336.597	89.88
336.825	107.88
337.053	83.88
337.281	92.88
337.51	87.88
337.738	89.88
337.966	83.88
338.194	90.88
338.422	85.88
338.65	83.88
338.878	84.88
339.106	83.88
339.334	86.88
339.562	72.88
339.79	81.88
340.018	98.88
340.246	79.88
340.474	79.88
340.702	103.88
340.93	84.88
341.158	84.88
341.386	100.88
341.614	83.88
341.842	80.88
342.07	89.88
342.298	72.88
342.526	105.88
342.754	98.88
342.981	77.88
343.209	78.88
343.437	93.88
343.665	77.88
343.893	86.88
344.12	85.88
344.348	82.88
344.576	80.88
344.804	104.88
345.031	101.88
345.259	95.88
345.487	85.88
345.714	82.88
345.942	91.88
346.17	99.88
346.397	93.88
346.625	85.88
346.853	89.88
347.08	98.88
347.308	93.88
347.535	85.88
347.763	77.88
347.99	90.88
348.218	101.88
348.445	85.88
348.673	98.88
348.9	79.88
349.128	90.88
349.355	89.88
349.583	93.88
349.81	77.88
350.037	78.88
350.265	85.88
350.492	102.88
350.72	93.88
350.947	85.88
351.174	92.88
351.402	93.88
351.629	86.88
351.856	93.88
352.083	92.88
352.311	101.88
352.538	95.88
352.765	102.88
352.992	101.88
353.22	104.88
353.447	87.88
353.674	105.88
353.901	103.88
354.128	89.88
354.355	92.88
354.583	91.88
354.81	89.88
355.037	90.88
355.264	104.88
355.491	84.88
355.718	88.88
355.945	91.88
356.172	101.88
356.399	97.88
356.626	98.88
356.853	100.88
357.08	95.88
357.307	86.88
357.534	82.88
357.761	91.88
357.988	87.88
358.215	113.88
358.441	99.88
358.668	103.88
358.895	86.88
359.122	88.88
359.349	97.88
359.576	96.88
359.802	91.88
360.029	94.88
360.256	96.88
360.483	94.88
360.709	80.88
360.936	82.88
361.163	93.88
361.39	91.88
361.616	90.88
361.843	77.88
362.07	83.88
362.296	85.88
362.523	99.88
362.749	96.88
362.976	88.88
363.203	91.88
363.429	83.88
363.656	83.88
363.882	82.88
364.109	86.88
364.335	72.88
364.562	81.88
364.788	83.88
365.015	90.88
365.241	86.88
365.468	88.88
365.694	83.88
365.92	96.88
366.147	89.88
366.373	83.88
366.599	77.88
366.826	64.88
367.052	89.88
367.278	81.88
367.505	75.88
367.731	84.88
367.957	95.88
368.184	86.88
368.41	102.88
368.636	96.88
368.862	101.88
369.089	97.88
369.315	90.88
369.541	86.88
369.767	74.88
369.993	97.88
370.219	87.88
370.445	86.88
370.672	87.88
370.898	81.88
371.124	72.88
371.35	83.88
371.576	91.88
371.802	92.88
372.028	89.88
372.254	94.88
372.48	89.88
372.706	96.88
372.932	95.88
373.158	76.88
373.384	74.88
373.61	81.88
373.835	91.88
374.061	65.88
374.287	81.88
374.513	87.88
374.739	84.88
374.965	96.88
375.191	80.88
375.416	69.88
375.642	84.88
375.868	97.88
376.094	102.88
376.319	82.88
376.545	83.88
376.771	74.88
376.997	81.88
377.222	74.88
377.448	81.88
377.674	84.88
377.899	80.88
378.125	95.88
378.35	94.88
378.576	91.88
378.802	95.88
379.027	106.88
379.253	86.88
379.478	83.88
379.704	86.88
379.929	95.88
380.155	89.88
380.38	94.88
380.606	98.88
380.831	92.88
381.057	87.88
381.282	89.88
381.507	84.88
381.733	103.88
381.958	87.88
382.184	96.88
382.409	108.88
382.634	93.88
382.86	86.88
383.085	109.88
383.31	101.88
383.535	95.88
383.761	106.88
383.986	102.88
384.211	99.88
384.436	113.88
384.662	107.88
384.887	119.88
385.112	105.88
385.337	100.88
385.562	121.88
385.787	107.88
386.013	113.88
386.238	131.88
386.463	104.88
386.688	100.88
386.913	125.88
387.138	107.88
387.363	108.88
387.588	96.88
387.813	101.88
388.038	106.88
388.263	111.88
388.488	119.88
388.713	106.88
388.938	95.88
389.163	106.88
389.387	84.88
389.612	93.88
389.837	91.88
390.062	89.88
390.287	87.88
390.512	89.88
390.736	75.88
390.961	78.88
391.186	97.88
391.411	98.88
391.636	92.88
391.86	78.88
392.085	87.88
392.31	70.88
392.534	67.88
392.759	87.88
392.984	82.88
393.208	87.88
393.433	85.88
393.658	86.88
393.882	83.88
394.107	85.88
394.331	85.88
394.556	81.88
394.78	87.88
395.005	80.88
395.229	64.88
395.454	82.88
395.678	85.88
395.903	89.88
396.127	88.88
396.352	97.88
396.576	86.88
396.801	85.88
397.025	81.88
397.249	80.88
397.474	79.88
397.698	69.88
397.922	86.88
398.147	85.88
398.371	91.88
398.595	84.88
398.82	71.88
399.044	71.88
399.268	77.88
399.492	78.88
399.717	73.88
399.941	69.88
400.165	96.88
400.389	87.88
400.613	85.88
400.837	89.88
401.062	88.88
401.286	80.88
401.51	78.88
401.734	86.88
401.958	90.88
402.182	96.88
402.406	119.88
402.63	104.88
402.854	88.88
403.078	85.88
403.302	74.88
403.526	89.88
403.75	74.88
403.974	80.88
404.198	77.88
404.422	73.88
404.645	77.88
404.869	82.88
405.093	93.88
405.317	98.88
405.541	97.88
405.765	90.88
405.988	102.88
406.212	151.88
406.436	167.88
406.66	95.88
406.883	98.88
407.107	77.88
407.331	83.88
407.555	84.88
407.778	78.88
408.002	85.88
408.226	83.88
408.449	72.88
408.673	77.88
408.896	93.88
409.12	98.88
409.344	88.88
409.567	89.88
409.791	88.88
410.014	104.88
410.238	94.88
410.461	84.88
410.685	96.88
410.908	88.88
411.132	103.88
411.355	77.88
411.578	87.88
411.802	86.88
412.025	90.88
412.249	83.88
412.472	88.88
412.695	89.88
412.919	81.88
413.142	94.88
413.365	78.88
413.589	87.88
413.812	72.88
414.035	84.88
414.258	83.88
414.482	89.88
414.705	78.88
414.928	85.88
415.151	80.88
415.374	97.88
415.597	86.88
415.821	89.88
416.044	100.88
416.267	87.88
416.49	87.88
416.713	89.88
416.936	109.88
417.159	72.88
417.382	70.88
417.605	92.88
417.828	90.88
418.051	85.88
418.274	81.88
418.497	82.88
418.72	95.88
418.943	77.88
419.166	97.88
419.389	83.88
419.611	91.88
419.834	90.88
420.057	95.88
420.28	79.88
420.503	89.88
420.726	82.88
420.948	77.88
421.171	82.88
421.394	83.88
421.617	81.88
421.839	86.88
422.062	74.88
422.285	85.88
422.507	95.88
422.73	82.88
422.953	89.88
423.175	84.88
423.398	90.88
423.621	90.88
423.843	96.88
424.066	79.88
424.288	92.88
424.511	99.88
424.733	83.88
424.956	86.88
425.178	87.88
425.401	86.88
425.623	97.88
425.846	94.88
426.068	80.88
426.291	85.88
426.513	91.88
426.735	90.88
426.958	89.88
427.18	106.88
427.402	109.88
427.625	122.88
427.847	125.88
428.069	106.88
428.292	95.88
428.514	71.88
428.736	90.88
428.958	63.88
429.181	81.88
429.403	91.88
429.625	78.88
429.847	78.88
430.069	91.88
430.292	84.88
430.514	80.88
430.736	72.88
430.958	85.88
431.18	93.88
431.402	93.88
431.624	88.88
431.846	83.88
432.068	75.88
432.29	77.88
432.512	103.88
432.734	96.88
432.956	83.88
433.178	92.88
433.4	83.88
433.622	86.88
433.844	98.88
434.066	93.88
434.287	79.88
434.509	90.88
434.731	77.88
434.953	93.88
435.175	72.88
435.397	104.88
435.618	98.88
435.84	90.88
436.062	108.88
436.284	97.88
436.505	98.88
436.727	89.88
436.949	81.88
437.17	81.88
437.392	63.88
437.614	89.88
437.835	93.88
438.057	97.88
438.278	78.88
438.5	95.88
438.721	108.88
438.943	93.88
439.165	97.88
439.386	73.88
439.608	89.88
439.829	86.88
440.05	110.88
440.272	105.88
440.493	93.88
440.715	91.88
440.936	96.88
441.158	82.88
441.379	78.88
441.6	89.88
441.822	89.88
442.043	86.88
442.264	89.88
442.486	85.88
442.707	80.88
442.928	99.88
443.149	105.88
443.371	110.88
443.592	89.88
443.813	95.88
444.034	92.88
444.255	84.88
444.476	84.88
444.698	82.88
444.919	76.88
445.14	113.88
445.361	112.88
445.582	97.88
445.803	102.88
446.024	125.88
446.245	113.88
446.466	105.88
446.687	88.88
446.908	74.88
447.129	77.88
447.35	83.88
447.571	78.88
447.792	81.88
448.013	104.88
448.234	79.88
448.455	89.88
448.675	99.88
448.896	104.88
449.117	78.88
449.338	97.88
449.559	103.88
449.779	119.88
450	100.88
450.221	84.88
450.442	78.88
450.662	87.88
450.883	90.88
451.104	89.88
451.324	89.88
451.545	95.88
451.766	77.88
451.986	85.88
452.207	86.88
452.428	95.88
452.648	97.88
452.869	86.88
453.089	89.88
453.31	116.88
453.53	88.88
453.751	90.88
453.971	101.88
454.192	88.88
454.412	103.88
454.633	94.88
454.853	90.88
455.073	72.88
455.294	79.88
455.514	93.88
455.734	91.88
455.955	72.88
456.175	81.88
456.395	74.88
456.616	72.88
456.836	89.88
457.056	88.88
457.276	83.88
457.497	82.88
457.717	90.88
457.937	82.88
458.157	94.88
458.377	71.88
458.598	93.88
458.818	101.88
459.038	117.88
459.258	103.88
459.478	90.88
459.698	77.88
459.918	86.88
460.138	81.88
460.358	67.88
460.578	98.88
460.798	89.88
461.018	89.88
461.238	82.88
461.458	86.88
461.678	77.88
461.898	93.88
462.118	88.88
462.338	97.88
462.558	84.88
462.777	88.88
462.997	88.88
463.217	85.88
463.437	78.88
463.657	70.88
463.876	90.88
464.096	74.88
464.316	90.88
464.536	88.88
464.755	99.88
464.975	100.88
465.195	127.88
465.414	118.88
465.634	87.88
465.854	77.88
466.073	87.88
466.293	81.88
466.512	85.88
466.732	92.88
466.951	98.88
467.171	84.88
467.391	99.88
467.61	99.88
467.829	84.88
468.049	79.88
468.268	101.88
468.488	81.88
468.707	76.88
468.927	79.88
469.146	82.88
469.365	83.88
469.585	86.88
469.804	84.88
470.023	84.88
470.243	95.88
470.462	88.88
470.681	93.88
470.901	92.88
471.12	93.88
471.339	92.88
471.558	72.88
471.777	85.88
471.997	78.88
472.216	113.88
472.435	111.88
472.654	86.88
472.873	84.88
473.092	82.88
473.311	73.88
473.53	82.88
473.749	91.88
473.968	91.88
474.187	86.88
474.406	93.88
474.625	90.88
474.844	83.88
475.063	89.88
475.282	91.88
475.501	80.88
475.72	85.88
475.939	87.88
476.158	91.88
476.377	85.88
476.596	86.88
476.814	83.88
477.033	96.88
477.252	75.88
477.471	74.88
477.69	91.88
477.908	77.88
478.127	97.88
478.346	85.88
478.564	107.88
478.783	81.88
479.002	89.88
479.22	87.88
479.439	81.88
479.658	77.88
479.876	98.88
480.095	83.88
480.313	91.88
480.532	96.88
480.751	83.88
480.969	97.88
481.188	160.88
481.406	137.88
481.624	100.88
481.843	80.88
482.061	105.88
482.28	89.88
482.498	91.88
482.717	98.88
482.935	88.88
483.153	98.88
483.372	86.88
483.59	85.88
483.808	80.88
484.027	97.88
484.245	89.88
484.463	89.88
484.681	98.88
484.9	101.88
485.118	97.88
485.336	101.88
485.554	91.88
485.772	101.88
485.99	110.88
486.209	104.88
486.427	95.88
486.645	107.88
486.863	114.88
487.081	98.88
487.299	93.88
487.517	94.88
487.735	96.88
487.953	95.88
488.171	87.88
488.389	98.88
488.607	111.88
488.825	93.88
489.043	77.88
489.261	79.88
489.479	86.88
489.696	96.88
489.914	96.88
490.132	79.88
490.35	80.88
490.568	95.88
490.786	100.88
491.003	107.88
491.221	82.88
491.439	95.88
491.657	95.88
491.874	80.88
492.092	88.88
492.31	102.88
492.527	90.88
492.745	95.88
492.963	88.88
493.18	75.88
493.398	103.88
493.615	101.88
493.833	73.88
494.05	92.88
494.268	104.88
494.485	99.88
494.703	81.88
494.92	91.88
495.138	85.88
495.355	96.88
495.573	90.88
495.79	80.88
496.008	94.88
496.225	85.88
496.442	97.88
496.66	97.88
496.877	80.88
497.094	90.88
497.312	97.88
497.529	94.88
497.746	92.88
497.963	68.88
498.181	85.88
498.398	83.88
498.615	90.88
498.832	90.88
499.049	93.88
499.267	85.88
499.484	113.88
499.701	94.88
499.918	93.88
500.135	82.88
500.352	71.88
500.569	74.88
500.786	103.88
501.003	80.88
501.22	91.88
501.437	77.88
501.654	101.88
501.871	84.88
502.088	93.88
502.305	90.88
502.522	91.88
502.739	88.88
502.956	96.88
503.172	91.88
503.389	86.88
503.606	95.88
503.823	88.88
504.04	102.88
504.256	93.88
504.473	93.88
504.69	68.88
504.907	78.88
505.123	89.88
505.34	78.88
505.557	90.88
505.773	100.88
505.99	90.88
506.207	86.88
506.423	79.88
506.64	91.88
506.856	82.88
507.073	91.88
507.289	85.88
507.506	92.88
507.722	93.88
507.939	94.88
508.155	88.88
508.372	87.88
508.588	91.88
508.805	94.88
509.021	98.88
509.238	86.88
509.454	102.88
509.67	99.88
509.887	99.88
510.103	119.88
510.319	177.88
510.536	574.88
510.752	1605.88
510.968	466.88
511.184	130.88
511.401	80.88
511.617	101.88
511.833	87.88
512.049	79.88
512.265	95.88
512.481	86.88
512.698	96.88
512.914	86.88
513.13	86.88
513.346	91.88
513.562	81.88
513.778	85.88
513.994	93.88
514.21	98.88
514.426	87.88
514.642	118.88
514.858	131.88
515.074	140.88
515.29	326.88
515.506	918.88
515.721	333.88
515.937	125.88
516.153	124.88
516.369	86.88
516.585	84.88
516.801	94.88
517.016	97.88
517.232	101.88
