Data from Uncirc_1982_H10_HRD10591_00093.txt Node
Date: Wed Jan 03 12:29:43 EST 2024
User: Yrep
Spectrometer: HR+D1059
Trigger mode: 1
Integration Time (sec): 1.000000E-1
Scans to average: 1
Electric dark correction enabled: true
Nonlinearity correction enabled: false
Boxcar width: 0
XAxis mode: Wavelengths
Number of Pixels in Spectrum: 2048
>>>>>Begin Spectral Data<<<<<
223.165	-12.75
223.4	-12.75
223.635	-12.75
223.869	-21.75
224.104	-9.75
224.338	-12.75
224.573	-17.75
224.808	-27.75
225.042	-3.75
225.277	-12.75
225.511	0.25
225.746	-3.75
225.98	7.25
226.215	8.25
226.449	19.25
226.683	18.25
226.918	31.25
227.152	38.25
227.387	33.25
227.621	53.25
227.856	59.25
228.09	47.25
228.324	57.25
228.559	61.25
228.793	61.25
229.027	78.25
229.262	77.25
229.496	67.25
229.73	77.25
229.964	86.25
230.199	75.25
230.433	79.25
230.667	78.25
230.901	70.25
231.136	74.25
231.37	76.25
231.604	76.25
231.838	94.25
232.072	81.25
232.306	89.25
232.541	73.25
232.775	83.25
233.009	85.25
233.243	68.25
233.477	66.25
233.711	90.25
233.945	79.25
234.179	79.25
234.413	68.25
234.647	74.25
234.881	92.25
235.115	75.25
235.349	70.25
235.583	82.25
235.817	90.25
236.051	73.25
236.285	80.25
236.519	82.25
236.753	83.25
236.987	66.25
237.221	93.25
237.455	84.25
237.689	73.25
237.922	77.25
238.156	89.25
238.39	71.25
238.624	77.25
238.858	71.25
239.091	81.25
239.325	81.25
239.559	89.25
239.793	90.25
240.027	89.25
240.26	85.25
240.494	70.25
240.728	81.25
240.961	90.25
241.195	77.25
241.429	68.25
241.662	69.25
241.896	75.25
242.13	73.25
242.363	74.25
242.597	73.25
242.83	74.25
243.064	97.25
243.298	76.25
243.531	75.25
243.765	96.25
243.998	85.25
244.232	81.25
244.465	89.25
244.699	83.25
244.932	73.25
245.166	99.25
245.399	84.25
245.633	85.25
245.866	84.25
246.099	74.25
246.333	78.25
246.566	88.25
246.8	69.25
247.033	73.25
247.266	87.25
247.5	78.25
247.733	86.25
247.966	81.25
248.2	99.25
248.433	95.25
248.666	87.25
248.899	81.25
249.133	78.25
249.366	107.25
249.599	86.25
249.832	89.25
250.066	81.25
250.299	71.25
250.532	83.25
250.765	81.25
250.998	78.25
251.231	76.25
251.465	79.25
251.698	79.25
251.931	78.25
252.164	83.25
252.397	87.25
252.63	77.25
252.863	77.25
253.096	82.25
253.329	62.25
253.562	84.25
253.795	70.25
254.028	97.25
254.261	77.25
254.494	78.25
254.727	78.25
254.96	68.25
255.193	77.25
255.426	77.25
255.659	81.25
255.892	87.25
256.124	84.25
256.357	96.25
256.59	87.25
256.823	85.25
257.056	92.25
257.289	73.25
257.521	98.25
257.754	75.25
257.987	82.25
258.22	78.25
258.452	82.25
258.685	89.25
258.918	67.25
259.151	83.25
259.383	82.25
259.616	69.25
259.849	79.25
260.081	73.25
260.314	77.25
260.547	74.25
260.779	90.25
261.012	85.25
261.244	81.25
261.477	86.25
261.71	85.25
261.942	94.25
262.175	119.25
262.407	80.25
262.64	93.25
262.872	89.25
263.105	70.25
263.337	83.25
263.57	89.25
263.802	71.25
264.035	87.25
264.267	97.25
264.499	90.25
264.732	81.25
264.964	90.25
265.197	78.25
265.429	81.25
265.661	99.25
265.894	70.25
266.126	75.25
266.358	76.25
266.591	85.25
266.823	93.25
267.055	98.25
267.287	83.25
267.52	81.25
267.752	90.25
267.984	82.25
268.216	84.25
268.448	88.25
268.681	98.25
268.913	93.25
269.145	75.25
269.377	97.25
269.609	83.25
269.841	87.25
270.073	87.25
270.306	76.25
270.538	95.25
270.77	85.25
271.002	88.25
271.234	79.25
271.466	87.25
271.698	74.25
271.93	82.25
272.162	93.25
272.394	83.25
272.626	86.25
272.858	81.25
273.09	73.25
273.322	84.25
273.553	84.25
273.785	74.25
274.017	74.25
274.249	95.25
274.481	91.25
274.713	72.25
274.945	86.25
275.176	94.25
275.408	94.25
275.64	94.25
275.872	77.25
276.104	106.25
276.335	86.25
276.567	89.25
276.799	93.25
277.031	98.25
277.262	93.25
277.494	78.25
277.726	74.25
277.957	94.25
278.189	92.25
278.421	65.25
278.652	91.25
278.884	77.25
279.115	83.25
279.347	82.25
279.579	77.25
279.81	101.25
280.042	73.25
280.273	92.25
280.505	96.25
280.736	83.25
280.968	83.25
281.199	86.25
281.431	79.25
281.662	94.25
281.894	96.25
282.125	87.25
282.356	104.25
282.588	116.25
282.819	98.25
283.051	93.25
283.282	86.25
283.513	87.25
283.745	83.25
283.976	89.25
284.207	94.25
284.439	84.25
284.67	82.25
284.901	68.25
285.132	83.25
285.364	91.25
285.595	101.25
285.826	85.25
286.057	84.25
286.288	91.25
286.52	84.25
286.751	103.25
286.982	94.25
287.213	88.25
287.444	90.25
287.675	93.25
287.906	102.25
288.138	85.25
288.369	85.25
288.6	89.25
288.831	98.25
289.062	89.25
289.293	88.25
289.524	85.25
289.755	84.25
289.986	86.25
290.217	95.25
290.448	74.25
290.679	80.25
290.91	90.25
291.141	81.25
291.371	79.25
291.602	91.25
291.833	95.25
292.064	91.25
292.295	94.25
292.526	94.25
292.757	99.25
292.987	89.25
293.218	100.25
293.449	100.25
293.68	107.25
293.91	74.25
294.141	77.25
294.372	74.25
294.603	90.25
294.833	91.25
295.064	82.25
295.295	99.25
295.525	77.25
295.756	103.25
295.987	100.25
296.217	118.25
296.448	100.25
296.679	88.25
296.909	74.25
297.14	87.25
297.37	84.25
297.601	83.25
297.831	69.25
298.062	92.25
298.292	70.25
298.523	81.25
298.753	80.25
298.984	93.25
299.214	95.25
299.445	86.25
299.675	71.25
299.905	94.25
300.136	93.25
300.366	96.25
300.597	89.25
300.827	91.25
301.057	92.25
301.288	108.25
301.518	91.25
301.748	89.25
301.979	101.25
302.209	86.25
302.439	75.25
302.669	87.25
302.9	83.25
303.13	100.25
303.36	92.25
303.59	108.25
303.82	87.25
304.051	103.25
304.281	82.25
304.511	105.25
304.741	77.25
304.971	79.25
305.201	83.25
305.431	86.25
305.661	98.25
305.891	91.25
306.121	92.25
306.352	87.25
306.582	85.25
306.812	91.25
307.042	91.25
307.272	103.25
307.502	98.25
307.731	93.25
307.961	92.25
308.191	86.25
308.421	84.25
308.651	76.25
308.881	89.25
309.111	101.25
309.341	102.25
309.571	104.25
309.8	89.25
310.03	96.25
310.26	93.25
310.49	87.25
310.72	90.25
310.949	97.25
311.179	83.25
311.409	92.25
311.639	99.25
311.868	90.25
312.098	102.25
312.328	87.25
312.557	96.25
312.787	87.25
313.017	84.25
313.246	83.25
313.476	96.25
313.706	85.25
313.935	95.25
314.165	99.25
314.394	104.25
314.624	100.25
314.853	101.25
315.083	91.25
315.312	116.25
315.542	109.25
315.771	86.25
316.001	92.25
316.23	97.25
316.46	81.25
316.689	93.25
316.919	94.25
317.148	87.25
317.377	76.25
317.607	92.25
317.836	91.25
318.065	90.25
318.295	87.25
318.524	97.25
318.753	100.25
318.983	101.25
319.212	97.25
319.441	101.25
319.67	92.25
319.9	110.25
320.129	97.25
320.358	103.25
320.587	80.25
320.816	89.25
321.046	92.25
321.275	89.25
321.504	87.25
321.733	101.25
321.962	85.25
322.191	95.25
322.42	104.25
322.649	105.25
322.878	103.25
323.108	122.25
323.337	108.25
323.566	114.25
323.795	124.25
324.024	182.25
324.253	310.25
324.482	638.25
324.71	1268.25
324.939	1686.25
325.168	633.25
325.397	202.25
325.626	130.25
325.855	126.25
326.084	105.25
326.313	128.25
326.542	133.25
326.77	191.25
326.999	371.25
327.228	727.25
327.457	1294.25
327.686	1015.25
327.914	300.25
328.143	167.25
328.372	130.25
328.6	121.25
328.829	102.25
329.058	120.25
329.287	98.25
329.515	97.25
329.744	92.25
329.972	78.25
330.201	116.25
330.43	121.25
330.658	98.25
330.887	106.25
331.115	109.25
331.344	88.25
331.572	98.25
331.801	101.25
332.03	85.25
332.258	87.25
332.486	98.25
332.715	102.25
332.943	99.25
333.172	85.25
333.4	81.25
333.629	104.25
333.857	105.25
334.085	104.25
334.314	107.25
334.542	127.25
334.771	122.25
334.999	86.25
335.227	94.25
335.455	94.25
335.684	103.25
335.912	89.25
336.14	97.25
336.369	99.25
336.597	79.25
336.825	79.25
337.053	86.25
337.281	93.25
337.51	104.25
337.738	91.25
337.966	90.25
338.194	102.25
338.422	94.25
338.65	103.25
338.878	94.25
339.106	90.25
339.334	97.25
339.562	91.25
339.79	94.25
340.018	100.25
340.246	101.25
340.474	86.25
340.702	88.25
340.93	93.25
341.158	94.25
341.386	87.25
341.614	84.25
341.842	108.25
342.07	94.25
342.298	94.25
342.526	99.25
342.754	75.25
342.981	99.25
343.209	107.25
343.437	104.25
343.665	102.25
343.893	87.25
344.12	95.25
344.348	87.25
344.576	84.25
344.804	89.25
345.031	97.25
345.259	101.25
345.487	91.25
345.714	95.25
345.942	95.25
346.17	91.25
346.397	98.25
346.625	100.25
346.853	82.25
347.08	109.25
347.308	101.25
347.535	100.25
347.763	97.25
347.99	92.25
348.218	102.25
348.445	90.25
348.673	95.25
348.9	91.25
349.128	97.25
349.355	99.25
349.583	95.25
349.81	100.25
350.037	101.25
350.265	92.25
350.492	85.25
350.72	99.25
350.947	102.25
351.174	101.25
351.402	100.25
351.629	108.25
351.856	109.25
352.083	111.25
352.311	101.25
352.538	99.25
352.765	107.25
352.992	108.25
353.22	102.25
353.447	101.25
353.674	91.25
353.901	88.25
354.128	101.25
354.355	82.25
354.583	95.25
354.81	90.25
355.037	99.25
355.264	95.25
355.491	98.25
355.718	97.25
355.945	97.25
356.172	100.25
356.399	92.25
356.626	79.25
356.853	88.25
357.08	85.25
357.307	86.25
357.534	104.25
357.761	95.25
357.988	95.25
358.215	100.25
358.441	85.25
358.668	86.25
358.895	100.25
359.122	93.25
359.349	84.25
359.576	81.25
359.802	99.25
360.029	102.25
360.256	97.25
360.483	85.25
360.709	94.25
360.936	102.25
361.163	102.25
361.39	96.25
361.616	85.25
361.843	85.25
362.07	102.25
362.296	86.25
362.523	86.25
362.749	90.25
362.976	101.25
363.203	81.25
363.429	93.25
363.656	94.25
363.882	111.25
364.109	96.25
364.335	93.25
364.562	72.25
364.788	85.25
365.015	83.25
365.241	106.25
365.468	110.25
365.694	96.25
365.92	86.25
366.147	89.25
366.373	81.25
366.599	85.25
366.826	97.25
367.052	95.25
367.278	106.25
367.505	103.25
367.731	89.25
367.957	87.25
368.184	75.25
368.41	93.25
368.636	89.25
368.862	96.25
369.089	114.25
369.315	89.25
369.541	85.25
369.767	105.25
369.993	87.25
370.219	87.25
370.445	100.25
370.672	94.25
370.898	81.25
371.124	91.25
371.35	87.25
371.576	88.25
371.802	104.25
372.028	82.25
372.254	86.25
372.48	78.25
372.706	97.25
372.932	89.25
373.158	90.25
373.384	94.25
373.61	109.25
373.835	84.25
374.061	101.25
374.287	75.25
374.513	88.25
374.739	78.25
374.965	82.25
375.191	96.25
375.416	84.25
375.642	98.25
375.868	89.25
376.094	87.25
376.319	91.25
376.545	76.25
376.771	89.25
376.997	76.25
377.222	88.25
377.448	91.25
377.674	89.25
377.899	99.25
378.125	94.25
378.35	85.25
378.576	93.25
378.802	93.25
379.027	88.25
379.253	85.25
379.478	79.25
379.704	85.25
379.929	93.25
380.155	110.25
380.38	90.25
380.606	92.25
380.831	93.25
381.057	94.25
381.282	92.25
381.507	89.25
381.733	95.25
381.958	91.25
382.184	109.25
382.409	111.25
382.634	100.25
382.86	87.25
383.085	104.25
383.31	94.25
383.535	111.25
383.761	108.25
383.986	115.25
384.211	98.25
384.436	109.25
384.662	110.25
384.887	116.25
385.112	83.25
385.337	77.25
385.562	110.25
385.787	108.25
386.013	105.25
386.238	116.25
386.463	110.25
386.688	107.25
386.913	101.25
387.138	106.25
387.363	108.25
387.588	83.25
387.813	104.25
388.038	87.25
388.263	96.25
388.488	97.25
388.713	106.25
388.938	100.25
389.163	96.25
389.387	100.25
389.612	121.25
389.837	107.25
390.062	83.25
390.287	95.25
390.512	97.25
390.736	85.25
390.961	98.25
391.186	95.25
391.411	94.25
391.636	91.25
391.86	86.25
392.085	81.25
392.31	85.25
392.534	98.25
392.759	97.25
392.984	107.25
393.208	78.25
393.433	84.25
393.658	83.25
393.882	91.25
394.107	81.25
394.331	97.25
394.556	83.25
394.78	93.25
395.005	81.25
395.229	84.25
395.454	89.25
395.678	76.25
395.903	95.25
396.127	83.25
396.352	79.25
396.576	87.25
396.801	89.25
397.025	99.25
397.249	105.25
397.474	97.25
397.698	76.25
397.922	98.25
398.147	86.25
398.371	74.25
398.595	89.25
398.82	86.25
399.044	96.25
399.268	105.25
399.492	91.25
399.717	94.25
399.941	88.25
400.165	100.25
400.389	72.25
400.613	92.25
400.837	76.25
401.062	85.25
401.286	92.25
401.51	87.25
401.734	84.25
401.958	112.25
402.182	90.25
402.406	114.25
402.63	103.25
402.854	74.25
403.078	86.25
403.302	87.25
403.526	97.25
403.75	88.25
403.974	92.25
404.198	78.25
404.422	83.25
404.645	83.25
404.869	100.25
405.093	104.25
405.317	98.25
405.541	95.25
405.765	85.25
405.988	124.25
406.212	142.25
406.436	166.25
406.66	108.25
406.883	97.25
407.107	84.25
407.331	83.25
407.555	86.25
407.778	87.25
408.002	89.25
408.226	78.25
408.449	79.25
408.673	98.25
408.896	107.25
409.12	91.25
409.344	89.25
409.567	101.25
409.791	94.25
410.014	95.25
410.238	87.25
410.461	90.25
410.685	91.25
410.908	104.25
411.132	106.25
411.355	99.25
411.578	99.25
411.802	91.25
412.025	94.25
412.249	81.25
412.472	82.25
412.695	96.25
412.919	82.25
413.142	79.25
413.365	88.25
413.589	81.25
413.812	87.25
414.035	88.25
414.258	95.25
414.482	84.25
414.705	94.25
414.928	107.25
415.151	86.25
415.374	101.25
415.597	93.25
415.821	92.25
416.044	91.25
416.267	78.25
416.49	93.25
416.713	83.25
416.936	75.25
417.159	89.25
417.382	92.25
417.605	89.25
417.828	95.25
418.051	86.25
418.274	101.25
418.497	86.25
418.72	78.25
418.943	86.25
419.166	76.25
419.389	88.25
419.611	99.25
419.834	87.25
420.057	89.25
420.28	85.25
420.503	102.25
420.726	85.25
420.948	73.25
421.171	97.25
421.394	102.25
421.617	89.25
421.839	89.25
422.062	104.25
422.285	92.25
422.507	87.25
422.73	92.25
422.953	92.25
423.175	95.25
423.398	94.25
423.621	93.25
423.843	82.25
424.066	85.25
424.288	87.25
424.511	85.25
424.733	93.25
424.956	105.25
425.178	102.25
425.401	97.25
425.623	99.25
425.846	106.25
426.068	88.25
426.291	93.25
426.513	90.25
426.735	96.25
426.958	92.25
427.18	94.25
427.402	113.25
427.625	127.25
427.847	124.25
428.069	107.25
428.292	90.25
428.514	89.25
428.736	96.25
428.958	94.25
429.181	85.25
429.403	90.25
429.625	82.25
429.847	90.25
430.069	80.25
430.292	95.25
430.514	85.25
430.736	82.25
430.958	92.25
431.18	92.25
431.402	83.25
431.624	90.25
431.846	90.25
432.068	98.25
432.29	76.25
432.512	106.25
432.734	99.25
432.956	88.25
433.178	98.25
433.4	105.25
433.622	90.25
433.844	95.25
434.066	94.25
434.287	81.25
434.509	98.25
434.731	77.25
434.953	88.25
435.175	87.25
435.397	86.25
435.618	89.25
435.84	98.25
436.062	111.25
436.284	104.25
436.505	94.25
436.727	102.25
436.949	102.25
437.17	107.25
437.392	91.25
437.614	86.25
437.835	89.25
438.057	94.25
438.278	119.25
438.5	107.25
438.721	107.25
438.943	92.25
439.165	83.25
439.386	87.25
439.608	85.25
439.829	103.25
440.05	109.25
440.272	131.25
440.493	93.25
440.715	84.25
440.936	78.25
441.158	88.25
441.379	85.25
441.6	86.25
441.822	91.25
442.043	97.25
442.264	107.25
442.486	90.25
442.707	83.25
442.928	105.25
443.149	110.25
443.371	103.25
443.592	95.25
443.813	111.25
444.034	95.25
444.255	91.25
444.476	90.25
444.698	86.25
444.919	102.25
445.14	135.25
445.361	103.25
445.582	97.25
445.803	127.25
446.024	111.25
446.245	123.25
446.466	100.25
446.687	78.25
446.908	92.25
447.129	87.25
447.35	97.25
447.571	96.25
447.792	97.25
448.013	87.25
448.234	96.25
448.455	98.25
448.675	113.25
448.896	102.25
449.117	93.25
449.338	85.25
449.559	118.25
449.779	125.25
450	101.25
450.221	92.25
450.442	91.25
450.662	92.25
450.883	97.25
451.104	103.25
451.324	98.25
451.545	69.25
451.766	95.25
451.986	82.25
452.207	80.25
452.428	84.25
452.648	102.25
452.869	96.25
453.089	97.25
453.31	98.25
453.53	100.25
453.751	106.25
453.971	92.25
454.192	109.25
454.412	92.25
454.633	87.25
454.853	98.25
455.073	101.25
455.294	104.25
455.514	96.25
455.734	94.25
455.955	95.25
456.175	86.25
456.395	85.25
456.616	94.25
456.836	92.25
457.056	83.25
457.276	85.25
457.497	94.25
457.717	89.25
457.937	94.25
458.157	93.25
458.377	96.25
458.598	90.25
458.818	120.25
459.038	128.25
459.258	101.25
459.478	65.25
459.698	91.25
459.918	101.25
460.138	91.25
460.358	85.25
460.578	91.25
460.798	85.25
461.018	79.25
461.238	87.25
461.458	86.25
461.678	89.25
461.898	92.25
462.118	103.25
462.338	107.25
462.558	94.25
462.777	78.25
462.997	78.25
463.217	80.25
463.437	76.25
463.657	91.25
463.876	91.25
464.096	88.25
464.316	99.25
464.536	97.25
464.755	98.25
464.975	112.25
465.195	128.25
465.414	123.25
465.634	98.25
465.854	108.25
466.073	97.25
466.293	92.25
466.512	83.25
466.732	95.25
466.951	101.25
467.171	100.25
467.391	93.25
467.61	102.25
467.829	87.25
468.049	90.25
468.268	100.25
468.488	87.25
468.707	86.25
468.927	97.25
469.146	91.25
469.365	92.25
469.585	94.25
469.804	87.25
470.023	89.25
470.243	95.25
470.462	99.25
470.681	100.25
470.901	89.25
471.12	91.25
471.339	86.25
471.558	92.25
471.777	78.25
471.997	98.25
472.216	109.25
472.435	139.25
472.654	92.25
472.873	83.25
473.092	71.25
473.311	83.25
473.53	94.25
473.749	94.25
473.968	91.25
474.187	100.25
474.406	99.25
474.625	101.25
474.844	94.25
475.063	90.25
475.282	86.25
475.501	95.25
475.72	105.25
475.939	92.25
476.158	94.25
476.377	76.25
476.596	90.25
476.814	91.25
477.033	86.25
477.252	87.25
477.471	108.25
477.69	94.25
477.908	87.25
478.127	105.25
478.346	87.25
478.564	90.25
478.783	93.25
479.002	97.25
479.22	93.25
479.439	100.25
479.658	98.25
479.876	95.25
480.095	82.25
480.313	101.25
480.532	92.25
480.751	87.25
480.969	114.25
481.188	177.25
481.406	131.25
481.624	91.25
481.843	89.25
482.061	84.25
482.28	98.25
482.498	94.25
482.717	95.25
482.935	77.25
483.153	92.25
483.372	100.25
483.59	107.25
483.808	93.25
484.027	91.25
484.245	90.25
484.463	98.25
484.681	86.25
484.9	99.25
485.118	101.25
485.336	103.25
485.554	100.25
485.772	112.25
485.99	114.25
486.209	99.25
486.427	102.25
486.645	93.25
486.863	108.25
487.081	93.25
487.299	88.25
487.517	86.25
487.735	88.25
487.953	102.25
488.171	89.25
488.389	89.25
488.607	99.25
488.825	94.25
489.043	86.25
489.261	99.25
489.479	105.25
489.696	91.25
489.914	77.25
490.132	87.25
490.35	107.25
490.568	89.25
490.786	87.25
491.003	98.25
491.221	103.25
491.439	96.25
491.657	99.25
491.874	101.25
492.092	91.25
492.31	90.25
492.527	81.25
492.745	100.25
492.963	110.25
493.18	101.25
493.398	89.25
493.615	99.25
493.833	115.25
494.05	87.25
494.268	103.25
494.485	97.25
494.703	78.25
494.92	93.25
495.138	93.25
495.355	84.25
495.573	99.25
495.79	85.25
496.008	90.25
496.225	103.25
496.442	99.25
496.66	99.25
496.877	88.25
497.094	102.25
497.312	95.25
497.529	100.25
497.746	75.25
497.963	86.25
498.181	96.25
498.398	88.25
498.615	119.25
498.832	91.25
499.049	89.25
499.267	91.25
499.484	86.25
499.701	100.25
499.918	87.25
500.135	82.25
500.352	86.25
500.569	93.25
500.786	88.25
501.003	87.25
501.22	91.25
501.437	101.25
501.654	95.25
501.871	82.25
502.088	86.25
502.305	77.25
502.522	97.25
502.739	87.25
502.956	87.25
503.172	100.25
503.389	104.25
503.606	94.25
503.823	105.25
504.04	94.25
504.256	86.25
504.473	98.25
504.69	88.25
504.907	74.25
505.123	101.25
505.34	95.25
505.557	93.25
505.773	89.25
505.99	82.25
506.207	96.25
506.423	105.25
506.64	90.25
506.856	93.25
507.073	95.25
507.289	105.25
507.506	101.25
507.722	105.25
507.939	116.25
508.155	97.25
508.372	94.25
508.588	93.25
508.805	104.25
509.021	97.25
509.238	91.25
509.454	89.25
509.67	87.25
509.887	109.25
510.103	118.25
510.319	182.25
510.536	587.25
510.752	1795.25
510.968	514.25
511.184	129.25
511.401	101.25
511.617	99.25
511.833	100.25
512.049	81.25
512.265	95.25
512.481	103.25
512.698	75.25
512.914	89.25
513.13	97.25
513.346	112.25
513.562	107.25
513.778	90.25
513.994	97.25
514.21	103.25
514.426	94.25
514.642	106.25
514.858	108.25
515.074	133.25
515.29	347.25
515.506	1037.25
515.721	389.25
