Data from Uncirc_1982_H10_HRD10591_00003.txt Node
Date: Wed Jan 03 12:29:25 EST 2024
User: Yrep
Spectrometer: HR+D1059
Trigger mode: 1
Integration Time (sec): 1.000000E-1
Scans to average: 1
Electric dark correction enabled: true
Nonlinearity correction enabled: false
Boxcar width: 0
XAxis mode: Wavelengths
Number of Pixels in Spectrum: 2048
>>>>>Begin Spectral Data<<<<<
223.165	-25.81
223.4	-25.81
223.635	-25.81
223.869	-17.81
224.104	-23.81
224.338	-17.81
224.573	-13.81
224.808	-8.81
225.042	-2.81
225.277	-10.81
225.511	5.19
225.746	8.19
225.98	17.19
226.215	7.19
226.449	21.19
226.683	7.19
226.918	12.19
227.152	43.19
227.387	42.19
227.621	41.19
227.856	51.19
228.09	43.19
228.324	59.19
228.559	40.19
228.793	54.19
229.027	64.19
229.262	69.19
229.496	76.19
229.73	68.19
229.964	81.19
230.199	74.19
230.433	81.19
230.667	70.19
230.901	69.19
231.136	85.19
231.37	77.19
231.604	71.19
231.838	96.19
232.072	81.19
232.306	90.19
232.541	68.19
232.775	91.19
233.009	73.19
233.243	91.19
233.477	76.19
233.711	83.19
233.945	89.19
234.179	87.19
234.413	87.19
234.647	88.19
234.881	78.19
235.115	73.19
235.349	62.19
235.583	61.19
235.817	76.19
236.051	82.19
236.285	84.19
236.519	84.19
236.753	90.19
236.987	73.19
237.221	95.19
237.455	83.19
237.689	67.19
237.922	77.19
238.156	69.19
238.39	87.19
238.624	81.19
238.858	79.19
239.091	69.19
239.325	73.19
239.559	81.19
239.793	84.19
240.027	82.19
240.26	79.19
240.494	68.19
240.728	74.19
240.961	87.19
241.195	74.19
241.429	83.19
241.662	79.19
241.896	68.19
242.13	56.19
242.363	79.19
242.597	67.19
242.83	89.19
243.064	88.19
243.298	75.19
243.531	79.19
243.765	64.19
243.998	66.19
244.232	80.19
244.465	82.19
244.699	72.19
244.932	76.19
245.166	77.19
245.399	76.19
245.633	72.19
245.866	70.19
246.099	84.19
246.333	72.19
246.566	72.19
246.8	82.19
247.033	85.19
247.266	68.19
247.5	78.19
247.733	76.19
247.966	77.19
248.2	86.19
248.433	86.19
248.666	90.19
248.899	93.19
249.133	82.19
249.366	85.19
249.599	92.19
249.832	75.19
250.066	82.19
250.299	91.19
250.532	76.19
250.765	83.19
250.998	85.19
251.231	75.19
251.465	81.19
251.698	64.19
251.931	78.19
252.164	80.19
252.397	79.19
252.63	76.19
252.863	73.19
253.096	87.19
253.329	90.19
253.562	76.19
253.795	88.19
254.028	87.19
254.261	82.19
254.494	86.19
254.727	83.19
254.96	74.19
255.193	71.19
255.426	85.19
255.659	87.19
255.892	76.19
256.124	74.19
256.357	87.19
256.59	87.19
256.823	79.19
257.056	83.19
257.289	92.19
257.521	76.19
257.754	84.19
257.987	80.19
258.22	85.19
258.452	76.19
258.685	81.19
258.918	79.19
259.151	88.19
259.383	83.19
259.616	70.19
259.849	69.19
260.081	66.19
260.314	72.19
260.547	81.19
260.779	81.19
261.012	73.19
261.244	99.19
261.477	75.19
261.71	74.19
261.942	91.19
262.175	94.19
262.407	83.19
262.64	74.19
262.872	79.19
263.105	84.19
263.337	83.19
263.57	86.19
263.802	96.19
264.035	70.19
264.267	81.19
264.499	65.19
264.732	87.19
264.964	72.19
265.197	79.19
265.429	95.19
265.661	88.19
265.894	88.19
266.126	86.19
266.358	83.19
266.591	80.19
266.823	84.19
267.055	72.19
267.287	79.19
267.52	81.19
267.752	85.19
267.984	93.19
268.216	87.19
268.448	85.19
268.681	87.19
268.913	82.19
269.145	79.19
269.377	93.19
269.609	85.19
269.841	85.19
270.073	87.19
270.306	93.19
270.538	80.19
270.77	80.19
271.002	81.19
271.234	77.19
271.466	78.19
271.698	87.19
271.93	88.19
272.162	83.19
272.394	76.19
272.626	82.19
272.858	91.19
273.09	73.19
273.322	68.19
273.553	82.19
273.785	92.19
274.017	81.19
274.249	82.19
274.481	77.19
274.713	90.19
274.945	74.19
275.176	81.19
275.408	74.19
275.64	91.19
275.872	89.19
276.104	101.19
276.335	88.19
276.567	81.19
276.799	104.19
277.031	92.19
277.262	87.19
277.494	85.19
277.726	86.19
277.957	93.19
278.189	70.19
278.421	68.19
278.652	93.19
278.884	79.19
279.115	87.19
279.347	83.19
279.579	98.19
279.81	91.19
280.042	81.19
280.273	89.19
280.505	79.19
280.736	70.19
280.968	84.19
281.199	92.19
281.431	83.19
281.662	87.19
281.894	95.19
282.125	108.19
282.356	99.19
282.588	110.19
282.819	98.19
283.051	89.19
283.282	77.19
283.513	83.19
283.745	81.19
283.976	71.19
284.207	81.19
284.439	85.19
284.67	57.19
284.901	82.19
285.132	79.19
285.364	80.19
285.595	96.19
285.826	76.19
286.057	80.19
286.288	89.19
286.52	81.19
286.751	95.19
286.982	79.19
287.213	92.19
287.444	75.19
287.675	81.19
287.906	89.19
288.138	96.19
288.369	95.19
288.6	92.19
288.831	90.19
289.062	91.19
289.293	100.19
289.524	96.19
289.755	88.19
289.986	90.19
290.217	90.19
290.448	97.19
290.679	90.19
290.91	95.19
291.141	72.19
291.371	85.19
291.602	75.19
291.833	84.19
292.064	89.19
292.295	89.19
292.526	93.19
292.757	79.19
292.987	80.19
293.218	98.19
293.449	86.19
293.68	85.19
293.91	100.19
294.141	81.19
294.372	70.19
294.603	91.19
294.833	95.19
295.064	77.19
295.295	83.19
295.525	82.19
295.756	98.19
295.987	103.19
296.217	112.19
296.448	99.19
296.679	98.19
296.909	76.19
297.14	92.19
297.37	73.19
297.601	74.19
297.831	90.19
298.062	95.19
298.292	97.19
298.523	93.19
298.753	93.19
298.984	94.19
299.214	92.19
299.445	89.19
299.675	84.19
299.905	93.19
300.136	89.19
300.366	93.19
300.597	94.19
300.827	76.19
301.057	84.19
301.288	91.19
301.518	88.19
301.748	101.19
301.979	99.19
302.209	79.19
302.439	92.19
302.669	78.19
302.9	82.19
303.13	73.19
303.36	89.19
303.59	99.19
303.82	95.19
304.051	83.19
304.281	82.19
304.511	90.19
304.741	86.19
304.971	83.19
305.201	97.19
305.431	99.19
305.661	94.19
305.891	91.19
306.121	85.19
306.352	95.19
306.582	87.19
306.812	82.19
307.042	84.19
307.272	95.19
307.502	102.19
307.731	91.19
307.961	95.19
308.191	77.19
308.421	84.19
308.651	96.19
308.881	95.19
309.111	90.19
309.341	88.19
309.571	97.19
309.8	85.19
310.03	84.19
310.26	96.19
310.49	84.19
310.72	85.19
310.949	82.19
311.179	114.19
311.409	86.19
311.639	97.19
311.868	96.19
312.098	96.19
312.328	101.19
312.557	111.19
312.787	104.19
313.017	90.19
313.246	97.19
313.476	91.19
313.706	85.19
313.935	94.19
314.165	99.19
314.394	87.19
314.624	85.19
314.853	99.19
315.083	97.19
315.312	93.19
315.542	84.19
315.771	81.19
316.001	102.19
316.23	84.19
316.46	87.19
316.689	89.19
316.919	98.19
317.148	92.19
317.377	95.19
317.607	89.19
317.836	101.19
318.065	71.19
318.295	103.19
318.524	100.19
318.753	84.19
318.983	88.19
319.212	76.19
319.441	96.19
319.67	107.19
319.9	61.19
320.129	74.19
320.358	92.19
320.587	91.19
320.816	97.19
321.046	98.19
321.275	91.19
321.504	92.19
321.733	96.19
321.962	81.19
322.191	76.19
322.42	78.19
322.649	107.19
322.878	101.19
323.108	119.19
323.337	117.19
323.566	109.19
323.795	131.19
324.024	165.19
324.253	284.19
324.482	579.19
324.71	1205.19
324.939	1586.19
325.168	590.19
325.397	186.19
325.626	129.19
325.855	121.19
326.084	107.19
326.313	113.19
326.542	127.19
326.77	182.19
326.999	345.19
327.228	725.19
327.457	1253.19
327.686	1002.19
327.914	291.19
328.143	147.19
328.372	136.19
328.6	95.19
328.829	94.19
329.058	120.19
329.287	113.19
329.515	105.19
329.744	83.19
329.972	93.19
330.201	110.19
330.43	117.19
330.658	115.19
330.887	123.19
331.115	97.19
331.344	95.19
331.572	109.19
331.801	109.19
332.03	101.19
332.258	83.19
332.486	93.19
332.715	89.19
332.943	96.19
333.172	95.19
333.4	89.19
333.629	103.19
333.857	97.19
334.085	102.19
334.314	115.19
334.542	104.19
334.771	113.19
334.999	92.19
335.227	90.19
335.455	87.19
335.684	87.19
335.912	91.19
336.14	99.19
336.369	92.19
336.597	96.19
336.825	97.19
337.053	79.19
337.281	74.19
337.51	102.19
337.738	83.19
337.966	83.19
338.194	82.19
338.422	96.19
338.65	99.19
338.878	84.19
339.106	90.19
339.334	89.19
339.562	93.19
339.79	97.19
340.018	92.19
340.246	89.19
340.474	89.19
340.702	97.19
340.93	95.19
341.158	95.19
341.386	87.19
341.614	97.19
341.842	91.19
342.07	99.19
342.298	90.19
342.526	99.19
342.754	83.19
342.981	83.19
343.209	93.19
343.437	104.19
343.665	79.19
343.893	79.19
344.12	100.19
344.348	94.19
344.576	88.19
344.804	88.19
345.031	82.19
345.259	88.19
345.487	105.19
345.714	99.19
345.942	89.19
346.17	107.19
346.397	90.19
346.625	90.19
346.853	96.19
347.08	101.19
347.308	92.19
347.535	85.19
347.763	89.19
347.99	97.19
348.218	100.19
348.445	86.19
348.673	92.19
348.9	95.19
349.128	95.19
349.355	103.19
349.583	80.19
349.81	96.19
350.037	103.19
350.265	91.19
350.492	106.19
350.72	105.19
350.947	88.19
351.174	117.19
351.402	108.19
351.629	109.19
351.856	93.19
352.083	107.19
352.311	96.19
352.538	92.19
352.765	101.19
352.992	99.19
353.22	97.19
353.447	102.19
353.674	97.19
353.901	107.19
354.128	105.19
354.355	95.19
354.583	104.19
354.81	101.19
355.037	92.19
355.264	97.19
355.491	87.19
355.718	90.19
355.945	73.19
356.172	81.19
356.399	98.19
356.626	103.19
356.853	97.19
357.08	97.19
357.307	103.19
357.534	95.19
357.761	88.19
357.988	92.19
358.215	122.19
358.441	105.19
358.668	103.19
358.895	104.19
359.122	100.19
359.349	81.19
359.576	93.19
359.802	92.19
360.029	98.19
360.256	88.19
360.483	103.19
360.709	83.19
360.936	97.19
361.163	105.19
361.39	88.19
361.616	100.19
361.843	104.19
362.07	94.19
362.296	89.19
362.523	88.19
362.749	86.19
362.976	87.19
363.203	90.19
363.429	81.19
363.656	91.19
363.882	86.19
364.109	83.19
364.335	86.19
364.562	92.19
364.788	69.19
365.015	83.19
365.241	83.19
365.468	91.19
365.694	115.19
365.92	92.19
366.147	90.19
366.373	88.19
366.599	97.19
366.826	86.19
367.052	85.19
367.278	87.19
367.505	99.19
367.731	91.19
367.957	84.19
368.184	90.19
368.41	81.19
368.636	92.19
368.862	105.19
369.089	98.19
369.315	85.19
369.541	106.19
369.767	70.19
369.993	90.19
370.219	97.19
370.445	93.19
370.672	100.19
370.898	88.19
371.124	92.19
371.35	98.19
371.576	96.19
371.802	97.19
372.028	89.19
372.254	96.19
372.48	100.19
372.706	112.19
372.932	105.19
373.158	74.19
373.384	79.19
373.61	84.19
373.835	90.19
374.061	115.19
374.287	92.19
374.513	81.19
374.739	90.19
374.965	93.19
375.191	93.19
375.416	83.19
375.642	91.19
375.868	104.19
376.094	90.19
376.319	90.19
376.545	109.19
376.771	108.19
376.997	89.19
377.222	94.19
377.448	103.19
377.674	88.19
377.899	100.19
378.125	91.19
378.35	96.19
378.576	93.19
378.802	99.19
379.027	109.19
379.253	108.19
379.478	87.19
379.704	110.19
379.929	93.19
380.155	119.19
380.38	98.19
380.606	96.19
380.831	106.19
381.057	117.19
381.282	101.19
381.507	96.19
381.733	99.19
381.958	119.19
382.184	120.19
382.409	104.19
382.634	120.19
382.86	108.19
383.085	102.19
383.31	112.19
383.535	125.19
383.761	125.19
383.986	102.19
384.211	108.19
384.436	114.19
384.662	118.19
384.887	130.19
385.112	131.19
385.337	111.19
385.562	135.19
385.787	138.19
386.013	146.19
386.238	131.19
386.463	125.19
386.688	130.19
386.913	122.19
387.138	129.19
387.363	118.19
387.588	133.19
387.813	121.19
388.038	132.19
388.263	161.19
388.488	125.19
388.713	99.19
388.938	103.19
389.163	91.19
389.387	89.19
389.612	96.19
389.837	92.19
390.062	97.19
390.287	91.19
390.512	107.19
390.736	89.19
390.961	91.19
391.186	87.19
391.411	93.19
391.636	93.19
391.86	85.19
392.085	83.19
392.31	86.19
392.534	87.19
392.759	90.19
392.984	79.19
393.208	93.19
393.433	85.19
393.658	88.19
393.882	89.19
394.107	80.19
394.331	77.19
394.556	87.19
394.78	83.19
395.005	108.19
395.229	99.19
395.454	101.19
395.678	68.19
395.903	86.19
396.127	74.19
396.352	92.19
396.576	86.19
396.801	89.19
397.025	81.19
397.249	84.19
397.474	83.19
397.698	83.19
397.922	84.19
398.147	81.19
398.371	88.19
398.595	93.19
398.82	86.19
399.044	84.19
399.268	83.19
399.492	80.19
399.717	92.19
399.941	79.19
400.165	90.19
400.389	87.19
400.613	88.19
400.837	98.19
401.062	88.19
401.286	83.19
401.51	85.19
401.734	84.19
401.958	94.19
402.182	101.19
402.406	113.19
402.63	108.19
402.854	94.19
403.078	82.19
403.302	85.19
403.526	87.19
403.75	102.19
403.974	95.19
404.198	76.19
404.422	81.19
404.645	92.19
404.869	99.19
405.093	92.19
405.317	96.19
405.541	95.19
405.765	91.19
405.988	100.19
406.212	128.19
406.436	159.19
406.66	118.19
406.883	108.19
407.107	73.19
407.331	90.19
407.555	103.19
407.778	96.19
408.002	97.19
408.226	97.19
408.449	73.19
408.673	100.19
408.896	86.19
409.12	87.19
409.344	89.19
409.567	100.19
409.791	96.19
410.014	87.19
410.238	99.19
410.461	85.19
410.685	102.19
410.908	84.19
411.132	108.19
411.355	107.19
411.578	89.19
411.802	80.19
412.025	81.19
412.249	88.19
412.472	91.19
412.695	99.19
412.919	86.19
413.142	97.19
413.365	83.19
413.589	81.19
413.812	89.19
414.035	87.19
414.258	91.19
414.482	78.19
414.705	71.19
414.928	99.19
415.151	106.19
415.374	108.19
415.597	99.19
415.821	90.19
416.044	82.19
416.267	97.19
416.49	96.19
416.713	95.19
416.936	98.19
417.159	92.19
417.382	80.19
417.605	90.19
417.828	107.19
418.051	91.19
418.274	87.19
418.497	90.19
418.72	75.19
418.943	76.19
419.166	95.19
419.389	95.19
419.611	95.19
419.834	94.19
420.057	92.19
420.28	94.19
420.503	80.19
420.726	83.19
420.948	83.19
421.171	77.19
421.394	82.19
421.617	90.19
421.839	74.19
422.062	89.19
422.285	91.19
422.507	94.19
422.73	93.19
422.953	91.19
423.175	82.19
423.398	91.19
423.621	76.19
423.843	88.19
424.066	95.19
424.288	83.19
424.511	89.19
424.733	78.19
424.956	92.19
425.178	86.19
425.401	93.19
425.623	107.19
425.846	74.19
426.068	97.19
426.291	93.19
426.513	83.19
426.735	77.19
426.958	91.19
427.18	97.19
427.402	109.19
427.625	138.19
427.847	108.19
428.069	101.19
428.292	83.19
428.514	81.19
428.736	86.19
428.958	86.19
429.181	85.19
429.403	96.19
429.625	85.19
429.847	89.19
430.069	94.19
430.292	93.19
430.514	80.19
430.736	101.19
430.958	88.19
431.18	79.19
431.402	98.19
431.624	98.19
431.846	85.19
432.068	90.19
432.29	79.19
432.512	75.19
432.734	76.19
432.956	84.19
433.178	86.19
433.4	95.19
433.622	82.19
433.844	100.19
434.066	88.19
434.287	93.19
434.509	99.19
434.731	86.19
434.953	92.19
435.175	84.19
435.397	89.19
435.618	94.19
435.84	93.19
436.062	102.19
436.284	101.19
436.505	93.19
436.727	84.19
436.949	89.19
437.17	83.19
437.392	65.19
437.614	95.19
437.835	110.19
438.057	98.19
438.278	84.19
438.5	101.19
438.721	97.19
438.943	100.19
439.165	91.19
439.386	96.19
439.608	81.19
439.829	99.19
440.05	96.19
440.272	127.19
440.493	91.19
440.715	91.19
440.936	89.19
441.158	80.19
441.379	83.19
441.6	93.19
441.822	98.19
442.043	93.19
442.264	91.19
442.486	97.19
442.707	85.19
442.928	101.19
443.149	109.19
443.371	107.19
443.592	95.19
443.813	92.19
444.034	97.19
444.255	86.19
444.476	80.19
444.698	83.19
444.919	70.19
445.14	123.19
445.361	104.19
445.582	100.19
445.803	113.19
446.024	95.19
446.245	100.19
446.466	95.19
446.687	92.19
446.908	74.19
447.129	78.19
447.35	84.19
447.571	86.19
447.792	93.19
448.013	91.19
448.234	100.19
448.455	77.19
448.675	99.19
448.896	91.19
449.117	100.19
449.338	105.19
449.559	105.19
449.779	116.19
450	85.19
450.221	102.19
450.442	82.19
450.662	91.19
450.883	84.19
451.104	93.19
451.324	86.19
451.545	90.19
451.766	91.19
451.986	75.19
452.207	89.19
452.428	84.19
452.648	91.19
452.869	114.19
453.089	96.19
453.31	96.19
453.53	74.19
453.751	95.19
453.971	98.19
454.192	119.19
454.412	95.19
454.633	80.19
454.853	83.19
455.073	76.19
455.294	85.19
455.514	95.19
455.734	83.19
455.955	76.19
456.175	75.19
456.395	85.19
456.616	90.19
456.836	98.19
457.056	79.19
457.276	76.19
457.497	90.19
457.717	82.19
457.937	79.19
458.157	79.19
458.377	72.19
458.598	110.19
458.818	116.19
459.038	124.19
459.258	100.19
459.478	86.19
459.698	79.19
459.918	79.19
460.138	63.19
460.358	81.19
460.578	97.19
460.798	88.19
461.018	71.19
461.238	75.19
461.458	81.19
461.678	77.19
461.898	86.19
462.118	92.19
462.338	82.19
462.558	82.19
462.777	84.19
462.997	82.19
463.217	87.19
463.437	91.19
463.657	93.19
463.876	99.19
464.096	95.19
464.316	97.19
464.536	89.19
464.755	95.19
464.975	91.19
465.195	124.19
465.414	112.19
465.634	91.19
465.854	85.19
466.073	67.19
466.293	96.19
466.512	90.19
466.732	70.19
466.951	95.19
467.171	92.19
467.391	100.19
467.61	87.19
467.829	87.19
468.049	90.19
468.268	102.19
468.488	93.19
468.707	88.19
468.927	93.19
469.146	89.19
469.365	83.19
469.585	74.19
469.804	78.19
470.023	76.19
470.243	79.19
470.462	107.19
470.681	90.19
470.901	91.19
471.12	84.19
471.339	85.19
471.558	77.19
471.777	71.19
471.997	85.19
472.216	105.19
472.435	111.19
472.654	91.19
472.873	82.19
473.092	93.19
473.311	88.19
473.53	88.19
473.749	76.19
473.968	75.19
474.187	82.19
474.406	79.19
474.625	91.19
474.844	73.19
475.063	76.19
475.282	81.19
475.501	92.19
475.72	91.19
475.939	87.19
476.158	87.19
476.377	84.19
476.596	95.19
476.814	91.19
477.033	79.19
477.252	83.19
477.471	81.19
477.69	84.19
477.908	80.19
478.127	90.19
478.346	85.19
478.564	117.19
478.783	99.19
479.002	88.19
479.22	90.19
479.439	88.19
479.658	86.19
479.876	82.19
480.095	86.19
480.313	91.19
480.532	109.19
480.751	87.19
480.969	102.19
481.188	160.19
481.406	119.19
481.624	83.19
481.843	92.19
482.061	93.19
482.28	96.19
482.498	83.19
482.717	95.19
482.935	92.19
483.153	94.19
483.372	81.19
483.59	94.19
483.808	93.19
484.027	83.19
484.245	77.19
484.463	87.19
484.681	96.19
484.9	92.19
485.118	94.19
485.336	94.19
485.554	91.19
485.772	107.19
485.99	87.19
486.209	102.19
486.427	100.19
486.645	108.19
486.863	96.19
487.081	104.19
487.299	97.19
487.517	100.19
487.735	101.19
487.953	103.19
488.171	104.19
488.389	97.19
488.607	108.19
488.825	97.19
489.043	74.19
489.261	89.19
489.479	81.19
489.696	89.19
489.914	90.19
490.132	93.19
490.35	100.19
490.568	75.19
490.786	95.19
491.003	93.19
491.221	96.19
491.439	83.19
491.657	95.19
491.874	90.19
492.092	95.19
492.31	93.19
492.527	80.19
492.745	89.19
492.963	93.19
493.18	77.19
493.398	86.19
493.615	105.19
493.833	90.19
494.05	79.19
494.268	98.19
494.485	89.19
494.703	83.19
494.92	90.19
495.138	83.19
495.355	91.19
495.573	100.19
495.79	98.19
496.008	101.19
496.225	98.19
496.442	96.19
496.66	90.19
496.877	96.19
497.094	83.19
497.312	91.19
497.529	85.19
497.746	85.19
497.963	92.19
498.181	81.19
498.398	79.19
498.615	98.19
498.832	96.19
499.049	92.19
499.267	84.19
499.484	102.19
499.701	87.19
499.918	85.19
500.135	97.19
500.352	89.19
500.569	84.19
500.786	87.19
501.003	102.19
501.22	81.19
501.437	97.19
501.654	83.19
501.871	95.19
502.088	87.19
502.305	99.19
502.522	92.19
502.739	84.19
502.956	87.19
503.172	90.19
503.389	92.19
503.606	103.19
503.823	93.19
504.04	91.19
504.256	102.19
504.473	95.19
504.69	90.19
504.907	94.19
505.123	98.19
505.34	94.19
505.557	92.19
505.773	72.19
505.99	92.19
506.207	93.19
506.423	88.19
506.64	91.19
506.856	79.19
507.073	83.19
507.289	88.19
507.506	85.19
507.722	106.19
507.939	92.19
508.155	100.19
508.372	76.19
508.588	91.19
508.805	82.19
509.021	92.19
509.238	109.19
509.454	106.19
509.67	95.19
509.887	107.19
510.103	117.19
510.319	179.19
510.536	515.19
510.752	1379.19
510.968	400.19
511.184	111.19
511.401	108.19
511.617	96.19
511.833	97.19
512.049	77.19
512.265	76.19
512.481	89.19
512.698	94.19
512.914	79.19
513.13	89.19
513.346	87.19
513.562	79.19
513.778	104.19
513.994	96.19
514.21	87.19
514.426	105.19
514.642	116.19
514.858	107.19
515.074	115.19
515.29	303.19
515.506	773.19
515.721	307.19
515.937	125.19
516.153	101.19
516.369	83.19
516.585	86.19
