Data from Uncirc_1982_H10_HRD10591_00030.txt Node
Date: Wed Jan 03 12:29:31 EST 2024
User: Yrep
Spectrometer: HR+D1059
Trigger mode: 1
Integration Time (sec): 1.000000E-1
Scans to average: 1
Electric dark correction enabled: true
Nonlinearity correction enabled: false
Boxcar width: 0
XAxis mode: Wavelengths
Number of Pixels in Spectrum: 2048
>>>>>Begin Spectral Data<<<<<
223.165	-20.31
223.4	-20.31
223.635	-20.31
223.869	-24.31
224.104	-3.31
224.338	-15.31
224.573	-22.31
224.808	-17.31
225.042	-15.31
225.277	-15.31
225.511	12.69
225.746	6.69
225.98	18.69
226.215	6.69
226.449	13.69
226.683	23.69
226.918	23.69
227.152	27.69
227.387	42.69
227.621	31.69
227.856	41.69
228.09	41.69
228.324	46.69
228.559	63.69
228.793	59.69
229.027	75.69
229.262	61.69
229.496	66.69
229.73	90.69
229.964	74.69
230.199	72.69
230.433	86.69
230.667	77.69
230.901	56.69
231.136	89.69
231.37	81.69
231.604	91.69
231.838	69.69
232.072	80.69
232.306	80.69
232.541	93.69
232.775	92.69
233.009	84.69
233.243	94.69
233.477	85.69
233.711	67.69
233.945	80.69
234.179	86.69
234.413	81.69
234.647	90.69
234.881	85.69
235.115	87.69
235.349	91.69
235.583	81.69
235.817	72.69
236.051	94.69
236.285	77.69
236.519	83.69
236.753	81.69
236.987	80.69
237.221	73.69
237.455	94.69
237.689	89.69
237.922	69.69
238.156	80.69
238.39	80.69
238.624	80.69
238.858	78.69
239.091	83.69
239.325	82.69
239.559	80.69
239.793	74.69
240.027	76.69
240.26	94.69
240.494	63.69
240.728	79.69
240.961	101.69
241.195	75.69
241.429	79.69
241.662	89.69
241.896	81.69
242.13	85.69
242.363	75.69
242.597	70.69
242.83	83.69
243.064	87.69
243.298	88.69
243.531	87.69
243.765	76.69
243.998	58.69
244.232	84.69
244.465	76.69
244.699	76.69
244.932	54.69
245.166	63.69
245.399	75.69
245.633	93.69
245.866	80.69
246.099	80.69
246.333	91.69
246.566	88.69
246.8	88.69
247.033	94.69
247.266	79.69
247.5	90.69
247.733	83.69
247.966	71.69
248.2	86.69
248.433	86.69
248.666	81.69
248.899	76.69
249.133	86.69
249.366	98.69
249.599	81.69
249.832	89.69
250.066	79.69
250.299	78.69
250.532	83.69
250.765	72.69
250.998	85.69
251.231	80.69
251.465	87.69
251.698	92.69
251.931	69.69
252.164	79.69
252.397	80.69
252.63	94.69
252.863	88.69
253.096	85.69
253.329	75.69
253.562	100.69
253.795	72.69
254.028	87.69
254.261	72.69
254.494	85.69
254.727	101.69
254.96	91.69
255.193	91.69
255.426	91.69
255.659	83.69
255.892	87.69
256.124	64.69
256.357	87.69
256.59	94.69
256.823	89.69
257.056	86.69
257.289	83.69
257.521	67.69
257.754	83.69
257.987	75.69
258.22	81.69
258.452	79.69
258.685	95.69
258.918	88.69
259.151	89.69
259.383	83.69
259.616	83.69
259.849	77.69
260.081	90.69
260.314	83.69
260.547	85.69
260.779	77.69
261.012	89.69
261.244	92.69
261.477	89.69
261.71	86.69
261.942	88.69
262.175	99.69
262.407	83.69
262.64	81.69
262.872	91.69
263.105	85.69
263.337	87.69
263.57	86.69
263.802	79.69
264.035	77.69
264.267	80.69
264.499	93.69
264.732	102.69
264.964	100.69
265.197	93.69
265.429	91.69
265.661	90.69
265.894	83.69
266.126	97.69
266.358	68.69
266.591	82.69
266.823	76.69
267.055	87.69
267.287	71.69
267.52	85.69
267.752	78.69
267.984	75.69
268.216	94.69
268.448	99.69
268.681	100.69
268.913	93.69
269.145	81.69
269.377	103.69
269.609	85.69
269.841	104.69
270.073	78.69
270.306	92.69
270.538	100.69
270.77	82.69
271.002	95.69
271.234	88.69
271.466	101.69
271.698	91.69
271.93	84.69
272.162	77.69
272.394	88.69
272.626	104.69
272.858	96.69
273.09	88.69
273.322	83.69
273.553	79.69
273.785	90.69
274.017	97.69
274.249	90.69
274.481	87.69
274.713	83.69
274.945	77.69
275.176	93.69
275.408	92.69
275.64	93.69
275.872	89.69
276.104	77.69
276.335	88.69
276.567	103.69
276.799	96.69
277.031	94.69
277.262	100.69
277.494	71.69
277.726	91.69
277.957	98.69
278.189	87.69
278.421	83.69
278.652	88.69
278.884	100.69
279.115	97.69
279.347	80.69
279.579	84.69
279.81	89.69
280.042	77.69
280.273	66.69
280.505	93.69
280.736	87.69
280.968	99.69
281.199	94.69
281.431	89.69
281.662	87.69
281.894	99.69
282.125	87.69
282.356	100.69
282.588	112.69
282.819	117.69
283.051	107.69
283.282	94.69
283.513	91.69
283.745	76.69
283.976	102.69
284.207	92.69
284.439	91.69
284.67	94.69
284.901	79.69
285.132	104.69
285.364	83.69
285.595	83.69
285.826	89.69
286.057	102.69
286.288	89.69
286.52	87.69
286.751	101.69
286.982	93.69
287.213	89.69
287.444	100.69
287.675	81.69
287.906	88.69
288.138	89.69
288.369	104.69
288.6	102.69
288.831	93.69
289.062	97.69
289.293	109.69
289.524	95.69
289.755	76.69
289.986	90.69
290.217	80.69
290.448	99.69
290.679	93.69
290.91	95.69
291.141	101.69
291.371	93.69
291.602	95.69
291.833	97.69
292.064	84.69
292.295	93.69
292.526	102.69
292.757	76.69
292.987	94.69
293.218	104.69
293.449	108.69
293.68	94.69
293.91	97.69
294.141	78.69
294.372	78.69
294.603	101.69
294.833	86.69
295.064	91.69
295.295	97.69
295.525	105.69
295.756	99.69
295.987	123.69
296.217	124.69
296.448	124.69
296.679	91.69
296.909	101.69
297.14	95.69
297.37	99.69
297.601	94.69
297.831	100.69
298.062	94.69
298.292	84.69
298.523	100.69
298.753	82.69
298.984	87.69
299.214	109.69
299.445	90.69
299.675	89.69
299.905	99.69
300.136	89.69
300.366	95.69
300.597	96.69
300.827	102.69
301.057	96.69
301.288	97.69
301.518	83.69
301.748	103.69
301.979	105.69
302.209	79.69
302.439	86.69
302.669	97.69
302.9	83.69
303.13	87.69
303.36	102.69
303.59	104.69
303.82	103.69
304.051	97.69
304.281	95.69
304.511	87.69
304.741	77.69
304.971	94.69
305.201	94.69
305.431	92.69
305.661	100.69
305.891	90.69
306.121	93.69
306.352	108.69
306.582	95.69
306.812	106.69
307.042	95.69
307.272	99.69
307.502	94.69
307.731	101.69
307.961	81.69
308.191	96.69
308.421	85.69
308.651	95.69
308.881	101.69
309.111	87.69
309.341	85.69
309.571	97.69
309.8	92.69
310.03	89.69
310.26	100.69
310.49	97.69
310.72	87.69
310.949	96.69
311.179	95.69
311.409	87.69
311.639	100.69
311.868	94.69
312.098	102.69
312.328	84.69
312.557	95.69
312.787	94.69
313.017	107.69
313.246	96.69
313.476	97.69
313.706	100.69
313.935	93.69
314.165	99.69
314.394	92.69
314.624	99.69
314.853	88.69
315.083	90.69
315.312	101.69
315.542	85.69
315.771	94.69
316.001	89.69
316.23	97.69
316.46	89.69
316.689	90.69
316.919	90.69
317.148	89.69
317.377	107.69
317.607	89.69
317.836	77.69
318.065	101.69
318.295	90.69
318.524	95.69
318.753	90.69
318.983	85.69
319.212	108.69
319.441	107.69
319.67	99.69
319.9	99.69
320.129	94.69
320.358	102.69
320.587	103.69
320.816	98.69
321.046	90.69
321.275	94.69
321.504	105.69
321.733	99.69
321.962	95.69
322.191	108.69
322.42	94.69
322.649	109.69
322.878	108.69
323.108	102.69
323.337	114.69
323.566	135.69
323.795	132.69
324.024	196.69
324.253	317.69
324.482	645.69
324.71	1319.69
324.939	1726.69
325.168	626.69
325.397	200.69
325.626	139.69
325.855	128.69
326.084	111.69
326.313	131.69
326.542	141.69
326.77	188.69
326.999	373.69
327.228	769.69
327.457	1377.69
327.686	1114.69
327.914	307.69
328.143	160.69
328.372	136.69
328.6	113.69
328.829	90.69
329.058	113.69
329.287	118.69
329.515	112.69
329.744	111.69
329.972	108.69
330.201	133.69
330.43	119.69
330.658	108.69
330.887	125.69
331.115	109.69
331.344	101.69
331.572	111.69
331.801	116.69
332.03	113.69
332.258	100.69
332.486	97.69
332.715	113.69
332.943	103.69
333.172	91.69
333.4	97.69
333.629	100.69
333.857	117.69
334.085	116.69
334.314	113.69
334.542	124.69
334.771	125.69
334.999	101.69
335.227	104.69
335.455	104.69
335.684	87.69
335.912	107.69
336.14	102.69
336.369	103.69
336.597	83.69
336.825	99.69
337.053	94.69
337.281	85.69
337.51	92.69
337.738	101.69
337.966	94.69
338.194	95.69
338.422	99.69
338.65	100.69
338.878	89.69
339.106	99.69
339.334	106.69
339.562	88.69
339.79	100.69
340.018	88.69
340.246	96.69
340.474	87.69
340.702	87.69
340.93	83.69
341.158	95.69
341.386	99.69
341.614	103.69
341.842	85.69
342.07	88.69
342.298	86.69
342.526	87.69
342.754	101.69
342.981	101.69
343.209	100.69
343.437	90.69
343.665	103.69
343.893	91.69
344.12	93.69
344.348	100.69
344.576	111.69
344.804	90.69
345.031	92.69
345.259	85.69
345.487	105.69
345.714	97.69
345.942	92.69
346.17	85.69
346.397	101.69
346.625	100.69
346.853	83.69
347.08	89.69
347.308	100.69
347.535	108.69
347.763	104.69
347.99	87.69
348.218	87.69
348.445	93.69
348.673	94.69
348.9	89.69
349.128	100.69
349.355	103.69
349.583	108.69
349.81	97.69
350.037	83.69
350.265	92.69
350.492	89.69
350.72	99.69
350.947	87.69
351.174	108.69
351.402	100.69
351.629	108.69
351.856	100.69
352.083	112.69
352.311	107.69
352.538	99.69
352.765	108.69
352.992	126.69
353.22	128.69
353.447	99.69
353.674	107.69
353.901	107.69
354.128	101.69
354.355	96.69
354.583	91.69
354.81	107.69
355.037	99.69
355.264	103.69
355.491	87.69
355.718	96.69
355.945	99.69
356.172	115.69
356.399	93.69
356.626	91.69
356.853	93.69
357.08	88.69
357.307	99.69
357.534	96.69
357.761	95.69
357.988	111.69
358.215	108.69
358.441	98.69
358.668	85.69
358.895	89.69
359.122	87.69
359.349	86.69
359.576	102.69
359.802	118.69
360.029	118.69
360.256	102.69
360.483	99.69
360.709	89.69
360.936	103.69
361.163	97.69
361.39	99.69
361.616	102.69
361.843	92.69
362.07	108.69
362.296	92.69
362.523	85.69
362.749	96.69
362.976	94.69
363.203	87.69
363.429	91.69
363.656	104.69
363.882	91.69
364.109	89.69
364.335	79.69
364.562	87.69
364.788	96.69
365.015	90.69
365.241	84.69
365.468	103.69
365.694	107.69
365.92	89.69
366.147	99.69
366.373	89.69
366.599	90.69
366.826	87.69
367.052	81.69
367.278	103.69
367.505	102.69
367.731	90.69
367.957	93.69
368.184	88.69
368.41	99.69
368.636	109.69
368.862	104.69
369.089	105.69
369.315	93.69
369.541	89.69
369.767	90.69
369.993	87.69
370.219	73.69
370.445	96.69
370.672	92.69
370.898	94.69
371.124	89.69
371.35	92.69
371.576	81.69
371.802	87.69
372.028	91.69
372.254	105.69
372.48	93.69
372.706	100.69
372.932	76.69
373.158	96.69
373.384	85.69
373.61	92.69
373.835	87.69
374.061	101.69
374.287	114.69
374.513	88.69
374.739	85.69
374.965	90.69
375.191	85.69
375.416	110.69
375.642	95.69
375.868	100.69
376.094	83.69
376.319	86.69
376.545	96.69
376.771	93.69
376.997	78.69
377.222	105.69
377.448	95.69
377.674	105.69
377.899	107.69
378.125	96.69
378.35	100.69
378.576	98.69
378.802	95.69
379.027	92.69
379.253	93.69
379.478	99.69
379.704	105.69
379.929	104.69
380.155	93.69
380.38	92.69
380.606	96.69
380.831	103.69
381.057	112.69
381.282	101.69
381.507	96.69
381.733	111.69
381.958	97.69
382.184	99.69
382.409	91.69
382.634	101.69
382.86	105.69
383.085	120.69
383.31	105.69
383.535	95.69
383.761	97.69
383.986	98.69
384.211	106.69
384.436	111.69
384.662	109.69
384.887	124.69
385.112	120.69
385.337	106.69
385.562	101.69
385.787	108.69
386.013	108.69
386.238	116.69
386.463	121.69
386.688	102.69
386.913	112.69
387.138	115.69
387.363	108.69
387.588	110.69
387.813	104.69
388.038	110.69
388.263	106.69
388.488	124.69
388.713	96.69
388.938	100.69
389.163	97.69
389.387	101.69
389.612	104.69
389.837	99.69
390.062	85.69
390.287	86.69
390.512	99.69
390.736	90.69
390.961	110.69
391.186	104.69
391.411	93.69
391.636	102.69
391.86	95.69
392.085	83.69
392.31	80.69
392.534	91.69
392.759	96.69
392.984	79.69
393.208	89.69
393.433	97.69
393.658	94.69
393.882	100.69
394.107	95.69
394.331	95.69
394.556	89.69
394.78	77.69
395.005	107.69
395.229	81.69
395.454	97.69
395.678	83.69
395.903	96.69
396.127	104.69
396.352	104.69
396.576	94.69
396.801	94.69
397.025	90.69
397.249	72.69
397.474	88.69
397.698	91.69
397.922	93.69
398.147	76.69
398.371	87.69
398.595	101.69
398.82	80.69
399.044	79.69
399.268	83.69
399.492	89.69
399.717	99.69
399.941	104.69
400.165	91.69
400.389	86.69
400.613	87.69
400.837	86.69
401.062	91.69
401.286	87.69
401.51	90.69
401.734	87.69
401.958	93.69
402.182	111.69
402.406	129.69
402.63	100.69
402.854	77.69
403.078	89.69
403.302	81.69
403.526	95.69
403.75	81.69
403.974	99.69
404.198	99.69
404.422	91.69
404.645	109.69
404.869	89.69
405.093	88.69
405.317	88.69
405.541	94.69
405.765	84.69
405.988	110.69
406.212	145.69
406.436	176.69
406.66	117.69
406.883	93.69
407.107	92.69
407.331	94.69
407.555	102.69
407.778	104.69
408.002	95.69
408.226	91.69
408.449	91.69
408.673	94.69
408.896	100.69
409.12	100.69
409.344	89.69
409.567	104.69
409.791	91.69
410.014	101.69
410.238	93.69
410.461	87.69
410.685	94.69
410.908	106.69
411.132	102.69
411.355	92.69
411.578	113.69
411.802	87.69
412.025	89.69
412.249	92.69
412.472	92.69
412.695	96.69
412.919	100.69
413.142	85.69
413.365	94.69
413.589	104.69
413.812	90.69
414.035	96.69
414.258	106.69
414.482	78.69
414.705	88.69
414.928	101.69
415.151	101.69
415.374	86.69
415.597	76.69
415.821	104.69
416.044	108.69
416.267	100.69
416.49	85.69
416.713	95.69
416.936	101.69
417.159	92.69
417.382	99.69
417.605	89.69
417.828	103.69
418.051	95.69
418.274	101.69
418.497	98.69
418.72	92.69
418.943	97.69
419.166	95.69
419.389	90.69
419.611	93.69
419.834	88.69
420.057	87.69
420.28	83.69
420.503	94.69
420.726	97.69
420.948	108.69
421.171	83.69
421.394	108.69
421.617	102.69
421.839	92.69
422.062	96.69
422.285	91.69
422.507	92.69
422.73	88.69
422.953	100.69
423.175	95.69
423.398	80.69
423.621	93.69
423.843	92.69
424.066	100.69
424.288	86.69
424.511	94.69
424.733	98.69
424.956	99.69
425.178	90.69
425.401	107.69
425.623	90.69
425.846	90.69
426.068	93.69
426.291	96.69
426.513	100.69
426.735	91.69
426.958	85.69
427.18	92.69
427.402	130.69
427.625	125.69
427.847	109.69
428.069	94.69
428.292	110.69
428.514	95.69
428.736	76.69
428.958	79.69
429.181	89.69
429.403	85.69
429.625	91.69
429.847	108.69
430.069	91.69
430.292	86.69
430.514	88.69
430.736	86.69
430.958	117.69
431.18	87.69
431.402	73.69
431.624	90.69
431.846	95.69
432.068	99.69
432.29	87.69
432.512	85.69
432.734	86.69
432.956	95.69
433.178	95.69
433.4	104.69
433.622	118.69
433.844	103.69
434.066	91.69
434.287	80.69
434.509	103.69
434.731	96.69
434.953	90.69
435.175	95.69
435.397	73.69
435.618	88.69
435.84	105.69
436.062	108.69
436.284	112.69
436.505	104.69
436.727	90.69
436.949	101.69
437.17	76.69
437.392	89.69
437.614	79.69
437.835	97.69
438.057	111.69
438.278	93.69
438.5	108.69
438.721	123.69
438.943	93.69
439.165	99.69
439.386	95.69
439.608	99.69
439.829	90.69
440.05	112.69
440.272	131.69
440.493	98.69
440.715	88.69
440.936	107.69
441.158	82.69
441.379	98.69
441.6	83.69
441.822	84.69
442.043	78.69
442.264	106.69
442.486	76.69
442.707	87.69
442.928	107.69
443.149	111.69
443.371	121.69
443.592	84.69
443.813	95.69
444.034	93.69
444.255	105.69
444.476	83.69
444.698	90.69
444.919	81.69
445.14	137.69
445.361	120.69
445.582	110.69
445.803	116.69
446.024	109.69
446.245	123.69
446.466	104.69
446.687	103.69
446.908	93.69
447.129	81.69
447.35	85.69
447.571	98.69
447.792	97.69
448.013	100.69
448.234	98.69
448.455	102.69
448.675	120.69
448.896	120.69
449.117	93.69
449.338	104.69
449.559	115.69
449.779	111.69
450	99.69
450.221	84.69
450.442	104.69
450.662	89.69
450.883	96.69
451.104	108.69
451.324	103.69
451.545	93.69
451.766	72.69
451.986	85.69
452.207	88.69
452.428	97.69
452.648	107.69
452.869	87.69
453.089	109.69
453.31	108.69
453.53	107.69
453.751	93.69
453.971	102.69
454.192	109.69
454.412	104.69
454.633	87.69
454.853	93.69
455.073	83.69
455.294	84.69
455.514	85.69
455.734	89.69
455.955	78.69
456.175	73.69
456.395	84.69
456.616	94.69
456.836	82.69
457.056	78.69
457.276	97.69
457.497	93.69
457.717	96.69
457.937	90.69
458.157	93.69
458.377	85.69
458.598	93.69
458.818	115.69
459.038	103.69
459.258	118.69
459.478	72.69
459.698	98.69
459.918	80.69
460.138	91.69
460.358	73.69
460.578	103.69
460.798	78.69
461.018	90.69
461.238	86.69
461.458	82.69
461.678	86.69
461.898	89.69
462.118	96.69
462.338	79.69
462.558	97.69
462.777	87.69
462.997	95.69
463.217	97.69
463.437	79.69
463.657	92.69
463.876	83.69
464.096	98.69
464.316	96.69
464.536	93.69
464.755	86.69
464.975	83.69
465.195	123.69
465.414	109.69
465.634	102.69
465.854	93.69
466.073	99.69
466.293	77.69
466.512	82.69
466.732	87.69
466.951	67.69
467.171	97.69
467.391	83.69
467.61	91.69
467.829	95.69
468.049	102.69
468.268	106.69
468.488	96.69
468.707	96.69
468.927	77.69
469.146	69.69
469.365	78.69
469.585	105.69
469.804	88.69
470.023	83.69
470.243	88.69
470.462	98.69
470.681	103.69
470.901	70.69
471.12	89.69
471.339	83.69
471.558	79.69
471.777	85.69
471.997	88.69
472.216	120.69
472.435	124.69
472.654	90.69
472.873	101.69
473.092	84.69
473.311	95.69
473.53	89.69
473.749	95.69
473.968	83.69
474.187	97.69
474.406	101.69
474.625	91.69
474.844	87.69
475.063	89.69
475.282	93.69
475.501	91.69
475.72	95.69
475.939	91.69
476.158	92.69
476.377	96.69
476.596	95.69
476.814	97.69
477.033	89.69
477.252	90.69
477.471	82.69
477.69	69.69
477.908	82.69
478.127	89.69
478.346	93.69
478.564	87.69
478.783	97.69
479.002	95.69
479.22	93.69
479.439	85.69
479.658	86.69
479.876	96.69
480.095	88.69
480.313	94.69
480.532	101.69
480.751	83.69
480.969	113.69
481.188	151.69
481.406	143.69
481.624	103.69
481.843	91.69
482.061	102.69
482.28	89.69
482.498	101.69
482.717	81.69
482.935	92.69
483.153	105.69
483.372	99.69
483.59	97.69
483.808	92.69
484.027	88.69
484.245	108.69
484.463	100.69
484.681	90.69
484.9	91.69
485.118	86.69
485.336	98.69
485.554	89.69
485.772	121.69
485.99	126.69
486.209	96.69
486.427	89.69
486.645	108.69
486.863	110.69
487.081	104.69
487.299	109.69
487.517	91.69
487.735	104.69
487.953	88.69
488.171	90.69
488.389	113.69
488.607	93.69
488.825	88.69
489.043	94.69
489.261	81.69
489.479	85.69
489.696	96.69
489.914	94.69
490.132	86.69
490.35	104.69
490.568	84.69
490.786	87.69
491.003	104.69
491.221	92.69
491.439	100.69
491.657	101.69
491.874	101.69
492.092	96.69
492.31	96.69
492.527	94.69
492.745	101.69
492.963	85.69
493.18	96.69
493.398	100.69
493.615	106.69
493.833	106.69
494.05	100.69
494.268	97.69
494.485	102.69
494.703	76.69
494.92	103.69
495.138	111.69
495.355	91.69
495.573	90.69
495.79	85.69
496.008	100.69
496.225	95.69
496.442	77.69
496.66	104.69
496.877	83.69
497.094	93.69
497.312	102.69
497.529	96.69
497.746	87.69
497.963	96.69
498.181	97.69
498.398	96.69
498.615	103.69
498.832	92.69
499.049	97.69
499.267	93.69
499.484	83.69
499.701	97.69
499.918	88.69
500.135	94.69
500.352	75.69
500.569	92.69
500.786	105.69
501.003	92.69
501.22	98.69
501.437	97.69
501.654	96.69
501.871	90.69
502.088	96.69
502.305	107.69
502.522	103.69
502.739	88.69
502.956	82.69
503.172	101.69
503.389	98.69
503.606	99.69
503.823	85.69
504.04	109.69
504.256	104.69
504.473	99.69
504.69	98.69
504.907	99.69
505.123	87.69
505.34	100.69
505.557	99.69
505.773	87.69
505.99	88.69
506.207	84.69
506.423	95.69
506.64	92.69
506.856	91.69
507.073	89.69
507.289	82.69
507.506	99.69
507.722	108.69
507.939	92.69
508.155	106.69
508.372	99.69
508.588	90.69
508.805	111.69
509.021	109.69
509.238	87.69
509.454	103.69
509.67	85.69
509.887	108.69
510.103	123.69
510.319	173.69
510.536	573.69
510.752	1674.69
510.968	483.69
511.184	123.69
511.401	99.69
511.617	103.69
511.833	104.69
512.049	94.69
512.265	95.69
512.481	95.69
512.698	100.69
512.914	99.69
513.13	102.69
513.346	84.69
513.562	98.69
513.778	104.69
513.994	112.69
514.21	96.69
514.426	107.69
