Data from Uncirc_1982_H10_HRD10591_00014.txt Node
Date: Wed Jan 03 12:29:27 EST 2024
User: Yrep
Spectrometer: HR+D1059
Trigger mode: 1
Integration Time (sec): 1.000000E-1
Scans to average: 1
Electric dark correction enabled: true
Nonlinearity correction enabled: false
Boxcar width: 0
XAxis mode: Wavelengths
Number of Pixels in Spectrum: 2048
>>>>>Begin Spectral Data<<<<<
223.165	-14.94
223.4	-14.94
223.635	-14.94
223.869	-29.94
224.104	-25.94
224.338	-14.94
224.573	2.06
224.808	-2.94
225.042	-14.94
225.277	-6.94
225.511	2.06
225.746	8.06
225.98	-10.94
226.215	6.06
226.449	18.06
226.683	26.06
226.918	32.06
227.152	27.06
227.387	31.06
227.621	47.06
227.856	45.06
228.09	42.06
228.324	52.06
228.559	67.06
228.793	55.06
229.027	47.06
229.262	51.06
229.496	83.06
229.73	51.06
229.964	88.06
230.199	67.06
230.433	79.06
230.667	85.06
230.901	77.06
231.136	99.06
231.37	90.06
231.604	78.06
231.838	88.06
232.072	98.06
232.306	86.06
232.541	75.06
232.775	72.06
233.009	89.06
233.243	85.06
233.477	90.06
233.711	79.06
233.945	94.06
234.179	66.06
234.413	93.06
234.647	77.06
234.881	85.06
235.115	84.06
235.349	85.06
235.583	74.06
235.817	76.06
236.051	87.06
236.285	93.06
236.519	71.06
236.753	85.06
236.987	98.06
237.221	76.06
237.455	72.06
237.689	74.06
237.922	75.06
238.156	90.06
238.39	81.06
238.624	78.06
238.858	101.06
239.091	71.06
239.325	70.06
239.559	74.06
239.793	78.06
240.027	85.06
240.26	73.06
240.494	88.06
240.728	74.06
240.961	75.06
241.195	81.06
241.429	69.06
241.662	68.06
241.896	77.06
242.13	75.06
242.363	68.06
242.597	76.06
242.83	83.06
243.064	88.06
243.298	63.06
243.531	81.06
243.765	75.06
243.998	82.06
244.232	91.06
244.465	81.06
244.699	88.06
244.932	99.06
245.166	84.06
245.399	93.06
245.633	78.06
245.866	70.06
246.099	83.06
246.333	84.06
246.566	63.06
246.8	87.06
247.033	86.06
247.266	60.06
247.5	88.06
247.733	90.06
247.966	83.06
248.2	76.06
248.433	77.06
248.666	81.06
248.899	86.06
249.133	90.06
249.366	96.06
249.599	85.06
249.832	72.06
250.066	76.06
250.299	88.06
250.532	87.06
250.765	81.06
250.998	74.06
251.231	72.06
251.465	85.06
251.698	101.06
251.931	75.06
252.164	85.06
252.397	74.06
252.63	87.06
252.863	77.06
253.096	79.06
253.329	77.06
253.562	90.06
253.795	72.06
254.028	89.06
254.261	74.06
254.494	91.06
254.727	93.06
254.96	78.06
255.193	65.06
255.426	91.06
255.659	81.06
255.892	81.06
256.124	78.06
256.357	86.06
256.59	77.06
256.823	81.06
257.056	87.06
257.289	92.06
257.521	85.06
257.754	78.06
257.987	70.06
258.22	78.06
258.452	90.06
258.685	85.06
258.918	83.06
259.151	76.06
259.383	77.06
259.616	85.06
259.849	81.06
260.081	81.06
260.314	95.06
260.547	78.06
260.779	87.06
261.012	97.06
261.244	95.06
261.477	102.06
261.71	97.06
261.942	108.06
262.175	110.06
262.407	91.06
262.64	71.06
262.872	84.06
263.105	75.06
263.337	84.06
263.57	79.06
263.802	77.06
264.035	93.06
264.267	89.06
264.499	90.06
264.732	85.06
264.964	76.06
265.197	89.06
265.429	84.06
265.661	81.06
265.894	82.06
266.126	101.06
266.358	97.06
266.591	85.06
266.823	85.06
267.055	81.06
267.287	93.06
267.52	87.06
267.752	93.06
267.984	92.06
268.216	84.06
268.448	97.06
268.681	63.06
268.913	71.06
269.145	84.06
269.377	86.06
269.609	91.06
269.841	90.06
270.073	86.06
270.306	89.06
270.538	83.06
270.77	68.06
271.002	99.06
271.234	86.06
271.466	79.06
271.698	86.06
271.93	95.06
272.162	85.06
272.394	92.06
272.626	78.06
272.858	83.06
273.09	83.06
273.322	86.06
273.553	88.06
273.785	86.06
274.017	87.06
274.249	94.06
274.481	91.06
274.713	81.06
274.945	77.06
275.176	72.06
275.408	88.06
275.64	92.06
275.872	94.06
276.104	90.06
276.335	94.06
276.567	99.06
276.799	94.06
277.031	88.06
277.262	93.06
277.494	77.06
277.726	91.06
277.957	85.06
278.189	94.06
278.421	90.06
278.652	76.06
278.884	86.06
279.115	91.06
279.347	79.06
279.579	77.06
279.81	78.06
280.042	77.06
280.273	82.06
280.505	79.06
280.736	94.06
280.968	81.06
281.199	91.06
281.431	87.06
281.662	90.06
281.894	99.06
282.125	94.06
282.356	119.06
282.588	110.06
282.819	113.06
283.051	93.06
283.282	102.06
283.513	84.06
283.745	80.06
283.976	95.06
284.207	91.06
284.439	93.06
284.67	94.06
284.901	89.06
285.132	87.06
285.364	85.06
285.595	78.06
285.826	78.06
286.057	99.06
286.288	83.06
286.52	85.06
286.751	78.06
286.982	101.06
287.213	81.06
287.444	93.06
287.675	91.06
287.906	83.06
288.138	95.06
288.369	92.06
288.6	95.06
288.831	74.06
289.062	88.06
289.293	86.06
289.524	88.06
289.755	96.06
289.986	87.06
290.217	100.06
290.448	85.06
290.679	98.06
290.91	94.06
291.141	97.06
291.371	99.06
291.602	66.06
291.833	77.06
292.064	98.06
292.295	98.06
292.526	86.06
292.757	97.06
292.987	93.06
293.218	98.06
293.449	95.06
293.68	87.06
293.91	87.06
294.141	97.06
294.372	92.06
294.603	94.06
294.833	97.06
295.064	93.06
295.295	94.06
295.525	92.06
295.756	93.06
295.987	109.06
296.217	126.06
296.448	119.06
296.679	95.06
296.909	91.06
297.14	97.06
297.37	93.06
297.601	98.06
297.831	93.06
298.062	100.06
298.292	89.06
298.523	95.06
298.753	95.06
298.984	96.06
299.214	88.06
299.445	89.06
299.675	79.06
299.905	85.06
300.136	96.06
300.366	94.06
300.597	105.06
300.827	93.06
301.057	99.06
301.288	89.06
301.518	83.06
301.748	91.06
301.979	107.06
302.209	98.06
302.439	86.06
302.669	97.06
302.9	92.06
303.13	89.06
303.36	85.06
303.59	98.06
303.82	105.06
304.051	89.06
304.281	90.06
304.511	97.06
304.741	89.06
304.971	94.06
305.201	95.06
305.431	87.06
305.661	83.06
305.891	98.06
306.121	89.06
306.352	83.06
306.582	105.06
306.812	87.06
307.042	93.06
307.272	106.06
307.502	101.06
307.731	76.06
307.961	91.06
308.191	94.06
308.421	95.06
308.651	74.06
308.881	99.06
309.111	100.06
309.341	104.06
309.571	94.06
309.8	94.06
310.03	91.06
310.26	108.06
310.49	88.06
310.72	90.06
310.949	98.06
311.179	92.06
311.409	98.06
311.639	92.06
311.868	104.06
312.098	87.06
312.328	107.06
312.557	97.06
312.787	95.06
313.017	92.06
313.246	113.06
313.476	104.06
313.706	97.06
313.935	83.06
314.165	87.06
314.394	83.06
314.624	91.06
314.853	98.06
315.083	93.06
315.312	88.06
315.542	97.06
315.771	92.06
316.001	99.06
316.23	89.06
316.46	84.06
316.689	93.06
316.919	97.06
317.148	97.06
317.377	92.06
317.607	90.06
317.836	93.06
318.065	87.06
318.295	89.06
318.524	93.06
318.753	84.06
318.983	94.06
319.212	106.06
319.441	94.06
319.67	92.06
319.9	99.06
320.129	85.06
320.358	83.06
320.587	104.06
320.816	101.06
321.046	89.06
321.275	104.06
321.504	93.06
321.733	100.06
321.962	101.06
322.191	94.06
322.42	96.06
322.649	104.06
322.878	119.06
323.108	113.06
323.337	106.06
323.566	105.06
323.795	127.06
324.024	179.06
324.253	335.06
324.482	659.06
324.71	1372.06
324.939	1766.06
325.168	631.06
325.397	204.06
325.626	129.06
325.855	125.06
326.084	119.06
326.313	122.06
326.542	148.06
326.77	207.06
326.999	385.06
327.228	785.06
327.457	1369.06
327.686	1077.06
327.914	289.06
328.143	163.06
328.372	129.06
328.6	113.06
328.829	119.06
329.058	118.06
329.287	108.06
329.515	97.06
329.744	97.06
329.972	89.06
330.201	102.06
330.43	118.06
330.658	129.06
330.887	114.06
331.115	103.06
331.344	99.06
331.572	101.06
331.801	104.06
332.03	106.06
332.258	91.06
332.486	88.06
332.715	99.06
332.943	100.06
333.172	89.06
333.4	100.06
333.629	116.06
333.857	101.06
334.085	112.06
334.314	104.06
334.542	114.06
334.771	118.06
334.999	93.06
335.227	100.06
335.455	85.06
335.684	92.06
335.912	98.06
336.14	102.06
336.369	101.06
336.597	92.06
336.825	103.06
337.053	76.06
337.281	92.06
337.51	95.06
337.738	108.06
337.966	105.06
338.194	98.06
338.422	101.06
338.65	83.06
338.878	105.06
339.106	91.06
339.334	84.06
339.562	89.06
339.79	100.06
340.018	101.06
340.246	98.06
340.474	91.06
340.702	86.06
340.93	101.06
341.158	91.06
341.386	98.06
341.614	78.06
341.842	90.06
342.07	90.06
342.298	93.06
342.526	87.06
342.754	81.06
342.981	89.06
343.209	79.06
343.437	115.06
343.665	97.06
343.893	101.06
344.12	96.06
344.348	91.06
344.576	84.06
344.804	110.06
345.031	87.06
345.259	88.06
345.487	90.06
345.714	85.06
345.942	91.06
346.17	102.06
346.397	91.06
346.625	99.06
346.853	98.06
347.08	87.06
347.308	89.06
347.535	97.06
347.763	106.06
347.99	99.06
348.218	100.06
348.445	107.06
348.673	93.06
348.9	107.06
349.128	108.06
349.355	101.06
349.583	104.06
349.81	89.06
350.037	92.06
350.265	93.06
350.492	82.06
350.72	84.06
350.947	107.06
351.174	111.06
351.402	115.06
351.629	101.06
351.856	97.06
352.083	98.06
352.311	107.06
352.538	101.06
352.765	115.06
352.992	95.06
353.22	110.06
353.447	110.06
353.674	103.06
353.901	99.06
354.128	94.06
354.355	97.06
354.583	111.06
354.81	97.06
355.037	109.06
355.264	108.06
355.491	91.06
355.718	94.06
355.945	90.06
356.172	104.06
356.399	94.06
356.626	110.06
356.853	87.06
357.08	102.06
357.307	94.06
357.534	84.06
357.761	99.06
357.988	101.06
358.215	100.06
358.441	88.06
358.668	98.06
358.895	94.06
359.122	86.06
359.349	85.06
359.576	73.06
359.802	111.06
360.029	110.06
360.256	86.06
360.483	82.06
360.709	85.06
360.936	92.06
361.163	98.06
361.39	90.06
361.616	90.06
361.843	95.06
362.07	92.06
362.296	88.06
362.523	104.06
362.749	93.06
362.976	91.06
363.203	81.06
363.429	92.06
363.656	94.06
363.882	89.06
364.109	110.06
364.335	98.06
364.562	94.06
364.788	102.06
365.015	89.06
365.241	95.06
365.468	98.06
365.694	91.06
365.92	98.06
366.147	77.06
366.373	89.06
366.599	88.06
366.826	94.06
367.052	78.06
367.278	90.06
367.505	94.06
367.731	96.06
367.957	90.06
368.184	82.06
368.41	98.06
368.636	108.06
368.862	114.06
369.089	105.06
369.315	99.06
369.541	102.06
369.767	95.06
369.993	90.06
370.219	91.06
370.445	87.06
370.672	87.06
370.898	98.06
371.124	87.06
371.35	97.06
371.576	93.06
371.802	79.06
372.028	95.06
372.254	97.06
372.48	69.06
372.706	84.06
372.932	91.06
373.158	96.06
373.384	87.06
373.61	98.06
373.835	94.06
374.061	88.06
374.287	92.06
374.513	103.06
374.739	87.06
374.965	77.06
375.191	93.06
375.416	87.06
375.642	94.06
375.868	102.06
376.094	84.06
376.319	104.06
376.545	99.06
376.771	90.06
376.997	87.06
377.222	87.06
377.448	88.06
377.674	94.06
377.899	99.06
378.125	89.06
378.35	92.06
378.576	102.06
378.802	87.06
379.027	86.06
379.253	90.06
379.478	84.06
379.704	111.06
379.929	95.06
380.155	105.06
380.38	99.06
380.606	93.06
380.831	100.06
381.057	100.06
381.282	118.06
381.507	97.06
381.733	102.06
381.958	113.06
382.184	101.06
382.409	103.06
382.634	116.06
382.86	97.06
383.085	104.06
383.31	101.06
383.535	117.06
383.761	111.06
383.986	106.06
384.211	97.06
384.436	102.06
384.662	108.06
384.887	114.06
385.112	133.06
385.337	125.06
385.562	107.06
385.787	130.06
386.013	112.06
386.238	128.06
386.463	102.06
386.688	114.06
386.913	109.06
387.138	126.06
387.363	109.06
387.588	105.06
387.813	108.06
388.038	122.06
388.263	122.06
388.488	131.06
388.713	108.06
388.938	100.06
389.163	99.06
389.387	106.06
389.612	94.06
389.837	89.06
390.062	102.06
390.287	109.06
390.512	102.06
390.736	101.06
390.961	87.06
391.186	98.06
391.411	85.06
391.636	110.06
391.86	89.06
392.085	86.06
392.31	88.06
392.534	92.06
392.759	86.06
392.984	91.06
393.208	89.06
393.433	105.06
393.658	90.06
393.882	71.06
394.107	95.06
394.331	83.06
394.556	87.06
394.78	103.06
395.005	86.06
395.229	83.06
395.454	84.06
395.678	91.06
395.903	90.06
396.127	96.06
396.352	102.06
396.576	85.06
396.801	101.06
397.025	89.06
397.249	81.06
397.474	97.06
397.698	87.06
397.922	90.06
398.147	79.06
398.371	90.06
398.595	97.06
398.82	98.06
399.044	96.06
399.268	96.06
399.492	83.06
399.717	90.06
399.941	89.06
400.165	100.06
400.389	85.06
400.613	71.06
400.837	87.06
401.062	75.06
401.286	97.06
401.51	74.06
401.734	90.06
401.958	77.06
402.182	105.06
402.406	137.06
402.63	106.06
402.854	83.06
403.078	89.06
403.302	79.06
403.526	94.06
403.75	89.06
403.974	74.06
404.198	85.06
404.422	89.06
404.645	82.06
404.869	85.06
405.093	99.06
405.317	91.06
405.541	101.06
405.765	94.06
405.988	111.06
406.212	134.06
406.436	175.06
406.66	124.06
406.883	97.06
407.107	101.06
407.331	104.06
407.555	105.06
407.778	109.06
408.002	89.06
408.226	88.06
408.449	78.06
408.673	114.06
408.896	95.06
409.12	90.06
409.344	95.06
409.567	93.06
409.791	87.06
410.014	95.06
410.238	94.06
410.461	91.06
410.685	105.06
410.908	92.06
411.132	92.06
411.355	106.06
411.578	83.06
411.802	97.06
412.025	85.06
412.249	101.06
412.472	105.06
412.695	92.06
412.919	83.06
413.142	88.06
413.365	95.06
413.589	97.06
413.812	85.06
414.035	97.06
414.258	73.06
414.482	101.06
414.705	87.06
414.928	103.06
415.151	102.06
415.374	92.06
415.597	94.06
415.821	95.06
416.044	88.06
416.267	82.06
416.49	81.06
416.713	93.06
416.936	101.06
417.159	82.06
417.382	95.06
417.605	92.06
417.828	92.06
418.051	95.06
418.274	87.06
418.497	89.06
418.72	105.06
418.943	93.06
419.166	83.06
419.389	98.06
419.611	90.06
419.834	85.06
420.057	88.06
420.28	90.06
420.503	102.06
420.726	95.06
420.948	95.06
421.171	101.06
421.394	87.06
421.617	108.06
421.839	93.06
422.062	95.06
422.285	86.06
422.507	94.06
422.73	85.06
422.953	85.06
423.175	86.06
423.398	90.06
423.621	77.06
423.843	93.06
424.066	72.06
424.288	98.06
424.511	101.06
424.733	98.06
424.956	92.06
425.178	86.06
425.401	99.06
425.623	89.06
425.846	82.06
426.068	101.06
426.291	98.06
426.513	87.06
426.735	87.06
426.958	95.06
427.18	101.06
427.402	124.06
427.625	132.06
427.847	116.06
428.069	104.06
428.292	93.06
428.514	90.06
428.736	82.06
428.958	95.06
429.181	80.06
429.403	85.06
429.625	88.06
429.847	94.06
430.069	87.06
430.292	101.06
430.514	86.06
430.736	101.06
430.958	97.06
431.18	82.06
431.402	95.06
431.624	73.06
431.846	95.06
432.068	94.06
432.29	94.06
432.512	91.06
432.734	92.06
432.956	75.06
433.178	115.06
433.4	87.06
433.622	90.06
433.844	76.06
434.066	87.06
434.287	87.06
434.509	90.06
434.731	82.06
434.953	99.06
435.175	86.06
435.397	82.06
435.618	74.06
435.84	91.06
436.062	113.06
436.284	103.06
436.505	103.06
436.727	109.06
436.949	83.06
437.17	81.06
437.392	83.06
437.614	71.06
437.835	109.06
438.057	105.06
438.278	95.06
438.5	93.06
438.721	117.06
438.943	104.06
439.165	93.06
439.386	87.06
439.608	82.06
439.829	89.06
440.05	114.06
440.272	115.06
440.493	101.06
440.715	95.06
440.936	94.06
441.158	88.06
441.379	93.06
441.6	96.06
441.822	75.06
442.043	76.06
442.264	87.06
442.486	109.06
442.707	94.06
442.928	98.06
443.149	106.06
443.371	106.06
443.592	107.06
443.813	120.06
444.034	121.06
444.255	94.06
444.476	91.06
444.698	93.06
444.919	93.06
445.14	126.06
445.361	118.06
445.582	103.06
445.803	121.06
446.024	124.06
446.245	125.06
446.466	97.06
446.687	90.06
446.908	102.06
447.129	85.06
447.35	83.06
447.571	101.06
447.792	93.06
448.013	91.06
448.234	102.06
448.455	100.06
448.675	106.06
448.896	109.06
449.117	103.06
449.338	101.06
449.559	119.06
449.779	122.06
450	97.06
450.221	94.06
450.442	85.06
450.662	103.06
450.883	102.06
451.104	99.06
451.324	79.06
451.545	92.06
451.766	88.06
451.986	86.06
452.207	94.06
452.428	95.06
452.648	98.06
452.869	110.06
453.089	101.06
453.31	107.06
453.53	86.06
453.751	94.06
453.971	80.06
454.192	91.06
454.412	95.06
454.633	71.06
454.853	78.06
455.073	77.06
455.294	86.06
455.514	91.06
455.734	81.06
455.955	83.06
456.175	78.06
456.395	86.06
456.616	87.06
456.836	77.06
457.056	76.06
457.276	92.06
457.497	84.06
457.717	78.06
457.937	95.06
458.157	102.06
458.377	86.06
458.598	100.06
458.818	126.06
459.038	126.06
459.258	100.06
459.478	90.06
459.698	78.06
459.918	77.06
460.138	87.06
460.358	88.06
460.578	72.06
460.798	73.06
461.018	91.06
461.238	94.06
461.458	63.06
461.678	97.06
461.898	83.06
462.118	87.06
462.338	84.06
462.558	94.06
462.777	83.06
462.997	94.06
463.217	101.06
463.437	91.06
463.657	94.06
463.876	88.06
464.096	90.06
464.316	95.06
464.536	93.06
464.755	109.06
464.975	96.06
465.195	140.06
465.414	115.06
465.634	111.06
465.854	90.06
466.073	84.06
466.293	93.06
466.512	86.06
466.732	105.06
466.951	86.06
467.171	80.06
467.391	95.06
467.61	97.06
467.829	83.06
468.049	93.06
468.268	92.06
468.488	85.06
468.707	76.06
468.927	85.06
469.146	90.06
469.365	83.06
469.585	84.06
469.804	106.06
470.023	95.06
470.243	86.06
470.462	76.06
470.681	95.06
470.901	85.06
471.12	82.06
471.339	81.06
471.558	93.06
471.777	84.06
471.997	75.06
472.216	97.06
472.435	134.06
472.654	102.06
472.873	90.06
473.092	78.06
473.311	88.06
473.53	85.06
473.749	91.06
473.968	89.06
474.187	99.06
474.406	90.06
474.625	91.06
474.844	83.06
475.063	88.06
475.282	83.06
475.501	106.06
475.72	94.06
475.939	97.06
476.158	70.06
476.377	77.06
476.596	81.06
476.814	85.06
477.033	97.06
477.252	89.06
477.471	92.06
477.69	94.06
477.908	83.06
478.127	92.06
478.346	87.06
478.564	80.06
478.783	94.06
479.002	95.06
479.22	108.06
479.439	105.06
479.658	95.06
479.876	82.06
480.095	93.06
480.313	90.06
480.532	94.06
480.751	85.06
480.969	107.06
481.188	173.06
481.406	145.06
481.624	89.06
481.843	92.06
482.061	93.06
482.28	85.06
482.498	86.06
482.717	89.06
482.935	97.06
483.153	90.06
483.372	94.06
483.59	82.06
483.808	84.06
484.027	83.06
484.245	84.06
484.463	97.06
484.681	107.06
484.9	104.06
485.118	95.06
485.336	89.06
485.554	103.06
485.772	93.06
485.99	109.06
486.209	110.06
486.427	102.06
486.645	108.06
486.863	109.06
487.081	107.06
487.299	114.06
487.517	106.06
487.735	79.06
487.953	98.06
488.171	99.06
488.389	92.06
488.607	94.06
488.825	109.06
489.043	76.06
489.261	97.06
489.479	99.06
489.696	90.06
489.914	94.06
490.132	95.06
490.35	100.06
490.568	94.06
490.786	90.06
491.003	93.06
491.221	99.06
491.439	84.06
491.657	87.06
491.874	88.06
492.092	93.06
492.31	96.06
492.527	91.06
492.745	98.06
492.963	100.06
493.18	100.06
493.398	90.06
493.615	91.06
493.833	105.06
494.05	73.06
494.268	93.06
494.485	104.06
494.703	86.06
494.92	102.06
495.138	111.06
495.355	86.06
495.573	79.06
495.79	98.06
496.008	106.06
496.225	96.06
496.442	92.06
496.66	104.06
496.877	87.06
497.094	101.06
497.312	89.06
497.529	91.06
497.746	83.06
497.963	94.06
498.181	97.06
498.398	90.06
498.615	115.06
498.832	85.06
499.049	83.06
499.267	103.06
499.484	91.06
499.701	84.06
499.918	93.06
500.135	86.06
500.352	105.06
500.569	81.06
500.786	108.06
501.003	83.06
501.22	87.06
501.437	91.06
501.654	100.06
501.871	99.06
502.088	90.06
502.305	98.06
502.522	94.06
502.739	90.06
502.956	85.06
503.172	87.06
503.389	85.06
503.606	103.06
503.823	98.06
504.04	86.06
504.256	74.06
504.473	90.06
504.69	85.06
504.907	99.06
505.123	91.06
505.34	94.06
505.557	94.06
505.773	91.06
505.99	87.06
506.207	95.06
506.423	90.06
506.64	93.06
506.856	94.06
507.073	91.06
507.289	86.06
507.506	92.06
507.722	106.06
507.939	91.06
508.155	98.06
508.372	83.06
508.588	86.06
508.805	95.06
509.021	93.06
509.238	99.06
509.454	89.06
509.67	118.06
509.887	102.06
510.103	116.06
510.319	162.06
510.536	580.06
510.752	1631.06
510.968	489.06
511.184	151.06
511.401	109.06
511.617	110.06
511.833	91.06
512.049	102.06
512.265	93.06
512.481	100.06
512.698	100.06
512.914	95.06
513.13	94.06
513.346	81.06
513.562	100.06
513.778	99.06
513.994	99.06
514.21	104.06
514.426	102.06
514.642	117.06
514.858	123.06
515.074	136.06
515.29	342.06
515.506	983.06
