Data from Uncirc_1982_H10_HRD10591_00021.txt Node
Date: Wed Jan 03 12:29:29 EST 2024
User: Yrep
Spectrometer: HR+D1059
Trigger mode: 1
Integration Time (sec): 1.000000E-1
Scans to average: 1
Electric dark correction enabled: true
Nonlinearity correction enabled: false
Boxcar width: 0
XAxis mode: Wavelengths
Number of Pixels in Spectrum: 2048
>>>>>Begin Spectral Data<<<<<
223.165	-22.25
223.4	-22.25
223.635	-22.25
223.869	-6.25
224.104	-12.25
224.338	-12.25
224.573	-19.25
224.808	-14.25
225.042	-14.25
225.277	-8.25
225.511	-0.25
225.746	2.75
225.98	2.75
226.215	17.75
226.449	20.75
226.683	18.75
226.918	23.75
227.152	22.75
227.387	25.75
227.621	39.75
227.856	50.75
228.09	62.75
228.324	50.75
228.559	61.75
228.793	66.75
229.027	71.75
229.262	68.75
229.496	65.75
229.73	75.75
229.964	75.75
230.199	60.75
230.433	67.75
230.667	74.75
230.901	72.75
231.136	74.75
231.37	78.75
231.604	56.75
231.838	72.75
232.072	96.75
232.306	76.75
232.541	78.75
232.775	82.75
233.009	57.75
233.243	86.75
233.477	83.75
233.711	84.75
233.945	90.75
234.179	90.75
234.413	88.75
234.647	72.75
234.881	82.75
235.115	78.75
235.349	91.75
235.583	76.75
235.817	78.75
236.051	80.75
236.285	83.75
236.519	69.75
236.753	82.75
236.987	72.75
237.221	74.75
237.455	68.75
237.689	59.75
237.922	73.75
238.156	82.75
238.39	80.75
238.624	67.75
238.858	62.75
239.091	69.75
239.325	72.75
239.559	83.75
239.793	88.75
240.027	78.75
240.26	66.75
240.494	88.75
240.728	82.75
240.961	74.75
241.195	84.75
241.429	63.75
241.662	55.75
241.896	69.75
242.13	72.75
242.363	74.75
242.597	74.75
242.83	62.75
243.064	79.75
243.298	82.75
243.531	69.75
243.765	68.75
243.998	61.75
244.232	74.75
244.465	76.75
244.699	82.75
244.932	83.75
245.166	84.75
245.399	83.75
245.633	77.75
245.866	79.75
246.099	84.75
246.333	74.75
246.566	96.75
246.8	75.75
247.033	64.75
247.266	70.75
247.5	73.75
247.733	73.75
247.966	70.75
248.2	76.75
248.433	64.75
248.666	82.75
248.899	82.75
249.133	85.75
249.366	96.75
249.599	87.75
249.832	81.75
250.066	68.75
250.299	75.75
250.532	84.75
250.765	91.75
250.998	90.75
251.231	72.75
251.465	55.75
251.698	69.75
251.931	84.75
252.164	83.75
252.397	67.75
252.63	71.75
252.863	87.75
253.096	75.75
253.329	79.75
253.562	94.75
253.795	72.75
254.028	70.75
254.261	76.75
254.494	84.75
254.727	84.75
254.96	86.75
255.193	74.75
255.426	80.75
255.659	68.75
255.892	87.75
256.124	89.75
256.357	84.75
256.59	84.75
256.823	86.75
257.056	79.75
257.289	86.75
257.521	85.75
257.754	82.75
257.987	85.75
258.22	66.75
258.452	74.75
258.685	81.75
258.918	84.75
259.151	91.75
259.383	92.75
259.616	83.75
259.849	90.75
260.081	90.75
260.314	86.75
260.547	80.75
260.779	86.75
261.012	95.75
261.244	70.75
261.477	100.75
261.71	88.75
261.942	102.75
262.175	107.75
262.407	81.75
262.64	80.75
262.872	83.75
263.105	93.75
263.337	90.75
263.57	77.75
263.802	76.75
264.035	68.75
264.267	75.75
264.499	70.75
264.732	80.75
264.964	80.75
265.197	87.75
265.429	81.75
265.661	87.75
265.894	82.75
266.126	80.75
266.358	91.75
266.591	80.75
266.823	74.75
267.055	75.75
267.287	88.75
267.52	71.75
267.752	90.75
267.984	82.75
268.216	90.75
268.448	86.75
268.681	83.75
268.913	90.75
269.145	86.75
269.377	75.75
269.609	58.75
269.841	85.75
270.073	82.75
270.306	80.75
270.538	79.75
270.77	72.75
271.002	82.75
271.234	75.75
271.466	88.75
271.698	81.75
271.93	77.75
272.162	90.75
272.394	78.75
272.626	91.75
272.858	90.75
273.09	84.75
273.322	91.75
273.553	83.75
273.785	71.75
274.017	86.75
274.249	82.75
274.481	96.75
274.713	87.75
274.945	86.75
275.176	86.75
275.408	84.75
275.64	71.75
275.872	83.75
276.104	86.75
276.335	67.75
276.567	112.75
276.799	103.75
277.031	93.75
277.262	95.75
277.494	77.75
277.726	80.75
277.957	86.75
278.189	79.75
278.421	88.75
278.652	91.75
278.884	92.75
279.115	76.75
279.347	88.75
279.579	76.75
279.81	99.75
280.042	84.75
280.273	86.75
280.505	84.75
280.736	78.75
280.968	81.75
281.199	92.75
281.431	92.75
281.662	82.75
281.894	88.75
282.125	92.75
282.356	104.75
282.588	101.75
282.819	88.75
283.051	84.75
283.282	73.75
283.513	76.75
283.745	96.75
283.976	73.75
284.207	88.75
284.439	95.75
284.67	90.75
284.901	91.75
285.132	80.75
285.364	86.75
285.595	87.75
285.826	92.75
286.057	97.75
286.288	102.75
286.52	86.75
286.751	80.75
286.982	91.75
287.213	76.75
287.444	75.75
287.675	85.75
287.906	81.75
288.138	96.75
288.369	84.75
288.6	98.75
288.831	73.75
289.062	83.75
289.293	92.75
289.524	81.75
289.755	103.75
289.986	97.75
290.217	83.75
290.448	83.75
290.679	87.75
290.91	98.75
291.141	98.75
291.371	89.75
291.602	81.75
291.833	74.75
292.064	90.75
292.295	95.75
292.526	87.75
292.757	74.75
292.987	85.75
293.218	95.75
293.449	87.75
293.68	82.75
293.91	99.75
294.141	76.75
294.372	84.75
294.603	90.75
294.833	88.75
295.064	92.75
295.295	76.75
295.525	93.75
295.756	104.75
295.987	115.75
296.217	121.75
296.448	105.75
296.679	94.75
296.909	87.75
297.14	69.75
297.37	94.75
297.601	89.75
297.831	81.75
298.062	88.75
298.292	92.75
298.523	68.75
298.753	97.75
298.984	87.75
299.214	75.75
299.445	88.75
299.675	76.75
299.905	87.75
300.136	73.75
300.366	82.75
300.597	86.75
300.827	83.75
301.057	70.75
301.288	89.75
301.518	89.75
301.748	82.75
301.979	89.75
302.209	88.75
302.439	84.75
302.669	89.75
302.9	88.75
303.13	102.75
303.36	104.75
303.59	102.75
303.82	86.75
304.051	96.75
304.281	94.75
304.511	102.75
304.741	74.75
304.971	88.75
305.201	78.75
305.431	84.75
305.661	87.75
305.891	80.75
306.121	95.75
306.352	83.75
306.582	88.75
306.812	83.75
307.042	90.75
307.272	78.75
307.502	82.75
307.731	85.75
307.961	90.75
308.191	83.75
308.421	92.75
308.651	88.75
308.881	83.75
309.111	93.75
309.341	91.75
309.571	110.75
309.8	86.75
310.03	94.75
310.26	82.75
310.49	95.75
310.72	88.75
310.949	88.75
311.179	94.75
311.409	76.75
311.639	99.75
311.868	88.75
312.098	89.75
312.328	83.75
312.557	108.75
312.787	102.75
313.017	89.75
313.246	98.75
313.476	86.75
313.706	99.75
313.935	86.75
314.165	94.75
314.394	98.75
314.624	93.75
314.853	98.75
315.083	98.75
315.312	101.75
315.542	96.75
315.771	90.75
316.001	81.75
316.23	97.75
316.46	104.75
316.689	94.75
316.919	103.75
317.148	88.75
317.377	91.75
317.607	81.75
317.836	99.75
318.065	96.75
318.295	91.75
318.524	97.75
318.753	87.75
318.983	95.75
319.212	89.75
319.441	95.75
319.67	99.75
319.9	93.75
320.129	84.75
320.358	65.75
320.587	96.75
320.816	99.75
321.046	84.75
321.275	97.75
321.504	100.75
321.733	95.75
321.962	88.75
322.191	100.75
322.42	103.75
322.649	101.75
322.878	103.75
323.108	105.75
323.337	106.75
323.566	120.75
323.795	129.75
324.024	168.75
324.253	300.75
324.482	619.75
324.71	1240.75
324.939	1556.75
325.168	583.75
325.397	176.75
325.626	124.75
325.855	133.75
326.084	113.75
326.313	114.75
326.542	138.75
326.77	182.75
326.999	376.75
327.228	704.75
327.457	1283.75
327.686	1015.75
327.914	290.75
328.143	158.75
328.372	127.75
328.6	107.75
328.829	113.75
329.058	108.75
329.287	126.75
329.515	110.75
329.744	98.75
329.972	108.75
330.201	108.75
330.43	113.75
330.658	108.75
330.887	114.75
331.115	113.75
331.344	100.75
331.572	101.75
331.801	101.75
332.03	104.75
332.258	95.75
332.486	97.75
332.715	81.75
332.943	89.75
333.172	98.75
333.4	90.75
333.629	115.75
333.857	103.75
334.085	103.75
334.314	102.75
334.542	116.75
334.771	126.75
334.999	85.75
335.227	94.75
335.455	96.75
335.684	88.75
335.912	90.75
336.14	72.75
336.369	92.75
336.597	95.75
336.825	96.75
337.053	85.75
337.281	87.75
337.51	95.75
337.738	108.75
337.966	99.75
338.194	103.75
338.422	91.75
338.65	91.75
338.878	91.75
339.106	81.75
339.334	89.75
339.562	86.75
339.79	79.75
340.018	94.75
340.246	80.75
340.474	100.75
340.702	88.75
340.93	82.75
341.158	74.75
341.386	103.75
341.614	97.75
341.842	93.75
342.07	89.75
342.298	85.75
342.526	85.75
342.754	80.75
342.981	94.75
343.209	90.75
343.437	90.75
343.665	86.75
343.893	80.75
344.12	84.75
344.348	84.75
344.576	115.75
344.804	100.75
345.031	98.75
345.259	92.75
345.487	96.75
345.714	91.75
345.942	97.75
346.17	91.75
346.397	89.75
346.625	80.75
346.853	86.75
347.08	89.75
347.308	103.75
347.535	95.75
347.763	107.75
347.99	92.75
348.218	102.75
348.445	90.75
348.673	91.75
348.9	98.75
349.128	86.75
349.355	85.75
349.583	86.75
349.81	97.75
350.037	102.75
350.265	89.75
350.492	87.75
350.72	87.75
350.947	92.75
351.174	95.75
351.402	105.75
351.629	100.75
351.856	98.75
352.083	102.75
352.311	106.75
352.538	82.75
352.765	104.75
352.992	106.75
353.22	96.75
353.447	105.75
353.674	94.75
353.901	89.75
354.128	92.75
354.355	99.75
354.583	90.75
354.81	104.75
355.037	101.75
355.264	103.75
355.491	101.75
355.718	98.75
355.945	97.75
356.172	107.75
356.399	102.75
356.626	100.75
356.853	88.75
357.08	87.75
357.307	88.75
357.534	100.75
357.761	97.75
357.988	95.75
358.215	89.75
358.441	94.75
358.668	102.75
358.895	79.75
359.122	72.75
359.349	78.75
359.576	100.75
359.802	98.75
360.029	96.75
360.256	75.75
360.483	83.75
360.709	89.75
360.936	99.75
361.163	86.75
361.39	75.75
361.616	91.75
361.843	95.75
362.07	84.75
362.296	100.75
362.523	99.75
362.749	90.75
362.976	86.75
363.203	83.75
363.429	71.75
363.656	88.75
363.882	93.75
364.109	92.75
364.335	93.75
364.562	89.75
364.788	79.75
365.015	104.75
365.241	91.75
365.468	98.75
365.694	84.75
365.92	93.75
366.147	82.75
366.373	80.75
366.599	89.75
366.826	80.75
367.052	73.75
367.278	87.75
367.505	85.75
367.731	96.75
367.957	85.75
368.184	90.75
368.41	86.75
368.636	109.75
368.862	116.75
369.089	102.75
369.315	92.75
369.541	94.75
369.767	111.75
369.993	97.75
370.219	90.75
370.445	84.75
370.672	75.75
370.898	88.75
371.124	84.75
371.35	85.75
371.576	89.75
371.802	83.75
372.028	91.75
372.254	95.75
372.48	81.75
372.706	88.75
372.932	92.75
373.158	79.75
373.384	84.75
373.61	95.75
373.835	79.75
374.061	104.75
374.287	97.75
374.513	78.75
374.739	91.75
374.965	84.75
375.191	89.75
375.416	87.75
375.642	84.75
375.868	87.75
376.094	84.75
376.319	92.75
376.545	78.75
376.771	89.75
376.997	82.75
377.222	86.75
377.448	97.75
377.674	96.75
377.899	89.75
378.125	95.75
378.35	107.75
378.576	84.75
378.802	90.75
379.027	89.75
379.253	87.75
379.478	86.75
379.704	83.75
379.929	82.75
380.155	108.75
380.38	104.75
380.606	102.75
380.831	100.75
381.057	90.75
381.282	101.75
381.507	100.75
381.733	85.75
381.958	106.75
382.184	104.75
382.409	114.75
382.634	95.75
382.86	98.75
383.085	95.75
383.31	104.75
383.535	108.75
383.761	108.75
383.986	102.75
384.211	99.75
384.436	102.75
384.662	90.75
384.887	105.75
385.112	108.75
385.337	104.75
385.562	101.75
385.787	98.75
386.013	104.75
386.238	110.75
386.463	113.75
386.688	99.75
386.913	123.75
387.138	103.75
387.363	119.75
387.588	97.75
387.813	102.75
388.038	120.75
388.263	133.75
388.488	113.75
388.713	98.75
388.938	83.75
389.163	110.75
389.387	99.75
389.612	96.75
389.837	96.75
390.062	95.75
390.287	85.75
390.512	91.75
390.736	96.75
390.961	90.75
391.186	92.75
391.411	97.75
391.636	91.75
391.86	71.75
392.085	96.75
392.31	82.75
392.534	94.75
392.759	81.75
392.984	106.75
393.208	87.75
393.433	84.75
393.658	79.75
393.882	89.75
394.107	83.75
394.331	89.75
394.556	82.75
394.78	81.75
395.005	90.75
395.229	87.75
395.454	87.75
395.678	86.75
395.903	105.75
396.127	88.75
396.352	84.75
396.576	83.75
396.801	91.75
397.025	90.75
397.249	89.75
397.474	74.75
397.698	102.75
397.922	85.75
398.147	85.75
398.371	86.75
398.595	89.75
398.82	95.75
399.044	83.75
399.268	73.75
399.492	83.75
399.717	98.75
399.941	94.75
400.165	98.75
400.389	79.75
400.613	90.75
400.837	89.75
401.062	85.75
401.286	87.75
401.51	89.75
401.734	80.75
401.958	110.75
402.182	106.75
402.406	119.75
402.63	102.75
402.854	84.75
403.078	88.75
403.302	80.75
403.526	78.75
403.75	80.75
403.974	90.75
404.198	87.75
404.422	91.75
404.645	81.75
404.869	87.75
405.093	87.75
405.317	95.75
405.541	94.75
405.765	95.75
405.988	102.75
406.212	126.75
406.436	152.75
406.66	112.75
406.883	85.75
407.107	98.75
407.331	87.75
407.555	86.75
407.778	87.75
408.002	83.75
408.226	91.75
408.449	82.75
408.673	90.75
408.896	94.75
409.12	70.75
409.344	74.75
409.567	84.75
409.791	83.75
410.014	88.75
410.238	82.75
410.461	87.75
410.685	105.75
410.908	95.75
411.132	94.75
411.355	98.75
411.578	99.75
411.802	78.75
412.025	99.75
412.249	104.75
412.472	71.75
412.695	90.75
412.919	100.75
413.142	101.75
413.365	82.75
413.589	89.75
413.812	82.75
414.035	93.75
414.258	100.75
414.482	83.75
414.705	92.75
414.928	88.75
415.151	87.75
415.374	94.75
415.597	104.75
415.821	106.75
416.044	89.75
416.267	87.75
416.49	94.75
416.713	82.75
416.936	93.75
417.159	82.75
417.382	88.75
417.605	99.75
417.828	82.75
418.051	101.75
418.274	88.75
418.497	78.75
418.72	81.75
418.943	87.75
419.166	90.75
419.389	82.75
419.611	91.75
419.834	90.75
420.057	92.75
420.28	88.75
420.503	89.75
420.726	86.75
420.948	93.75
421.171	80.75
421.394	96.75
421.617	83.75
421.839	99.75
422.062	94.75
422.285	83.75
422.507	103.75
422.73	85.75
422.953	71.75
423.175	72.75
423.398	81.75
423.621	91.75
423.843	69.75
424.066	74.75
424.288	73.75
424.511	88.75
424.733	83.75
424.956	74.75
425.178	90.75
425.401	103.75
425.623	89.75
425.846	81.75
426.068	88.75
426.291	89.75
426.513	89.75
426.735	84.75
426.958	74.75
427.18	102.75
427.402	97.75
427.625	136.75
427.847	105.75
428.069	94.75
428.292	95.75
428.514	83.75
428.736	82.75
428.958	89.75
429.181	87.75
429.403	78.75
429.625	82.75
429.847	87.75
430.069	93.75
430.292	88.75
430.514	93.75
430.736	73.75
430.958	82.75
431.18	87.75
431.402	90.75
431.624	87.75
431.846	80.75
432.068	90.75
432.29	87.75
432.512	86.75
432.734	79.75
432.956	90.75
433.178	87.75
433.4	87.75
433.622	89.75
433.844	84.75
434.066	92.75
434.287	94.75
434.509	90.75
434.731	87.75
434.953	86.75
435.175	91.75
435.397	102.75
435.618	94.75
435.84	95.75
436.062	101.75
436.284	93.75
436.505	92.75
436.727	88.75
436.949	84.75
437.17	91.75
437.392	95.75
437.614	70.75
437.835	90.75
438.057	108.75
438.278	107.75
438.5	103.75
438.721	103.75
438.943	107.75
439.165	83.75
439.386	87.75
439.608	81.75
439.829	100.75
440.05	116.75
440.272	118.75
440.493	83.75
440.715	88.75
440.936	78.75
441.158	81.75
441.379	100.75
441.6	87.75
441.822	89.75
442.043	81.75
442.264	91.75
442.486	104.75
442.707	87.75
442.928	101.75
443.149	103.75
443.371	119.75
443.592	88.75
443.813	97.75
444.034	87.75
444.255	75.75
444.476	83.75
444.698	82.75
444.919	92.75
445.14	140.75
445.361	122.75
445.582	94.75
445.803	115.75
446.024	111.75
446.245	129.75
446.466	93.75
446.687	83.75
446.908	86.75
447.129	78.75
447.35	98.75
447.571	76.75
447.792	95.75
448.013	103.75
448.234	82.75
448.455	97.75
448.675	104.75
448.896	105.75
449.117	100.75
449.338	92.75
449.559	103.75
449.779	102.75
450	92.75
450.221	85.75
450.442	85.75
450.662	89.75
450.883	87.75
451.104	90.75
451.324	93.75
451.545	99.75
451.766	70.75
451.986	95.75
452.207	78.75
452.428	94.75
452.648	101.75
452.869	90.75
453.089	91.75
453.31	95.75
453.53	83.75
453.751	87.75
453.971	84.75
454.192	102.75
454.412	99.75
454.633	94.75
454.853	88.75
455.073	88.75
455.294	69.75
455.514	89.75
455.734	83.75
455.955	97.75
456.175	81.75
456.395	92.75
456.616	84.75
456.836	87.75
457.056	96.75
457.276	94.75
457.497	76.75
457.717	89.75
457.937	97.75
458.157	83.75
458.377	94.75
458.598	91.75
458.818	113.75
459.038	124.75
459.258	85.75
459.478	98.75
459.698	95.75
459.918	99.75
460.138	86.75
460.358	86.75
460.578	84.75
460.798	90.75
461.018	97.75
461.238	89.75
461.458	89.75
461.678	80.75
461.898	82.75
462.118	81.75
462.338	81.75
462.558	89.75
462.777	87.75
462.997	76.75
463.217	78.75
463.437	82.75
463.657	72.75
463.876	73.75
464.096	91.75
464.316	81.75
464.536	96.75
464.755	91.75
464.975	92.75
465.195	122.75
465.414	115.75
465.634	97.75
465.854	83.75
466.073	89.75
466.293	93.75
466.512	81.75
466.732	73.75
466.951	93.75
467.171	96.75
467.391	75.75
467.61	94.75
467.829	86.75
468.049	106.75
468.268	95.75
468.488	90.75
468.707	94.75
468.927	95.75
469.146	76.75
469.365	82.75
469.585	64.75
469.804	95.75
470.023	98.75
470.243	87.75
470.462	83.75
470.681	83.75
470.901	88.75
471.12	83.75
471.339	68.75
471.558	84.75
471.777	76.75
471.997	94.75
472.216	111.75
472.435	126.75
472.654	94.75
472.873	100.75
473.092	82.75
473.311	76.75
473.53	74.75
473.749	69.75
473.968	92.75
474.187	82.75
474.406	86.75
474.625	83.75
474.844	66.75
475.063	92.75
475.282	95.75
475.501	85.75
475.72	79.75
475.939	66.75
476.158	74.75
476.377	78.75
476.596	72.75
476.814	89.75
477.033	90.75
477.252	94.75
477.471	89.75
477.69	83.75
477.908	82.75
478.127	83.75
478.346	99.75
478.564	90.75
478.783	94.75
479.002	82.75
479.22	85.75
479.439	103.75
479.658	110.75
479.876	94.75
480.095	84.75
480.313	99.75
480.532	94.75
480.751	86.75
480.969	117.75
481.188	163.75
481.406	136.75
481.624	100.75
481.843	95.75
482.061	90.75
482.28	91.75
482.498	88.75
482.717	84.75
482.935	88.75
483.153	89.75
483.372	84.75
483.59	74.75
483.808	96.75
484.027	91.75
484.245	89.75
484.463	79.75
484.681	85.75
484.9	100.75
485.118	99.75
485.336	88.75
485.554	95.75
485.772	104.75
485.99	104.75
486.209	92.75
486.427	104.75
486.645	111.75
486.863	93.75
487.081	86.75
487.299	82.75
487.517	84.75
487.735	94.75
487.953	106.75
488.171	106.75
488.389	95.75
488.607	88.75
488.825	98.75
489.043	100.75
489.261	99.75
489.479	74.75
489.696	80.75
489.914	88.75
490.132	79.75
490.35	80.75
490.568	96.75
490.786	86.75
491.003	94.75
491.221	87.75
491.439	91.75
491.657	87.75
491.874	98.75
492.092	90.75
492.31	93.75
492.527	100.75
492.745	90.75
492.963	103.75
493.18	87.75
493.398	85.75
493.615	91.75
493.833	102.75
494.05	89.75
494.268	92.75
494.485	93.75
494.703	97.75
494.92	98.75
495.138	88.75
495.355	87.75
495.573	97.75
495.79	97.75
496.008	82.75
496.225	86.75
496.442	95.75
496.66	100.75
496.877	90.75
497.094	92.75
497.312	88.75
497.529	81.75
497.746	96.75
497.963	81.75
498.181	91.75
498.398	90.75
498.615	96.75
498.832	99.75
499.049	86.75
499.267	91.75
499.484	89.75
499.701	101.75
499.918	90.75
500.135	78.75
500.352	81.75
500.569	84.75
500.786	82.75
501.003	82.75
501.22	76.75
501.437	85.75
501.654	89.75
501.871	82.75
502.088	99.75
502.305	96.75
502.522	88.75
502.739	97.75
502.956	76.75
503.172	87.75
503.389	83.75
503.606	82.75
503.823	99.75
504.04	78.75
504.256	84.75
504.473	101.75
504.69	81.75
504.907	83.75
505.123	98.75
505.34	93.75
505.557	94.75
505.773	88.75
505.99	83.75
506.207	94.75
506.423	88.75
506.64	87.75
506.856	93.75
507.073	92.75
507.289	94.75
507.506	101.75
507.722	91.75
507.939	100.75
508.155	84.75
508.372	80.75
508.588	97.75
508.805	82.75
509.021	101.75
509.238	106.75
509.454	91.75
509.67	105.75
509.887	112.75
510.103	107.75
510.319	163.75
510.536	542.75
510.752	1487.75
510.968	410.75
511.184	135.75
511.401	98.75
511.617	84.75
511.833	90.75
512.049	75.75
512.265	98.75
512.481	88.75
512.698	84.75
512.914	86.75
513.13	91.75
513.346	84.75
513.562	90.75
513.778	91.75
513.994	96.75
514.21	108.75
514.426	112.75
514.642	111.75
514.858	108.75
515.074	140.75
515.29	302.75
515.506	876.75
515.721	345.75
515.937	112.75
516.153	97.75
516.369	93.75
516.585	79.75
