Data from Uncirc_1982_H10_HRD10591_00026.txt Node
Date: Wed Jan 03 12:29:30 EST 2024
User: Yrep
Spectrometer: HR+D1059
Trigger mode: 1
Integration Time (sec): 1.000000E-1
Scans to average: 1
Electric dark correction enabled: true
Nonlinearity correction enabled: false
Boxcar width: 0
XAxis mode: Wavelengths
Number of Pixels in Spectrum: 2048
>>>>>Begin Spectral Data<<<<<
223.165	-26.94
223.4	-26.94
223.635	-26.94
223.869	-23.94
224.104	-9.94
224.338	2.06
224.573	-25.94
224.808	-18.94
225.042	2.06
225.277	7.06
225.511	5.06
225.746	3.06
225.98	-1.94
226.215	9.06
226.449	19.06
226.683	4.06
226.918	22.06
227.152	34.06
227.387	38.06
227.621	37.06
227.856	57.06
228.09	47.06
228.324	60.06
228.559	68.06
228.793	50.06
229.027	68.06
229.262	63.06
229.496	68.06
229.73	75.06
229.964	73.06
230.199	68.06
230.433	72.06
230.667	76.06
230.901	67.06
231.136	65.06
231.37	78.06
231.604	84.06
231.838	98.06
232.072	67.06
232.306	90.06
232.541	80.06
232.775	88.06
233.009	76.06
233.243	76.06
233.477	96.06
233.711	78.06
233.945	81.06
234.179	90.06
234.413	99.06
234.647	77.06
234.881	86.06
235.115	79.06
235.349	86.06
235.583	77.06
235.817	83.06
236.051	78.06
236.285	85.06
236.519	81.06
236.753	71.06
236.987	78.06
237.221	78.06
237.455	84.06
237.689	83.06
237.922	69.06
238.156	85.06
238.39	69.06
238.624	73.06
238.858	83.06
239.091	70.06
239.325	77.06
239.559	98.06
239.793	70.06
240.027	86.06
240.26	78.06
240.494	86.06
240.728	75.06
240.961	77.06
241.195	78.06
241.429	83.06
241.662	80.06
241.896	73.06
242.13	85.06
242.363	86.06
242.597	75.06
242.83	99.06
243.064	74.06
243.298	74.06
243.531	90.06
243.765	89.06
243.998	78.06
244.232	86.06
244.465	87.06
244.699	89.06
244.932	78.06
245.166	71.06
245.399	84.06
245.633	79.06
245.866	90.06
246.099	86.06
246.333	92.06
246.566	91.06
246.8	75.06
247.033	84.06
247.266	82.06
247.5	84.06
247.733	84.06
247.966	80.06
248.2	73.06
248.433	86.06
248.666	89.06
248.899	78.06
249.133	97.06
249.366	82.06
249.599	94.06
249.832	87.06
250.066	93.06
250.299	86.06
250.532	82.06
250.765	84.06
250.998	85.06
251.231	83.06
251.465	89.06
251.698	79.06
251.931	82.06
252.164	78.06
252.397	74.06
252.63	87.06
252.863	92.06
253.096	83.06
253.329	86.06
253.562	85.06
253.795	82.06
254.028	85.06
254.261	92.06
254.494	96.06
254.727	96.06
254.96	84.06
255.193	79.06
255.426	90.06
255.659	68.06
255.892	86.06
256.124	89.06
256.357	86.06
256.59	81.06
256.823	79.06
257.056	78.06
257.289	75.06
257.521	82.06
257.754	76.06
257.987	82.06
258.22	78.06
258.452	77.06
258.685	93.06
258.918	76.06
259.151	76.06
259.383	84.06
259.616	87.06
259.849	82.06
260.081	91.06
260.314	84.06
260.547	84.06
260.779	75.06
261.012	93.06
261.244	80.06
261.477	86.06
261.71	100.06
261.942	109.06
262.175	111.06
262.407	91.06
262.64	87.06
262.872	86.06
263.105	82.06
263.337	75.06
263.57	76.06
263.802	66.06
264.035	103.06
264.267	93.06
264.499	85.06
264.732	82.06
264.964	69.06
265.197	77.06
265.429	94.06
265.661	90.06
265.894	88.06
266.126	82.06
266.358	92.06
266.591	77.06
266.823	74.06
267.055	82.06
267.287	99.06
267.52	87.06
267.752	79.06
267.984	86.06
268.216	79.06
268.448	93.06
268.681	104.06
268.913	86.06
269.145	80.06
269.377	90.06
269.609	91.06
269.841	100.06
270.073	67.06
270.306	91.06
270.538	86.06
270.77	89.06
271.002	96.06
271.234	99.06
271.466	80.06
271.698	92.06
271.93	71.06
272.162	79.06
272.394	77.06
272.626	104.06
272.858	89.06
273.09	79.06
273.322	76.06
273.553	89.06
273.785	78.06
274.017	80.06
274.249	68.06
274.481	82.06
274.713	89.06
274.945	84.06
275.176	83.06
275.408	89.06
275.64	93.06
275.872	94.06
276.104	73.06
276.335	86.06
276.567	89.06
276.799	97.06
277.031	100.06
277.262	95.06
277.494	90.06
277.726	92.06
277.957	88.06
278.189	94.06
278.421	76.06
278.652	86.06
278.884	98.06
279.115	90.06
279.347	80.06
279.579	75.06
279.81	77.06
280.042	95.06
280.273	83.06
280.505	82.06
280.736	90.06
280.968	98.06
281.199	95.06
281.431	90.06
281.662	67.06
281.894	99.06
282.125	77.06
282.356	102.06
282.588	125.06
282.819	97.06
283.051	93.06
283.282	95.06
283.513	103.06
283.745	90.06
283.976	80.06
284.207	92.06
284.439	97.06
284.67	78.06
284.901	73.06
285.132	86.06
285.364	94.06
285.595	86.06
285.826	94.06
286.057	83.06
286.288	88.06
286.52	85.06
286.751	87.06
286.982	81.06
287.213	86.06
287.444	80.06
287.675	98.06
287.906	76.06
288.138	84.06
288.369	98.06
288.6	87.06
288.831	83.06
289.062	94.06
289.293	97.06
289.524	82.06
289.755	100.06
289.986	77.06
290.217	92.06
290.448	84.06
290.679	79.06
290.91	79.06
291.141	100.06
291.371	96.06
291.602	94.06
291.833	92.06
292.064	92.06
292.295	98.06
292.526	100.06
292.757	94.06
292.987	70.06
293.218	93.06
293.449	108.06
293.68	82.06
293.91	92.06
294.141	95.06
294.372	75.06
294.603	97.06
294.833	88.06
295.064	92.06
295.295	73.06
295.525	87.06
295.756	92.06
295.987	109.06
296.217	113.06
296.448	106.06
296.679	99.06
296.909	83.06
297.14	80.06
297.37	88.06
297.601	90.06
297.831	94.06
298.062	93.06
298.292	84.06
298.523	90.06
298.753	85.06
298.984	86.06
299.214	103.06
299.445	92.06
299.675	104.06
299.905	86.06
300.136	84.06
300.366	79.06
300.597	88.06
300.827	100.06
301.057	99.06
301.288	100.06
301.518	97.06
301.748	91.06
301.979	101.06
302.209	93.06
302.439	104.06
302.669	84.06
302.9	96.06
303.13	92.06
303.36	98.06
303.59	102.06
303.82	100.06
304.051	83.06
304.281	91.06
304.511	77.06
304.741	71.06
304.971	83.06
305.201	88.06
305.431	102.06
305.661	88.06
305.891	98.06
306.121	104.06
306.352	86.06
306.582	91.06
306.812	106.06
307.042	103.06
307.272	98.06
307.502	89.06
307.731	95.06
307.961	92.06
308.191	94.06
308.421	92.06
308.651	83.06
308.881	102.06
309.111	92.06
309.341	90.06
309.571	96.06
309.8	90.06
310.03	92.06
310.26	100.06
310.49	101.06
310.72	108.06
310.949	96.06
311.179	104.06
311.409	97.06
311.639	105.06
311.868	96.06
312.098	96.06
312.328	91.06
312.557	117.06
312.787	96.06
313.017	101.06
313.246	86.06
313.476	86.06
313.706	91.06
313.935	98.06
314.165	102.06
314.394	105.06
314.624	89.06
314.853	107.06
315.083	98.06
315.312	93.06
315.542	96.06
315.771	96.06
316.001	85.06
316.23	83.06
316.46	78.06
316.689	70.06
316.919	90.06
317.148	92.06
317.377	103.06
317.607	96.06
317.836	76.06
318.065	86.06
318.295	79.06
318.524	86.06
318.753	93.06
318.983	107.06
319.212	102.06
319.441	101.06
319.67	90.06
319.9	101.06
320.129	84.06
320.358	79.06
320.587	91.06
320.816	79.06
321.046	97.06
321.275	88.06
321.504	91.06
321.733	98.06
321.962	102.06
322.191	100.06
322.42	88.06
322.649	109.06
322.878	105.06
323.108	111.06
323.337	118.06
323.566	122.06
323.795	146.06
324.024	184.06
324.253	351.06
324.482	706.06
324.71	1398.06
324.939	1836.06
325.168	678.06
325.397	216.06
325.626	129.06
325.855	129.06
326.084	126.06
326.313	121.06
326.542	131.06
326.77	198.06
326.999	410.06
327.228	820.06
327.457	1468.06
327.686	1159.06
327.914	311.06
328.143	159.06
328.372	132.06
328.6	130.06
328.829	116.06
329.058	106.06
329.287	115.06
329.515	119.06
329.744	113.06
329.972	102.06
330.201	117.06
330.43	109.06
330.658	128.06
330.887	120.06
331.115	102.06
331.344	90.06
331.572	94.06
331.801	95.06
332.03	109.06
332.258	96.06
332.486	90.06
332.715	107.06
332.943	86.06
333.172	87.06
333.4	88.06
333.629	98.06
333.857	97.06
334.085	105.06
334.314	114.06
334.542	122.06
334.771	119.06
334.999	114.06
335.227	98.06
335.455	91.06
335.684	102.06
335.912	110.06
336.14	105.06
336.369	111.06
336.597	95.06
336.825	100.06
337.053	98.06
337.281	99.06
337.51	91.06
337.738	99.06
337.966	98.06
338.194	109.06
338.422	101.06
338.65	109.06
338.878	107.06
339.106	93.06
339.334	102.06
339.562	96.06
339.79	99.06
340.018	95.06
340.246	79.06
340.474	95.06
340.702	95.06
340.93	102.06
341.158	100.06
341.386	87.06
341.614	88.06
341.842	96.06
342.07	90.06
342.298	98.06
342.526	86.06
342.754	94.06
342.981	91.06
343.209	85.06
343.437	104.06
343.665	102.06
343.893	92.06
344.12	87.06
344.348	75.06
344.576	100.06
344.804	98.06
345.031	103.06
345.259	92.06
345.487	108.06
345.714	95.06
345.942	86.06
346.17	98.06
346.397	100.06
346.625	87.06
346.853	93.06
347.08	92.06
347.308	90.06
347.535	84.06
347.763	98.06
347.99	103.06
348.218	95.06
348.445	96.06
348.673	102.06
348.9	94.06
349.128	85.06
349.355	91.06
349.583	95.06
349.81	88.06
350.037	104.06
350.265	107.06
350.492	100.06
350.72	103.06
350.947	103.06
351.174	99.06
351.402	111.06
351.629	107.06
351.856	109.06
352.083	119.06
352.311	100.06
352.538	91.06
352.765	99.06
352.992	111.06
353.22	118.06
353.447	99.06
353.674	103.06
353.901	95.06
354.128	105.06
354.355	103.06
354.583	95.06
354.81	103.06
355.037	98.06
355.264	93.06
355.491	94.06
355.718	100.06
355.945	86.06
356.172	94.06
356.399	105.06
356.626	85.06
356.853	94.06
357.08	100.06
357.307	91.06
357.534	93.06
357.761	91.06
357.988	90.06
358.215	107.06
358.441	95.06
358.668	95.06
358.895	100.06
359.122	100.06
359.349	109.06
359.576	99.06
359.802	97.06
360.029	109.06
360.256	103.06
360.483	95.06
360.709	72.06
360.936	96.06
361.163	91.06
361.39	91.06
361.616	88.06
361.843	91.06
362.07	99.06
362.296	86.06
362.523	96.06
362.749	95.06
362.976	90.06
363.203	95.06
363.429	89.06
363.656	97.06
363.882	99.06
364.109	95.06
364.335	86.06
364.562	104.06
364.788	107.06
365.015	93.06
365.241	103.06
365.468	107.06
365.694	98.06
365.92	98.06
366.147	87.06
366.373	79.06
366.599	82.06
366.826	100.06
367.052	96.06
367.278	95.06
367.505	84.06
367.731	79.06
367.957	86.06
368.184	103.06
368.41	89.06
368.636	110.06
368.862	104.06
369.089	102.06
369.315	104.06
369.541	93.06
369.767	97.06
369.993	106.06
370.219	88.06
370.445	99.06
370.672	85.06
370.898	87.06
371.124	91.06
371.35	102.06
371.576	92.06
371.802	94.06
372.028	88.06
372.254	92.06
372.48	92.06
372.706	95.06
372.932	106.06
373.158	78.06
373.384	98.06
373.61	101.06
373.835	110.06
374.061	91.06
374.287	95.06
374.513	104.06
374.739	94.06
374.965	94.06
375.191	90.06
375.416	68.06
375.642	103.06
375.868	86.06
376.094	102.06
376.319	98.06
376.545	102.06
376.771	98.06
376.997	92.06
377.222	88.06
377.448	102.06
377.674	90.06
377.899	90.06
378.125	91.06
378.35	101.06
378.576	89.06
378.802	98.06
379.027	95.06
379.253	97.06
379.478	88.06
379.704	98.06
379.929	94.06
380.155	92.06
380.38	96.06
380.606	94.06
380.831	104.06
381.057	105.06
381.282	115.06
381.507	101.06
381.733	107.06
381.958	109.06
382.184	110.06
382.409	83.06
382.634	95.06
382.86	101.06
383.085	102.06
383.31	99.06
383.535	116.06
383.761	94.06
383.986	94.06
384.211	100.06
384.436	107.06
384.662	112.06
384.887	118.06
385.112	104.06
385.337	110.06
385.562	105.06
385.787	114.06
386.013	111.06
386.238	112.06
386.463	99.06
386.688	125.06
386.913	115.06
387.138	125.06
387.363	112.06
387.588	111.06
387.813	110.06
388.038	110.06
388.263	126.06
388.488	130.06
388.713	100.06
388.938	110.06
389.163	93.06
389.387	99.06
389.612	92.06
389.837	96.06
390.062	96.06
390.287	83.06
390.512	101.06
390.736	90.06
390.961	91.06
391.186	95.06
391.411	96.06
391.636	98.06
391.86	97.06
392.085	93.06
392.31	86.06
392.534	86.06
392.759	85.06
392.984	94.06
393.208	97.06
393.433	96.06
393.658	102.06
393.882	87.06
394.107	90.06
394.331	96.06
394.556	99.06
394.78	98.06
395.005	91.06
395.229	86.06
395.454	86.06
395.678	98.06
395.903	90.06
396.127	91.06
396.352	89.06
396.576	84.06
396.801	84.06
397.025	88.06
397.249	83.06
397.474	92.06
397.698	85.06
397.922	75.06
398.147	74.06
398.371	95.06
398.595	90.06
398.82	97.06
399.044	81.06
399.268	99.06
399.492	75.06
399.717	88.06
399.941	106.06
400.165	105.06
400.389	84.06
400.613	76.06
400.837	90.06
401.062	90.06
401.286	100.06
401.51	79.06
401.734	82.06
401.958	97.06
402.182	117.06
402.406	130.06
402.63	101.06
402.854	105.06
403.078	94.06
403.302	79.06
403.526	88.06
403.75	92.06
403.974	88.06
404.198	85.06
404.422	85.06
404.645	78.06
404.869	92.06
405.093	100.06
405.317	106.06
405.541	99.06
405.765	99.06
405.988	101.06
406.212	149.06
406.436	168.06
406.66	129.06
406.883	104.06
407.107	89.06
407.331	84.06
407.555	94.06
407.778	104.06
408.002	101.06
408.226	91.06
408.449	93.06
408.673	90.06
408.896	90.06
409.12	83.06
409.344	82.06
409.567	79.06
409.791	87.06
410.014	102.06
410.238	103.06
410.461	87.06
410.685	101.06
410.908	112.06
411.132	106.06
411.355	93.06
411.578	95.06
411.802	80.06
412.025	86.06
412.249	115.06
412.472	91.06
412.695	100.06
412.919	77.06
413.142	79.06
413.365	94.06
413.589	99.06
413.812	96.06
414.035	102.06
414.258	85.06
414.482	81.06
414.705	97.06
414.928	103.06
415.151	79.06
415.374	84.06
415.597	83.06
415.821	102.06
416.044	98.06
416.267	91.06
416.49	89.06
416.713	89.06
416.936	89.06
417.159	87.06
417.382	96.06
417.605	110.06
417.828	86.06
418.051	79.06
418.274	86.06
418.497	95.06
418.72	88.06
418.943	101.06
419.166	85.06
419.389	92.06
419.611	74.06
419.834	102.06
420.057	103.06
420.28	90.06
420.503	89.06
420.726	88.06
420.948	100.06
421.171	101.06
421.394	88.06
421.617	105.06
421.839	91.06
422.062	93.06
422.285	105.06
422.507	91.06
422.73	92.06
422.953	107.06
423.175	95.06
423.398	92.06
423.621	100.06
423.843	99.06
424.066	97.06
424.288	87.06
424.511	89.06
424.733	103.06
424.956	102.06
425.178	92.06
425.401	98.06
425.623	85.06
425.846	99.06
426.068	99.06
426.291	86.06
426.513	83.06
426.735	97.06
426.958	102.06
427.18	104.06
427.402	114.06
427.625	141.06
427.847	132.06
428.069	103.06
428.292	97.06
428.514	106.06
428.736	94.06
428.958	103.06
429.181	92.06
429.403	76.06
429.625	99.06
429.847	91.06
430.069	92.06
430.292	79.06
430.514	88.06
430.736	79.06
430.958	89.06
431.18	93.06
431.402	91.06
431.624	78.06
431.846	100.06
432.068	98.06
432.29	86.06
432.512	106.06
432.734	89.06
432.956	84.06
433.178	97.06
433.4	78.06
433.622	99.06
433.844	98.06
434.066	82.06
434.287	78.06
434.509	88.06
434.731	88.06
434.953	94.06
435.175	78.06
435.397	95.06
435.618	92.06
435.84	105.06
436.062	114.06
436.284	103.06
436.505	89.06
436.727	101.06
436.949	89.06
437.17	86.06
437.392	92.06
437.614	99.06
437.835	93.06
438.057	102.06
438.278	95.06
438.5	116.06
438.721	117.06
438.943	91.06
439.165	87.06
439.386	99.06
439.608	102.06
439.829	107.06
440.05	117.06
440.272	132.06
440.493	93.06
440.715	88.06
440.936	87.06
441.158	98.06
441.379	97.06
441.6	93.06
441.822	90.06
442.043	98.06
442.264	93.06
442.486	88.06
442.707	99.06
442.928	98.06
443.149	117.06
443.371	124.06
443.592	95.06
443.813	114.06
444.034	95.06
444.255	90.06
444.476	96.06
444.698	102.06
444.919	99.06
445.14	128.06
445.361	134.06
445.582	106.06
445.803	129.06
446.024	115.06
446.245	127.06
446.466	115.06
446.687	83.06
446.908	94.06
447.129	98.06
447.35	91.06
447.571	90.06
447.792	83.06
448.013	86.06
448.234	107.06
448.455	98.06
448.675	106.06
448.896	96.06
449.117	88.06
449.338	91.06
449.559	114.06
449.779	118.06
450	91.06
450.221	98.06
450.442	92.06
450.662	99.06
450.883	106.06
451.104	105.06
451.324	91.06
451.545	94.06
451.766	84.06
451.986	91.06
452.207	74.06
452.428	108.06
452.648	96.06
452.869	90.06
453.089	91.06
453.31	119.06
453.53	88.06
453.751	80.06
453.971	98.06
454.192	102.06
454.412	94.06
454.633	105.06
454.853	92.06
455.073	86.06
455.294	97.06
455.514	104.06
455.734	93.06
455.955	95.06
456.175	90.06
456.395	79.06
456.616	96.06
456.836	88.06
457.056	105.06
457.276	86.06
457.497	86.06
457.717	96.06
457.937	89.06
458.157	92.06
458.377	101.06
458.598	114.06
458.818	137.06
459.038	127.06
459.258	109.06
459.478	108.06
459.698	98.06
459.918	79.06
460.138	75.06
460.358	72.06
460.578	99.06
460.798	85.06
461.018	94.06
461.238	102.06
461.458	86.06
461.678	74.06
461.898	87.06
462.118	92.06
462.338	93.06
462.558	94.06
462.777	86.06
462.997	91.06
463.217	93.06
463.437	94.06
463.657	64.06
463.876	98.06
464.096	88.06
464.316	94.06
464.536	102.06
464.755	95.06
464.975	95.06
465.195	130.06
465.414	136.06
465.634	104.06
465.854	100.06
466.073	94.06
466.293	88.06
466.512	91.06
466.732	88.06
466.951	88.06
467.171	95.06
467.391	96.06
467.61	94.06
467.829	74.06
468.049	98.06
468.268	98.06
468.488	93.06
468.707	92.06
468.927	88.06
469.146	88.06
469.365	94.06
469.585	79.06
469.804	93.06
470.023	101.06
470.243	90.06
470.462	111.06
470.681	105.06
470.901	84.06
471.12	95.06
471.339	72.06
471.558	95.06
471.777	90.06
471.997	98.06
472.216	114.06
472.435	132.06
472.654	98.06
472.873	93.06
473.092	90.06
473.311	89.06
473.53	91.06
473.749	89.06
473.968	96.06
474.187	118.06
474.406	88.06
474.625	86.06
474.844	93.06
475.063	87.06
475.282	94.06
475.501	88.06
475.72	86.06
475.939	99.06
476.158	100.06
476.377	93.06
476.596	90.06
476.814	85.06
477.033	86.06
477.252	107.06
477.471	76.06
477.69	88.06
477.908	101.06
478.127	95.06
478.346	74.06
478.564	78.06
478.783	96.06
479.002	102.06
479.22	91.06
479.439	90.06
479.658	94.06
479.876	102.06
480.095	102.06
480.313	95.06
480.532	107.06
480.751	84.06
480.969	98.06
481.188	180.06
481.406	127.06
481.624	91.06
481.843	95.06
482.061	92.06
482.28	101.06
482.498	99.06
482.717	98.06
482.935	107.06
483.153	99.06
483.372	105.06
483.59	88.06
483.808	107.06
484.027	101.06
484.245	90.06
484.463	93.06
484.681	99.06
484.9	91.06
485.118	88.06
485.336	95.06
485.554	102.06
485.772	111.06
485.99	115.06
486.209	118.06
486.427	106.06
486.645	109.06
486.863	118.06
487.081	108.06
487.299	92.06
487.517	95.06
487.735	102.06
487.953	90.06
488.171	95.06
488.389	101.06
488.607	96.06
488.825	96.06
489.043	93.06
489.261	104.06
489.479	94.06
489.696	107.06
489.914	101.06
490.132	103.06
490.35	87.06
490.568	99.06
490.786	90.06
491.003	101.06
491.221	100.06
491.439	100.06
491.657	106.06
491.874	82.06
492.092	91.06
492.31	95.06
492.527	87.06
492.745	86.06
492.963	96.06
493.18	90.06
493.398	99.06
493.615	100.06
493.833	104.06
494.05	101.06
494.268	90.06
494.485	78.06
494.703	87.06
494.92	92.06
495.138	92.06
495.355	87.06
495.573	96.06
495.79	103.06
496.008	111.06
496.225	87.06
496.442	88.06
496.66	91.06
496.877	91.06
497.094	118.06
497.312	94.06
497.529	85.06
497.746	95.06
497.963	79.06
498.181	89.06
498.398	99.06
498.615	106.06
498.832	96.06
499.049	84.06
499.267	93.06
499.484	84.06
499.701	90.06
499.918	101.06
500.135	94.06
500.352	103.06
500.569	86.06
500.786	93.06
501.003	89.06
501.22	95.06
501.437	90.06
501.654	98.06
501.871	93.06
502.088	84.06
502.305	96.06
502.522	93.06
502.739	93.06
502.956	97.06
503.172	90.06
503.389	93.06
503.606	85.06
503.823	101.06
504.04	94.06
504.256	88.06
504.473	89.06
504.69	78.06
504.907	94.06
505.123	97.06
505.34	107.06
505.557	100.06
505.773	93.06
505.99	86.06
506.207	94.06
506.423	92.06
506.64	99.06
506.856	91.06
507.073	104.06
507.289	95.06
507.506	99.06
507.722	104.06
507.939	104.06
508.155	110.06
508.372	83.06
508.588	102.06
508.805	95.06
509.021	91.06
509.238	97.06
509.454	96.06
509.67	119.06
509.887	106.06
510.103	120.06
510.319	178.06
510.536	587.06
510.752	1698.06
510.968	474.06
511.184	135.06
511.401	89.06
511.617	107.06
511.833	114.06
512.049	93.06
512.265	87.06
512.481	91.06
512.698	102.06
512.914	95.06
513.13	109.06
513.346	91.06
513.562	103.06
513.778	107.06
513.994	101.06
514.21	102.06
514.426	100.06
514.642	122.06
514.858	120.06
515.074	138.06
