Data from Uncirc_1982_H10_HRD10591_00038.txt Node
Date: Wed Jan 03 12:29:32 EST 2024
User: Yrep
Spectrometer: HR+D1059
Trigger mode: 1
Integration Time (sec): 1.000000E-1
Scans to average: 1
Electric dark correction enabled: true
Nonlinearity correction enabled: false
Boxcar width: 0
XAxis mode: Wavelengths
Number of Pixels in Spectrum: 2048
>>>>>Begin Spectral Data<<<<<
223.165	-18.25
223.4	-18.25
223.635	-18.25
223.869	-17.25
224.104	-20.25
224.338	-17.25
224.573	-17.25
224.808	-30.25
225.042	-11.25
225.277	-5.25
225.511	-3.25
225.746	-4.25
225.98	12.75
226.215	8.75
226.449	29.75
226.683	13.75
226.918	41.75
227.152	37.75
227.387	39.75
227.621	36.75
227.856	49.75
228.09	38.75
228.324	52.75
228.559	63.75
228.793	58.75
229.027	71.75
229.262	53.75
229.496	69.75
229.73	74.75
229.964	88.75
230.199	82.75
230.433	89.75
230.667	85.75
230.901	70.75
231.136	86.75
231.37	78.75
231.604	71.75
231.838	87.75
232.072	83.75
232.306	76.75
232.541	74.75
232.775	79.75
233.009	81.75
233.243	81.75
233.477	77.75
233.711	83.75
233.945	88.75
234.179	81.75
234.413	88.75
234.647	81.75
234.881	90.75
235.115	82.75
235.349	93.75
235.583	73.75
235.817	86.75
236.051	94.75
236.285	85.75
236.519	82.75
236.753	82.75
236.987	67.75
237.221	86.75
237.455	87.75
237.689	82.75
237.922	76.75
238.156	72.75
238.39	82.75
238.624	63.75
238.858	79.75
239.091	82.75
239.325	95.75
239.559	71.75
239.793	76.75
240.027	68.75
240.26	66.75
240.494	74.75
240.728	78.75
240.961	66.75
241.195	81.75
241.429	82.75
241.662	83.75
241.896	79.75
242.13	81.75
242.363	70.75
242.597	85.75
242.83	72.75
243.064	76.75
243.298	75.75
243.531	78.75
243.765	85.75
243.998	73.75
244.232	82.75
244.465	90.75
244.699	89.75
244.932	79.75
245.166	76.75
245.399	80.75
245.633	86.75
245.866	75.75
246.099	78.75
246.333	74.75
246.566	75.75
246.8	75.75
247.033	88.75
247.266	86.75
247.5	65.75
247.733	84.75
247.966	90.75
248.2	82.75
248.433	88.75
248.666	87.75
248.899	85.75
249.133	63.75
249.366	95.75
249.599	91.75
249.832	92.75
250.066	69.75
250.299	89.75
250.532	96.75
250.765	92.75
250.998	77.75
251.231	86.75
251.465	81.75
251.698	85.75
251.931	69.75
252.164	97.75
252.397	89.75
252.63	77.75
252.863	80.75
253.096	88.75
253.329	65.75
253.562	83.75
253.795	81.75
254.028	73.75
254.261	86.75
254.494	93.75
254.727	97.75
254.96	77.75
255.193	83.75
255.426	81.75
255.659	71.75
255.892	77.75
256.124	66.75
256.357	74.75
256.59	88.75
256.823	84.75
257.056	86.75
257.289	75.75
257.521	78.75
257.754	91.75
257.987	79.75
258.22	75.75
258.452	85.75
258.685	77.75
258.918	72.75
259.151	87.75
259.383	70.75
259.616	85.75
259.849	81.75
260.081	78.75
260.314	86.75
260.547	76.75
260.779	105.75
261.012	88.75
261.244	68.75
261.477	82.75
261.71	85.75
261.942	97.75
262.175	111.75
262.407	94.75
262.64	77.75
262.872	78.75
263.105	79.75
263.337	90.75
263.57	87.75
263.802	85.75
264.035	71.75
264.267	88.75
264.499	71.75
264.732	91.75
264.964	81.75
265.197	82.75
265.429	86.75
265.661	92.75
265.894	86.75
266.126	87.75
266.358	88.75
266.591	76.75
266.823	82.75
267.055	82.75
267.287	90.75
267.52	77.75
267.752	82.75
267.984	79.75
268.216	90.75
268.448	95.75
268.681	88.75
268.913	92.75
269.145	90.75
269.377	78.75
269.609	75.75
269.841	85.75
270.073	85.75
270.306	84.75
270.538	82.75
270.77	90.75
271.002	70.75
271.234	88.75
271.466	93.75
271.698	70.75
271.93	72.75
272.162	81.75
272.394	98.75
272.626	73.75
272.858	99.75
273.09	88.75
273.322	83.75
273.553	94.75
273.785	89.75
274.017	69.75
274.249	90.75
274.481	92.75
274.713	87.75
274.945	95.75
275.176	96.75
275.408	100.75
275.64	91.75
275.872	87.75
276.104	91.75
276.335	101.75
276.567	91.75
276.799	106.75
277.031	103.75
277.262	75.75
277.494	81.75
277.726	83.75
277.957	106.75
278.189	81.75
278.421	87.75
278.652	100.75
278.884	104.75
279.115	98.75
279.347	84.75
279.579	86.75
279.81	97.75
280.042	87.75
280.273	89.75
280.505	87.75
280.736	86.75
280.968	88.75
281.199	84.75
281.431	89.75
281.662	82.75
281.894	84.75
282.125	108.75
282.356	114.75
282.588	112.75
282.819	113.75
283.051	91.75
283.282	88.75
283.513	71.75
283.745	103.75
283.976	77.75
284.207	83.75
284.439	91.75
284.67	87.75
284.901	89.75
285.132	89.75
285.364	91.75
285.595	85.75
285.826	93.75
286.057	87.75
286.288	89.75
286.52	73.75
286.751	75.75
286.982	85.75
287.213	86.75
287.444	89.75
287.675	86.75
287.906	77.75
288.138	83.75
288.369	89.75
288.6	103.75
288.831	75.75
289.062	85.75
289.293	95.75
289.524	94.75
289.755	87.75
289.986	83.75
290.217	94.75
290.448	89.75
290.679	82.75
290.91	85.75
291.141	89.75
291.371	87.75
291.602	85.75
291.833	79.75
292.064	83.75
292.295	85.75
292.526	81.75
292.757	89.75
292.987	92.75
293.218	91.75
293.449	77.75
293.68	85.75
293.91	98.75
294.141	85.75
294.372	87.75
294.603	93.75
294.833	68.75
295.064	84.75
295.295	86.75
295.525	85.75
295.756	102.75
295.987	99.75
296.217	129.75
296.448	125.75
296.679	82.75
296.909	102.75
297.14	101.75
297.37	89.75
297.601	109.75
297.831	90.75
298.062	85.75
298.292	99.75
298.523	83.75
298.753	87.75
298.984	96.75
299.214	99.75
299.445	101.75
299.675	89.75
299.905	97.75
300.136	84.75
300.366	91.75
300.597	70.75
300.827	89.75
301.057	100.75
301.288	108.75
301.518	87.75
301.748	92.75
301.979	93.75
302.209	84.75
302.439	86.75
302.669	79.75
302.9	96.75
303.13	77.75
303.36	73.75
303.59	102.75
303.82	109.75
304.051	91.75
304.281	91.75
304.511	99.75
304.741	95.75
304.971	92.75
305.201	76.75
305.431	94.75
305.661	96.75
305.891	90.75
306.121	98.75
306.352	98.75
306.582	93.75
306.812	94.75
307.042	86.75
307.272	83.75
307.502	110.75
307.731	101.75
307.961	90.75
308.191	87.75
308.421	92.75
308.651	98.75
308.881	97.75
309.111	85.75
309.341	86.75
309.571	100.75
309.8	102.75
310.03	94.75
310.26	86.75
310.49	100.75
310.72	105.75
310.949	105.75
311.179	101.75
311.409	106.75
311.639	91.75
311.868	98.75
312.098	97.75
312.328	103.75
312.557	92.75
312.787	91.75
313.017	88.75
313.246	96.75
313.476	92.75
313.706	99.75
313.935	92.75
314.165	90.75
314.394	96.75
314.624	106.75
314.853	102.75
315.083	99.75
315.312	117.75
315.542	94.75
315.771	94.75
316.001	91.75
316.23	89.75
316.46	95.75
316.689	97.75
316.919	84.75
317.148	114.75
317.377	92.75
317.607	98.75
317.836	97.75
318.065	87.75
318.295	93.75
318.524	70.75
318.753	96.75
318.983	91.75
319.212	87.75
319.441	110.75
319.67	101.75
319.9	107.75
320.129	98.75
320.358	99.75
320.587	90.75
320.816	93.75
321.046	102.75
321.275	103.75
321.504	81.75
321.733	89.75
321.962	111.75
322.191	110.75
322.42	100.75
322.649	90.75
322.878	101.75
323.108	115.75
323.337	133.75
323.566	118.75
323.795	138.75
324.024	181.75
324.253	339.75
324.482	727.75
324.71	1460.75
324.939	1918.75
325.168	693.75
325.397	225.75
325.626	136.75
325.855	123.75
326.084	116.75
326.313	111.75
326.542	135.75
326.77	208.75
326.999	399.75
327.228	825.75
327.457	1563.75
327.686	1234.75
327.914	341.75
328.143	167.75
328.372	128.75
328.6	106.75
328.829	108.75
329.058	115.75
329.287	114.75
329.515	99.75
329.744	90.75
329.972	98.75
330.201	126.75
330.43	135.75
330.658	129.75
330.887	119.75
331.115	108.75
331.344	96.75
331.572	102.75
331.801	104.75
332.03	108.75
332.258	97.75
332.486	87.75
332.715	95.75
332.943	94.75
333.172	83.75
333.4	101.75
333.629	105.75
333.857	118.75
334.085	95.75
334.314	110.75
334.542	136.75
334.771	117.75
334.999	94.75
335.227	106.75
335.455	98.75
335.684	88.75
335.912	100.75
336.14	112.75
336.369	98.75
336.597	103.75
336.825	84.75
337.053	88.75
337.281	98.75
337.51	99.75
337.738	85.75
337.966	97.75
338.194	110.75
338.422	95.75
338.65	88.75
338.878	97.75
339.106	109.75
339.334	88.75
339.562	93.75
339.79	107.75
340.018	86.75
340.246	81.75
340.474	88.75
340.702	85.75
340.93	95.75
341.158	103.75
341.386	109.75
341.614	99.75
341.842	94.75
342.07	88.75
342.298	92.75
342.526	103.75
342.754	84.75
342.981	96.75
343.209	96.75
343.437	98.75
343.665	93.75
343.893	94.75
344.12	96.75
344.348	99.75
344.576	88.75
344.804	86.75
345.031	104.75
345.259	89.75
345.487	88.75
345.714	92.75
345.942	97.75
346.17	87.75
346.397	91.75
346.625	86.75
346.853	111.75
347.08	89.75
347.308	92.75
347.535	93.75
347.763	93.75
347.99	104.75
348.218	97.75
348.445	110.75
348.673	102.75
348.9	96.75
349.128	97.75
349.355	88.75
349.583	97.75
349.81	105.75
350.037	93.75
350.265	99.75
350.492	98.75
350.72	102.75
350.947	116.75
351.174	100.75
351.402	131.75
351.629	124.75
351.856	95.75
352.083	93.75
352.311	106.75
352.538	96.75
352.765	103.75
352.992	91.75
353.22	110.75
353.447	101.75
353.674	94.75
353.901	99.75
354.128	107.75
354.355	89.75
354.583	106.75
354.81	105.75
355.037	103.75
355.264	87.75
355.491	102.75
355.718	107.75
355.945	91.75
356.172	88.75
356.399	93.75
356.626	93.75
356.853	98.75
357.08	104.75
357.307	79.75
357.534	90.75
357.761	86.75
357.988	86.75
358.215	101.75
358.441	94.75
358.668	99.75
358.895	78.75
359.122	89.75
359.349	83.75
359.576	103.75
359.802	94.75
360.029	109.75
360.256	95.75
360.483	97.75
360.709	97.75
360.936	92.75
361.163	94.75
361.39	106.75
361.616	97.75
361.843	90.75
362.07	71.75
362.296	99.75
362.523	90.75
362.749	83.75
362.976	86.75
363.203	93.75
363.429	99.75
363.656	94.75
363.882	101.75
364.109	94.75
364.335	108.75
364.562	101.75
364.788	84.75
365.015	97.75
365.241	102.75
365.468	109.75
365.694	83.75
365.92	91.75
366.147	100.75
366.373	91.75
366.599	84.75
366.826	81.75
367.052	106.75
367.278	101.75
367.505	106.75
367.731	99.75
367.957	86.75
368.184	97.75
368.41	99.75
368.636	105.75
368.862	109.75
369.089	102.75
369.315	93.75
369.541	93.75
369.767	90.75
369.993	89.75
370.219	81.75
370.445	87.75
370.672	86.75
370.898	86.75
371.124	98.75
371.35	101.75
371.576	89.75
371.802	89.75
372.028	89.75
372.254	94.75
372.48	74.75
372.706	85.75
372.932	81.75
373.158	85.75
373.384	94.75
373.61	78.75
373.835	86.75
374.061	95.75
374.287	93.75
374.513	97.75
374.739	84.75
374.965	87.75
375.191	85.75
375.416	97.75
375.642	90.75
375.868	88.75
376.094	86.75
376.319	93.75
376.545	86.75
376.771	89.75
376.997	87.75
377.222	89.75
377.448	87.75
377.674	91.75
377.899	95.75
378.125	87.75
378.35	89.75
378.576	93.75
378.802	101.75
379.027	90.75
379.253	96.75
379.478	103.75
379.704	93.75
379.929	84.75
380.155	94.75
380.38	101.75
380.606	90.75
380.831	87.75
381.057	104.75
381.282	103.75
381.507	98.75
381.733	90.75
381.958	104.75
382.184	103.75
382.409	102.75
382.634	108.75
382.86	97.75
383.085	102.75
383.31	92.75
383.535	109.75
383.761	103.75
383.986	97.75
384.211	91.75
384.436	110.75
384.662	109.75
384.887	102.75
385.112	104.75
385.337	109.75
385.562	105.75
385.787	106.75
386.013	114.75
386.238	107.75
386.463	107.75
386.688	113.75
386.913	111.75
387.138	121.75
387.363	103.75
387.588	94.75
387.813	94.75
388.038	108.75
388.263	105.75
388.488	104.75
388.713	95.75
388.938	105.75
389.163	118.75
389.387	84.75
389.612	98.75
389.837	89.75
390.062	84.75
390.287	94.75
390.512	83.75
390.736	111.75
390.961	97.75
391.186	105.75
391.411	95.75
391.636	87.75
391.86	102.75
392.085	92.75
392.31	78.75
392.534	94.75
392.759	94.75
392.984	77.75
393.208	89.75
393.433	85.75
393.658	81.75
393.882	95.75
394.107	85.75
394.331	100.75
394.556	89.75
394.78	79.75
395.005	85.75
395.229	81.75
395.454	86.75
395.678	81.75
395.903	89.75
396.127	96.75
396.352	93.75
396.576	80.75
396.801	90.75
397.025	88.75
397.249	92.75
397.474	103.75
397.698	89.75
397.922	96.75
398.147	78.75
398.371	87.75
398.595	80.75
398.82	82.75
399.044	99.75
399.268	85.75
399.492	84.75
399.717	83.75
399.941	87.75
400.165	95.75
400.389	93.75
400.613	86.75
400.837	91.75
401.062	108.75
401.286	92.75
401.51	84.75
401.734	97.75
401.958	105.75
402.182	126.75
402.406	139.75
402.63	101.75
402.854	86.75
403.078	93.75
403.302	99.75
403.526	94.75
403.75	86.75
403.974	89.75
404.198	93.75
404.422	85.75
404.645	90.75
404.869	81.75
405.093	94.75
405.317	103.75
405.541	93.75
405.765	84.75
405.988	108.75
406.212	146.75
406.436	187.75
406.66	117.75
406.883	87.75
407.107	106.75
407.331	84.75
407.555	84.75
407.778	100.75
408.002	94.75
408.226	87.75
408.449	94.75
408.673	91.75
408.896	90.75
409.12	90.75
409.344	85.75
409.567	89.75
409.791	95.75
410.014	92.75
410.238	98.75
410.461	94.75
410.685	90.75
410.908	95.75
411.132	108.75
411.355	98.75
411.578	99.75
411.802	77.75
412.025	85.75
412.249	79.75
412.472	111.75
412.695	94.75
412.919	97.75
413.142	95.75
413.365	74.75
413.589	90.75
413.812	84.75
414.035	85.75
414.258	106.75
414.482	103.75
414.705	75.75
414.928	95.75
415.151	110.75
415.374	103.75
415.597	86.75
415.821	99.75
416.044	91.75
416.267	90.75
416.49	86.75
416.713	94.75
416.936	99.75
417.159	88.75
417.382	96.75
417.605	84.75
417.828	95.75
418.051	98.75
418.274	93.75
418.497	70.75
418.72	81.75
418.943	89.75
419.166	88.75
419.389	105.75
419.611	92.75
419.834	83.75
420.057	95.75
420.28	77.75
420.503	88.75
420.726	89.75
420.948	87.75
421.171	87.75
421.394	84.75
421.617	82.75
421.839	90.75
422.062	78.75
422.285	109.75
422.507	92.75
422.73	104.75
422.953	84.75
423.175	111.75
423.398	89.75
423.621	94.75
423.843	76.75
424.066	87.75
424.288	95.75
424.511	91.75
424.733	95.75
424.956	99.75
425.178	96.75
425.401	99.75
425.623	107.75
425.846	91.75
426.068	91.75
426.291	82.75
426.513	97.75
426.735	91.75
426.958	90.75
427.18	93.75
427.402	134.75
427.625	134.75
427.847	124.75
428.069	97.75
428.292	81.75
428.514	77.75
428.736	87.75
428.958	68.75
429.181	77.75
429.403	77.75
429.625	81.75
429.847	78.75
430.069	106.75
430.292	98.75
430.514	97.75
430.736	69.75
430.958	89.75
431.18	90.75
431.402	89.75
431.624	85.75
431.846	83.75
432.068	94.75
432.29	86.75
432.512	82.75
432.734	73.75
432.956	81.75
433.178	98.75
433.4	95.75
433.622	94.75
433.844	91.75
434.066	88.75
434.287	86.75
434.509	93.75
434.731	81.75
434.953	96.75
435.175	78.75
435.397	89.75
435.618	79.75
435.84	99.75
436.062	118.75
436.284	116.75
436.505	100.75
436.727	103.75
436.949	95.75
437.17	100.75
437.392	92.75
437.614	100.75
437.835	110.75
438.057	88.75
438.278	113.75
438.5	94.75
438.721	123.75
438.943	100.75
439.165	88.75
439.386	83.75
439.608	78.75
439.829	89.75
440.05	91.75
440.272	114.75
440.493	101.75
440.715	95.75
440.936	84.75
441.158	82.75
441.379	73.75
441.6	93.75
441.822	107.75
442.043	93.75
442.264	101.75
442.486	94.75
442.707	101.75
442.928	98.75
443.149	107.75
443.371	111.75
443.592	96.75
443.813	90.75
444.034	89.75
444.255	102.75
444.476	89.75
444.698	87.75
444.919	87.75
445.14	141.75
445.361	114.75
445.582	117.75
445.803	120.75
446.024	114.75
446.245	125.75
446.466	99.75
446.687	92.75
446.908	69.75
447.129	94.75
447.35	100.75
447.571	98.75
447.792	87.75
448.013	93.75
448.234	102.75
448.455	105.75
448.675	101.75
448.896	94.75
449.117	94.75
449.338	99.75
449.559	110.75
449.779	124.75
450	98.75
450.221	97.75
450.442	102.75
450.662	86.75
450.883	92.75
451.104	108.75
451.324	97.75
451.545	99.75
451.766	100.75
451.986	80.75
452.207	79.75
452.428	85.75
452.648	109.75
452.869	101.75
453.089	114.75
453.31	115.75
453.53	85.75
453.751	100.75
453.971	97.75
454.192	106.75
454.412	92.75
454.633	96.75
454.853	73.75
455.073	99.75
455.294	74.75
455.514	89.75
455.734	93.75
455.955	89.75
456.175	76.75
456.395	88.75
456.616	105.75
456.836	103.75
457.056	92.75
457.276	89.75
457.497	71.75
457.717	99.75
457.937	84.75
458.157	94.75
458.377	105.75
458.598	118.75
458.818	132.75
459.038	131.75
459.258	100.75
459.478	86.75
459.698	94.75
459.918	90.75
460.138	82.75
460.358	82.75
460.578	94.75
460.798	86.75
461.018	77.75
461.238	76.75
461.458	82.75
461.678	81.75
461.898	79.75
462.118	93.75
462.338	85.75
462.558	99.75
462.777	90.75
462.997	91.75
463.217	86.75
463.437	83.75
463.657	100.75
463.876	100.75
464.096	94.75
464.316	105.75
464.536	96.75
464.755	98.75
464.975	86.75
465.195	146.75
465.414	138.75
465.634	85.75
465.854	91.75
466.073	84.75
466.293	83.75
466.512	102.75
466.732	73.75
466.951	93.75
467.171	91.75
467.391	81.75
467.61	106.75
467.829	105.75
468.049	98.75
468.268	113.75
468.488	85.75
468.707	82.75
468.927	89.75
469.146	76.75
469.365	82.75
469.585	78.75
469.804	88.75
470.023	81.75
470.243	90.75
470.462	107.75
470.681	99.75
470.901	73.75
471.12	93.75
471.339	100.75
471.558	78.75
471.777	85.75
471.997	95.75
472.216	110.75
472.435	124.75
472.654	73.75
472.873	89.75
473.092	91.75
473.311	82.75
473.53	86.75
473.749	93.75
473.968	108.75
474.187	102.75
474.406	102.75
474.625	91.75
474.844	92.75
475.063	83.75
475.282	87.75
475.501	86.75
475.72	81.75
475.939	98.75
476.158	95.75
476.377	94.75
476.596	90.75
476.814	91.75
477.033	82.75
477.252	98.75
477.471	81.75
477.69	82.75
477.908	78.75
478.127	89.75
478.346	77.75
478.564	94.75
478.783	97.75
479.002	78.75
479.22	103.75
479.439	93.75
479.658	102.75
479.876	91.75
480.095	99.75
480.313	81.75
480.532	78.75
480.751	89.75
480.969	123.75
481.188	206.75
481.406	138.75
481.624	111.75
481.843	92.75
482.061	74.75
482.28	81.75
482.498	87.75
482.717	92.75
482.935	84.75
483.153	84.75
483.372	77.75
483.59	99.75
483.808	93.75
484.027	91.75
484.245	99.75
484.463	107.75
484.681	87.75
484.9	102.75
485.118	90.75
485.336	93.75
485.554	87.75
485.772	102.75
485.99	100.75
486.209	101.75
486.427	105.75
486.645	94.75
486.863	97.75
487.081	102.75
487.299	87.75
487.517	90.75
487.735	102.75
487.953	76.75
488.171	89.75
488.389	97.75
488.607	97.75
488.825	90.75
489.043	96.75
489.261	87.75
489.479	95.75
489.696	90.75
489.914	89.75
490.132	94.75
490.35	84.75
490.568	78.75
490.786	96.75
491.003	82.75
491.221	87.75
491.439	82.75
491.657	99.75
491.874	95.75
492.092	81.75
492.31	89.75
492.527	73.75
492.745	90.75
492.963	94.75
493.18	100.75
493.398	94.75
493.615	102.75
493.833	94.75
494.05	90.75
494.268	101.75
494.485	91.75
494.703	93.75
494.92	93.75
495.138	83.75
495.355	85.75
495.573	108.75
495.79	91.75
496.008	104.75
496.225	89.75
496.442	86.75
496.66	93.75
496.877	84.75
497.094	104.75
497.312	82.75
497.529	102.75
497.746	94.75
497.963	96.75
498.181	87.75
498.398	87.75
498.615	93.75
498.832	103.75
499.049	94.75
499.267	94.75
499.484	84.75
499.701	103.75
499.918	77.75
500.135	90.75
500.352	91.75
500.569	92.75
500.786	88.75
501.003	94.75
501.22	90.75
501.437	102.75
501.654	87.75
501.871	98.75
502.088	94.75
502.305	94.75
502.522	87.75
502.739	89.75
502.956	103.75
503.172	93.75
503.389	96.75
503.606	104.75
503.823	85.75
504.04	84.75
504.256	90.75
504.473	84.75
504.69	85.75
504.907	100.75
505.123	93.75
505.34	93.75
505.557	78.75
505.773	75.75
505.99	83.75
506.207	95.75
506.423	95.75
506.64	78.75
506.856	109.75
507.073	84.75
507.289	72.75
507.506	101.75
507.722	104.75
507.939	94.75
508.155	112.75
508.372	103.75
508.588	99.75
508.805	116.75
509.021	88.75
509.238	97.75
509.454	98.75
509.67	86.75
509.887	108.75
510.103	124.75
510.319	190.75
510.536	706.75
510.752	2030.75
510.968	557.75
511.184	141.75
511.401	98.75
511.617	100.75
511.833	95.75
512.049	97.75
512.265	93.75
512.481	95.75
512.698	102.75
512.914	92.75
513.13	86.75
513.346	91.75
513.562	105.75
513.778	85.75
513.994	97.75
514.21	104.75
514.426	95.75
514.642	129.75
514.858	111.75
515.074	134.75
515.29	382.75
515.506	1154.75
