Data from Uncirc_1982_H10_HRD10591_00029.txt Node
Date: Wed Jan 03 12:29:30 EST 2024
User: Yrep
Spectrometer: HR+D1059
Trigger mode: 1
Integration Time (sec): 1.000000E-1
Scans to average: 1
Electric dark correction enabled: true
Nonlinearity correction enabled: false
Boxcar width: 0
XAxis mode: Wavelengths
Number of Pixels in Spectrum: 2048
>>>>>Begin Spectral Data<<<<<
223.165	-11.44
223.4	-11.44
223.635	-11.44
223.869	-12.44
224.104	-15.44
224.338	-21.44
224.573	-18.44
224.808	-17.44
225.042	-6.44
225.277	-7.44
225.511	-3.44
225.746	-4.44
225.98	12.56
226.215	6.56
226.449	13.56
226.683	25.56
226.918	30.56
227.152	29.56
227.387	37.56
227.621	38.56
227.856	42.56
228.09	47.56
228.324	49.56
228.559	44.56
228.793	48.56
229.027	71.56
229.262	70.56
229.496	71.56
229.73	94.56
229.964	77.56
230.199	86.56
230.433	76.56
230.667	95.56
230.901	74.56
231.136	76.56
231.37	74.56
231.604	96.56
231.838	77.56
232.072	89.56
232.306	96.56
232.541	73.56
232.775	70.56
233.009	91.56
233.243	91.56
233.477	89.56
233.711	80.56
233.945	86.56
234.179	81.56
234.413	75.56
234.647	80.56
234.881	92.56
235.115	82.56
235.349	81.56
235.583	82.56
235.817	71.56
236.051	79.56
236.285	75.56
236.519	89.56
236.753	70.56
236.987	77.56
237.221	101.56
237.455	90.56
237.689	91.56
237.922	86.56
238.156	78.56
238.39	77.56
238.624	76.56
238.858	72.56
239.091	81.56
239.325	62.56
239.559	62.56
239.793	86.56
240.027	57.56
240.26	85.56
240.494	86.56
240.728	76.56
240.961	72.56
241.195	74.56
241.429	70.56
241.662	84.56
241.896	80.56
242.13	95.56
242.363	80.56
242.597	86.56
242.83	77.56
243.064	78.56
243.298	85.56
243.531	92.56
243.765	80.56
243.998	87.56
244.232	66.56
244.465	84.56
244.699	76.56
244.932	71.56
245.166	72.56
245.399	88.56
245.633	89.56
245.866	78.56
246.099	78.56
246.333	72.56
246.566	78.56
246.8	71.56
247.033	76.56
247.266	94.56
247.5	83.56
247.733	75.56
247.966	68.56
248.2	78.56
248.433	87.56
248.666	81.56
248.899	64.56
249.133	97.56
249.366	96.56
249.599	80.56
249.832	75.56
250.066	83.56
250.299	78.56
250.532	96.56
250.765	71.56
250.998	69.56
251.231	67.56
251.465	73.56
251.698	78.56
251.931	75.56
252.164	88.56
252.397	83.56
252.63	73.56
252.863	92.56
253.096	88.56
253.329	76.56
253.562	89.56
253.795	84.56
254.028	71.56
254.261	82.56
254.494	96.56
254.727	85.56
254.96	83.56
255.193	85.56
255.426	75.56
255.659	73.56
255.892	84.56
256.124	88.56
256.357	71.56
256.59	85.56
256.823	85.56
257.056	83.56
257.289	77.56
257.521	75.56
257.754	67.56
257.987	86.56
258.22	88.56
258.452	88.56
258.685	82.56
258.918	84.56
259.151	84.56
259.383	92.56
259.616	87.56
259.849	88.56
260.081	81.56
260.314	86.56
260.547	76.56
260.779	93.56
261.012	93.56
261.244	94.56
261.477	93.56
261.71	94.56
261.942	112.56
262.175	102.56
262.407	106.56
262.64	69.56
262.872	88.56
263.105	84.56
263.337	89.56
263.57	74.56
263.802	83.56
264.035	74.56
264.267	82.56
264.499	80.56
264.732	76.56
264.964	87.56
265.197	84.56
265.429	82.56
265.661	89.56
265.894	87.56
266.126	85.56
266.358	82.56
266.591	90.56
266.823	74.56
267.055	89.56
267.287	78.56
267.52	93.56
267.752	88.56
267.984	94.56
268.216	76.56
268.448	89.56
268.681	67.56
268.913	71.56
269.145	99.56
269.377	98.56
269.609	84.56
269.841	82.56
270.073	89.56
270.306	68.56
270.538	87.56
270.77	73.56
271.002	89.56
271.234	83.56
271.466	89.56
271.698	82.56
271.93	96.56
272.162	97.56
272.394	88.56
272.626	89.56
272.858	84.56
273.09	80.56
273.322	82.56
273.553	85.56
273.785	75.56
274.017	86.56
274.249	72.56
274.481	98.56
274.713	80.56
274.945	87.56
275.176	95.56
275.408	78.56
275.64	94.56
275.872	92.56
276.104	72.56
276.335	94.56
276.567	97.56
276.799	78.56
277.031	103.56
277.262	77.56
277.494	88.56
277.726	91.56
277.957	86.56
278.189	92.56
278.421	73.56
278.652	97.56
278.884	81.56
279.115	86.56
279.347	91.56
279.579	84.56
279.81	85.56
280.042	76.56
280.273	104.56
280.505	85.56
280.736	99.56
280.968	74.56
281.199	100.56
281.431	80.56
281.662	104.56
281.894	103.56
282.125	94.56
282.356	116.56
282.588	122.56
282.819	106.56
283.051	88.56
283.282	90.56
283.513	89.56
283.745	73.56
283.976	82.56
284.207	86.56
284.439	85.56
284.67	94.56
284.901	88.56
285.132	74.56
285.364	88.56
285.595	78.56
285.826	85.56
286.057	111.56
286.288	79.56
286.52	71.56
286.751	91.56
286.982	97.56
287.213	93.56
287.444	97.56
287.675	77.56
287.906	89.56
288.138	85.56
288.369	84.56
288.6	86.56
288.831	84.56
289.062	100.56
289.293	86.56
289.524	88.56
289.755	91.56
289.986	75.56
290.217	89.56
290.448	97.56
290.679	82.56
290.91	104.56
291.141	91.56
291.371	78.56
291.602	98.56
291.833	94.56
292.064	82.56
292.295	77.56
292.526	78.56
292.757	75.56
292.987	96.56
293.218	85.56
293.449	81.56
293.68	109.56
293.91	83.56
294.141	94.56
294.372	98.56
294.603	90.56
294.833	88.56
295.064	82.56
295.295	91.56
295.525	94.56
295.756	107.56
295.987	98.56
296.217	110.56
296.448	121.56
296.679	96.56
296.909	91.56
297.14	94.56
297.37	86.56
297.601	78.56
297.831	81.56
298.062	94.56
298.292	84.56
298.523	89.56
298.753	100.56
298.984	90.56
299.214	87.56
299.445	96.56
299.675	82.56
299.905	84.56
300.136	81.56
300.366	92.56
300.597	78.56
300.827	104.56
301.057	88.56
301.288	101.56
301.518	99.56
301.748	74.56
301.979	100.56
302.209	96.56
302.439	102.56
302.669	91.56
302.9	109.56
303.13	90.56
303.36	76.56
303.59	87.56
303.82	93.56
304.051	97.56
304.281	97.56
304.511	92.56
304.741	82.56
304.971	89.56
305.201	94.56
305.431	92.56
305.661	97.56
305.891	98.56
306.121	85.56
306.352	102.56
306.582	104.56
306.812	90.56
307.042	97.56
307.272	98.56
307.502	94.56
307.731	96.56
307.961	106.56
308.191	79.56
308.421	110.56
308.651	89.56
308.881	99.56
309.111	87.56
309.341	88.56
309.571	104.56
309.8	96.56
310.03	96.56
310.26	84.56
310.49	90.56
310.72	100.56
310.949	92.56
311.179	96.56
311.409	85.56
311.639	82.56
311.868	86.56
312.098	83.56
312.328	99.56
312.557	107.56
312.787	90.56
313.017	88.56
313.246	84.56
313.476	99.56
313.706	76.56
313.935	97.56
314.165	95.56
314.394	92.56
314.624	88.56
314.853	109.56
315.083	80.56
315.312	104.56
315.542	85.56
315.771	87.56
316.001	93.56
316.23	95.56
316.46	86.56
316.689	92.56
316.919	94.56
317.148	87.56
317.377	94.56
317.607	89.56
317.836	99.56
318.065	86.56
318.295	77.56
318.524	85.56
318.753	100.56
318.983	80.56
319.212	102.56
319.441	97.56
319.67	101.56
319.9	88.56
320.129	86.56
320.358	89.56
320.587	105.56
320.816	105.56
321.046	100.56
321.275	97.56
321.504	89.56
321.733	96.56
321.962	95.56
322.191	103.56
322.42	99.56
322.649	116.56
322.878	116.56
323.108	109.56
323.337	110.56
323.566	121.56
323.795	136.56
324.024	198.56
324.253	342.56
324.482	724.56
324.71	1474.56
324.939	1942.56
325.168	726.56
325.397	245.56
325.626	139.56
325.855	115.56
326.084	114.56
326.313	135.56
326.542	146.56
326.77	216.56
326.999	413.56
327.228	848.56
327.457	1512.56
327.686	1238.56
327.914	352.56
328.143	173.56
328.372	126.56
328.6	114.56
328.829	109.56
329.058	120.56
329.287	117.56
329.515	97.56
329.744	87.56
329.972	107.56
330.201	121.56
330.43	110.56
330.658	112.56
330.887	98.56
331.115	99.56
331.344	94.56
331.572	92.56
331.801	99.56
332.03	95.56
332.258	86.56
332.486	98.56
332.715	98.56
332.943	102.56
333.172	93.56
333.4	85.56
333.629	90.56
333.857	93.56
334.085	102.56
334.314	102.56
334.542	114.56
334.771	109.56
334.999	103.56
335.227	101.56
335.455	115.56
335.684	93.56
335.912	104.56
336.14	92.56
336.369	100.56
336.597	108.56
336.825	100.56
337.053	88.56
337.281	92.56
337.51	81.56
337.738	94.56
337.966	76.56
338.194	93.56
338.422	98.56
338.65	97.56
338.878	95.56
339.106	102.56
339.334	86.56
339.562	94.56
339.79	81.56
340.018	89.56
340.246	91.56
340.474	90.56
340.702	96.56
340.93	100.56
341.158	89.56
341.386	99.56
341.614	89.56
341.842	93.56
342.07	93.56
342.298	76.56
342.526	85.56
342.754	88.56
342.981	90.56
343.209	97.56
343.437	96.56
343.665	76.56
343.893	82.56
344.12	93.56
344.348	83.56
344.576	89.56
344.804	105.56
345.031	103.56
345.259	85.56
345.487	93.56
345.714	89.56
345.942	96.56
346.17	102.56
346.397	93.56
346.625	101.56
346.853	83.56
347.08	92.56
347.308	101.56
347.535	97.56
347.763	104.56
347.99	92.56
348.218	102.56
348.445	109.56
348.673	97.56
348.9	89.56
349.128	88.56
349.355	99.56
349.583	88.56
349.81	93.56
350.037	92.56
350.265	83.56
350.492	100.56
350.72	104.56
350.947	97.56
351.174	104.56
351.402	104.56
351.629	87.56
351.856	101.56
352.083	107.56
352.311	101.56
352.538	102.56
352.765	105.56
352.992	102.56
353.22	124.56
353.447	101.56
353.674	107.56
353.901	97.56
354.128	107.56
354.355	101.56
354.583	105.56
354.81	95.56
355.037	93.56
355.264	98.56
355.491	108.56
355.718	111.56
355.945	80.56
356.172	100.56
356.399	91.56
356.626	99.56
356.853	92.56
357.08	98.56
357.307	86.56
357.534	93.56
357.761	80.56
357.988	108.56
358.215	94.56
358.441	94.56
358.668	76.56
358.895	101.56
359.122	95.56
359.349	92.56
359.576	97.56
359.802	94.56
360.029	87.56
360.256	112.56
360.483	95.56
360.709	91.56
360.936	106.56
361.163	99.56
361.39	97.56
361.616	99.56
361.843	75.56
362.07	102.56
362.296	86.56
362.523	85.56
362.749	88.56
362.976	77.56
363.203	95.56
363.429	91.56
363.656	82.56
363.882	101.56
364.109	103.56
364.335	82.56
364.562	93.56
364.788	93.56
365.015	98.56
365.241	108.56
365.468	98.56
365.694	101.56
365.92	83.56
366.147	93.56
366.373	101.56
366.599	88.56
366.826	72.56
367.052	85.56
367.278	89.56
367.505	94.56
367.731	100.56
367.957	89.56
368.184	88.56
368.41	91.56
368.636	105.56
368.862	107.56
369.089	102.56
369.315	95.56
369.541	88.56
369.767	88.56
369.993	92.56
370.219	71.56
370.445	88.56
370.672	87.56
370.898	96.56
371.124	84.56
371.35	86.56
371.576	102.56
371.802	85.56
372.028	86.56
372.254	106.56
372.48	93.56
372.706	98.56
372.932	85.56
373.158	95.56
373.384	100.56
373.61	95.56
373.835	96.56
374.061	93.56
374.287	99.56
374.513	93.56
374.739	88.56
374.965	85.56
375.191	104.56
375.416	100.56
375.642	79.56
375.868	84.56
376.094	106.56
376.319	92.56
376.545	92.56
376.771	75.56
376.997	91.56
377.222	88.56
377.448	92.56
377.674	91.56
377.899	82.56
378.125	99.56
378.35	90.56
378.576	96.56
378.802	94.56
379.027	95.56
379.253	91.56
379.478	92.56
379.704	85.56
379.929	77.56
380.155	93.56
380.38	93.56
380.606	100.56
380.831	93.56
381.057	102.56
381.282	92.56
381.507	102.56
381.733	82.56
381.958	101.56
382.184	107.56
382.409	107.56
382.634	107.56
382.86	101.56
383.085	104.56
383.31	115.56
383.535	92.56
383.761	108.56
383.986	103.56
384.211	101.56
384.436	107.56
384.662	93.56
384.887	130.56
385.112	120.56
385.337	120.56
385.562	115.56
385.787	119.56
386.013	110.56
386.238	108.56
386.463	109.56
386.688	105.56
386.913	115.56
387.138	108.56
387.363	109.56
387.588	101.56
387.813	93.56
388.038	112.56
388.263	125.56
388.488	110.56
388.713	93.56
388.938	91.56
389.163	87.56
389.387	93.56
389.612	91.56
389.837	91.56
390.062	96.56
390.287	88.56
390.512	96.56
390.736	97.56
390.961	95.56
391.186	104.56
391.411	94.56
391.636	85.56
391.86	76.56
392.085	76.56
392.31	88.56
392.534	94.56
392.759	81.56
392.984	99.56
393.208	92.56
393.433	81.56
393.658	84.56
393.882	90.56
394.107	73.56
394.331	88.56
394.556	98.56
394.78	86.56
395.005	85.56
395.229	96.56
395.454	84.56
395.678	86.56
395.903	84.56
396.127	94.56
396.352	84.56
396.576	82.56
396.801	90.56
397.025	76.56
397.249	82.56
397.474	87.56
397.698	85.56
397.922	81.56
398.147	93.56
398.371	99.56
398.595	90.56
398.82	94.56
399.044	81.56
399.268	87.56
399.492	92.56
399.717	83.56
399.941	82.56
400.165	94.56
400.389	81.56
400.613	94.56
400.837	91.56
401.062	83.56
401.286	83.56
401.51	82.56
401.734	88.56
401.958	103.56
402.182	132.56
402.406	148.56
402.63	113.56
402.854	88.56
403.078	80.56
403.302	88.56
403.526	100.56
403.75	90.56
403.974	89.56
404.198	86.56
404.422	88.56
404.645	82.56
404.869	77.56
405.093	104.56
405.317	93.56
405.541	104.56
405.765	90.56
405.988	109.56
406.212	152.56
406.436	187.56
406.66	115.56
406.883	100.56
407.107	87.56
407.331	95.56
407.555	92.56
407.778	90.56
408.002	77.56
408.226	86.56
408.449	87.56
408.673	104.56
408.896	98.56
409.12	92.56
409.344	81.56
409.567	85.56
409.791	93.56
410.014	96.56
410.238	90.56
410.461	94.56
410.685	106.56
410.908	108.56
411.132	109.56
411.355	85.56
411.578	92.56
411.802	97.56
412.025	102.56
412.249	105.56
412.472	103.56
412.695	109.56
412.919	101.56
413.142	88.56
413.365	72.56
413.589	87.56
413.812	74.56
414.035	90.56
414.258	106.56
414.482	93.56
414.705	89.56
414.928	93.56
415.151	101.56
415.374	98.56
415.597	85.56
415.821	93.56
416.044	95.56
416.267	79.56
416.49	80.56
416.713	96.56
416.936	87.56
417.159	80.56
417.382	86.56
417.605	88.56
417.828	85.56
418.051	93.56
418.274	84.56
418.497	97.56
418.72	87.56
418.943	83.56
419.166	84.56
419.389	67.56
419.611	92.56
419.834	81.56
420.057	100.56
420.28	91.56
420.503	93.56
420.726	108.56
420.948	96.56
421.171	90.56
421.394	73.56
421.617	84.56
421.839	93.56
422.062	82.56
422.285	104.56
422.507	105.56
422.73	93.56
422.953	106.56
423.175	88.56
423.398	81.56
423.621	87.56
423.843	73.56
424.066	77.56
424.288	87.56
424.511	86.56
424.733	93.56
424.956	78.56
425.178	94.56
425.401	100.56
425.623	93.56
425.846	96.56
426.068	90.56
426.291	80.56
426.513	92.56
426.735	82.56
426.958	88.56
427.18	99.56
427.402	109.56
427.625	149.56
427.847	118.56
428.069	109.56
428.292	94.56
428.514	87.56
428.736	92.56
428.958	92.56
429.181	86.56
429.403	97.56
429.625	89.56
429.847	99.56
430.069	106.56
430.292	94.56
430.514	108.56
430.736	97.56
430.958	85.56
431.18	84.56
431.402	96.56
431.624	77.56
431.846	94.56
432.068	89.56
432.29	88.56
432.512	72.56
432.734	95.56
432.956	86.56
433.178	101.56
433.4	77.56
433.622	97.56
433.844	107.56
434.066	88.56
434.287	90.56
434.509	98.56
434.731	98.56
434.953	90.56
435.175	105.56
435.397	83.56
435.618	90.56
435.84	96.56
436.062	116.56
436.284	107.56
436.505	98.56
436.727	91.56
436.949	86.56
437.17	100.56
437.392	100.56
437.614	93.56
437.835	101.56
438.057	105.56
438.278	102.56
438.5	99.56
438.721	116.56
438.943	73.56
439.165	86.56
439.386	85.56
439.608	86.56
439.829	102.56
440.05	114.56
440.272	108.56
440.493	103.56
440.715	87.56
440.936	91.56
441.158	96.56
441.379	94.56
441.6	91.56
441.822	100.56
442.043	97.56
442.264	82.56
442.486	101.56
442.707	83.56
442.928	90.56
443.149	112.56
443.371	110.56
443.592	93.56
443.813	94.56
444.034	107.56
444.255	88.56
444.476	81.56
444.698	80.56
444.919	90.56
445.14	138.56
445.361	112.56
445.582	102.56
445.803	111.56
446.024	122.56
446.245	123.56
446.466	124.56
446.687	87.56
446.908	72.56
447.129	84.56
447.35	90.56
447.571	88.56
447.792	86.56
448.013	93.56
448.234	98.56
448.455	92.56
448.675	108.56
448.896	106.56
449.117	90.56
449.338	103.56
449.559	115.56
449.779	130.56
450	107.56
450.221	91.56
450.442	80.56
450.662	91.56
450.883	90.56
451.104	102.56
451.324	68.56
451.545	84.56
451.766	84.56
451.986	90.56
452.207	82.56
452.428	73.56
452.648	90.56
452.869	89.56
453.089	90.56
453.31	115.56
453.53	99.56
453.751	91.56
453.971	110.56
454.192	105.56
454.412	92.56
454.633	71.56
454.853	88.56
455.073	90.56
455.294	90.56
455.514	104.56
455.734	94.56
455.955	86.56
456.175	99.56
456.395	99.56
456.616	92.56
456.836	82.56
457.056	74.56
457.276	80.56
457.497	77.56
457.717	72.56
457.937	77.56
458.157	93.56
458.377	91.56
458.598	108.56
458.818	136.56
459.038	117.56
459.258	108.56
459.478	88.56
459.698	91.56
459.918	88.56
460.138	81.56
460.358	75.56
460.578	84.56
460.798	106.56
461.018	88.56
461.238	82.56
461.458	94.56
461.678	78.56
461.898	84.56
462.118	78.56
462.338	83.56
462.558	97.56
462.777	82.56
462.997	94.56
463.217	78.56
463.437	104.56
463.657	86.56
463.876	85.56
464.096	89.56
464.316	99.56
464.536	80.56
464.755	89.56
464.975	104.56
465.195	138.56
465.414	124.56
465.634	84.56
465.854	99.56
466.073	92.56
466.293	97.56
466.512	86.56
466.732	96.56
466.951	79.56
467.171	84.56
467.391	105.56
467.61	91.56
467.829	106.56
468.049	100.56
468.268	87.56
468.488	96.56
468.707	96.56
468.927	74.56
469.146	85.56
469.365	95.56
469.585	96.56
469.804	88.56
470.023	80.56
470.243	87.56
470.462	100.56
470.681	91.56
470.901	75.56
471.12	74.56
471.339	106.56
471.558	101.56
471.777	86.56
471.997	88.56
472.216	98.56
472.435	128.56
472.654	91.56
472.873	92.56
473.092	84.56
473.311	72.56
473.53	83.56
473.749	75.56
473.968	93.56
474.187	100.56
474.406	96.56
474.625	88.56
474.844	73.56
475.063	89.56
475.282	87.56
475.501	88.56
475.72	91.56
475.939	87.56
476.158	91.56
476.377	96.56
476.596	93.56
476.814	71.56
477.033	88.56
477.252	98.56
477.471	65.56
477.69	93.56
477.908	95.56
478.127	89.56
478.346	80.56
478.564	89.56
478.783	94.56
479.002	93.56
479.22	99.56
479.439	86.56
479.658	102.56
479.876	97.56
480.095	98.56
480.313	84.56
480.532	88.56
480.751	102.56
480.969	116.56
481.188	175.56
481.406	126.56
481.624	91.56
481.843	86.56
482.061	95.56
482.28	85.56
482.498	87.56
482.717	94.56
482.935	80.56
483.153	101.56
483.372	96.56
483.59	84.56
483.808	73.56
484.027	85.56
484.245	87.56
484.463	90.56
484.681	101.56
484.9	91.56
485.118	104.56
485.336	101.56
485.554	87.56
485.772	86.56
485.99	95.56
486.209	98.56
486.427	119.56
486.645	107.56
486.863	116.56
487.081	110.56
487.299	98.56
487.517	117.56
487.735	95.56
487.953	86.56
488.171	85.56
488.389	84.56
488.607	94.56
488.825	97.56
489.043	88.56
489.261	84.56
489.479	90.56
489.696	92.56
489.914	92.56
490.132	97.56
490.35	89.56
490.568	97.56
490.786	94.56
491.003	105.56
491.221	91.56
491.439	100.56
491.657	114.56
491.874	88.56
492.092	92.56
492.31	99.56
492.527	109.56
492.745	87.56
492.963	87.56
493.18	86.56
493.398	91.56
493.615	111.56
493.833	102.56
494.05	93.56
494.268	102.56
494.485	106.56
494.703	90.56
494.92	85.56
495.138	98.56
495.355	93.56
495.573	82.56
495.79	86.56
496.008	98.56
496.225	78.56
496.442	82.56
496.66	86.56
496.877	94.56
497.094	89.56
497.312	100.56
497.529	100.56
497.746	86.56
497.963	94.56
498.181	80.56
498.398	93.56
498.615	115.56
498.832	104.56
499.049	105.56
499.267	108.56
499.484	95.56
499.701	93.56
499.918	86.56
500.135	98.56
500.352	84.56
500.569	92.56
500.786	87.56
501.003	98.56
501.22	86.56
501.437	90.56
501.654	109.56
501.871	109.56
502.088	90.56
502.305	104.56
502.522	86.56
502.739	109.56
502.956	78.56
503.172	96.56
503.389	83.56
503.606	88.56
503.823	95.56
504.04	87.56
504.256	87.56
504.473	100.56
504.69	97.56
504.907	93.56
505.123	81.56
505.34	102.56
505.557	89.56
505.773	92.56
505.99	91.56
506.207	90.56
506.423	86.56
506.64	73.56
506.856	104.56
507.073	94.56
507.289	77.56
507.506	98.56
507.722	101.56
507.939	102.56
508.155	103.56
508.372	94.56
508.588	93.56
508.805	99.56
509.021	92.56
509.238	108.56
509.454	115.56
509.67	92.56
509.887	100.56
510.103	123.56
510.319	186.56
510.536	626.56
510.752	1832.56
510.968	502.56
511.184	128.56
511.401	110.56
511.617	112.56
511.833	110.56
512.049	93.56
512.265	94.56
512.481	98.56
512.698	103.56
512.914	102.56
513.13	101.56
513.346	81.56
513.562	99.56
513.778	100.56
513.994	103.56
514.21	89.56
514.426	106.56
514.642	121.56
514.858	120.56
515.074	141.56
515.29	356.56
515.506	1041.56
