Data from Uncirc_1982_H10_HRD10591_00069.txt Node
Date: Wed Jan 03 12:29:38 EST 2024
User: Yrep
Spectrometer: HR+D1059
Trigger mode: 1
Integration Time (sec): 1.000000E-1
Scans to average: 1
Electric dark correction enabled: true
Nonlinearity correction enabled: false
Boxcar width: 0
XAxis mode: Wavelengths
Number of Pixels in Spectrum: 2048
>>>>>Begin Spectral Data<<<<<
223.165	-6.94
223.4	-6.94
223.635	-6.94
223.869	-25.94
224.104	-15.94
224.338	-7.94
224.573	-18.94
224.808	-6.94
225.042	-12.94
225.277	-12.94
225.511	0.06
225.746	15.06
225.98	6.06
226.215	7.06
226.449	12.06
226.683	11.06
226.918	14.06
227.152	43.06
227.387	27.06
227.621	35.06
227.856	41.06
228.09	55.06
228.324	56.06
228.559	59.06
228.793	71.06
229.027	71.06
229.262	58.06
229.496	64.06
229.73	80.06
229.964	63.06
230.199	83.06
230.433	79.06
230.667	67.06
230.901	82.06
231.136	67.06
231.37	69.06
231.604	59.06
231.838	83.06
232.072	95.06
232.306	73.06
232.541	84.06
232.775	72.06
233.009	92.06
233.243	75.06
233.477	87.06
233.711	73.06
233.945	73.06
234.179	84.06
234.413	92.06
234.647	78.06
234.881	90.06
235.115	71.06
235.349	73.06
235.583	82.06
235.817	89.06
236.051	83.06
236.285	71.06
236.519	79.06
236.753	66.06
236.987	79.06
237.221	83.06
237.455	83.06
237.689	80.06
237.922	79.06
238.156	79.06
238.39	71.06
238.624	74.06
238.858	71.06
239.091	79.06
239.325	83.06
239.559	80.06
239.793	88.06
240.027	71.06
240.26	65.06
240.494	69.06
240.728	79.06
240.961	74.06
241.195	90.06
241.429	81.06
241.662	69.06
241.896	79.06
242.13	84.06
242.363	76.06
242.597	75.06
242.83	74.06
243.064	77.06
243.298	60.06
243.531	78.06
243.765	72.06
243.998	81.06
244.232	87.06
244.465	83.06
244.699	83.06
244.932	82.06
245.166	87.06
245.399	92.06
245.633	84.06
245.866	73.06
246.099	79.06
246.333	55.06
246.566	60.06
246.8	71.06
247.033	86.06
247.266	85.06
247.5	102.06
247.733	60.06
247.966	79.06
248.2	72.06
248.433	87.06
248.666	73.06
248.899	67.06
249.133	73.06
249.366	98.06
249.599	92.06
249.832	69.06
250.066	77.06
250.299	65.06
250.532	84.06
250.765	81.06
250.998	85.06
251.231	76.06
251.465	84.06
251.698	75.06
251.931	68.06
252.164	84.06
252.397	77.06
252.63	93.06
252.863	78.06
253.096	81.06
253.329	87.06
253.562	85.06
253.795	83.06
254.028	78.06
254.261	77.06
254.494	88.06
254.727	89.06
254.96	88.06
255.193	91.06
255.426	78.06
255.659	65.06
255.892	74.06
256.124	85.06
256.357	79.06
256.59	75.06
256.823	84.06
257.056	79.06
257.289	74.06
257.521	75.06
257.754	91.06
257.987	91.06
258.22	89.06
258.452	85.06
258.685	83.06
258.918	74.06
259.151	75.06
259.383	85.06
259.616	71.06
259.849	75.06
260.081	81.06
260.314	72.06
260.547	85.06
260.779	87.06
261.012	81.06
261.244	88.06
261.477	63.06
261.71	86.06
261.942	93.06
262.175	105.06
262.407	88.06
262.64	84.06
262.872	72.06
263.105	85.06
263.337	95.06
263.57	87.06
263.802	93.06
264.035	95.06
264.267	95.06
264.499	86.06
264.732	83.06
264.964	84.06
265.197	83.06
265.429	91.06
265.661	90.06
265.894	77.06
266.126	85.06
266.358	84.06
266.591	51.06
266.823	76.06
267.055	84.06
267.287	69.06
267.52	85.06
267.752	88.06
267.984	99.06
268.216	81.06
268.448	74.06
268.681	85.06
268.913	73.06
269.145	85.06
269.377	79.06
269.609	95.06
269.841	91.06
270.073	85.06
270.306	91.06
270.538	82.06
270.77	73.06
271.002	78.06
271.234	79.06
271.466	86.06
271.698	77.06
271.93	96.06
272.162	87.06
272.394	78.06
272.626	72.06
272.858	97.06
273.09	90.06
273.322	89.06
273.553	85.06
273.785	88.06
274.017	71.06
274.249	84.06
274.481	72.06
274.713	76.06
274.945	82.06
275.176	88.06
275.408	80.06
275.64	88.06
275.872	97.06
276.104	84.06
276.335	95.06
276.567	80.06
276.799	99.06
277.031	102.06
277.262	103.06
277.494	92.06
277.726	84.06
277.957	99.06
278.189	83.06
278.421	90.06
278.652	76.06
278.884	89.06
279.115	70.06
279.347	88.06
279.579	82.06
279.81	84.06
280.042	82.06
280.273	79.06
280.505	102.06
280.736	97.06
280.968	89.06
281.199	97.06
281.431	88.06
281.662	83.06
281.894	98.06
282.125	97.06
282.356	96.06
282.588	92.06
282.819	108.06
283.051	76.06
283.282	82.06
283.513	106.06
283.745	95.06
283.976	80.06
284.207	76.06
284.439	100.06
284.67	85.06
284.901	95.06
285.132	91.06
285.364	87.06
285.595	77.06
285.826	83.06
286.057	90.06
286.288	99.06
286.52	83.06
286.751	88.06
286.982	89.06
287.213	90.06
287.444	91.06
287.675	83.06
287.906	90.06
288.138	74.06
288.369	108.06
288.6	88.06
288.831	81.06
289.062	97.06
289.293	73.06
289.524	87.06
289.755	76.06
289.986	90.06
290.217	83.06
290.448	96.06
290.679	80.06
290.91	91.06
291.141	89.06
291.371	88.06
291.602	85.06
291.833	97.06
292.064	74.06
292.295	91.06
292.526	90.06
292.757	81.06
292.987	83.06
293.218	83.06
293.449	89.06
293.68	89.06
293.91	81.06
294.141	85.06
294.372	86.06
294.603	91.06
294.833	84.06
295.064	77.06
295.295	91.06
295.525	84.06
295.756	81.06
295.987	102.06
296.217	113.06
296.448	104.06
296.679	85.06
296.909	84.06
297.14	74.06
297.37	87.06
297.601	89.06
297.831	89.06
298.062	99.06
298.292	90.06
298.523	91.06
298.753	88.06
298.984	74.06
299.214	89.06
299.445	101.06
299.675	93.06
299.905	106.06
300.136	97.06
300.366	75.06
300.597	90.06
300.827	100.06
301.057	85.06
301.288	87.06
301.518	110.06
301.748	102.06
301.979	100.06
302.209	99.06
302.439	93.06
302.669	88.06
302.9	75.06
303.13	75.06
303.36	104.06
303.59	103.06
303.82	100.06
304.051	103.06
304.281	95.06
304.511	95.06
304.741	90.06
304.971	67.06
305.201	76.06
305.431	73.06
305.661	81.06
305.891	85.06
306.121	96.06
306.352	89.06
306.582	101.06
306.812	99.06
307.042	80.06
307.272	98.06
307.502	75.06
307.731	94.06
307.961	84.06
308.191	86.06
308.421	86.06
308.651	88.06
308.881	86.06
309.111	71.06
309.341	99.06
309.571	82.06
309.8	86.06
310.03	91.06
310.26	87.06
310.49	106.06
310.72	95.06
310.949	89.06
311.179	74.06
311.409	97.06
311.639	88.06
311.868	92.06
312.098	85.06
312.328	96.06
312.557	97.06
312.787	96.06
313.017	88.06
313.246	102.06
313.476	87.06
313.706	90.06
313.935	95.06
314.165	103.06
314.394	83.06
314.624	97.06
314.853	94.06
315.083	89.06
315.312	83.06
315.542	86.06
315.771	92.06
316.001	94.06
316.23	96.06
316.46	80.06
316.689	82.06
316.919	84.06
317.148	109.06
317.377	97.06
317.607	103.06
317.836	97.06
318.065	94.06
318.295	91.06
318.524	111.06
318.753	95.06
318.983	87.06
319.212	96.06
319.441	108.06
319.67	109.06
319.9	97.06
320.129	102.06
320.358	78.06
320.587	96.06
320.816	105.06
321.046	95.06
321.275	88.06
321.504	87.06
321.733	81.06
321.962	92.06
322.191	94.06
322.42	100.06
322.649	109.06
322.878	97.06
323.108	107.06
323.337	110.06
323.566	116.06
323.795	137.06
324.024	170.06
324.253	330.06
324.482	660.06
324.71	1329.06
324.939	1712.06
325.168	638.06
325.397	207.06
325.626	120.06
325.855	120.06
326.084	124.06
326.313	130.06
326.542	156.06
326.77	209.06
326.999	355.06
327.228	738.06
327.457	1347.06
327.686	1083.06
327.914	307.06
328.143	178.06
328.372	135.06
328.6	108.06
328.829	115.06
329.058	113.06
329.287	108.06
329.515	95.06
329.744	92.06
329.972	91.06
330.201	124.06
330.43	124.06
330.658	117.06
330.887	130.06
331.115	109.06
331.344	79.06
331.572	98.06
331.801	104.06
332.03	96.06
332.258	88.06
332.486	104.06
332.715	95.06
332.943	87.06
333.172	91.06
333.4	86.06
333.629	104.06
333.857	113.06
334.085	100.06
334.314	110.06
334.542	128.06
334.771	108.06
334.999	101.06
335.227	96.06
335.455	76.06
335.684	79.06
335.912	112.06
336.14	96.06
336.369	98.06
336.597	92.06
336.825	93.06
337.053	85.06
337.281	88.06
337.51	98.06
337.738	82.06
337.966	107.06
338.194	93.06
338.422	86.06
338.65	95.06
338.878	94.06
339.106	95.06
339.334	82.06
339.562	96.06
339.79	90.06
340.018	96.06
340.246	96.06
340.474	97.06
340.702	92.06
340.93	98.06
341.158	76.06
341.386	92.06
341.614	92.06
341.842	99.06
342.07	97.06
342.298	83.06
342.526	88.06
342.754	77.06
342.981	98.06
343.209	83.06
343.437	84.06
343.665	95.06
343.893	79.06
344.12	91.06
344.348	83.06
344.576	84.06
344.804	110.06
345.031	95.06
345.259	97.06
345.487	89.06
345.714	82.06
345.942	85.06
346.17	109.06
346.397	93.06
346.625	93.06
346.853	103.06
347.08	96.06
347.308	88.06
347.535	93.06
347.763	99.06
347.99	91.06
348.218	112.06
348.445	88.06
348.673	90.06
348.9	89.06
349.128	97.06
349.355	107.06
349.583	101.06
349.81	97.06
350.037	110.06
350.265	103.06
350.492	81.06
350.72	82.06
350.947	92.06
351.174	104.06
351.402	99.06
351.629	107.06
351.856	82.06
352.083	100.06
352.311	111.06
352.538	99.06
352.765	113.06
352.992	105.06
353.22	108.06
353.447	111.06
353.674	105.06
353.901	99.06
354.128	100.06
354.355	105.06
354.583	99.06
354.81	85.06
355.037	102.06
355.264	101.06
355.491	89.06
355.718	74.06
355.945	81.06
356.172	91.06
356.399	105.06
356.626	89.06
356.853	96.06
357.08	96.06
357.307	103.06
357.534	84.06
357.761	94.06
357.988	88.06
358.215	109.06
358.441	88.06
358.668	100.06
358.895	88.06
359.122	80.06
359.349	93.06
359.576	94.06
359.802	103.06
360.029	92.06
360.256	87.06
360.483	82.06
360.709	84.06
360.936	87.06
361.163	81.06
361.39	90.06
361.616	79.06
361.843	81.06
362.07	92.06
362.296	88.06
362.523	99.06
362.749	100.06
362.976	93.06
363.203	104.06
363.429	104.06
363.656	88.06
363.882	100.06
364.109	101.06
364.335	96.06
364.562	83.06
364.788	89.06
365.015	84.06
365.241	109.06
365.468	112.06
365.694	82.06
365.92	100.06
366.147	87.06
366.373	91.06
366.599	96.06
366.826	81.06
367.052	99.06
367.278	81.06
367.505	91.06
367.731	98.06
367.957	96.06
368.184	96.06
368.41	115.06
368.636	97.06
368.862	109.06
369.089	112.06
369.315	101.06
369.541	88.06
369.767	87.06
369.993	90.06
370.219	89.06
370.445	84.06
370.672	90.06
370.898	86.06
371.124	85.06
371.35	95.06
371.576	87.06
371.802	75.06
372.028	82.06
372.254	79.06
372.48	85.06
372.706	80.06
372.932	87.06
373.158	82.06
373.384	95.06
373.61	89.06
373.835	100.06
374.061	79.06
374.287	96.06
374.513	88.06
374.739	85.06
374.965	87.06
375.191	83.06
375.416	90.06
375.642	80.06
375.868	96.06
376.094	79.06
376.319	96.06
376.545	97.06
376.771	105.06
376.997	92.06
377.222	89.06
377.448	85.06
377.674	89.06
377.899	98.06
378.125	87.06
378.35	95.06
378.576	96.06
378.802	92.06
379.027	86.06
379.253	96.06
379.478	70.06
379.704	79.06
379.929	75.06
380.155	87.06
380.38	91.06
380.606	93.06
380.831	89.06
381.057	98.06
381.282	80.06
381.507	95.06
381.733	90.06
381.958	92.06
382.184	98.06
382.409	95.06
382.634	103.06
382.86	100.06
383.085	93.06
383.31	107.06
383.535	93.06
383.761	92.06
383.986	97.06
384.211	95.06
384.436	97.06
384.662	100.06
384.887	104.06
385.112	102.06
385.337	95.06
385.562	104.06
385.787	107.06
386.013	109.06
386.238	100.06
386.463	105.06
386.688	109.06
386.913	85.06
387.138	109.06
387.363	92.06
387.588	94.06
387.813	82.06
388.038	95.06
388.263	93.06
388.488	99.06
388.713	92.06
388.938	85.06
389.163	87.06
389.387	93.06
389.612	89.06
389.837	89.06
390.062	105.06
390.287	87.06
390.512	89.06
390.736	85.06
390.961	88.06
391.186	92.06
391.411	99.06
391.636	79.06
391.86	69.06
392.085	74.06
392.31	81.06
392.534	77.06
392.759	76.06
392.984	85.06
393.208	87.06
393.433	84.06
393.658	98.06
393.882	79.06
394.107	96.06
394.331	97.06
394.556	80.06
394.78	99.06
395.005	84.06
395.229	84.06
395.454	85.06
395.678	82.06
395.903	93.06
396.127	95.06
396.352	85.06
396.576	80.06
396.801	83.06
397.025	93.06
397.249	83.06
397.474	79.06
397.698	71.06
397.922	81.06
398.147	85.06
398.371	73.06
398.595	79.06
398.82	81.06
399.044	89.06
399.268	90.06
399.492	82.06
399.717	85.06
399.941	74.06
400.165	65.06
400.389	81.06
400.613	83.06
400.837	88.06
401.062	95.06
401.286	70.06
401.51	79.06
401.734	86.06
401.958	84.06
402.182	121.06
402.406	134.06
402.63	106.06
402.854	95.06
403.078	83.06
403.302	88.06
403.526	105.06
403.75	105.06
403.974	85.06
404.198	77.06
404.422	77.06
404.645	87.06
404.869	94.06
405.093	82.06
405.317	76.06
405.541	95.06
405.765	87.06
405.988	100.06
406.212	130.06
406.436	181.06
406.66	133.06
406.883	86.06
407.107	95.06
407.331	92.06
407.555	85.06
407.778	90.06
408.002	76.06
408.226	81.06
408.449	74.06
408.673	95.06
408.896	77.06
409.12	102.06
409.344	89.06
409.567	80.06
409.791	89.06
410.014	92.06
410.238	95.06
410.461	95.06
410.685	104.06
410.908	97.06
411.132	101.06
411.355	93.06
411.578	95.06
411.802	90.06
412.025	68.06
412.249	72.06
412.472	82.06
412.695	81.06
412.919	105.06
413.142	86.06
413.365	92.06
413.589	83.06
413.812	90.06
414.035	109.06
414.258	96.06
414.482	96.06
414.705	77.06
414.928	75.06
415.151	100.06
415.374	94.06
415.597	98.06
415.821	89.06
416.044	89.06
416.267	81.06
416.49	73.06
416.713	83.06
416.936	79.06
417.159	94.06
417.382	93.06
417.605	85.06
417.828	93.06
418.051	91.06
418.274	88.06
418.497	95.06
418.72	95.06
418.943	87.06
419.166	92.06
419.389	96.06
419.611	87.06
419.834	99.06
420.057	91.06
420.28	80.06
420.503	67.06
420.726	81.06
420.948	87.06
421.171	84.06
421.394	87.06
421.617	85.06
421.839	83.06
422.062	84.06
422.285	97.06
422.507	96.06
422.73	75.06
422.953	78.06
423.175	76.06
423.398	91.06
423.621	83.06
423.843	86.06
424.066	89.06
424.288	81.06
424.511	86.06
424.733	76.06
424.956	104.06
425.178	80.06
425.401	87.06
425.623	102.06
425.846	83.06
426.068	101.06
426.291	92.06
426.513	79.06
426.735	79.06
426.958	93.06
427.18	104.06
427.402	134.06
427.625	138.06
427.847	121.06
428.069	111.06
428.292	68.06
428.514	68.06
428.736	74.06
428.958	71.06
429.181	70.06
429.403	89.06
429.625	98.06
429.847	91.06
430.069	92.06
430.292	92.06
430.514	91.06
430.736	79.06
430.958	83.06
431.18	80.06
431.402	76.06
431.624	81.06
431.846	83.06
432.068	84.06
432.29	82.06
432.512	88.06
432.734	82.06
432.956	96.06
433.178	93.06
433.4	102.06
433.622	91.06
433.844	94.06
434.066	92.06
434.287	91.06
434.509	82.06
434.731	85.06
434.953	76.06
435.175	80.06
435.397	91.06
435.618	88.06
435.84	101.06
436.062	109.06
436.284	117.06
436.505	89.06
436.727	101.06
436.949	87.06
437.17	96.06
437.392	85.06
437.614	87.06
437.835	87.06
438.057	102.06
438.278	91.06
438.5	95.06
438.721	110.06
438.943	91.06
439.165	84.06
439.386	94.06
439.608	99.06
439.829	99.06
440.05	112.06
440.272	122.06
440.493	81.06
440.715	86.06
440.936	85.06
441.158	79.06
441.379	94.06
441.6	94.06
441.822	90.06
442.043	81.06
442.264	73.06
442.486	95.06
442.707	79.06
442.928	105.06
443.149	104.06
443.371	120.06
443.592	89.06
443.813	97.06
444.034	96.06
444.255	93.06
444.476	83.06
444.698	83.06
444.919	90.06
445.14	143.06
445.361	120.06
445.582	104.06
445.803	110.06
446.024	127.06
446.245	97.06
446.466	107.06
446.687	97.06
446.908	83.06
447.129	84.06
447.35	71.06
447.571	91.06
447.792	82.06
448.013	98.06
448.234	103.06
448.455	95.06
448.675	100.06
448.896	102.06
449.117	91.06
449.338	98.06
449.559	107.06
449.779	115.06
450	82.06
450.221	86.06
450.442	69.06
450.662	86.06
450.883	94.06
451.104	95.06
451.324	84.06
451.545	85.06
451.766	85.06
451.986	83.06
452.207	92.06
452.428	101.06
452.648	100.06
452.869	108.06
453.089	102.06
453.31	104.06
453.53	81.06
453.751	85.06
453.971	95.06
454.192	101.06
454.412	84.06
454.633	92.06
454.853	73.06
455.073	82.06
455.294	79.06
455.514	97.06
455.734	95.06
455.955	87.06
456.175	75.06
456.395	85.06
456.616	104.06
456.836	85.06
457.056	83.06
457.276	76.06
457.497	84.06
457.717	81.06
457.937	88.06
458.157	76.06
458.377	87.06
458.598	100.06
458.818	121.06
459.038	129.06
459.258	105.06
459.478	81.06
459.698	76.06
459.918	87.06
460.138	81.06
460.358	83.06
460.578	79.06
460.798	88.06
461.018	93.06
461.238	81.06
461.458	85.06
461.678	78.06
461.898	92.06
462.118	81.06
462.338	98.06
462.558	91.06
462.777	76.06
462.997	87.06
463.217	102.06
463.437	87.06
463.657	79.06
463.876	73.06
464.096	89.06
464.316	88.06
464.536	82.06
464.755	92.06
464.975	101.06
465.195	130.06
465.414	128.06
465.634	91.06
465.854	84.06
466.073	90.06
466.293	85.06
466.512	89.06
466.732	83.06
466.951	75.06
467.171	90.06
467.391	99.06
467.61	103.06
467.829	93.06
468.049	91.06
468.268	103.06
468.488	88.06
468.707	83.06
468.927	89.06
469.146	87.06
469.365	91.06
469.585	85.06
469.804	87.06
470.023	96.06
470.243	84.06
470.462	90.06
470.681	105.06
470.901	77.06
471.12	87.06
471.339	87.06
471.558	76.06
471.777	66.06
471.997	79.06
472.216	127.06
472.435	129.06
472.654	87.06
472.873	87.06
473.092	93.06
473.311	82.06
473.53	88.06
473.749	87.06
473.968	93.06
474.187	99.06
474.406	88.06
474.625	105.06
474.844	99.06
475.063	81.06
475.282	76.06
475.501	82.06
475.72	88.06
475.939	68.06
476.158	85.06
476.377	89.06
476.596	89.06
476.814	100.06
477.033	89.06
477.252	90.06
477.471	95.06
477.69	92.06
477.908	93.06
478.127	94.06
478.346	79.06
478.564	91.06
478.783	90.06
479.002	95.06
479.22	109.06
479.439	105.06
479.658	102.06
479.876	82.06
480.095	73.06
480.313	95.06
480.532	86.06
480.751	93.06
480.969	121.06
481.188	183.06
481.406	140.06
481.624	100.06
481.843	92.06
482.061	85.06
482.28	84.06
482.498	92.06
482.717	107.06
482.935	97.06
483.153	96.06
483.372	84.06
483.59	95.06
483.808	103.06
484.027	71.06
484.245	108.06
484.463	88.06
484.681	104.06
484.9	80.06
485.118	91.06
485.336	99.06
485.554	95.06
485.772	92.06
485.99	104.06
486.209	110.06
486.427	104.06
486.645	108.06
486.863	87.06
487.081	85.06
487.299	98.06
487.517	93.06
487.735	83.06
487.953	96.06
488.171	92.06
488.389	76.06
488.607	91.06
488.825	76.06
489.043	96.06
489.261	95.06
489.479	97.06
489.696	95.06
489.914	99.06
490.132	85.06
490.35	84.06
490.568	80.06
490.786	83.06
491.003	83.06
491.221	77.06
491.439	96.06
491.657	83.06
491.874	98.06
492.092	100.06
492.31	87.06
492.527	100.06
492.745	76.06
492.963	79.06
493.18	79.06
493.398	97.06
493.615	107.06
493.833	90.06
494.05	81.06
494.268	91.06
494.485	92.06
494.703	90.06
494.92	76.06
495.138	80.06
495.355	84.06
495.573	93.06
495.79	87.06
496.008	89.06
496.225	86.06
496.442	93.06
496.66	75.06
496.877	79.06
497.094	89.06
497.312	81.06
497.529	100.06
497.746	81.06
497.963	87.06
498.181	100.06
498.398	96.06
498.615	107.06
498.832	93.06
499.049	80.06
499.267	87.06
499.484	85.06
499.701	74.06
499.918	95.06
500.135	98.06
500.352	83.06
500.569	82.06
500.786	77.06
501.003	81.06
501.22	87.06
501.437	93.06
501.654	86.06
501.871	101.06
502.088	76.06
502.305	94.06
502.522	89.06
502.739	100.06
502.956	99.06
503.172	95.06
503.389	91.06
503.606	103.06
503.823	101.06
504.04	92.06
504.256	82.06
504.473	75.06
504.69	93.06
504.907	88.06
505.123	76.06
505.34	93.06
505.557	93.06
505.773	91.06
505.99	99.06
506.207	102.06
506.423	87.06
506.64	88.06
506.856	99.06
507.073	97.06
507.289	82.06
507.506	97.06
507.722	98.06
507.939	97.06
508.155	95.06
508.372	95.06
508.588	93.06
508.805	102.06
509.021	91.06
509.238	101.06
509.454	101.06
509.67	95.06
509.887	99.06
510.103	118.06
510.319	186.06
510.536	604.06
510.752	1744.06
510.968	506.06
511.184	137.06
511.401	101.06
511.617	86.06
511.833	105.06
512.049	90.06
512.265	88.06
512.481	83.06
512.698	95.06
512.914	91.06
513.13	95.06
513.346	103.06
513.562	87.06
513.778	103.06
513.994	100.06
514.21	115.06
514.426	111.06
514.642	124.06
514.858	119.06
515.074	144.06
515.29	341.06
515.506	1050.06
515.721	380.06
515.937	125.06
516.153	113.06
516.369	99.06
516.585	88.06
