Data from Uncirc_1982_H10_HRD10591_00012.txt Node
Date: Wed Jan 03 12:29:27 EST 2024
User: Yrep
Spectrometer: HR+D1059
Trigger mode: 1
Integration Time (sec): 1.000000E-1
Scans to average: 1
Electric dark correction enabled: true
Nonlinearity correction enabled: false
Boxcar width: 0
XAxis mode: Wavelengths
Number of Pixels in Spectrum: 2048
>>>>>Begin Spectral Data<<<<<
223.165	-21.56
223.4	-21.56
223.635	-21.56
223.869	-14.56
224.104	-14.56
224.338	-3.56
224.573	-19.56
224.808	-16.56
225.042	-7.56
225.277	7.44
225.511	-0.56
225.746	8.44
225.98	1.44
226.215	1.44
226.449	14.44
226.683	17.44
226.918	21.44
227.152	26.44
227.387	17.44
227.621	28.44
227.856	46.44
228.09	37.44
228.324	51.44
228.559	42.44
228.793	41.44
229.027	58.44
229.262	52.44
229.496	52.44
229.73	82.44
229.964	80.44
230.199	64.44
230.433	69.44
230.667	74.44
230.901	74.44
231.136	68.44
231.37	52.44
231.604	75.44
231.838	67.44
232.072	81.44
232.306	86.44
232.541	75.44
232.775	71.44
233.009	75.44
233.243	66.44
233.477	79.44
233.711	72.44
233.945	87.44
234.179	92.44
234.413	82.44
234.647	71.44
234.881	99.44
235.115	80.44
235.349	75.44
235.583	70.44
235.817	68.44
236.051	71.44
236.285	65.44
236.519	75.44
236.753	82.44
236.987	80.44
237.221	83.44
237.455	81.44
237.689	82.44
237.922	75.44
238.156	58.44
238.39	65.44
238.624	72.44
238.858	89.44
239.091	64.44
239.325	82.44
239.559	80.44
239.793	78.44
240.027	67.44
240.26	72.44
240.494	83.44
240.728	66.44
240.961	80.44
241.195	69.44
241.429	82.44
241.662	78.44
241.896	70.44
242.13	76.44
242.363	71.44
242.597	72.44
242.83	79.44
243.064	57.44
243.298	80.44
243.531	82.44
243.765	68.44
243.998	76.44
244.232	82.44
244.465	64.44
244.699	74.44
244.932	77.44
245.166	78.44
245.399	67.44
245.633	86.44
245.866	75.44
246.099	67.44
246.333	92.44
246.566	84.44
246.8	75.44
247.033	73.44
247.266	96.44
247.5	74.44
247.733	78.44
247.966	66.44
248.2	70.44
248.433	74.44
248.666	85.44
248.899	80.44
249.133	71.44
249.366	86.44
249.599	90.44
249.832	76.44
250.066	88.44
250.299	94.44
250.532	75.44
250.765	82.44
250.998	82.44
251.231	83.44
251.465	87.44
251.698	80.44
251.931	71.44
252.164	90.44
252.397	84.44
252.63	74.44
252.863	70.44
253.096	81.44
253.329	78.44
253.562	73.44
253.795	73.44
254.028	62.44
254.261	68.44
254.494	76.44
254.727	64.44
254.96	70.44
255.193	75.44
255.426	84.44
255.659	71.44
255.892	71.44
256.124	72.44
256.357	69.44
256.59	84.44
256.823	78.44
257.056	79.44
257.289	74.44
257.521	87.44
257.754	87.44
257.987	91.44
258.22	83.44
258.452	75.44
258.685	72.44
258.918	74.44
259.151	85.44
259.383	73.44
259.616	65.44
259.849	83.44
260.081	86.44
260.314	84.44
260.547	95.44
260.779	82.44
261.012	81.44
261.244	72.44
261.477	78.44
261.71	82.44
261.942	103.44
262.175	100.44
262.407	82.44
262.64	91.44
262.872	92.44
263.105	68.44
263.337	65.44
263.57	86.44
263.802	75.44
264.035	81.44
264.267	90.44
264.499	72.44
264.732	92.44
264.964	80.44
265.197	62.44
265.429	92.44
265.661	82.44
265.894	85.44
266.126	86.44
266.358	78.44
266.591	86.44
266.823	87.44
267.055	76.44
267.287	74.44
267.52	86.44
267.752	88.44
267.984	86.44
268.216	75.44
268.448	83.44
268.681	93.44
268.913	84.44
269.145	76.44
269.377	89.44
269.609	95.44
269.841	87.44
270.073	74.44
270.306	82.44
270.538	84.44
270.77	89.44
271.002	80.44
271.234	74.44
271.466	74.44
271.698	83.44
271.93	87.44
272.162	76.44
272.394	96.44
272.626	84.44
272.858	90.44
273.09	77.44
273.322	96.44
273.553	78.44
273.785	76.44
274.017	80.44
274.249	94.44
274.481	59.44
274.713	94.44
274.945	88.44
275.176	83.44
275.408	84.44
275.64	74.44
275.872	79.44
276.104	97.44
276.335	84.44
276.567	87.44
276.799	100.44
277.031	95.44
277.262	89.44
277.494	85.44
277.726	94.44
277.957	86.44
278.189	74.44
278.421	62.44
278.652	86.44
278.884	86.44
279.115	84.44
279.347	88.44
279.579	78.44
279.81	89.44
280.042	79.44
280.273	87.44
280.505	85.44
280.736	83.44
280.968	68.44
281.199	82.44
281.431	94.44
281.662	80.44
281.894	93.44
282.125	80.44
282.356	108.44
282.588	100.44
282.819	112.44
283.051	79.44
283.282	97.44
283.513	88.44
283.745	78.44
283.976	78.44
284.207	99.44
284.439	68.44
284.67	88.44
284.901	86.44
285.132	79.44
285.364	67.44
285.595	97.44
285.826	94.44
286.057	87.44
286.288	89.44
286.52	94.44
286.751	86.44
286.982	86.44
287.213	80.44
287.444	87.44
287.675	88.44
287.906	87.44
288.138	79.44
288.369	83.44
288.6	86.44
288.831	82.44
289.062	78.44
289.293	88.44
289.524	78.44
289.755	83.44
289.986	85.44
290.217	97.44
290.448	85.44
290.679	77.44
290.91	84.44
291.141	91.44
291.371	94.44
291.602	78.44
291.833	87.44
292.064	91.44
292.295	91.44
292.526	94.44
292.757	84.44
292.987	78.44
293.218	83.44
293.449	86.44
293.68	78.44
293.91	92.44
294.141	83.44
294.372	94.44
294.603	79.44
294.833	97.44
295.064	90.44
295.295	96.44
295.525	88.44
295.756	97.44
295.987	104.44
296.217	91.44
296.448	102.44
296.679	88.44
296.909	84.44
297.14	94.44
297.37	87.44
297.601	79.44
297.831	81.44
298.062	110.44
298.292	90.44
298.523	79.44
298.753	86.44
298.984	78.44
299.214	79.44
299.445	87.44
299.675	91.44
299.905	87.44
300.136	91.44
300.366	91.44
300.597	83.44
300.827	86.44
301.057	90.44
301.288	86.44
301.518	79.44
301.748	82.44
301.979	94.44
302.209	83.44
302.439	88.44
302.669	72.44
302.9	91.44
303.13	85.44
303.36	96.44
303.59	97.44
303.82	100.44
304.051	82.44
304.281	94.44
304.511	86.44
304.741	98.44
304.971	80.44
305.201	79.44
305.431	75.44
305.661	108.44
305.891	85.44
306.121	78.44
306.352	90.44
306.582	106.44
306.812	92.44
307.042	88.44
307.272	89.44
307.502	76.44
307.731	102.44
307.961	99.44
308.191	100.44
308.421	95.44
308.651	98.44
308.881	81.44
309.111	91.44
309.341	95.44
309.571	89.44
309.8	72.44
310.03	80.44
310.26	84.44
310.49	87.44
310.72	85.44
310.949	86.44
311.179	86.44
311.409	89.44
311.639	87.44
311.868	98.44
312.098	90.44
312.328	97.44
312.557	89.44
312.787	96.44
313.017	96.44
313.246	88.44
313.476	85.44
313.706	84.44
313.935	95.44
314.165	94.44
314.394	88.44
314.624	96.44
314.853	84.44
315.083	85.44
315.312	80.44
315.542	91.44
315.771	90.44
316.001	85.44
316.23	100.44
316.46	90.44
316.689	98.44
316.919	91.44
317.148	89.44
317.377	80.44
317.607	98.44
317.836	86.44
318.065	91.44
318.295	80.44
318.524	75.44
318.753	91.44
318.983	89.44
319.212	94.44
319.441	101.44
319.67	104.44
319.9	71.44
320.129	92.44
320.358	84.44
320.587	93.44
320.816	98.44
321.046	105.44
321.275	82.44
321.504	88.44
321.733	87.44
321.962	93.44
322.191	104.44
322.42	101.44
322.649	106.44
322.878	100.44
323.108	103.44
323.337	113.44
323.566	105.44
323.795	127.44
324.024	167.44
324.253	305.44
324.482	636.44
324.71	1236.44
324.939	1626.44
325.168	614.44
325.397	186.44
325.626	142.44
325.855	134.44
326.084	109.44
326.313	132.44
326.542	136.44
326.77	190.44
326.999	352.44
327.228	744.44
327.457	1311.44
327.686	1001.44
327.914	294.44
328.143	139.44
328.372	121.44
328.6	115.44
328.829	106.44
329.058	99.44
329.287	116.44
329.515	111.44
329.744	95.44
329.972	100.44
330.201	107.44
330.43	118.44
330.658	110.44
330.887	112.44
331.115	99.44
331.344	101.44
331.572	93.44
331.801	84.44
332.03	93.44
332.258	97.44
332.486	92.44
332.715	99.44
332.943	86.44
333.172	92.44
333.4	84.44
333.629	107.44
333.857	92.44
334.085	85.44
334.314	114.44
334.542	122.44
334.771	106.44
334.999	96.44
335.227	89.44
335.455	88.44
335.684	84.44
335.912	99.44
336.14	100.44
336.369	93.44
336.597	97.44
336.825	112.44
337.053	95.44
337.281	100.44
337.51	75.44
337.738	98.44
337.966	86.44
338.194	87.44
338.422	85.44
338.65	103.44
338.878	97.44
339.106	87.44
339.334	88.44
339.562	72.44
339.79	71.44
340.018	89.44
340.246	82.44
340.474	105.44
340.702	83.44
340.93	97.44
341.158	78.44
341.386	90.44
341.614	97.44
341.842	71.44
342.07	95.44
342.298	98.44
342.526	91.44
342.754	100.44
342.981	74.44
343.209	99.44
343.437	109.44
343.665	100.44
343.893	79.44
344.12	91.44
344.348	92.44
344.576	80.44
344.804	87.44
345.031	95.44
345.259	98.44
345.487	94.44
345.714	90.44
345.942	70.44
346.17	78.44
346.397	91.44
346.625	98.44
346.853	97.44
347.08	93.44
347.308	94.44
347.535	88.44
347.763	95.44
347.99	98.44
348.218	88.44
348.445	91.44
348.673	90.44
348.9	80.44
349.128	98.44
349.355	86.44
349.583	88.44
349.81	86.44
350.037	82.44
350.265	74.44
350.492	86.44
350.72	102.44
350.947	94.44
351.174	89.44
351.402	99.44
351.629	99.44
351.856	96.44
352.083	88.44
352.311	115.44
352.538	100.44
352.765	95.44
352.992	105.44
353.22	118.44
353.447	107.44
353.674	83.44
353.901	96.44
354.128	97.44
354.355	90.44
354.583	101.44
354.81	96.44
355.037	90.44
355.264	97.44
355.491	102.44
355.718	87.44
355.945	95.44
356.172	92.44
356.399	106.44
356.626	89.44
356.853	87.44
357.08	91.44
357.307	82.44
357.534	74.44
357.761	95.44
357.988	102.44
358.215	100.44
358.441	99.44
358.668	103.44
358.895	107.44
359.122	102.44
359.349	86.44
359.576	90.44
359.802	76.44
360.029	94.44
360.256	88.44
360.483	92.44
360.709	87.44
360.936	94.44
361.163	85.44
361.39	82.44
361.616	100.44
361.843	91.44
362.07	82.44
362.296	91.44
362.523	80.44
362.749	92.44
362.976	100.44
363.203	99.44
363.429	90.44
363.656	80.44
363.882	93.44
364.109	102.44
364.335	87.44
364.562	95.44
364.788	88.44
365.015	101.44
365.241	84.44
365.468	80.44
365.694	107.44
365.92	90.44
366.147	88.44
366.373	75.44
366.599	84.44
366.826	86.44
367.052	96.44
367.278	91.44
367.505	91.44
367.731	86.44
367.957	88.44
368.184	84.44
368.41	106.44
368.636	108.44
368.862	96.44
369.089	90.44
369.315	89.44
369.541	88.44
369.767	97.44
369.993	80.44
370.219	78.44
370.445	79.44
370.672	83.44
370.898	92.44
371.124	97.44
371.35	85.44
371.576	88.44
371.802	86.44
372.028	86.44
372.254	89.44
372.48	76.44
372.706	88.44
372.932	87.44
373.158	96.44
373.384	97.44
373.61	82.44
373.835	87.44
374.061	91.44
374.287	101.44
374.513	97.44
374.739	100.44
374.965	88.44
375.191	95.44
375.416	84.44
375.642	90.44
375.868	98.44
376.094	89.44
376.319	80.44
376.545	94.44
376.771	82.44
376.997	89.44
377.222	101.44
377.448	93.44
377.674	81.44
377.899	90.44
378.125	88.44
378.35	98.44
378.576	103.44
378.802	92.44
379.027	87.44
379.253	97.44
379.478	95.44
379.704	87.44
379.929	95.44
380.155	89.44
380.38	102.44
380.606	109.44
380.831	101.44
381.057	95.44
381.282	99.44
381.507	94.44
381.733	98.44
381.958	108.44
382.184	111.44
382.409	104.44
382.634	106.44
382.86	116.44
383.085	113.44
383.31	97.44
383.535	122.44
383.761	110.44
383.986	107.44
384.211	108.44
384.436	103.44
384.662	111.44
384.887	134.44
385.112	128.44
385.337	114.44
385.562	107.44
385.787	112.44
386.013	119.44
386.238	130.44
386.463	116.44
386.688	125.44
386.913	128.44
387.138	134.44
387.363	113.44
387.588	103.44
387.813	107.44
388.038	124.44
388.263	139.44
388.488	116.44
388.713	102.44
388.938	100.44
389.163	93.44
389.387	70.44
389.612	95.44
389.837	89.44
390.062	79.44
390.287	85.44
390.512	91.44
390.736	96.44
390.961	81.44
391.186	89.44
391.411	89.44
391.636	84.44
391.86	81.44
392.085	98.44
392.31	80.44
392.534	84.44
392.759	88.44
392.984	93.44
393.208	86.44
393.433	87.44
393.658	103.44
393.882	84.44
394.107	79.44
394.331	74.44
394.556	74.44
394.78	87.44
395.005	102.44
395.229	72.44
395.454	71.44
395.678	90.44
395.903	73.44
396.127	92.44
396.352	82.44
396.576	70.44
396.801	84.44
397.025	101.44
397.249	90.44
397.474	94.44
397.698	97.44
397.922	84.44
398.147	94.44
398.371	89.44
398.595	84.44
398.82	94.44
399.044	90.44
399.268	72.44
399.492	79.44
399.717	84.44
399.941	83.44
400.165	103.44
400.389	87.44
400.613	71.44
400.837	74.44
401.062	86.44
401.286	98.44
401.51	82.44
401.734	73.44
401.958	90.44
402.182	102.44
402.406	126.44
402.63	106.44
402.854	93.44
403.078	91.44
403.302	96.44
403.526	86.44
403.75	84.44
403.974	88.44
404.198	87.44
404.422	88.44
404.645	83.44
404.869	87.44
405.093	89.44
405.317	91.44
405.541	92.44
405.765	93.44
405.988	107.44
406.212	132.44
406.436	150.44
406.66	112.44
406.883	105.44
407.107	85.44
407.331	91.44
407.555	96.44
407.778	87.44
408.002	96.44
408.226	80.44
408.449	103.44
408.673	91.44
408.896	96.44
409.12	85.44
409.344	80.44
409.567	97.44
409.791	107.44
410.014	89.44
410.238	103.44
410.461	98.44
410.685	82.44
410.908	100.44
411.132	107.44
411.355	83.44
411.578	84.44
411.802	82.44
412.025	89.44
412.249	99.44
412.472	85.44
412.695	89.44
412.919	82.44
413.142	82.44
413.365	81.44
413.589	104.44
413.812	82.44
414.035	86.44
414.258	96.44
414.482	100.44
414.705	90.44
414.928	89.44
415.151	96.44
415.374	104.44
415.597	98.44
415.821	90.44
416.044	86.44
416.267	74.44
416.49	82.44
416.713	87.44
416.936	97.44
417.159	68.44
417.382	94.44
417.605	86.44
417.828	80.44
418.051	86.44
418.274	89.44
418.497	85.44
418.72	83.44
418.943	104.44
419.166	87.44
419.389	84.44
419.611	101.44
419.834	91.44
420.057	85.44
420.28	100.44
420.503	91.44
420.726	72.44
420.948	88.44
421.171	99.44
421.394	89.44
421.617	93.44
421.839	90.44
422.062	99.44
422.285	88.44
422.507	95.44
422.73	81.44
422.953	89.44
423.175	92.44
423.398	91.44
423.621	95.44
423.843	80.44
424.066	88.44
424.288	76.44
424.511	104.44
424.733	89.44
424.956	94.44
425.178	85.44
425.401	99.44
425.623	92.44
425.846	90.44
426.068	101.44
426.291	87.44
426.513	79.44
426.735	97.44
426.958	81.44
427.18	83.44
427.402	118.44
427.625	135.44
427.847	107.44
428.069	95.44
428.292	94.44
428.514	75.44
428.736	87.44
428.958	80.44
429.181	89.44
429.403	73.44
429.625	75.44
429.847	93.44
430.069	98.44
430.292	110.44
430.514	74.44
430.736	83.44
430.958	82.44
431.18	75.44
431.402	86.44
431.624	91.44
431.846	95.44
432.068	91.44
432.29	89.44
432.512	99.44
432.734	98.44
432.956	88.44
433.178	91.44
433.4	91.44
433.622	94.44
433.844	94.44
434.066	97.44
434.287	95.44
434.509	90.44
434.731	81.44
434.953	81.44
435.175	74.44
435.397	82.44
435.618	82.44
435.84	111.44
436.062	115.44
436.284	108.44
436.505	97.44
436.727	103.44
436.949	92.44
437.17	98.44
437.392	79.44
437.614	92.44
437.835	105.44
438.057	100.44
438.278	93.44
438.5	104.44
438.721	96.44
438.943	109.44
439.165	79.44
439.386	86.44
439.608	96.44
439.829	86.44
440.05	89.44
440.272	115.44
440.493	100.44
440.715	78.44
440.936	81.44
441.158	95.44
441.379	86.44
441.6	85.44
441.822	95.44
442.043	79.44
442.264	98.44
442.486	94.44
442.707	88.44
442.928	103.44
443.149	103.44
443.371	105.44
443.592	103.44
443.813	104.44
444.034	93.44
444.255	90.44
444.476	86.44
444.698	80.44
444.919	91.44
445.14	124.44
445.361	114.44
445.582	84.44
445.803	107.44
446.024	114.44
446.245	113.44
446.466	87.44
446.687	86.44
446.908	68.44
447.129	97.44
447.35	88.44
447.571	86.44
447.792	86.44
448.013	87.44
448.234	97.44
448.455	92.44
448.675	99.44
448.896	106.44
449.117	98.44
449.338	87.44
449.559	109.44
449.779	120.44
450	100.44
450.221	90.44
450.442	86.44
450.662	90.44
450.883	91.44
451.104	104.44
451.324	102.44
451.545	102.44
451.766	83.44
451.986	83.44
452.207	89.44
452.428	74.44
452.648	97.44
452.869	104.44
453.089	98.44
453.31	98.44
453.53	87.44
453.751	84.44
453.971	102.44
454.192	103.44
454.412	98.44
454.633	72.44
454.853	90.44
455.073	84.44
455.294	82.44
455.514	93.44
455.734	84.44
455.955	75.44
456.175	94.44
456.395	80.44
456.616	87.44
456.836	92.44
457.056	82.44
457.276	78.44
457.497	73.44
457.717	90.44
457.937	88.44
458.157	78.44
458.377	83.44
458.598	91.44
458.818	120.44
459.038	106.44
459.258	101.44
459.478	75.44
459.698	93.44
459.918	90.44
460.138	82.44
460.358	80.44
460.578	84.44
460.798	78.44
461.018	96.44
461.238	86.44
461.458	86.44
461.678	78.44
461.898	98.44
462.118	91.44
462.338	78.44
462.558	90.44
462.777	90.44
462.997	81.44
463.217	98.44
463.437	82.44
463.657	89.44
463.876	100.44
464.096	87.44
464.316	80.44
464.536	90.44
464.755	90.44
464.975	97.44
465.195	126.44
465.414	119.44
465.634	101.44
465.854	82.44
466.073	81.44
466.293	90.44
466.512	91.44
466.732	79.44
466.951	94.44
467.171	95.44
467.391	85.44
467.61	68.44
467.829	98.44
468.049	103.44
468.268	86.44
468.488	81.44
468.707	74.44
468.927	86.44
469.146	88.44
469.365	90.44
469.585	87.44
469.804	93.44
470.023	81.44
470.243	90.44
470.462	95.44
470.681	90.44
470.901	70.44
471.12	79.44
471.339	80.44
471.558	78.44
471.777	79.44
471.997	90.44
472.216	90.44
472.435	127.44
472.654	88.44
472.873	89.44
473.092	98.44
473.311	75.44
473.53	86.44
473.749	88.44
473.968	84.44
474.187	99.44
474.406	83.44
474.625	99.44
474.844	77.44
475.063	95.44
475.282	86.44
475.501	86.44
475.72	91.44
475.939	84.44
476.158	72.44
476.377	85.44
476.596	80.44
476.814	78.44
477.033	87.44
477.252	85.44
477.471	84.44
477.69	82.44
477.908	89.44
478.127	72.44
478.346	78.44
478.564	74.44
478.783	79.44
479.002	78.44
479.22	79.44
479.439	91.44
479.658	90.44
479.876	90.44
480.095	86.44
480.313	86.44
480.532	94.44
480.751	81.44
480.969	100.44
481.188	159.44
481.406	111.44
481.624	89.44
481.843	89.44
482.061	84.44
482.28	95.44
482.498	96.44
482.717	95.44
482.935	79.44
483.153	95.44
483.372	87.44
483.59	83.44
483.808	102.44
484.027	89.44
484.245	99.44
484.463	100.44
484.681	103.44
484.9	96.44
485.118	86.44
485.336	80.44
485.554	104.44
485.772	95.44
485.99	98.44
486.209	101.44
486.427	103.44
486.645	100.44
486.863	111.44
487.081	99.44
487.299	89.44
487.517	94.44
487.735	107.44
487.953	99.44
488.171	92.44
488.389	86.44
488.607	90.44
488.825	84.44
489.043	86.44
489.261	107.44
489.479	102.44
489.696	98.44
489.914	87.44
490.132	98.44
490.35	89.44
490.568	97.44
490.786	89.44
491.003	82.44
491.221	85.44
491.439	89.44
491.657	77.44
491.874	83.44
492.092	89.44
492.31	99.44
492.527	90.44
492.745	97.44
492.963	102.44
493.18	68.44
493.398	82.44
493.615	105.44
493.833	92.44
494.05	89.44
494.268	84.44
494.485	97.44
494.703	99.44
494.92	80.44
495.138	79.44
495.355	90.44
495.573	116.44
495.79	93.44
496.008	97.44
496.225	87.44
496.442	99.44
496.66	101.44
496.877	92.44
497.094	94.44
497.312	90.44
497.529	95.44
497.746	98.44
497.963	89.44
498.181	88.44
498.398	90.44
498.615	118.44
498.832	94.44
499.049	87.44
499.267	88.44
499.484	95.44
499.701	96.44
499.918	94.44
500.135	83.44
500.352	82.44
500.569	86.44
500.786	90.44
501.003	89.44
501.22	102.44
501.437	90.44
501.654	94.44
501.871	89.44
502.088	85.44
502.305	100.44
502.522	90.44
502.739	91.44
502.956	102.44
503.172	91.44
503.389	86.44
503.606	100.44
503.823	103.44
504.04	94.44
504.256	95.44
504.473	87.44
504.69	83.44
504.907	96.44
505.123	84.44
505.34	89.44
505.557	88.44
505.773	90.44
505.99	98.44
506.207	94.44
506.423	94.44
506.64	101.44
506.856	90.44
507.073	83.44
507.289	84.44
507.506	95.44
507.722	92.44
507.939	96.44
508.155	83.44
508.372	91.44
508.588	97.44
508.805	103.44
509.021	83.44
509.238	91.44
509.454	98.44
509.67	94.44
509.887	90.44
510.103	120.44
510.319	179.44
510.536	522.44
510.752	1494.44
510.968	438.44
511.184	127.44
511.401	110.44
511.617	86.44
511.833	90.44
512.049	76.44
512.265	83.44
512.481	91.44
512.698	90.44
512.914	86.44
513.13	88.44
513.346	94.44
513.562	108.44
513.778	88.44
513.994	95.44
514.21	92.44
514.426	100.44
514.642	117.44
514.858	121.44
515.074	112.44
515.29	301.44
515.506	874.44
515.721	323.44
515.937	135.44
516.153	98.44
516.369	102.44
516.585	100.44
516.801	92.44
