Data from Uncirc_1982_H10_HRD10591_00083.txt Node
Date: Wed Jan 03 12:29:41 EST 2024
User: Yrep
Spectrometer: HR+D1059
Trigger mode: 1
Integration Time (sec): 1.000000E-1
Scans to average: 1
Electric dark correction enabled: true
Nonlinearity correction enabled: false
Boxcar width: 0
XAxis mode: Wavelengths
Number of Pixels in Spectrum: 2048
>>>>>Begin Spectral Data<<<<<
223.165	-20.62
223.4	-20.62
223.635	-20.62
223.869	-17.62
224.104	-11.62
224.338	-15.62
224.573	-19.62
224.808	-13.62
225.042	-12.62
225.277	-3.62
225.511	-6.62
225.746	14.38
225.98	20.38
226.215	10.38
226.449	20.38
226.683	6.38
226.918	26.38
227.152	23.38
227.387	40.38
227.621	36.38
227.856	51.38
228.09	53.38
228.324	54.38
228.559	60.38
228.793	63.38
229.027	55.38
229.262	64.38
229.496	64.38
229.73	80.38
229.964	92.38
230.199	78.38
230.433	98.38
230.667	78.38
230.901	76.38
231.136	82.38
231.37	74.38
231.604	78.38
231.838	80.38
232.072	73.38
232.306	89.38
232.541	83.38
232.775	75.38
233.009	86.38
233.243	77.38
233.477	84.38
233.711	80.38
233.945	76.38
234.179	76.38
234.413	86.38
234.647	84.38
234.881	75.38
235.115	88.38
235.349	93.38
235.583	93.38
235.817	76.38
236.051	84.38
236.285	76.38
236.519	78.38
236.753	87.38
236.987	73.38
237.221	80.38
237.455	79.38
237.689	76.38
237.922	86.38
238.156	84.38
238.39	60.38
238.624	82.38
238.858	77.38
239.091	79.38
239.325	86.38
239.559	71.38
239.793	70.38
240.027	76.38
240.26	76.38
240.494	84.38
240.728	78.38
240.961	64.38
241.195	67.38
241.429	68.38
241.662	68.38
241.896	75.38
242.13	73.38
242.363	83.38
242.597	96.38
242.83	72.38
243.064	80.38
243.298	77.38
243.531	69.38
243.765	83.38
243.998	74.38
244.232	86.38
244.465	86.38
244.699	95.38
244.932	76.38
245.166	74.38
245.399	67.38
245.633	69.38
245.866	80.38
246.099	74.38
246.333	72.38
246.566	85.38
246.8	76.38
247.033	84.38
247.266	72.38
247.5	70.38
247.733	94.38
247.966	104.38
248.2	74.38
248.433	77.38
248.666	84.38
248.899	83.38
249.133	82.38
249.366	85.38
249.599	97.38
249.832	82.38
250.066	73.38
250.299	89.38
250.532	90.38
250.765	89.38
250.998	72.38
251.231	74.38
251.465	78.38
251.698	83.38
251.931	72.38
252.164	85.38
252.397	82.38
252.63	83.38
252.863	75.38
253.096	80.38
253.329	88.38
253.562	86.38
253.795	82.38
254.028	80.38
254.261	68.38
254.494	64.38
254.727	89.38
254.96	86.38
255.193	91.38
255.426	87.38
255.659	82.38
255.892	80.38
256.124	76.38
256.357	86.38
256.59	94.38
256.823	84.38
257.056	77.38
257.289	91.38
257.521	70.38
257.754	79.38
257.987	82.38
258.22	88.38
258.452	71.38
258.685	90.38
258.918	71.38
259.151	74.38
259.383	79.38
259.616	72.38
259.849	67.38
260.081	79.38
260.314	89.38
260.547	78.38
260.779	91.38
261.012	90.38
261.244	84.38
261.477	86.38
261.71	77.38
261.942	102.38
262.175	102.38
262.407	96.38
262.64	89.38
262.872	89.38
263.105	85.38
263.337	94.38
263.57	87.38
263.802	87.38
264.035	77.38
264.267	92.38
264.499	73.38
264.732	88.38
264.964	85.38
265.197	73.38
265.429	70.38
265.661	86.38
265.894	82.38
266.126	88.38
266.358	86.38
266.591	73.38
266.823	74.38
267.055	75.38
267.287	96.38
267.52	84.38
267.752	85.38
267.984	82.38
268.216	84.38
268.448	83.38
268.681	88.38
268.913	93.38
269.145	95.38
269.377	93.38
269.609	82.38
269.841	82.38
270.073	79.38
270.306	70.38
270.538	79.38
270.77	81.38
271.002	78.38
271.234	86.38
271.466	96.38
271.698	88.38
271.93	77.38
272.162	77.38
272.394	93.38
272.626	88.38
272.858	77.38
273.09	89.38
273.322	85.38
273.553	106.38
273.785	75.38
274.017	84.38
274.249	91.38
274.481	98.38
274.713	78.38
274.945	76.38
275.176	80.38
275.408	84.38
275.64	93.38
275.872	69.38
276.104	74.38
276.335	90.38
276.567	90.38
276.799	80.38
277.031	80.38
277.262	91.38
277.494	96.38
277.726	73.38
277.957	86.38
278.189	84.38
278.421	82.38
278.652	79.38
278.884	82.38
279.115	85.38
279.347	84.38
279.579	86.38
279.81	103.38
280.042	100.38
280.273	84.38
280.505	90.38
280.736	82.38
280.968	98.38
281.199	112.38
281.431	92.38
281.662	87.38
281.894	105.38
282.125	103.38
282.356	92.38
282.588	103.38
282.819	99.38
283.051	79.38
283.282	89.38
283.513	85.38
283.745	82.38
283.976	67.38
284.207	88.38
284.439	79.38
284.67	82.38
284.901	96.38
285.132	82.38
285.364	87.38
285.595	88.38
285.826	82.38
286.057	70.38
286.288	79.38
286.52	84.38
286.751	84.38
286.982	96.38
287.213	87.38
287.444	99.38
287.675	98.38
287.906	91.38
288.138	112.38
288.369	95.38
288.6	94.38
288.831	80.38
289.062	78.38
289.293	92.38
289.524	72.38
289.755	88.38
289.986	91.38
290.217	84.38
290.448	75.38
290.679	81.38
290.91	94.38
291.141	95.38
291.371	93.38
291.602	96.38
291.833	83.38
292.064	80.38
292.295	100.38
292.526	101.38
292.757	87.38
292.987	86.38
293.218	98.38
293.449	85.38
293.68	100.38
293.91	80.38
294.141	100.38
294.372	88.38
294.603	88.38
294.833	79.38
295.064	82.38
295.295	77.38
295.525	82.38
295.756	106.38
295.987	97.38
296.217	116.38
296.448	87.38
296.679	93.38
296.909	93.38
297.14	97.38
297.37	100.38
297.601	77.38
297.831	94.38
298.062	96.38
298.292	99.38
298.523	102.38
298.753	88.38
298.984	83.38
299.214	94.38
299.445	109.38
299.675	86.38
299.905	90.38
300.136	87.38
300.366	97.38
300.597	86.38
300.827	75.38
301.057	98.38
301.288	93.38
301.518	99.38
301.748	84.38
301.979	99.38
302.209	84.38
302.439	94.38
302.669	86.38
302.9	97.38
303.13	91.38
303.36	92.38
303.59	100.38
303.82	106.38
304.051	86.38
304.281	93.38
304.511	89.38
304.741	95.38
304.971	72.38
305.201	84.38
305.431	95.38
305.661	101.38
305.891	94.38
306.121	102.38
306.352	92.38
306.582	88.38
306.812	85.38
307.042	84.38
307.272	106.38
307.502	104.38
307.731	102.38
307.961	91.38
308.191	84.38
308.421	91.38
308.651	97.38
308.881	79.38
309.111	98.38
309.341	90.38
309.571	97.38
309.8	100.38
310.03	98.38
310.26	102.38
310.49	90.38
310.72	98.38
310.949	111.38
311.179	101.38
311.409	83.38
311.639	96.38
311.868	105.38
312.098	93.38
312.328	90.38
312.557	102.38
312.787	95.38
313.017	101.38
313.246	98.38
313.476	101.38
313.706	94.38
313.935	90.38
314.165	101.38
314.394	112.38
314.624	99.38
314.853	84.38
315.083	92.38
315.312	92.38
315.542	102.38
315.771	106.38
316.001	84.38
316.23	97.38
316.46	90.38
316.689	95.38
316.919	88.38
317.148	88.38
317.377	79.38
317.607	109.38
317.836	96.38
318.065	106.38
318.295	86.38
318.524	95.38
318.753	104.38
318.983	82.38
319.212	87.38
319.441	104.38
319.67	106.38
319.9	98.38
320.129	92.38
320.358	102.38
320.587	92.38
320.816	84.38
321.046	95.38
321.275	102.38
321.504	92.38
321.733	88.38
321.962	92.38
322.191	108.38
322.42	98.38
322.649	99.38
322.878	97.38
323.108	101.38
323.337	104.38
323.566	123.38
323.795	141.38
324.024	169.38
324.253	319.38
324.482	631.38
324.71	1277.38
324.939	1626.38
325.168	602.38
325.397	220.38
325.626	134.38
325.855	127.38
326.084	126.38
326.313	126.38
326.542	146.38
326.77	196.38
326.999	348.38
327.228	742.38
327.457	1301.38
327.686	1028.38
327.914	301.38
328.143	190.38
328.372	133.38
328.6	116.38
328.829	107.38
329.058	114.38
329.287	116.38
329.515	87.38
329.744	102.38
329.972	107.38
330.201	124.38
330.43	118.38
330.658	111.38
330.887	108.38
331.115	110.38
331.344	97.38
331.572	92.38
331.801	88.38
332.03	83.38
332.258	90.38
332.486	80.38
332.715	100.38
332.943	97.38
333.172	88.38
333.4	83.38
333.629	88.38
333.857	101.38
334.085	106.38
334.314	91.38
334.542	117.38
334.771	124.38
334.999	96.38
335.227	87.38
335.455	97.38
335.684	86.38
335.912	88.38
336.14	95.38
336.369	87.38
336.597	99.38
336.825	95.38
337.053	91.38
337.281	85.38
337.51	85.38
337.738	92.38
337.966	86.38
338.194	91.38
338.422	104.38
338.65	98.38
338.878	95.38
339.106	90.38
339.334	101.38
339.562	86.38
339.79	77.38
340.018	87.38
340.246	85.38
340.474	102.38
340.702	88.38
340.93	98.38
341.158	101.38
341.386	87.38
341.614	95.38
341.842	96.38
342.07	95.38
342.298	81.38
342.526	96.38
342.754	95.38
342.981	83.38
343.209	86.38
343.437	83.38
343.665	92.38
343.893	90.38
344.12	90.38
344.348	90.38
344.576	99.38
344.804	79.38
345.031	86.38
345.259	101.38
345.487	99.38
345.714	97.38
345.942	99.38
346.17	96.38
346.397	99.38
346.625	98.38
346.853	87.38
347.08	95.38
347.308	101.38
347.535	98.38
347.763	104.38
347.99	103.38
348.218	98.38
348.445	88.38
348.673	91.38
348.9	80.38
349.128	96.38
349.355	75.38
349.583	100.38
349.81	92.38
350.037	106.38
350.265	95.38
350.492	103.38
350.72	99.38
350.947	101.38
351.174	102.38
351.402	100.38
351.629	96.38
351.856	106.38
352.083	112.38
352.311	117.38
352.538	101.38
352.765	111.38
352.992	99.38
353.22	100.38
353.447	98.38
353.674	97.38
353.901	87.38
354.128	95.38
354.355	95.38
354.583	82.38
354.81	79.38
355.037	101.38
355.264	91.38
355.491	109.38
355.718	87.38
355.945	87.38
356.172	98.38
356.399	95.38
356.626	92.38
356.853	96.38
357.08	89.38
357.307	93.38
357.534	91.38
357.761	108.38
357.988	92.38
358.215	95.38
358.441	95.38
358.668	86.38
358.895	93.38
359.122	95.38
359.349	82.38
359.576	88.38
359.802	94.38
360.029	106.38
360.256	96.38
360.483	101.38
360.709	86.38
360.936	103.38
361.163	90.38
361.39	94.38
361.616	86.38
361.843	94.38
362.07	103.38
362.296	97.38
362.523	86.38
362.749	101.38
362.976	86.38
363.203	97.38
363.429	82.38
363.656	86.38
363.882	88.38
364.109	93.38
364.335	89.38
364.562	94.38
364.788	87.38
365.015	92.38
365.241	91.38
365.468	93.38
365.694	90.38
365.92	97.38
366.147	93.38
366.373	84.38
366.599	82.38
366.826	102.38
367.052	79.38
367.278	106.38
367.505	101.38
367.731	85.38
367.957	88.38
368.184	82.38
368.41	98.38
368.636	105.38
368.862	105.38
369.089	86.38
369.315	90.38
369.541	83.38
369.767	97.38
369.993	109.38
370.219	87.38
370.445	89.38
370.672	98.38
370.898	88.38
371.124	81.38
371.35	78.38
371.576	99.38
371.802	88.38
372.028	97.38
372.254	102.38
372.48	89.38
372.706	94.38
372.932	79.38
373.158	98.38
373.384	88.38
373.61	91.38
373.835	79.38
374.061	84.38
374.287	92.38
374.513	83.38
374.739	82.38
374.965	82.38
375.191	102.38
375.416	85.38
375.642	79.38
375.868	108.38
376.094	88.38
376.319	96.38
376.545	87.38
376.771	105.38
376.997	98.38
377.222	94.38
377.448	89.38
377.674	106.38
377.899	80.38
378.125	94.38
378.35	95.38
378.576	101.38
378.802	92.38
379.027	99.38
379.253	76.38
379.478	88.38
379.704	90.38
379.929	96.38
380.155	106.38
380.38	100.38
380.606	95.38
380.831	90.38
381.057	96.38
381.282	94.38
381.507	112.38
381.733	97.38
381.958	99.38
382.184	111.38
382.409	91.38
382.634	87.38
382.86	108.38
383.085	94.38
383.31	101.38
383.535	102.38
383.761	92.38
383.986	104.38
384.211	93.38
384.436	102.38
384.662	93.38
384.887	99.38
385.112	98.38
385.337	118.38
385.562	105.38
385.787	117.38
386.013	121.38
386.238	101.38
386.463	88.38
386.688	112.38
386.913	96.38
387.138	119.38
387.363	116.38
387.588	107.38
387.813	103.38
388.038	115.38
388.263	116.38
388.488	82.38
388.713	97.38
388.938	84.38
389.163	102.38
389.387	103.38
389.612	99.38
389.837	91.38
390.062	98.38
390.287	74.38
390.512	90.38
390.736	102.38
390.961	93.38
391.186	104.38
391.411	104.38
391.636	95.38
391.86	98.38
392.085	92.38
392.31	100.38
392.534	85.38
392.759	95.38
392.984	78.38
393.208	100.38
393.433	86.38
393.658	84.38
393.882	95.38
394.107	95.38
394.331	96.38
394.556	94.38
394.78	91.38
395.005	95.38
395.229	88.38
395.454	82.38
395.678	80.38
395.903	66.38
396.127	91.38
396.352	86.38
396.576	93.38
396.801	82.38
397.025	83.38
397.249	84.38
397.474	99.38
397.698	87.38
397.922	96.38
398.147	94.38
398.371	85.38
398.595	91.38
398.82	86.38
399.044	94.38
399.268	86.38
399.492	99.38
399.717	89.38
399.941	90.38
400.165	92.38
400.389	97.38
400.613	78.38
400.837	98.38
401.062	87.38
401.286	79.38
401.51	92.38
401.734	84.38
401.958	106.38
402.182	117.38
402.406	135.38
402.63	111.38
402.854	94.38
403.078	93.38
403.302	97.38
403.526	77.38
403.75	86.38
403.974	96.38
404.198	90.38
404.422	92.38
404.645	85.38
404.869	104.38
405.093	90.38
405.317	90.38
405.541	112.38
405.765	86.38
405.988	100.38
406.212	144.38
406.436	192.38
406.66	127.38
406.883	95.38
407.107	101.38
407.331	78.38
407.555	88.38
407.778	87.38
408.002	88.38
408.226	100.38
408.449	98.38
408.673	103.38
408.896	95.38
409.12	93.38
409.344	89.38
409.567	93.38
409.791	89.38
410.014	110.38
410.238	110.38
410.461	90.38
410.685	102.38
410.908	94.38
411.132	109.38
411.355	92.38
411.578	103.38
411.802	93.38
412.025	80.38
412.249	97.38
412.472	90.38
412.695	84.38
412.919	94.38
413.142	88.38
413.365	94.38
413.589	87.38
413.812	103.38
414.035	91.38
414.258	88.38
414.482	79.38
414.705	95.38
414.928	98.38
415.151	108.38
415.374	98.38
415.597	94.38
415.821	97.38
416.044	89.38
416.267	93.38
416.49	103.38
416.713	90.38
416.936	98.38
417.159	92.38
417.382	94.38
417.605	109.38
417.828	87.38
418.051	93.38
418.274	86.38
418.497	93.38
418.72	91.38
418.943	92.38
419.166	93.38
419.389	93.38
419.611	95.38
419.834	84.38
420.057	83.38
420.28	92.38
420.503	93.38
420.726	89.38
420.948	101.38
421.171	101.38
421.394	90.38
421.617	89.38
421.839	105.38
422.062	90.38
422.285	81.38
422.507	102.38
422.73	95.38
422.953	90.38
423.175	105.38
423.398	89.38
423.621	92.38
423.843	98.38
424.066	90.38
424.288	93.38
424.511	88.38
424.733	98.38
424.956	93.38
425.178	97.38
425.401	92.38
425.623	83.38
425.846	96.38
426.068	105.38
426.291	88.38
426.513	92.38
426.735	99.38
426.958	94.38
427.18	106.38
427.402	116.38
427.625	132.38
427.847	123.38
428.069	116.38
428.292	102.38
428.514	88.38
428.736	84.38
428.958	80.38
429.181	84.38
429.403	84.38
429.625	97.38
429.847	83.38
430.069	88.38
430.292	79.38
430.514	93.38
430.736	84.38
430.958	90.38
431.18	95.38
431.402	79.38
431.624	77.38
431.846	96.38
432.068	81.38
432.29	86.38
432.512	101.38
432.734	93.38
432.956	95.38
433.178	88.38
433.4	86.38
433.622	96.38
433.844	100.38
434.066	91.38
434.287	87.38
434.509	97.38
434.731	84.38
434.953	84.38
435.175	95.38
435.397	90.38
435.618	91.38
435.84	116.38
436.062	111.38
436.284	92.38
436.505	106.38
436.727	96.38
436.949	94.38
437.17	83.38
437.392	88.38
437.614	106.38
437.835	98.38
438.057	107.38
438.278	88.38
438.5	87.38
438.721	125.38
438.943	99.38
439.165	82.38
439.386	85.38
439.608	82.38
439.829	101.38
440.05	119.38
440.272	127.38
440.493	100.38
440.715	95.38
440.936	91.38
441.158	92.38
441.379	83.38
441.6	93.38
441.822	80.38
442.043	95.38
442.264	102.38
442.486	98.38
442.707	87.38
442.928	92.38
443.149	105.38
443.371	102.38
443.592	106.38
443.813	97.38
444.034	90.38
444.255	90.38
444.476	92.38
444.698	106.38
444.919	84.38
445.14	146.38
445.361	127.38
445.582	103.38
445.803	120.38
446.024	118.38
446.245	130.38
446.466	102.38
446.687	86.38
446.908	86.38
447.129	96.38
447.35	106.38
447.571	73.38
447.792	100.38
448.013	101.38
448.234	96.38
448.455	76.38
448.675	95.38
448.896	118.38
449.117	101.38
449.338	95.38
449.559	121.38
449.779	123.38
450	94.38
450.221	103.38
450.442	84.38
450.662	86.38
450.883	103.38
451.104	104.38
451.324	95.38
451.545	91.38
451.766	79.38
451.986	90.38
452.207	79.38
452.428	88.38
452.648	92.38
452.869	106.38
453.089	100.38
453.31	95.38
453.53	98.38
453.751	75.38
453.971	98.38
454.192	90.38
454.412	88.38
454.633	83.38
454.853	93.38
455.073	91.38
455.294	90.38
455.514	85.38
455.734	94.38
455.955	97.38
456.175	83.38
456.395	77.38
456.616	89.38
456.836	100.38
457.056	88.38
457.276	75.38
457.497	91.38
457.717	71.38
457.937	79.38
458.157	90.38
458.377	92.38
458.598	102.38
458.818	122.38
459.038	134.38
459.258	123.38
459.478	92.38
459.698	96.38
459.918	85.38
460.138	87.38
460.358	87.38
460.578	87.38
460.798	83.38
461.018	88.38
461.238	89.38
461.458	85.38
461.678	90.38
461.898	91.38
462.118	80.38
462.338	95.38
462.558	82.38
462.777	90.38
462.997	85.38
463.217	87.38
463.437	92.38
463.657	86.38
463.876	82.38
464.096	86.38
464.316	92.38
464.536	77.38
464.755	96.38
464.975	101.38
465.195	136.38
465.414	135.38
465.634	82.38
465.854	90.38
466.073	94.38
466.293	86.38
466.512	92.38
466.732	92.38
466.951	81.38
467.171	87.38
467.391	85.38
467.61	96.38
467.829	117.38
468.049	100.38
468.268	93.38
468.488	82.38
468.707	94.38
468.927	74.38
469.146	87.38
469.365	80.38
469.585	82.38
469.804	86.38
470.023	87.38
470.243	102.38
470.462	112.38
470.681	103.38
470.901	87.38
471.12	86.38
471.339	81.38
471.558	90.38
471.777	96.38
471.997	92.38
472.216	108.38
472.435	121.38
472.654	92.38
472.873	77.38
473.092	72.38
473.311	103.38
473.53	75.38
473.749	103.38
473.968	98.38
474.187	80.38
474.406	96.38
474.625	94.38
474.844	87.38
475.063	77.38
475.282	84.38
475.501	87.38
475.72	96.38
475.939	83.38
476.158	78.38
476.377	85.38
476.596	89.38
476.814	102.38
477.033	98.38
477.252	91.38
477.471	100.38
477.69	88.38
477.908	88.38
478.127	111.38
478.346	103.38
478.564	99.38
478.783	85.38
479.002	91.38
479.22	95.38
479.439	94.38
479.658	101.38
479.876	93.38
480.095	93.38
480.313	99.38
480.532	85.38
480.751	95.38
480.969	131.38
481.188	181.38
481.406	142.38
481.624	89.38
481.843	102.38
482.061	88.38
482.28	79.38
482.498	87.38
482.717	88.38
482.935	88.38
483.153	94.38
483.372	82.38
483.59	95.38
483.808	99.38
484.027	86.38
484.245	99.38
484.463	104.38
484.681	109.38
484.9	93.38
485.118	100.38
485.336	91.38
485.554	94.38
485.772	89.38
485.99	109.38
486.209	100.38
486.427	108.38
486.645	103.38
486.863	92.38
487.081	102.38
487.299	123.38
487.517	112.38
487.735	89.38
487.953	95.38
488.171	90.38
488.389	102.38
488.607	92.38
488.825	86.38
489.043	77.38
489.261	106.38
489.479	98.38
489.696	96.38
489.914	101.38
490.132	94.38
490.35	93.38
490.568	84.38
490.786	86.38
491.003	95.38
491.221	90.38
491.439	84.38
491.657	99.38
491.874	90.38
492.092	94.38
492.31	86.38
492.527	93.38
492.745	96.38
492.963	99.38
493.18	100.38
493.398	101.38
493.615	89.38
493.833	110.38
494.05	100.38
494.268	91.38
494.485	97.38
494.703	98.38
494.92	86.38
495.138	92.38
495.355	75.38
495.573	98.38
495.79	94.38
496.008	98.38
496.225	102.38
496.442	84.38
496.66	71.38
496.877	83.38
497.094	98.38
497.312	103.38
497.529	91.38
497.746	95.38
497.963	97.38
498.181	96.38
498.398	98.38
498.615	110.38
498.832	107.38
499.049	90.38
499.267	100.38
499.484	105.38
499.701	85.38
499.918	99.38
500.135	101.38
500.352	99.38
500.569	78.38
500.786	84.38
501.003	88.38
501.22	90.38
501.437	98.38
501.654	104.38
501.871	96.38
502.088	79.38
502.305	93.38
502.522	101.38
502.739	101.38
502.956	105.38
503.172	93.38
503.389	97.38
503.606	100.38
503.823	100.38
504.04	94.38
504.256	86.38
504.473	95.38
504.69	99.38
504.907	98.38
505.123	101.38
505.34	90.38
505.557	88.38
505.773	98.38
505.99	89.38
506.207	91.38
506.423	92.38
506.64	92.38
506.856	87.38
507.073	85.38
507.289	98.38
507.506	94.38
507.722	98.38
507.939	103.38
508.155	92.38
508.372	98.38
508.588	90.38
508.805	101.38
509.021	84.38
509.238	95.38
509.454	90.38
509.67	94.38
509.887	103.38
510.103	133.38
510.319	174.38
510.536	586.38
510.752	1731.38
510.968	491.38
511.184	137.38
511.401	106.38
511.617	87.38
511.833	87.38
512.049	102.38
512.265	93.38
512.481	91.38
512.698	76.38
512.914	93.38
513.13	93.38
513.346	91.38
513.562	86.38
513.778	85.38
513.994	84.38
514.21	100.38
514.426	95.38
514.642	109.38
514.858	116.38
515.074	150.38
515.29	335.38
515.506	991.38
515.721	372.38
