Data from Uncirc_1982_H10_HRD10591_00045.txt Node
Date: Wed Jan 03 12:29:34 EST 2024
User: Yrep
Spectrometer: HR+D1059
Trigger mode: 1
Integration Time (sec): 1.000000E-1
Scans to average: 1
Electric dark correction enabled: true
Nonlinearity correction enabled: false
Boxcar width: 0
XAxis mode: Wavelengths
Number of Pixels in Spectrum: 2048
>>>>>Begin Spectral Data<<<<<
223.165	-29.88
223.4	-29.88
223.635	-29.88
223.869	-17.88
224.104	-25.88
224.338	-15.88
224.573	-11.88
224.808	-8.88
225.042	-9.88
225.277	-7.88
225.511	-5.88
225.746	4.12
225.98	3.12
226.215	14.12
226.449	16.12
226.683	28.12
226.918	39.12
227.152	29.12
227.387	44.12
227.621	44.12
227.856	55.12
228.09	51.12
228.324	50.12
228.559	48.12
228.793	66.12
229.027	77.12
229.262	80.12
229.496	71.12
229.73	81.12
229.964	84.12
230.199	61.12
230.433	71.12
230.667	79.12
230.901	101.12
231.136	88.12
231.37	90.12
231.604	71.12
231.838	83.12
232.072	89.12
232.306	77.12
232.541	93.12
232.775	69.12
233.009	89.12
233.243	85.12
233.477	106.12
233.711	88.12
233.945	78.12
234.179	70.12
234.413	80.12
234.647	75.12
234.881	78.12
235.115	85.12
235.349	89.12
235.583	77.12
235.817	77.12
236.051	79.12
236.285	91.12
236.519	78.12
236.753	77.12
236.987	104.12
237.221	93.12
237.455	73.12
237.689	69.12
237.922	93.12
238.156	85.12
238.39	75.12
238.624	85.12
238.858	79.12
239.091	75.12
239.325	77.12
239.559	91.12
239.793	81.12
240.027	85.12
240.26	77.12
240.494	71.12
240.728	96.12
240.961	80.12
241.195	84.12
241.429	80.12
241.662	68.12
241.896	80.12
242.13	58.12
242.363	80.12
242.597	78.12
242.83	88.12
243.064	78.12
243.298	90.12
243.531	84.12
243.765	75.12
243.998	89.12
244.232	94.12
244.465	85.12
244.699	81.12
244.932	80.12
245.166	71.12
245.399	93.12
245.633	69.12
245.866	86.12
246.099	92.12
246.333	79.12
246.566	91.12
246.8	89.12
247.033	96.12
247.266	69.12
247.5	85.12
247.733	81.12
247.966	87.12
248.2	74.12
248.433	71.12
248.666	81.12
248.899	82.12
249.133	75.12
249.366	91.12
249.599	84.12
249.832	77.12
250.066	90.12
250.299	77.12
250.532	90.12
250.765	71.12
250.998	83.12
251.231	86.12
251.465	90.12
251.698	84.12
251.931	87.12
252.164	90.12
252.397	78.12
252.63	89.12
252.863	72.12
253.096	65.12
253.329	85.12
253.562	83.12
253.795	75.12
254.028	87.12
254.261	87.12
254.494	100.12
254.727	95.12
254.96	75.12
255.193	88.12
255.426	82.12
255.659	79.12
255.892	76.12
256.124	87.12
256.357	87.12
256.59	76.12
256.823	98.12
257.056	95.12
257.289	87.12
257.521	88.12
257.754	63.12
257.987	81.12
258.22	88.12
258.452	78.12
258.685	74.12
258.918	72.12
259.151	88.12
259.383	73.12
259.616	85.12
259.849	107.12
260.081	88.12
260.314	83.12
260.547	94.12
260.779	85.12
261.012	99.12
261.244	84.12
261.477	100.12
261.71	91.12
261.942	110.12
262.175	121.12
262.407	98.12
262.64	86.12
262.872	71.12
263.105	80.12
263.337	95.12
263.57	76.12
263.802	81.12
264.035	95.12
264.267	94.12
264.499	80.12
264.732	88.12
264.964	85.12
265.197	95.12
265.429	96.12
265.661	88.12
265.894	80.12
266.126	85.12
266.358	97.12
266.591	78.12
266.823	87.12
267.055	81.12
267.287	90.12
267.52	87.12
267.752	86.12
267.984	93.12
268.216	84.12
268.448	73.12
268.681	93.12
268.913	81.12
269.145	83.12
269.377	102.12
269.609	93.12
269.841	87.12
270.073	72.12
270.306	95.12
270.538	83.12
270.77	81.12
271.002	91.12
271.234	85.12
271.466	95.12
271.698	70.12
271.93	80.12
272.162	90.12
272.394	80.12
272.626	77.12
272.858	86.12
273.09	87.12
273.322	93.12
273.553	83.12
273.785	84.12
274.017	77.12
274.249	89.12
274.481	87.12
274.713	76.12
274.945	89.12
275.176	87.12
275.408	100.12
275.64	85.12
275.872	107.12
276.104	80.12
276.335	104.12
276.567	105.12
276.799	96.12
277.031	85.12
277.262	103.12
277.494	85.12
277.726	81.12
277.957	83.12
278.189	95.12
278.421	79.12
278.652	91.12
278.884	93.12
279.115	88.12
279.347	93.12
279.579	86.12
279.81	107.12
280.042	87.12
280.273	93.12
280.505	90.12
280.736	87.12
280.968	104.12
281.199	75.12
281.431	87.12
281.662	86.12
281.894	102.12
282.125	100.12
282.356	110.12
282.588	113.12
282.819	108.12
283.051	96.12
283.282	77.12
283.513	102.12
283.745	85.12
283.976	91.12
284.207	71.12
284.439	87.12
284.67	80.12
284.901	68.12
285.132	77.12
285.364	76.12
285.595	87.12
285.826	77.12
286.057	88.12
286.288	87.12
286.52	65.12
286.751	104.12
286.982	89.12
287.213	71.12
287.444	89.12
287.675	102.12
287.906	87.12
288.138	97.12
288.369	81.12
288.6	79.12
288.831	86.12
289.062	88.12
289.293	88.12
289.524	80.12
289.755	95.12
289.986	80.12
290.217	91.12
290.448	74.12
290.679	100.12
290.91	98.12
291.141	98.12
291.371	90.12
291.602	91.12
291.833	84.12
292.064	103.12
292.295	94.12
292.526	83.12
292.757	91.12
292.987	94.12
293.218	89.12
293.449	96.12
293.68	90.12
293.91	64.12
294.141	89.12
294.372	89.12
294.603	97.12
294.833	103.12
295.064	92.12
295.295	106.12
295.525	84.12
295.756	94.12
295.987	101.12
296.217	122.12
296.448	105.12
296.679	104.12
296.909	93.12
297.14	89.12
297.37	91.12
297.601	89.12
297.831	90.12
298.062	93.12
298.292	86.12
298.523	93.12
298.753	106.12
298.984	98.12
299.214	94.12
299.445	93.12
299.675	92.12
299.905	93.12
300.136	106.12
300.366	97.12
300.597	92.12
300.827	96.12
301.057	95.12
301.288	98.12
301.518	89.12
301.748	83.12
301.979	98.12
302.209	111.12
302.439	103.12
302.669	80.12
302.9	87.12
303.13	103.12
303.36	96.12
303.59	99.12
303.82	108.12
304.051	93.12
304.281	93.12
304.511	81.12
304.741	87.12
304.971	73.12
305.201	93.12
305.431	104.12
305.661	85.12
305.891	87.12
306.121	98.12
306.352	114.12
306.582	97.12
306.812	103.12
307.042	90.12
307.272	84.12
307.502	88.12
307.731	100.12
307.961	83.12
308.191	97.12
308.421	97.12
308.651	95.12
308.881	110.12
309.111	89.12
309.341	110.12
309.571	103.12
309.8	99.12
310.03	90.12
310.26	89.12
310.49	87.12
310.72	83.12
310.949	97.12
311.179	88.12
311.409	93.12
311.639	102.12
311.868	91.12
312.098	107.12
312.328	100.12
312.557	102.12
312.787	94.12
313.017	104.12
313.246	109.12
313.476	109.12
313.706	100.12
313.935	80.12
314.165	101.12
314.394	87.12
314.624	102.12
314.853	101.12
315.083	80.12
315.312	86.12
315.542	109.12
315.771	104.12
316.001	81.12
316.23	99.12
316.46	96.12
316.689	119.12
316.919	89.12
317.148	108.12
317.377	92.12
317.607	92.12
317.836	90.12
318.065	89.12
318.295	85.12
318.524	77.12
318.753	102.12
318.983	103.12
319.212	99.12
319.441	97.12
319.67	103.12
319.9	96.12
320.129	93.12
320.358	94.12
320.587	112.12
320.816	108.12
321.046	96.12
321.275	104.12
321.504	87.12
321.733	97.12
321.962	103.12
322.191	89.12
322.42	105.12
322.649	96.12
322.878	125.12
323.108	101.12
323.337	113.12
323.566	138.12
323.795	134.12
324.024	183.12
324.253	344.12
324.482	744.12
324.71	1457.12
324.939	1931.12
325.168	702.12
325.397	231.12
325.626	142.12
325.855	125.12
326.084	125.12
326.313	135.12
326.542	167.12
326.77	222.12
326.999	421.12
327.228	851.12
327.457	1507.12
327.686	1229.12
327.914	343.12
328.143	185.12
328.372	140.12
328.6	107.12
328.829	118.12
329.058	96.12
329.287	128.12
329.515	112.12
329.744	109.12
329.972	110.12
330.201	119.12
330.43	124.12
330.658	125.12
330.887	123.12
331.115	108.12
331.344	96.12
331.572	93.12
331.801	116.12
332.03	102.12
332.258	97.12
332.486	94.12
332.715	89.12
332.943	99.12
333.172	99.12
333.4	117.12
333.629	107.12
333.857	110.12
334.085	119.12
334.314	108.12
334.542	137.12
334.771	127.12
334.999	102.12
335.227	96.12
335.455	103.12
335.684	107.12
335.912	112.12
336.14	108.12
336.369	96.12
336.597	100.12
336.825	96.12
337.053	89.12
337.281	96.12
337.51	101.12
337.738	97.12
337.966	107.12
338.194	99.12
338.422	95.12
338.65	92.12
338.878	94.12
339.106	97.12
339.334	109.12
339.562	85.12
339.79	85.12
340.018	93.12
340.246	89.12
340.474	88.12
340.702	101.12
340.93	88.12
341.158	98.12
341.386	97.12
341.614	91.12
341.842	85.12
342.07	88.12
342.298	83.12
342.526	93.12
342.754	95.12
342.981	82.12
343.209	92.12
343.437	113.12
343.665	91.12
343.893	81.12
344.12	109.12
344.348	97.12
344.576	81.12
344.804	91.12
345.031	93.12
345.259	98.12
345.487	93.12
345.714	104.12
345.942	104.12
346.17	93.12
346.397	94.12
346.625	113.12
346.853	104.12
347.08	94.12
347.308	87.12
347.535	104.12
347.763	106.12
347.99	88.12
348.218	94.12
348.445	95.12
348.673	101.12
348.9	99.12
349.128	86.12
349.355	89.12
349.583	89.12
349.81	92.12
350.037	93.12
350.265	99.12
350.492	110.12
350.72	105.12
350.947	110.12
351.174	107.12
351.402	114.12
351.629	108.12
351.856	104.12
352.083	101.12
352.311	95.12
352.538	105.12
352.765	99.12
352.992	118.12
353.22	118.12
353.447	120.12
353.674	101.12
353.901	91.12
354.128	99.12
354.355	106.12
354.583	107.12
354.81	101.12
355.037	87.12
355.264	107.12
355.491	96.12
355.718	97.12
355.945	102.12
356.172	92.12
356.399	99.12
356.626	100.12
356.853	110.12
357.08	97.12
357.307	101.12
357.534	95.12
357.761	101.12
357.988	95.12
358.215	113.12
358.441	92.12
358.668	96.12
358.895	98.12
359.122	97.12
359.349	87.12
359.576	93.12
359.802	93.12
360.029	113.12
360.256	101.12
360.483	108.12
360.709	84.12
360.936	108.12
361.163	94.12
361.39	97.12
361.616	96.12
361.843	108.12
362.07	98.12
362.296	102.12
362.523	85.12
362.749	105.12
362.976	96.12
363.203	105.12
363.429	91.12
363.656	100.12
363.882	89.12
364.109	103.12
364.335	99.12
364.562	92.12
364.788	83.12
365.015	107.12
365.241	96.12
365.468	95.12
365.694	113.12
365.92	101.12
366.147	91.12
366.373	78.12
366.599	94.12
366.826	94.12
367.052	100.12
367.278	101.12
367.505	96.12
367.731	97.12
367.957	100.12
368.184	91.12
368.41	93.12
368.636	109.12
368.862	96.12
369.089	90.12
369.315	96.12
369.541	100.12
369.767	87.12
369.993	79.12
370.219	95.12
370.445	89.12
370.672	94.12
370.898	77.12
371.124	103.12
371.35	107.12
371.576	99.12
371.802	92.12
372.028	91.12
372.254	83.12
372.48	92.12
372.706	96.12
372.932	101.12
373.158	87.12
373.384	91.12
373.61	89.12
373.835	71.12
374.061	63.12
374.287	94.12
374.513	99.12
374.739	103.12
374.965	87.12
375.191	102.12
375.416	85.12
375.642	83.12
375.868	93.12
376.094	92.12
376.319	91.12
376.545	93.12
376.771	83.12
376.997	81.12
377.222	108.12
377.448	95.12
377.674	90.12
377.899	111.12
378.125	99.12
378.35	99.12
378.576	105.12
378.802	102.12
379.027	101.12
379.253	112.12
379.478	90.12
379.704	95.12
379.929	94.12
380.155	109.12
380.38	115.12
380.606	91.12
380.831	101.12
381.057	112.12
381.282	93.12
381.507	102.12
381.733	119.12
381.958	109.12
382.184	104.12
382.409	96.12
382.634	96.12
382.86	103.12
383.085	108.12
383.31	106.12
383.535	105.12
383.761	101.12
383.986	93.12
384.211	98.12
384.436	107.12
384.662	105.12
384.887	104.12
385.112	111.12
385.337	110.12
385.562	104.12
385.787	90.12
386.013	107.12
386.238	118.12
386.463	106.12
386.688	116.12
386.913	120.12
387.138	117.12
387.363	111.12
387.588	83.12
387.813	101.12
388.038	109.12
388.263	119.12
388.488	115.12
388.713	108.12
388.938	112.12
389.163	100.12
389.387	99.12
389.612	101.12
389.837	99.12
390.062	108.12
390.287	88.12
390.512	105.12
390.736	112.12
390.961	88.12
391.186	81.12
391.411	108.12
391.636	99.12
391.86	71.12
392.085	84.12
392.31	89.12
392.534	96.12
392.759	79.12
392.984	89.12
393.208	87.12
393.433	96.12
393.658	99.12
393.882	85.12
394.107	88.12
394.331	90.12
394.556	93.12
394.78	111.12
395.005	104.12
395.229	87.12
395.454	80.12
395.678	79.12
395.903	86.12
396.127	100.12
396.352	89.12
396.576	77.12
396.801	81.12
397.025	92.12
397.249	81.12
397.474	91.12
397.698	93.12
397.922	97.12
398.147	82.12
398.371	86.12
398.595	97.12
398.82	86.12
399.044	97.12
399.268	95.12
399.492	81.12
399.717	97.12
399.941	87.12
400.165	77.12
400.389	104.12
400.613	93.12
400.837	88.12
401.062	100.12
401.286	100.12
401.51	89.12
401.734	87.12
401.958	88.12
402.182	113.12
402.406	159.12
402.63	98.12
402.854	103.12
403.078	85.12
403.302	86.12
403.526	94.12
403.75	69.12
403.974	89.12
404.198	90.12
404.422	88.12
404.645	97.12
404.869	89.12
405.093	84.12
405.317	92.12
405.541	90.12
405.765	76.12
405.988	110.12
406.212	151.12
406.436	183.12
406.66	134.12
406.883	98.12
407.107	101.12
407.331	103.12
407.555	112.12
407.778	97.12
408.002	103.12
408.226	97.12
408.449	99.12
408.673	82.12
408.896	102.12
409.12	105.12
409.344	103.12
409.567	80.12
409.791	97.12
410.014	104.12
410.238	104.12
410.461	100.12
410.685	107.12
410.908	96.12
411.132	113.12
411.355	100.12
411.578	104.12
411.802	96.12
412.025	92.12
412.249	92.12
412.472	85.12
412.695	91.12
412.919	103.12
413.142	92.12
413.365	92.12
413.589	92.12
413.812	80.12
414.035	96.12
414.258	87.12
414.482	81.12
414.705	94.12
414.928	108.12
415.151	104.12
415.374	104.12
415.597	97.12
415.821	92.12
416.044	90.12
416.267	96.12
416.49	89.12
416.713	94.12
416.936	104.12
417.159	100.12
417.382	81.12
417.605	90.12
417.828	101.12
418.051	91.12
418.274	89.12
418.497	102.12
418.72	65.12
418.943	96.12
419.166	106.12
419.389	90.12
419.611	79.12
419.834	88.12
420.057	95.12
420.28	93.12
420.503	95.12
420.726	91.12
420.948	104.12
421.171	106.12
421.394	94.12
421.617	93.12
421.839	102.12
422.062	92.12
422.285	96.12
422.507	99.12
422.73	96.12
422.953	104.12
423.175	92.12
423.398	107.12
423.621	103.12
423.843	102.12
424.066	92.12
424.288	91.12
424.511	95.12
424.733	96.12
424.956	108.12
425.178	99.12
425.401	95.12
425.623	94.12
425.846	95.12
426.068	98.12
426.291	78.12
426.513	99.12
426.735	90.12
426.958	81.12
427.18	96.12
427.402	134.12
427.625	159.12
427.847	118.12
428.069	115.12
428.292	88.12
428.514	96.12
428.736	80.12
428.958	84.12
429.181	89.12
429.403	109.12
429.625	84.12
429.847	100.12
430.069	109.12
430.292	98.12
430.514	89.12
430.736	110.12
430.958	87.12
431.18	79.12
431.402	86.12
431.624	85.12
431.846	83.12
432.068	78.12
432.29	91.12
432.512	99.12
432.734	99.12
432.956	85.12
433.178	95.12
433.4	112.12
433.622	99.12
433.844	98.12
434.066	107.12
434.287	89.12
434.509	100.12
434.731	84.12
434.953	91.12
435.175	107.12
435.397	103.12
435.618	96.12
435.84	97.12
436.062	100.12
436.284	100.12
436.505	108.12
436.727	113.12
436.949	100.12
437.17	103.12
437.392	89.12
437.614	111.12
437.835	106.12
438.057	120.12
438.278	99.12
438.5	105.12
438.721	117.12
438.943	102.12
439.165	98.12
439.386	84.12
439.608	100.12
439.829	111.12
440.05	107.12
440.272	135.12
440.493	93.12
440.715	89.12
440.936	91.12
441.158	92.12
441.379	93.12
441.6	91.12
441.822	86.12
442.043	105.12
442.264	88.12
442.486	99.12
442.707	95.12
442.928	112.12
443.149	101.12
443.371	125.12
443.592	103.12
443.813	95.12
444.034	107.12
444.255	98.12
444.476	83.12
444.698	102.12
444.919	74.12
445.14	125.12
445.361	132.12
445.582	111.12
445.803	128.12
446.024	115.12
446.245	121.12
446.466	121.12
446.687	88.12
446.908	96.12
447.129	93.12
447.35	109.12
447.571	99.12
447.792	100.12
448.013	98.12
448.234	107.12
448.455	107.12
448.675	111.12
448.896	116.12
449.117	91.12
449.338	110.12
449.559	131.12
449.779	119.12
450	92.12
450.221	89.12
450.442	77.12
450.662	90.12
450.883	105.12
451.104	114.12
451.324	95.12
451.545	102.12
451.766	91.12
451.986	101.12
452.207	91.12
452.428	83.12
452.648	99.12
452.869	102.12
453.089	103.12
453.31	109.12
453.53	107.12
453.751	95.12
453.971	103.12
454.192	105.12
454.412	94.12
454.633	88.12
454.853	89.12
455.073	83.12
455.294	101.12
455.514	105.12
455.734	85.12
455.955	96.12
456.175	96.12
456.395	78.12
456.616	87.12
456.836	95.12
457.056	92.12
457.276	96.12
457.497	99.12
457.717	93.12
457.937	79.12
458.157	87.12
458.377	90.12
458.598	102.12
458.818	122.12
459.038	143.12
459.258	116.12
459.478	101.12
459.698	87.12
459.918	87.12
460.138	99.12
460.358	84.12
460.578	86.12
460.798	88.12
461.018	92.12
461.238	90.12
461.458	109.12
461.678	103.12
461.898	78.12
462.118	80.12
462.338	106.12
462.558	92.12
462.777	92.12
462.997	90.12
463.217	88.12
463.437	95.12
463.657	83.12
463.876	96.12
464.096	89.12
464.316	89.12
464.536	78.12
464.755	96.12
464.975	104.12
465.195	120.12
465.414	133.12
465.634	91.12
465.854	87.12
466.073	111.12
466.293	88.12
466.512	71.12
466.732	91.12
466.951	102.12
467.171	103.12
467.391	91.12
467.61	110.12
467.829	97.12
468.049	97.12
468.268	99.12
468.488	70.12
468.707	95.12
468.927	87.12
469.146	94.12
469.365	88.12
469.585	86.12
469.804	103.12
470.023	75.12
470.243	101.12
470.462	96.12
470.681	101.12
470.901	90.12
471.12	81.12
471.339	103.12
471.558	79.12
471.777	103.12
471.997	108.12
472.216	115.12
472.435	138.12
472.654	108.12
472.873	99.12
473.092	85.12
473.311	106.12
473.53	83.12
473.749	92.12
473.968	99.12
474.187	97.12
474.406	89.12
474.625	98.12
474.844	98.12
475.063	94.12
475.282	96.12
475.501	93.12
475.72	104.12
475.939	78.12
476.158	77.12
476.377	76.12
476.596	95.12
476.814	85.12
477.033	107.12
477.252	93.12
477.471	92.12
477.69	70.12
477.908	80.12
478.127	91.12
478.346	92.12
478.564	90.12
478.783	90.12
479.002	103.12
479.22	97.12
479.439	89.12
479.658	113.12
479.876	93.12
480.095	96.12
480.313	85.12
480.532	100.12
480.751	94.12
480.969	119.12
481.188	181.12
481.406	136.12
481.624	95.12
481.843	84.12
482.061	97.12
482.28	101.12
482.498	88.12
482.717	109.12
482.935	104.12
483.153	77.12
483.372	104.12
483.59	90.12
483.808	103.12
484.027	111.12
484.245	88.12
484.463	89.12
484.681	120.12
484.9	97.12
485.118	97.12
485.336	95.12
485.554	98.12
485.772	107.12
485.99	102.12
486.209	119.12
486.427	101.12
486.645	111.12
486.863	97.12
487.081	90.12
487.299	100.12
487.517	94.12
487.735	111.12
487.953	99.12
488.171	107.12
488.389	97.12
488.607	125.12
488.825	90.12
489.043	97.12
489.261	112.12
489.479	96.12
489.696	80.12
489.914	94.12
490.132	89.12
490.35	103.12
490.568	96.12
490.786	96.12
491.003	86.12
491.221	87.12
491.439	89.12
491.657	95.12
491.874	96.12
492.092	99.12
492.31	91.12
492.527	87.12
492.745	93.12
492.963	97.12
493.18	93.12
493.398	95.12
493.615	91.12
493.833	86.12
494.05	89.12
494.268	89.12
494.485	93.12
494.703	92.12
494.92	100.12
495.138	79.12
495.355	89.12
495.573	96.12
495.79	87.12
496.008	105.12
496.225	97.12
496.442	99.12
496.66	99.12
496.877	89.12
497.094	95.12
497.312	94.12
497.529	91.12
497.746	104.12
497.963	85.12
498.181	90.12
498.398	98.12
498.615	112.12
498.832	101.12
499.049	87.12
499.267	93.12
499.484	101.12
499.701	96.12
499.918	95.12
500.135	102.12
500.352	86.12
500.569	89.12
500.786	99.12
501.003	80.12
501.22	92.12
501.437	93.12
501.654	101.12
501.871	103.12
502.088	104.12
502.305	97.12
502.522	96.12
502.739	81.12
502.956	90.12
503.172	101.12
503.389	93.12
503.606	87.12
503.823	96.12
504.04	98.12
504.256	87.12
504.473	102.12
504.69	96.12
504.907	96.12
505.123	105.12
505.34	90.12
505.557	83.12
505.773	101.12
505.99	104.12
506.207	87.12
506.423	92.12
506.64	91.12
506.856	91.12
507.073	80.12
507.289	89.12
507.506	94.12
507.722	104.12
507.939	118.12
508.155	93.12
508.372	98.12
508.588	81.12
508.805	94.12
509.021	98.12
509.238	105.12
509.454	91.12
509.67	104.12
509.887	110.12
510.103	120.12
510.319	188.12
510.536	649.12
510.752	1941.12
510.968	543.12
511.184	151.12
511.401	96.12
511.617	102.12
511.833	95.12
512.049	96.12
512.265	98.12
512.481	96.12
512.698	90.12
512.914	97.12
513.13	92.12
513.346	77.12
513.562	95.12
513.778	94.12
513.994	111.12
514.21	92.12
