Data from Uncirc_1982_H10_HRD10591_00037.txt Node
Date: Wed Jan 03 12:29:32 EST 2024
User: Yrep
Spectrometer: HR+D1059
Trigger mode: 1
Integration Time (sec): 1.000000E-1
Scans to average: 1
Electric dark correction enabled: true
Nonlinearity correction enabled: false
Boxcar width: 0
XAxis mode: Wavelengths
Number of Pixels in Spectrum: 2048
>>>>>Begin Spectral Data<<<<<
223.165	-2
223.4	-2
223.635	-2
223.869	-28
224.104	-30
224.338	-18
224.573	0
224.808	-7
225.042	-19
225.277	7
225.511	-6
225.746	4
225.98	1
226.215	9
226.449	20
226.683	18
226.918	14
227.152	37
227.387	47
227.621	40
227.856	35
228.09	39
228.324	57
228.559	59
228.793	62
229.027	73
229.262	64
229.496	78
229.73	84
229.964	72
230.199	77
230.433	74
230.667	79
230.901	79
231.136	76
231.37	87
231.604	92
231.838	87
232.072	88
232.306	90
232.541	87
232.775	75
233.009	84
233.243	99
233.477	96
233.711	81
233.945	79
234.179	88
234.413	84
234.647	78
234.881	78
235.115	102
235.349	81
235.583	76
235.817	78
236.051	76
236.285	83
236.519	78
236.753	75
236.987	97
237.221	89
237.455	94
237.689	71
237.922	91
238.156	70
238.39	93
238.624	91
238.858	79
239.091	56
239.325	77
239.559	76
239.793	75
240.027	88
240.26	80
240.494	85
240.728	96
240.961	69
241.195	79
241.429	85
241.662	67
241.896	79
242.13	83
242.363	80
242.597	68
242.83	85
243.064	85
243.298	83
243.531	79
243.765	70
243.998	66
244.232	80
244.465	84
244.699	85
244.932	75
245.166	83
245.399	84
245.633	86
245.866	86
246.099	84
246.333	87
246.566	87
246.8	68
247.033	89
247.266	87
247.5	85
247.733	84
247.966	80
248.2	85
248.433	77
248.666	80
248.899	80
249.133	88
249.366	102
249.599	83
249.832	93
250.066	88
250.299	93
250.532	66
250.765	83
250.998	87
251.231	78
251.465	87
251.698	77
251.931	76
252.164	94
252.397	75
252.63	83
252.863	86
253.096	86
253.329	85
253.562	92
253.795	93
254.028	75
254.261	83
254.494	77
254.727	69
254.96	89
255.193	88
255.426	100
255.659	73
255.892	87
256.124	83
256.357	86
256.59	83
256.823	88
257.056	85
257.289	85
257.521	86
257.754	72
257.987	81
258.22	77
258.452	80
258.685	88
258.918	85
259.151	76
259.383	77
259.616	80
259.849	88
260.081	99
260.314	70
260.547	92
260.779	93
261.012	73
261.244	77
261.477	99
261.71	89
261.942	106
262.175	109
262.407	91
262.64	85
262.872	75
263.105	79
263.337	73
263.57	87
263.802	96
264.035	83
264.267	83
264.499	85
264.732	90
264.964	92
265.197	88
265.429	90
265.661	91
265.894	94
266.126	70
266.358	89
266.591	91
266.823	88
267.055	87
267.287	85
267.52	85
267.752	76
267.984	85
268.216	74
268.448	93
268.681	87
268.913	89
269.145	85
269.377	85
269.609	91
269.841	86
270.073	83
270.306	71
270.538	97
270.77	84
271.002	80
271.234	84
271.466	91
271.698	99
271.93	100
272.162	89
272.394	83
272.626	80
272.858	86
273.09	85
273.322	87
273.553	68
273.785	80
274.017	87
274.249	83
274.481	85
274.713	85
274.945	95
275.176	95
275.408	94
275.64	100
275.872	88
276.104	100
276.335	95
276.567	108
276.799	84
277.031	88
277.262	83
277.494	85
277.726	92
277.957	91
278.189	83
278.421	91
278.652	91
278.884	87
279.115	94
279.347	88
279.579	91
279.81	77
280.042	79
280.273	88
280.505	86
280.736	82
280.968	98
281.199	97
281.431	78
281.662	87
281.894	95
282.125	90
282.356	108
282.588	120
282.819	107
283.051	108
283.282	81
283.513	89
283.745	89
283.976	86
284.207	85
284.439	85
284.67	89
284.901	80
285.132	72
285.364	87
285.595	93
285.826	76
286.057	90
286.288	79
286.52	91
286.751	88
286.982	83
287.213	77
287.444	94
287.675	81
287.906	76
288.138	84
288.369	89
288.6	86
288.831	87
289.062	85
289.293	90
289.524	89
289.755	84
289.986	87
290.217	96
290.448	88
290.679	93
290.91	79
291.141	87
291.371	100
291.602	93
291.833	93
292.064	84
292.295	83
292.526	92
292.757	77
292.987	103
293.218	103
293.449	88
293.68	96
293.91	85
294.141	100
294.372	85
294.603	98
294.833	97
295.064	96
295.295	93
295.525	103
295.756	95
295.987	93
296.217	122
296.448	121
296.679	97
296.909	80
297.14	83
297.37	95
297.601	85
297.831	93
298.062	96
298.292	88
298.523	90
298.753	92
298.984	91
299.214	99
299.445	99
299.675	76
299.905	103
300.136	89
300.366	89
300.597	103
300.827	92
301.057	109
301.288	98
301.518	101
301.748	90
301.979	97
302.209	90
302.439	93
302.669	103
302.9	88
303.13	97
303.36	93
303.59	96
303.82	89
304.051	95
304.281	84
304.511	90
304.741	91
304.971	102
305.201	91
305.431	96
305.661	90
305.891	96
306.121	84
306.352	101
306.582	115
306.812	89
307.042	103
307.272	98
307.502	102
307.731	93
307.961	93
308.191	99
308.421	86
308.651	99
308.881	114
309.111	102
309.341	85
309.571	90
309.8	104
310.03	96
310.26	89
310.49	94
310.72	106
310.949	100
311.179	95
311.409	103
311.639	88
311.868	96
312.098	109
312.328	99
312.557	100
312.787	105
313.017	103
313.246	101
313.476	70
313.706	102
313.935	97
314.165	101
314.394	105
314.624	89
314.853	98
315.083	94
315.312	100
315.542	81
315.771	92
316.001	95
316.23	101
316.46	95
316.689	87
316.919	90
317.148	96
317.377	92
317.607	103
317.836	96
318.065	88
318.295	79
318.524	97
318.753	102
318.983	87
319.212	103
319.441	111
319.67	91
319.9	100
320.129	95
320.358	91
320.587	93
320.816	88
321.046	104
321.275	108
321.504	102
321.733	104
321.962	92
322.191	99
322.42	98
322.649	112
322.878	105
323.108	110
323.337	115
323.566	134
323.795	148
324.024	201
324.253	358
324.482	736
324.71	1491
324.939	2013
325.168	738
325.397	229
325.626	157
325.855	118
326.084	116
326.313	135
326.542	134
326.77	224
326.999	410
327.228	851
327.457	1567
327.686	1245
327.914	343
328.143	189
328.372	142
328.6	129
328.829	116
329.058	115
329.287	113
329.515	105
329.744	119
329.972	110
330.201	102
330.43	123
330.658	131
330.887	124
331.115	99
331.344	94
331.572	110
331.801	112
332.03	99
332.258	98
332.486	103
332.715	97
332.943	100
333.172	106
333.4	89
333.629	104
333.857	111
334.085	100
334.314	101
334.542	120
334.771	131
334.999	103
335.227	98
335.455	101
335.684	100
335.912	112
336.14	95
336.369	93
336.597	99
336.825	97
337.053	92
337.281	103
337.51	100
337.738	89
337.966	80
338.194	106
338.422	99
338.65	97
338.878	95
339.106	101
339.334	93
339.562	88
339.79	86
340.018	102
340.246	101
340.474	105
340.702	87
340.93	95
341.158	81
341.386	85
341.614	105
341.842	101
342.07	84
342.298	89
342.526	88
342.754	91
342.981	79
343.209	79
343.437	100
343.665	102
343.893	80
344.12	89
344.348	86
344.576	100
344.804	77
345.031	96
345.259	95
345.487	94
345.714	100
345.942	94
346.17	98
346.397	91
346.625	99
346.853	97
347.08	99
347.308	104
347.535	104
347.763	107
347.99	113
348.218	107
348.445	109
348.673	101
348.9	82
349.128	93
349.355	99
349.583	99
349.81	100
350.037	112
350.265	106
350.492	111
350.72	89
350.947	106
351.174	115
351.402	113
351.629	96
351.856	102
352.083	109
352.311	109
352.538	103
352.765	120
352.992	110
353.22	103
353.447	106
353.674	105
353.901	105
354.128	108
354.355	101
354.583	107
354.81	106
355.037	103
355.264	98
355.491	96
355.718	97
355.945	102
356.172	105
356.399	101
356.626	99
356.853	106
357.08	108
357.307	101
357.534	98
357.761	89
357.988	96
358.215	110
358.441	98
358.668	113
358.895	76
359.122	97
359.349	102
359.576	91
359.802	91
360.029	100
360.256	94
360.483	92
360.709	104
360.936	104
361.163	96
361.39	108
361.616	100
361.843	80
362.07	93
362.296	94
362.523	96
362.749	97
362.976	72
363.203	90
363.429	89
363.656	98
363.882	91
364.109	78
364.335	98
364.562	93
364.788	90
365.015	87
365.241	101
365.468	88
365.694	106
365.92	91
366.147	85
366.373	112
366.599	97
366.826	92
367.052	97
367.278	86
367.505	95
367.731	89
367.957	90
368.184	95
368.41	84
368.636	110
368.862	104
369.089	99
369.315	90
369.541	89
369.767	107
369.993	87
370.219	94
370.445	99
370.672	91
370.898	91
371.124	98
371.35	102
371.576	88
371.802	100
372.028	106
372.254	85
372.48	101
372.706	95
372.932	92
373.158	92
373.384	99
373.61	109
373.835	96
374.061	95
374.287	101
374.513	98
374.739	93
374.965	89
375.191	104
375.416	96
375.642	95
375.868	93
376.094	97
376.319	81
376.545	88
376.771	88
376.997	104
377.222	87
377.448	104
377.674	102
377.899	105
378.125	104
378.35	62
378.576	85
378.802	87
379.027	100
379.253	87
379.478	91
379.704	93
379.929	95
380.155	92
380.38	102
380.606	97
380.831	94
381.057	101
381.282	107
381.507	95
381.733	110
381.958	109
382.184	96
382.409	83
382.634	119
382.86	105
383.085	105
383.31	90
383.535	99
383.761	95
383.986	102
384.211	92
384.436	97
384.662	113
384.887	115
385.112	126
385.337	113
385.562	109
385.787	119
386.013	104
386.238	123
386.463	114
386.688	113
386.913	101
387.138	99
387.363	114
387.588	105
387.813	110
388.038	110
388.263	107
388.488	107
388.713	91
388.938	102
389.163	94
389.387	112
389.612	103
389.837	92
390.062	91
390.287	89
390.512	88
390.736	84
390.961	99
391.186	85
391.411	113
391.636	101
391.86	101
392.085	88
392.31	87
392.534	85
392.759	103
392.984	88
393.208	97
393.433	98
393.658	87
393.882	84
394.107	105
394.331	103
394.556	92
394.78	99
395.005	87
395.229	97
395.454	94
395.678	88
395.903	96
396.127	86
396.352	92
396.576	89
396.801	76
397.025	93
397.249	84
397.474	91
397.698	80
397.922	93
398.147	91
398.371	86
398.595	90
398.82	87
399.044	111
399.268	102
399.492	94
399.717	116
399.941	101
400.165	93
400.389	75
400.613	85
400.837	103
401.062	92
401.286	98
401.51	95
401.734	95
401.958	99
402.182	115
402.406	130
402.63	115
402.854	94
403.078	90
403.302	89
403.526	89
403.75	81
403.974	89
404.198	83
404.422	93
404.645	80
404.869	100
405.093	99
405.317	112
405.541	105
405.765	110
405.988	110
406.212	138
406.436	190
406.66	134
406.883	101
407.107	96
407.331	95
407.555	93
407.778	94
408.002	113
408.226	83
408.449	81
408.673	104
408.896	101
409.12	101
409.344	105
409.567	89
409.791	114
410.014	95
410.238	100
410.461	87
410.685	101
410.908	112
411.132	106
411.355	94
411.578	106
411.802	110
412.025	87
412.249	91
412.472	97
412.695	103
412.919	104
413.142	94
413.365	89
413.589	97
413.812	104
414.035	100
414.258	87
414.482	96
414.705	88
414.928	95
415.151	90
415.374	102
415.597	88
415.821	94
416.044	97
416.267	94
416.49	85
416.713	99
416.936	94
417.159	87
417.382	84
417.605	76
417.828	100
418.051	88
418.274	80
418.497	95
418.72	90
418.943	92
419.166	106
419.389	95
419.611	88
419.834	83
420.057	90
420.28	90
420.503	88
420.726	94
420.948	95
421.171	80
421.394	100
421.617	103
421.839	79
422.062	94
422.285	114
422.507	102
422.73	105
422.953	95
423.175	103
423.398	91
423.621	95
423.843	107
424.066	91
424.288	96
424.511	88
424.733	83
424.956	102
425.178	85
425.401	105
425.623	97
425.846	73
426.068	102
426.291	104
426.513	97
426.735	95
426.958	92
427.18	112
427.402	124
427.625	149
427.847	135
428.069	119
428.292	88
428.514	78
428.736	83
428.958	87
429.181	89
429.403	89
429.625	85
429.847	90
430.069	96
430.292	96
430.514	93
430.736	83
430.958	97
431.18	96
431.402	86
431.624	80
431.846	77
432.068	81
432.29	89
432.512	91
432.734	88
432.956	101
433.178	94
433.4	107
433.622	87
433.844	104
434.066	83
434.287	95
434.509	99
434.731	99
434.953	89
435.175	95
435.397	101
435.618	103
435.84	112
436.062	119
436.284	102
436.505	102
436.727	101
436.949	102
437.17	90
437.392	87
437.614	98
437.835	108
438.057	102
438.278	115
438.5	94
438.721	111
438.943	112
439.165	96
439.386	86
439.608	88
439.829	91
440.05	113
440.272	120
440.493	113
440.715	93
440.936	78
441.158	102
441.379	90
441.6	92
441.822	90
442.043	95
442.264	101
442.486	113
442.707	107
442.928	115
443.149	136
443.371	127
443.592	111
443.813	104
444.034	85
444.255	103
444.476	94
444.698	94
444.919	90
445.14	144
445.361	115
445.582	121
445.803	134
446.024	135
446.245	128
446.466	106
446.687	90
446.908	97
447.129	94
447.35	88
447.571	93
447.792	102
448.013	102
448.234	110
448.455	95
448.675	102
448.896	110
449.117	107
449.338	104
449.559	130
449.779	127
450	94
450.221	103
450.442	87
450.662	105
450.883	100
451.104	105
451.324	84
451.545	87
451.766	80
451.986	97
452.207	91
452.428	100
452.648	108
452.869	104
453.089	107
453.31	108
453.53	87
453.751	95
453.971	106
454.192	111
454.412	97
454.633	93
454.853	64
455.073	89
455.294	85
455.514	104
455.734	91
455.955	96
456.175	93
456.395	94
456.616	80
456.836	77
457.056	81
457.276	79
457.497	91
457.717	96
457.937	106
458.157	97
458.377	97
458.598	99
458.818	123
459.038	133
459.258	96
459.478	98
459.698	102
459.918	84
460.138	104
460.358	95
460.578	97
460.798	85
461.018	86
461.238	72
461.458	88
461.678	90
461.898	83
462.118	87
462.338	89
462.558	97
462.777	88
462.997	75
463.217	95
463.437	95
463.657	101
463.876	78
464.096	99
464.316	94
464.536	96
464.755	94
464.975	112
465.195	147
465.414	154
465.634	100
465.854	87
466.073	90
466.293	85
466.512	90
466.732	83
466.951	95
467.171	94
467.391	108
467.61	99
467.829	85
468.049	102
468.268	106
468.488	94
468.707	85
468.927	89
469.146	99
469.365	81
469.585	97
469.804	91
470.023	92
470.243	95
470.462	99
470.681	110
470.901	104
471.12	104
471.339	107
471.558	90
471.777	103
471.997	111
472.216	119
472.435	134
472.654	98
472.873	104
473.092	93
473.311	88
473.53	87
473.749	98
473.968	97
474.187	99
474.406	95
474.625	98
474.844	88
475.063	88
475.282	78
475.501	93
475.72	94
475.939	79
476.158	103
476.377	86
476.596	101
476.814	87
477.033	104
477.252	86
477.471	93
477.69	100
477.908	80
478.127	87
478.346	85
478.564	93
478.783	94
479.002	97
479.22	71
479.439	102
479.658	121
479.876	101
480.095	105
480.313	84
480.532	89
480.751	106
480.969	119
481.188	206
481.406	148
481.624	111
481.843	88
482.061	85
482.28	99
482.498	92
482.717	75
482.935	96
483.153	90
483.372	81
483.59	100
483.808	76
484.027	91
484.245	89
484.463	90
484.681	95
484.9	100
485.118	92
485.336	98
485.554	103
485.772	95
485.99	95
486.209	112
486.427	118
486.645	97
486.863	109
487.081	111
487.299	89
487.517	109
487.735	110
487.953	96
488.171	95
488.389	102
488.607	108
488.825	98
489.043	99
489.261	99
489.479	86
489.696	83
489.914	80
490.132	87
490.35	95
490.568	78
490.786	87
491.003	92
491.221	83
491.439	101
491.657	77
491.874	87
492.092	102
492.31	96
492.527	91
492.745	103
492.963	83
493.18	94
493.398	101
493.615	107
493.833	85
494.05	85
494.268	85
494.485	84
494.703	86
494.92	94
495.138	95
495.355	100
495.573	93
495.79	101
496.008	88
496.225	104
496.442	92
496.66	100
496.877	95
497.094	100
497.312	101
497.529	90
497.746	89
497.963	97
498.181	91
498.398	103
498.615	102
498.832	93
499.049	85
499.267	97
499.484	88
499.701	83
499.918	76
500.135	93
500.352	96
500.569	79
500.786	105
501.003	97
501.22	81
501.437	76
501.654	96
501.871	106
502.088	105
502.305	94
502.522	99
502.739	88
502.956	93
503.172	96
503.389	93
503.606	107
503.823	106
504.04	93
504.256	89
504.473	89
504.69	87
504.907	104
505.123	103
505.34	98
505.557	103
505.773	97
505.99	105
506.207	105
506.423	95
506.64	99
506.856	91
507.073	91
507.289	97
507.506	90
507.722	107
507.939	110
508.155	107
508.372	87
508.588	95
508.805	108
509.021	100
509.238	112
509.454	100
509.67	105
509.887	114
510.103	121
510.319	193
510.536	653
510.752	1929
510.968	517
511.184	149
511.401	101
511.617	106
511.833	107
512.049	96
512.265	83
512.481	87
512.698	87
512.914	85
513.13	109
513.346	98
513.562	95
513.778	100
513.994	105
514.21	108
514.426	112
514.642	120
514.858	133
515.074	146
515.29	382
515.506	1132
515.721	414
515.937	132
516.153	107
516.369	94
516.585	87
516.801	92
517.016	87
517.232	81
517.448	89
517.664	103
517.879	89
518.095	92
518.311	92
518.527	93
518.742	100
518.958	97
519.173	94
519.389	99
519.605	89
519.82	88
520.036	103
520.251	124
520.467	108
520.682	108
520.898	104
521.113	102
521.329	134
521.544	183
521.76	460
521.975	1862
522.19	1127
522.406	245
522.621	111
522.836	106
523.052	96
523.267	100
523.482	106
523.698	101
523.913	120
524.128	101
524.343	111
524.559	87
524.774	90
524.989	86
525.204	99
525.419	92
525.634	95
525.849	96
526.064	89
526.28	92
526.495	87
526.71	99
526.925	98
527.14	95
527.355	85
527.57	101
527.785	77
527.999	99
528.214	93
528.429	87
528.644	91
528.859	102
529.074	99
529.289	112
529.503	157
529.718	110
529.933	95
530.148	99
530.363	89
530.577	102
530.792	92
531.007	80
531.221	104
531.436	102
531.651	102
531.865	95
532.08	102
532.295	80
532.509	97
532.724	75
532.938	107
533.153	119
533.367	104
533.582	95
533.796	91
534.011	95
534.225	96
534.44	89
534.654	88
534.868	93
535.083	87
535.297	97
535.511	104
535.726	116
535.94	102
536.154	96
536.369	100
536.583	89
536.797	87
537.011	93
537.225	90
537.44	96
537.654	101
537.868	104
538.082	94
538.296	89
538.51	92
538.724	95
538.938	86
539.153	94
539.367	95
539.581	83
539.795	97
540.009	100
540.222	92
540.436	100
540.65	99
540.864	100
541.078	106
541.292	103
541.506	96
541.72	95
541.934	99
542.147	91
542.361	101
542.575	108
542.789	106
543.002	87
543.216	109
543.43	86
543.644	102
543.857	87
544.071	90
544.285	93
544.498	104
544.712	76
544.925	95
545.139	83
545.352	90
545.566	93
545.779	88
545.993	103
546.206	99
546.42	102
546.633	102
546.847	86
547.06	101
547.274	92
547.487	99
547.7	92
547.914	96
548.127	91
548.34	94
548.554	85
548.767	83
548.98	87
549.193	110
549.407	101
549.62	93
549.833	101
550.046	92
550.259	108
550.473	97
550.686	100
550.899	85
551.112	103
551.325	107
551.538	88
551.751	99
551.964	100
552.177	111
552.39	99
552.603	93
552.816	89
553.029	102
553.242	86
553.455	110
553.667	105
553.88	86
554.093	91
554.306	88
554.519	104
554.732	80
554.944	85
555.157	95
555.37	108
555.583	110
555.795	100
556.008	80
556.221	91
556.433	85
556.646	94
556.859	100
557.071	95
557.284	97
557.496	90
557.709	112
557.921	105
558.134	92
558.346	80
558.559	89
558.771	104
558.984	100
559.196	97
559.409	99
559.621	100
559.833	90
560.046	99
560.258	90
560.47	74
560.683	91
560.895	96
561.107	84
561.32	87
561.532	85
561.744	92
561.956	97
562.168	88
562.381	108
562.593	97
562.805	87
563.017	105
563.229	95
563.441	88
563.653	78
563.865	95
564.077	81
564.289	89
564.501	85
564.713	97
564.925	102
565.137	104
565.349	93
565.561	81
565.773	118
565.985	102
566.197	92
566.408	86
566.62	87
566.832	81
567.044	96
567.255	88
567.467	92
567.679	88
567.891	83
568.102	89
568.314	97
568.526	87
568.737	106
568.949	89
569.161	93
569.372	91
569.584	95
569.795	104
570.007	106
570.218	215
570.43	132
570.641	93
570.853	89
571.064	98
571.276	96
571.487	91
571.698	89
571.91	92
572.121	89
572.333	75
572.544	89
572.755	105
572.966	100
573.178	92
573.389	78
573.6	87
573.811	96
574.023	112
574.234	101
574.445	89
574.656	91
574.867	101
575.078	88
575.289	75
575.501	85
575.712	94
575.923	91
576.134	100
576.345	83
576.556	99
576.767	97
576.978	101
577.188	83
577.399	89
577.61	107
577.821	104
578.032	104
578.243	260
578.454	629
578.665	193
578.875	96
579.086	94
579.297	82
579.508	87
579.718	94
579.929	88
580.14	76
580.35	104
580.561	79
580.772	87
580.982	100
581.193	82
581.403	94
581.614	89
