Data from Uncirc_1982_H10_HRD10591_00056.txt Node
Date: Wed Jan 03 12:29:36 EST 2024
User: Yrep
Spectrometer: HR+D1059
Trigger mode: 1
Integration Time (sec): 1.000000E-1
Scans to average: 1
Electric dark correction enabled: true
Nonlinearity correction enabled: false
Boxcar width: 0
XAxis mode: Wavelengths
Number of Pixels in Spectrum: 2048
>>>>>Begin Spectral Data<<<<<
223.165	-35.12
223.4	-35.12
223.635	-35.12
223.869	-19.12
224.104	-26.12
224.338	-19.12
224.573	-5.12
224.808	-14.12
225.042	-5.12
225.277	-7.12
225.511	9.88
225.746	-0.12
225.98	14.88
226.215	11.88
226.449	2.88
226.683	21.88
226.918	30.88
227.152	38.88
227.387	46.88
227.621	33.88
227.856	32.88
228.09	44.88
228.324	43.88
228.559	58.88
228.793	55.88
229.027	60.88
229.262	69.88
229.496	80.88
229.73	78.88
229.964	72.88
230.199	65.88
230.433	78.88
230.667	77.88
230.901	65.88
231.136	80.88
231.37	82.88
231.604	81.88
231.838	86.88
232.072	66.88
232.306	76.88
232.541	75.88
232.775	81.88
233.009	80.88
233.243	83.88
233.477	75.88
233.711	73.88
233.945	77.88
234.179	90.88
234.413	82.88
234.647	77.88
234.881	69.88
235.115	80.88
235.349	84.88
235.583	67.88
235.817	60.88
236.051	74.88
236.285	76.88
236.519	70.88
236.753	75.88
236.987	84.88
237.221	90.88
237.455	69.88
237.689	78.88
237.922	70.88
238.156	77.88
238.39	82.88
238.624	76.88
238.858	76.88
239.091	79.88
239.325	80.88
239.559	88.88
239.793	71.88
240.027	85.88
240.26	83.88
240.494	87.88
240.728	62.88
240.961	66.88
241.195	91.88
241.429	66.88
241.662	74.88
241.896	84.88
242.13	74.88
242.363	76.88
242.597	70.88
242.83	69.88
243.064	69.88
243.298	82.88
243.531	75.88
243.765	89.88
243.998	82.88
244.232	78.88
244.465	75.88
244.699	75.88
244.932	65.88
245.166	98.88
245.399	84.88
245.633	92.88
245.866	86.88
246.099	78.88
246.333	89.88
246.566	84.88
246.8	97.88
247.033	85.88
247.266	76.88
247.5	70.88
247.733	83.88
247.966	75.88
248.2	76.88
248.433	71.88
248.666	83.88
248.899	80.88
249.133	75.88
249.366	83.88
249.599	92.88
249.832	84.88
250.066	77.88
250.299	64.88
250.532	78.88
250.765	75.88
250.998	85.88
251.231	80.88
251.465	91.88
251.698	83.88
251.931	68.88
252.164	90.88
252.397	80.88
252.63	73.88
252.863	85.88
253.096	83.88
253.329	85.88
253.562	70.88
253.795	81.88
254.028	86.88
254.261	70.88
254.494	70.88
254.727	72.88
254.96	75.88
255.193	83.88
255.426	84.88
255.659	74.88
255.892	66.88
256.124	67.88
256.357	82.88
256.59	75.88
256.823	68.88
257.056	75.88
257.289	92.88
257.521	72.88
257.754	77.88
257.987	74.88
258.22	81.88
258.452	74.88
258.685	82.88
258.918	74.88
259.151	78.88
259.383	88.88
259.616	85.88
259.849	86.88
260.081	77.88
260.314	85.88
260.547	77.88
260.779	91.88
261.012	94.88
261.244	83.88
261.477	88.88
261.71	92.88
261.942	102.88
262.175	99.88
262.407	87.88
262.64	82.88
262.872	105.88
263.105	86.88
263.337	80.88
263.57	73.88
263.802	80.88
264.035	75.88
264.267	88.88
264.499	90.88
264.732	83.88
264.964	82.88
265.197	89.88
265.429	93.88
265.661	80.88
265.894	73.88
266.126	80.88
266.358	94.88
266.591	76.88
266.823	78.88
267.055	88.88
267.287	75.88
267.52	79.88
267.752	73.88
267.984	93.88
268.216	77.88
268.448	89.88
268.681	84.88
268.913	86.88
269.145	76.88
269.377	92.88
269.609	70.88
269.841	88.88
270.073	77.88
270.306	88.88
270.538	90.88
270.77	92.88
271.002	82.88
271.234	96.88
271.466	98.88
271.698	92.88
271.93	90.88
272.162	91.88
272.394	90.88
272.626	100.88
272.858	92.88
273.09	73.88
273.322	76.88
273.553	87.88
273.785	95.88
274.017	84.88
274.249	92.88
274.481	83.88
274.713	76.88
274.945	79.88
275.176	91.88
275.408	94.88
275.64	78.88
275.872	88.88
276.104	86.88
276.335	96.88
276.567	92.88
276.799	98.88
277.031	106.88
277.262	83.88
277.494	93.88
277.726	74.88
277.957	84.88
278.189	84.88
278.421	78.88
278.652	88.88
278.884	88.88
279.115	90.88
279.347	98.88
279.579	75.88
279.81	81.88
280.042	90.88
280.273	92.88
280.505	89.88
280.736	91.88
280.968	87.88
281.199	84.88
281.431	89.88
281.662	67.88
281.894	91.88
282.125	95.88
282.356	105.88
282.588	121.88
282.819	94.88
283.051	78.88
283.282	70.88
283.513	81.88
283.745	90.88
283.976	88.88
284.207	101.88
284.439	84.88
284.67	86.88
284.901	83.88
285.132	100.88
285.364	91.88
285.595	89.88
285.826	82.88
286.057	96.88
286.288	105.88
286.52	93.88
286.751	90.88
286.982	84.88
287.213	81.88
287.444	104.88
287.675	94.88
287.906	95.88
288.138	93.88
288.369	88.88
288.6	77.88
288.831	84.88
289.062	80.88
289.293	99.88
289.524	86.88
289.755	99.88
289.986	90.88
290.217	92.88
290.448	85.88
290.679	93.88
290.91	86.88
291.141	92.88
291.371	86.88
291.602	91.88
291.833	86.88
292.064	89.88
292.295	84.88
292.526	93.88
292.757	81.88
292.987	90.88
293.218	88.88
293.449	70.88
293.68	90.88
293.91	77.88
294.141	96.88
294.372	100.88
294.603	92.88
294.833	84.88
295.064	81.88
295.295	90.88
295.525	74.88
295.756	101.88
295.987	125.88
296.217	120.88
296.448	107.88
296.679	94.88
296.909	85.88
297.14	78.88
297.37	84.88
297.601	70.88
297.831	91.88
298.062	75.88
298.292	90.88
298.523	81.88
298.753	90.88
298.984	89.88
299.214	95.88
299.445	89.88
299.675	91.88
299.905	105.88
300.136	86.88
300.366	91.88
300.597	83.88
300.827	99.88
301.057	94.88
301.288	107.88
301.518	80.88
301.748	91.88
301.979	101.88
302.209	98.88
302.439	89.88
302.669	99.88
302.9	97.88
303.13	82.88
303.36	94.88
303.59	106.88
303.82	101.88
304.051	102.88
304.281	96.88
304.511	93.88
304.741	101.88
304.971	74.88
305.201	87.88
305.431	102.88
305.661	93.88
305.891	97.88
306.121	88.88
306.352	104.88
306.582	94.88
306.812	90.88
307.042	88.88
307.272	101.88
307.502	104.88
307.731	83.88
307.961	96.88
308.191	99.88
308.421	96.88
308.651	82.88
308.881	82.88
309.111	89.88
309.341	97.88
309.571	87.88
309.8	102.88
310.03	92.88
310.26	103.88
310.49	114.88
310.72	107.88
310.949	75.88
311.179	102.88
311.409	86.88
311.639	99.88
311.868	105.88
312.098	93.88
312.328	115.88
312.557	100.88
312.787	97.88
313.017	101.88
313.246	96.88
313.476	92.88
313.706	74.88
313.935	96.88
314.165	79.88
314.394	84.88
314.624	102.88
314.853	86.88
315.083	87.88
315.312	92.88
315.542	96.88
315.771	84.88
316.001	72.88
316.23	89.88
316.46	109.88
316.689	83.88
316.919	97.88
317.148	91.88
317.377	89.88
317.607	84.88
317.836	91.88
318.065	88.88
318.295	86.88
318.524	91.88
318.753	89.88
318.983	102.88
319.212	84.88
319.441	100.88
319.67	110.88
319.9	84.88
320.129	95.88
320.358	72.88
320.587	88.88
320.816	90.88
321.046	93.88
321.275	104.88
321.504	96.88
321.733	112.88
321.962	90.88
322.191	97.88
322.42	91.88
322.649	103.88
322.878	106.88
323.108	107.88
323.337	100.88
323.566	117.88
323.795	133.88
324.024	179.88
324.253	357.88
324.482	722.88
324.71	1489.88
324.939	1948.88
325.168	752.88
325.397	222.88
325.626	132.88
325.855	133.88
326.084	114.88
326.313	129.88
326.542	159.88
326.77	205.88
326.999	394.88
327.228	829.88
327.457	1502.88
327.686	1198.88
327.914	330.88
328.143	181.88
328.372	138.88
328.6	116.88
328.829	114.88
329.058	114.88
329.287	117.88
329.515	114.88
329.744	91.88
329.972	88.88
330.201	122.88
330.43	118.88
330.658	116.88
330.887	133.88
331.115	114.88
331.344	96.88
331.572	96.88
331.801	97.88
332.03	112.88
332.258	87.88
332.486	86.88
332.715	88.88
332.943	94.88
333.172	87.88
333.4	82.88
333.629	109.88
333.857	108.88
334.085	98.88
334.314	99.88
334.542	113.88
334.771	117.88
334.999	97.88
335.227	93.88
335.455	96.88
335.684	82.88
335.912	98.88
336.14	80.88
336.369	96.88
336.597	93.88
336.825	94.88
337.053	94.88
337.281	90.88
337.51	88.88
337.738	94.88
337.966	90.88
338.194	90.88
338.422	102.88
338.65	94.88
338.878	88.88
339.106	101.88
339.334	97.88
339.562	104.88
339.79	72.88
340.018	88.88
340.246	102.88
340.474	86.88
340.702	94.88
340.93	85.88
341.158	96.88
341.386	100.88
341.614	98.88
341.842	94.88
342.07	85.88
342.298	90.88
342.526	94.88
342.754	86.88
342.981	92.88
343.209	94.88
343.437	105.88
343.665	97.88
343.893	82.88
344.12	104.88
344.348	96.88
344.576	99.88
344.804	97.88
345.031	100.88
345.259	97.88
345.487	94.88
345.714	86.88
345.942	89.88
346.17	93.88
346.397	84.88
346.625	103.88
346.853	84.88
347.08	92.88
347.308	84.88
347.535	90.88
347.763	107.88
347.99	94.88
348.218	84.88
348.445	88.88
348.673	92.88
348.9	93.88
349.128	87.88
349.355	96.88
349.583	93.88
349.81	69.88
350.037	96.88
350.265	102.88
350.492	88.88
350.72	107.88
350.947	98.88
351.174	106.88
351.402	97.88
351.629	97.88
351.856	107.88
352.083	110.88
352.311	101.88
352.538	114.88
352.765	102.88
352.992	113.88
353.22	89.88
353.447	98.88
353.674	106.88
353.901	105.88
354.128	98.88
354.355	98.88
354.583	100.88
354.81	103.88
355.037	100.88
355.264	101.88
355.491	103.88
355.718	100.88
355.945	92.88
356.172	100.88
356.399	113.88
356.626	84.88
356.853	91.88
357.08	89.88
357.307	90.88
357.534	104.88
357.761	100.88
357.988	94.88
358.215	98.88
358.441	92.88
358.668	76.88
358.895	84.88
359.122	80.88
359.349	99.88
359.576	93.88
359.802	85.88
360.029	89.88
360.256	93.88
360.483	96.88
360.709	98.88
360.936	103.88
361.163	86.88
361.39	87.88
361.616	92.88
361.843	92.88
362.07	92.88
362.296	100.88
362.523	83.88
362.749	95.88
362.976	104.88
363.203	89.88
363.429	82.88
363.656	96.88
363.882	93.88
364.109	92.88
364.335	106.88
364.562	87.88
364.788	73.88
365.015	102.88
365.241	107.88
365.468	107.88
365.694	65.88
365.92	86.88
366.147	88.88
366.373	92.88
366.599	86.88
366.826	108.88
367.052	85.88
367.278	82.88
367.505	89.88
367.731	91.88
367.957	89.88
368.184	88.88
368.41	97.88
368.636	108.88
368.862	117.88
369.089	118.88
369.315	101.88
369.541	90.88
369.767	94.88
369.993	101.88
370.219	65.88
370.445	87.88
370.672	91.88
370.898	102.88
371.124	76.88
371.35	98.88
371.576	86.88
371.802	88.88
372.028	91.88
372.254	74.88
372.48	92.88
372.706	91.88
372.932	90.88
373.158	98.88
373.384	100.88
373.61	95.88
373.835	78.88
374.061	84.88
374.287	70.88
374.513	88.88
374.739	91.88
374.965	86.88
375.191	72.88
375.416	108.88
375.642	88.88
375.868	106.88
376.094	79.88
376.319	77.88
376.545	104.88
376.771	87.88
376.997	81.88
377.222	100.88
377.448	90.88
377.674	83.88
377.899	90.88
378.125	86.88
378.35	81.88
378.576	82.88
378.802	94.88
379.027	96.88
379.253	100.88
379.478	95.88
379.704	94.88
379.929	85.88
380.155	90.88
380.38	96.88
380.606	89.88
380.831	100.88
381.057	99.88
381.282	109.88
381.507	100.88
381.733	107.88
381.958	88.88
382.184	100.88
382.409	102.88
382.634	110.88
382.86	103.88
383.085	90.88
383.31	101.88
383.535	103.88
383.761	99.88
383.986	109.88
384.211	91.88
384.436	96.88
384.662	89.88
384.887	103.88
385.112	98.88
385.337	87.88
385.562	109.88
385.787	110.88
386.013	110.88
386.238	106.88
386.463	112.88
386.688	108.88
386.913	109.88
387.138	105.88
387.363	105.88
387.588	105.88
387.813	98.88
388.038	98.88
388.263	109.88
388.488	92.88
388.713	92.88
388.938	104.88
389.163	97.88
389.387	89.88
389.612	93.88
389.837	94.88
390.062	109.88
390.287	100.88
390.512	87.88
390.736	93.88
390.961	103.88
391.186	86.88
391.411	87.88
391.636	106.88
391.86	97.88
392.085	82.88
392.31	76.88
392.534	96.88
392.759	82.88
392.984	92.88
393.208	99.88
393.433	94.88
393.658	90.88
393.882	92.88
394.107	77.88
394.331	88.88
394.556	91.88
394.78	87.88
395.005	93.88
395.229	88.88
395.454	103.88
395.678	86.88
395.903	90.88
396.127	80.88
396.352	74.88
396.576	82.88
396.801	75.88
397.025	96.88
397.249	94.88
397.474	88.88
397.698	80.88
397.922	94.88
398.147	76.88
398.371	75.88
398.595	94.88
398.82	90.88
399.044	86.88
399.268	85.88
399.492	77.88
399.717	76.88
399.941	99.88
400.165	97.88
400.389	80.88
400.613	96.88
400.837	97.88
401.062	81.88
401.286	81.88
401.51	92.88
401.734	97.88
401.958	89.88
402.182	127.88
402.406	144.88
402.63	114.88
402.854	76.88
403.078	94.88
403.302	87.88
403.526	80.88
403.75	82.88
403.974	93.88
404.198	84.88
404.422	88.88
404.645	89.88
404.869	83.88
405.093	97.88
405.317	98.88
405.541	102.88
405.765	77.88
405.988	108.88
406.212	149.88
406.436	167.88
406.66	131.88
406.883	106.88
407.107	99.88
407.331	84.88
407.555	97.88
407.778	88.88
408.002	76.88
408.226	65.88
408.449	90.88
408.673	80.88
408.896	88.88
409.12	94.88
409.344	93.88
409.567	82.88
409.791	89.88
410.014	91.88
410.238	91.88
410.461	93.88
410.685	97.88
410.908	93.88
411.132	100.88
411.355	84.88
411.578	94.88
411.802	77.88
412.025	81.88
412.249	84.88
412.472	92.88
412.695	89.88
412.919	96.88
413.142	83.88
413.365	83.88
413.589	87.88
413.812	90.88
414.035	88.88
414.258	80.88
414.482	88.88
414.705	91.88
414.928	77.88
415.151	82.88
415.374	99.88
415.597	94.88
415.821	96.88
416.044	90.88
416.267	110.88
416.49	83.88
416.713	89.88
416.936	87.88
417.159	83.88
417.382	95.88
417.605	87.88
417.828	99.88
418.051	86.88
418.274	90.88
418.497	90.88
418.72	81.88
418.943	91.88
419.166	73.88
419.389	91.88
419.611	104.88
419.834	98.88
420.057	91.88
420.28	78.88
420.503	82.88
420.726	93.88
420.948	74.88
421.171	93.88
421.394	78.88
421.617	86.88
421.839	85.88
422.062	81.88
422.285	92.88
422.507	105.88
422.73	109.88
422.953	84.88
423.175	83.88
423.398	92.88
423.621	92.88
423.843	76.88
424.066	76.88
424.288	102.88
424.511	96.88
424.733	80.88
424.956	92.88
425.178	98.88
425.401	98.88
425.623	87.88
425.846	97.88
426.068	104.88
426.291	88.88
426.513	99.88
426.735	94.88
426.958	105.88
427.18	116.88
427.402	126.88
427.625	139.88
427.847	110.88
428.069	104.88
428.292	92.88
428.514	102.88
428.736	93.88
428.958	81.88
429.181	82.88
429.403	80.88
429.625	91.88
429.847	94.88
430.069	96.88
430.292	95.88
430.514	77.88
430.736	81.88
430.958	74.88
431.18	82.88
431.402	78.88
431.624	84.88
431.846	88.88
432.068	100.88
432.29	92.88
432.512	94.88
432.734	86.88
432.956	83.88
433.178	96.88
433.4	100.88
433.622	86.88
433.844	81.88
434.066	89.88
434.287	84.88
434.509	79.88
434.731	89.88
434.953	102.88
435.175	86.88
435.397	81.88
435.618	93.88
435.84	107.88
436.062	118.88
436.284	102.88
436.505	106.88
436.727	97.88
436.949	97.88
437.17	93.88
437.392	76.88
437.614	85.88
437.835	94.88
438.057	115.88
438.278	100.88
438.5	97.88
438.721	113.88
438.943	113.88
439.165	107.88
439.386	72.88
439.608	84.88
439.829	86.88
440.05	100.88
440.272	105.88
440.493	97.88
440.715	75.88
440.936	70.88
441.158	93.88
441.379	90.88
441.6	87.88
441.822	94.88
442.043	91.88
442.264	101.88
442.486	89.88
442.707	102.88
442.928	82.88
443.149	114.88
443.371	106.88
443.592	100.88
443.813	89.88
444.034	91.88
444.255	97.88
444.476	80.88
444.698	80.88
444.919	104.88
445.14	140.88
445.361	121.88
445.582	107.88
445.803	123.88
446.024	110.88
446.245	123.88
446.466	100.88
446.687	90.88
446.908	81.88
447.129	86.88
447.35	73.88
447.571	85.88
447.792	98.88
448.013	106.88
448.234	99.88
448.455	99.88
448.675	85.88
448.896	100.88
449.117	89.88
449.338	93.88
449.559	106.88
449.779	123.88
450	109.88
450.221	86.88
450.442	98.88
450.662	96.88
450.883	109.88
451.104	101.88
451.324	88.88
451.545	91.88
451.766	84.88
451.986	92.88
452.207	85.88
452.428	87.88
452.648	85.88
452.869	92.88
453.089	109.88
453.31	101.88
453.53	84.88
453.751	76.88
453.971	103.88
454.192	93.88
454.412	91.88
454.633	92.88
454.853	85.88
455.073	91.88
455.294	93.88
455.514	94.88
455.734	76.88
455.955	91.88
456.175	87.88
456.395	82.88
456.616	85.88
456.836	93.88
457.056	89.88
457.276	88.88
457.497	64.88
457.717	92.88
457.937	104.88
458.157	96.88
458.377	86.88
458.598	92.88
458.818	129.88
459.038	126.88
459.258	105.88
459.478	86.88
459.698	77.88
459.918	64.88
460.138	74.88
460.358	67.88
460.578	89.88
460.798	88.88
461.018	85.88
461.238	90.88
461.458	88.88
461.678	88.88
461.898	98.88
462.118	82.88
462.338	82.88
462.558	75.88
462.777	66.88
462.997	84.88
463.217	96.88
463.437	70.88
463.657	88.88
463.876	87.88
464.096	90.88
464.316	82.88
464.536	87.88
464.755	85.88
464.975	86.88
465.195	140.88
465.414	140.88
465.634	98.88
465.854	95.88
466.073	94.88
466.293	94.88
466.512	69.88
466.732	82.88
466.951	85.88
467.171	91.88
467.391	77.88
467.61	100.88
467.829	91.88
468.049	94.88
468.268	102.88
468.488	89.88
468.707	86.88
468.927	82.88
469.146	79.88
469.365	88.88
469.585	84.88
469.804	93.88
470.023	81.88
470.243	88.88
470.462	99.88
470.681	96.88
470.901	91.88
471.12	80.88
471.339	73.88
471.558	105.88
471.777	93.88
471.997	81.88
472.216	107.88
472.435	129.88
472.654	103.88
472.873	91.88
473.092	78.88
473.311	82.88
473.53	88.88
473.749	90.88
473.968	84.88
474.187	89.88
474.406	84.88
474.625	96.88
474.844	93.88
475.063	88.88
475.282	77.88
475.501	80.88
475.72	81.88
475.939	76.88
476.158	75.88
476.377	89.88
476.596	94.88
476.814	93.88
477.033	93.88
477.252	86.88
477.471	75.88
477.69	91.88
477.908	88.88
478.127	90.88
478.346	84.88
478.564	79.88
478.783	96.88
479.002	93.88
479.22	96.88
479.439	92.88
479.658	96.88
479.876	86.88
480.095	99.88
480.313	89.88
480.532	80.88
480.751	84.88
480.969	106.88
481.188	165.88
481.406	134.88
481.624	97.88
481.843	88.88
482.061	82.88
482.28	93.88
482.498	80.88
482.717	86.88
482.935	90.88
483.153	87.88
483.372	100.88
483.59	94.88
483.808	90.88
484.027	85.88
484.245	83.88
484.463	87.88
484.681	100.88
484.9	109.88
485.118	97.88
485.336	95.88
485.554	97.88
485.772	99.88
485.99	97.88
486.209	88.88
486.427	101.88
486.645	106.88
486.863	119.88
487.081	104.88
487.299	96.88
487.517	94.88
487.735	80.88
487.953	87.88
488.171	104.88
488.389	75.88
488.607	92.88
488.825	77.88
489.043	87.88
489.261	93.88
489.479	84.88
489.696	93.88
489.914	96.88
490.132	84.88
490.35	87.88
490.568	103.88
490.786	103.88
491.003	99.88
491.221	88.88
491.439	101.88
491.657	103.88
491.874	85.88
492.092	88.88
492.31	86.88
492.527	94.88
492.745	71.88
492.963	95.88
493.18	78.88
493.398	104.88
493.615	104.88
493.833	101.88
494.05	88.88
494.268	88.88
494.485	78.88
494.703	96.88
494.92	87.88
495.138	73.88
495.355	78.88
495.573	100.88
495.79	97.88
496.008	95.88
496.225	92.88
496.442	91.88
496.66	88.88
496.877	97.88
497.094	102.88
497.312	84.88
497.529	92.88
497.746	100.88
497.963	86.88
498.181	82.88
498.398	89.88
498.615	105.88
498.832	98.88
499.049	86.88
499.267	75.88
499.484	105.88
499.701	86.88
499.918	75.88
500.135	96.88
500.352	86.88
500.569	83.88
500.786	92.88
501.003	84.88
501.22	86.88
501.437	94.88
501.654	96.88
501.871	97.88
502.088	99.88
502.305	89.88
502.522	93.88
502.739	92.88
502.956	99.88
503.172	96.88
503.389	99.88
503.606	102.88
503.823	94.88
504.04	88.88
504.256	86.88
504.473	91.88
504.69	88.88
504.907	102.88
505.123	75.88
505.34	91.88
505.557	92.88
505.773	88.88
505.99	86.88
506.207	96.88
506.423	89.88
506.64	90.88
506.856	95.88
507.073	67.88
507.289	84.88
507.506	87.88
507.722	94.88
507.939	89.88
508.155	100.88
508.372	88.88
508.588	92.88
508.805	100.88
509.021	106.88
509.238	109.88
509.454	94.88
509.67	96.88
509.887	98.88
510.103	130.88
510.319	212.88
510.536	683.88
510.752	2014.88
510.968	562.88
511.184	141.88
511.401	100.88
511.617	100.88
511.833	88.88
512.049	99.88
512.265	90.88
512.481	99.88
512.698	86.88
512.914	85.88
513.13	88.88
513.346	96.88
513.562	87.88
513.778	97.88
513.994	94.88
514.21	99.88
514.426	116.88
514.642	117.88
514.858	125.88
515.074	146.88
515.29	381.88
515.506	1122.88
515.721	430.88
515.937	140.88
516.153	114.88
