Data from Uncirc_1982_H10_HRD10591_00084.txt Node
Date: Wed Jan 03 12:29:41 EST 2024
User: Yrep
Spectrometer: HR+D1059
Trigger mode: 1
Integration Time (sec): 1.000000E-1
Scans to average: 1
Electric dark correction enabled: true
Nonlinearity correction enabled: false
Boxcar width: 0
XAxis mode: Wavelengths
Number of Pixels in Spectrum: 2048
>>>>>Begin Spectral Data<<<<<
223.165	-11.31
223.4	-11.31
223.635	-11.31
223.869	-18.31
224.104	-19.31
224.338	-17.31
224.573	-19.31
224.808	2.69
225.042	1.69
225.277	-5.31
225.511	-15.31
225.746	-3.31
225.98	-6.31
226.215	1.69
226.449	21.69
226.683	20.69
226.918	32.69
227.152	34.69
227.387	41.69
227.621	26.69
227.856	38.69
228.09	48.69
228.324	51.69
228.559	55.69
228.793	47.69
229.027	63.69
229.262	61.69
229.496	74.69
229.73	62.69
229.964	70.69
230.199	75.69
230.433	67.69
230.667	80.69
230.901	60.69
231.136	61.69
231.37	79.69
231.604	82.69
231.838	92.69
232.072	73.69
232.306	75.69
232.541	63.69
232.775	76.69
233.009	89.69
233.243	87.69
233.477	93.69
233.711	80.69
233.945	73.69
234.179	66.69
234.413	68.69
234.647	73.69
234.881	79.69
235.115	75.69
235.349	83.69
235.583	82.69
235.817	65.69
236.051	72.69
236.285	78.69
236.519	80.69
236.753	73.69
236.987	84.69
237.221	82.69
237.455	75.69
237.689	78.69
237.922	86.69
238.156	70.69
238.39	62.69
238.624	74.69
238.858	76.69
239.091	72.69
239.325	80.69
239.559	54.69
239.793	66.69
240.027	72.69
240.26	77.69
240.494	68.69
240.728	70.69
240.961	67.69
241.195	67.69
241.429	82.69
241.662	73.69
241.896	69.69
242.13	72.69
242.363	79.69
242.597	78.69
242.83	62.69
243.064	78.69
243.298	63.69
243.531	81.69
243.765	69.69
243.998	86.69
244.232	95.69
244.465	86.69
244.699	78.69
244.932	79.69
245.166	82.69
245.399	73.69
245.633	58.69
245.866	83.69
246.099	73.69
246.333	67.69
246.566	83.69
246.8	74.69
247.033	72.69
247.266	75.69
247.5	74.69
247.733	82.69
247.966	77.69
248.2	75.69
248.433	84.69
248.666	75.69
248.899	83.69
249.133	80.69
249.366	79.69
249.599	77.69
249.832	82.69
250.066	74.69
250.299	84.69
250.532	68.69
250.765	65.69
250.998	82.69
251.231	65.69
251.465	71.69
251.698	82.69
251.931	69.69
252.164	79.69
252.397	66.69
252.63	64.69
252.863	78.69
253.096	79.69
253.329	73.69
253.562	72.69
253.795	84.69
254.028	66.69
254.261	81.69
254.494	72.69
254.727	84.69
254.96	84.69
255.193	81.69
255.426	83.69
255.659	83.69
255.892	70.69
256.124	74.69
256.357	82.69
256.59	77.69
256.823	71.69
257.056	84.69
257.289	81.69
257.521	78.69
257.754	75.69
257.987	84.69
258.22	84.69
258.452	82.69
258.685	87.69
258.918	69.69
259.151	91.69
259.383	83.69
259.616	72.69
259.849	76.69
260.081	73.69
260.314	75.69
260.547	82.69
260.779	80.69
261.012	83.69
261.244	78.69
261.477	92.69
261.71	84.69
261.942	107.69
262.175	116.69
262.407	68.69
262.64	78.69
262.872	72.69
263.105	77.69
263.337	63.69
263.57	79.69
263.802	78.69
264.035	95.69
264.267	84.69
264.499	97.69
264.732	71.69
264.964	78.69
265.197	74.69
265.429	65.69
265.661	70.69
265.894	83.69
266.126	94.69
266.358	82.69
266.591	78.69
266.823	90.69
267.055	81.69
267.287	72.69
267.52	83.69
267.752	87.69
267.984	81.69
268.216	74.69
268.448	89.69
268.681	78.69
268.913	73.69
269.145	66.69
269.377	71.69
269.609	95.69
269.841	89.69
270.073	92.69
270.306	92.69
270.538	75.69
270.77	79.69
271.002	83.69
271.234	88.69
271.466	79.69
271.698	85.69
271.93	75.69
272.162	97.69
272.394	78.69
272.626	91.69
272.858	87.69
273.09	78.69
273.322	94.69
273.553	82.69
273.785	83.69
274.017	87.69
274.249	99.69
274.481	82.69
274.713	94.69
274.945	86.69
275.176	82.69
275.408	83.69
275.64	71.69
275.872	93.69
276.104	86.69
276.335	96.69
276.567	87.69
276.799	97.69
277.031	97.69
277.262	85.69
277.494	84.69
277.726	92.69
277.957	76.69
278.189	78.69
278.421	70.69
278.652	84.69
278.884	80.69
279.115	81.69
279.347	88.69
279.579	86.69
279.81	88.69
280.042	77.69
280.273	89.69
280.505	83.69
280.736	89.69
280.968	76.69
281.199	76.69
281.431	67.69
281.662	87.69
281.894	84.69
282.125	85.69
282.356	100.69
282.588	112.69
282.819	98.69
283.051	86.69
283.282	89.69
283.513	75.69
283.745	94.69
283.976	86.69
284.207	81.69
284.439	84.69
284.67	86.69
284.901	83.69
285.132	94.69
285.364	82.69
285.595	75.69
285.826	90.69
286.057	81.69
286.288	84.69
286.52	82.69
286.751	72.69
286.982	91.69
287.213	83.69
287.444	74.69
287.675	78.69
287.906	82.69
288.138	80.69
288.369	82.69
288.6	87.69
288.831	78.69
289.062	85.69
289.293	87.69
289.524	98.69
289.755	79.69
289.986	74.69
290.217	82.69
290.448	95.69
290.679	82.69
290.91	86.69
291.141	90.69
291.371	76.69
291.602	84.69
291.833	85.69
292.064	96.69
292.295	82.69
292.526	88.69
292.757	86.69
292.987	91.69
293.218	98.69
293.449	86.69
293.68	73.69
293.91	76.69
294.141	79.69
294.372	88.69
294.603	84.69
294.833	78.69
295.064	95.69
295.295	96.69
295.525	76.69
295.756	88.69
295.987	98.69
296.217	126.69
296.448	118.69
296.679	93.69
296.909	95.69
297.14	87.69
297.37	81.69
297.601	89.69
297.831	79.69
298.062	79.69
298.292	100.69
298.523	76.69
298.753	87.69
298.984	91.69
299.214	78.69
299.445	96.69
299.675	85.69
299.905	91.69
300.136	84.69
300.366	95.69
300.597	84.69
300.827	91.69
301.057	75.69
301.288	92.69
301.518	99.69
301.748	78.69
301.979	89.69
302.209	89.69
302.439	79.69
302.669	102.69
302.9	93.69
303.13	82.69
303.36	81.69
303.59	92.69
303.82	90.69
304.051	88.69
304.281	106.69
304.511	79.69
304.741	71.69
304.971	78.69
305.201	94.69
305.431	79.69
305.661	85.69
305.891	79.69
306.121	89.69
306.352	93.69
306.582	104.69
306.812	84.69
307.042	91.69
307.272	88.69
307.502	94.69
307.731	84.69
307.961	72.69
308.191	87.69
308.421	83.69
308.651	94.69
308.881	96.69
309.111	98.69
309.341	97.69
309.571	100.69
309.8	89.69
310.03	82.69
310.26	96.69
310.49	103.69
310.72	81.69
310.949	79.69
311.179	99.69
311.409	87.69
311.639	98.69
311.868	105.69
312.098	83.69
312.328	104.69
312.557	106.69
312.787	92.69
313.017	95.69
313.246	92.69
313.476	79.69
313.706	92.69
313.935	81.69
314.165	73.69
314.394	83.69
314.624	92.69
314.853	79.69
315.083	94.69
315.312	102.69
315.542	95.69
315.771	86.69
316.001	88.69
316.23	79.69
316.46	98.69
316.689	86.69
316.919	98.69
317.148	89.69
317.377	89.69
317.607	96.69
317.836	89.69
318.065	86.69
318.295	86.69
318.524	68.69
318.753	91.69
318.983	68.69
319.212	107.69
319.441	105.69
319.67	99.69
319.9	99.69
320.129	90.69
320.358	90.69
320.587	90.69
320.816	83.69
321.046	108.69
321.275	90.69
321.504	94.69
321.733	82.69
321.962	100.69
322.191	98.69
322.42	99.69
322.649	103.69
322.878	112.69
323.108	105.69
323.337	130.69
323.566	131.69
323.795	148.69
324.024	176.69
324.253	380.69
324.482	755.69
324.71	1562.69
324.939	2142.69
325.168	774.69
325.397	248.69
325.626	131.69
325.855	125.69
326.084	120.69
326.313	129.69
326.542	135.69
326.77	200.69
326.999	408.69
327.228	887.69
327.457	1674.69
327.686	1312.69
327.914	364.69
328.143	177.69
328.372	144.69
328.6	103.69
328.829	100.69
329.058	118.69
329.287	126.69
329.515	102.69
329.744	102.69
329.972	101.69
330.201	103.69
330.43	128.69
330.658	121.69
330.887	126.69
331.115	111.69
331.344	93.69
331.572	102.69
331.801	97.69
332.03	90.69
332.258	85.69
332.486	105.69
332.715	88.69
332.943	92.69
333.172	94.69
333.4	101.69
333.629	121.69
333.857	113.69
334.085	98.69
334.314	99.69
334.542	121.69
334.771	118.69
334.999	101.69
335.227	103.69
335.455	95.69
335.684	97.69
335.912	92.69
336.14	81.69
336.369	88.69
336.597	96.69
336.825	101.69
337.053	93.69
337.281	87.69
337.51	84.69
337.738	86.69
337.966	82.69
338.194	86.69
338.422	87.69
338.65	104.69
338.878	84.69
339.106	83.69
339.334	79.69
339.562	79.69
339.79	75.69
340.018	71.69
340.246	86.69
340.474	92.69
340.702	84.69
340.93	91.69
341.158	87.69
341.386	116.69
341.614	94.69
341.842	81.69
342.07	85.69
342.298	95.69
342.526	80.69
342.754	87.69
342.981	93.69
343.209	94.69
343.437	92.69
343.665	93.69
343.893	94.69
344.12	97.69
344.348	90.69
344.576	94.69
344.804	90.69
345.031	95.69
345.259	114.69
345.487	96.69
345.714	99.69
345.942	77.69
346.17	92.69
346.397	99.69
346.625	85.69
346.853	85.69
347.08	88.69
347.308	92.69
347.535	85.69
347.763	91.69
347.99	98.69
348.218	92.69
348.445	102.69
348.673	91.69
348.9	90.69
349.128	95.69
349.355	78.69
349.583	103.69
349.81	90.69
350.037	84.69
350.265	87.69
350.492	86.69
350.72	95.69
350.947	98.69
351.174	99.69
351.402	106.69
351.629	100.69
351.856	108.69
352.083	108.69
352.311	104.69
352.538	98.69
352.765	88.69
352.992	107.69
353.22	107.69
353.447	113.69
353.674	112.69
353.901	99.69
354.128	89.69
354.355	89.69
354.583	103.69
354.81	95.69
355.037	92.69
355.264	97.69
355.491	96.69
355.718	93.69
355.945	88.69
356.172	101.69
356.399	92.69
356.626	89.69
356.853	106.69
357.08	91.69
357.307	80.69
357.534	108.69
357.761	91.69
357.988	86.69
358.215	82.69
358.441	96.69
358.668	87.69
358.895	94.69
359.122	84.69
359.349	91.69
359.576	85.69
359.802	96.69
360.029	90.69
360.256	105.69
360.483	86.69
360.709	94.69
360.936	91.69
361.163	92.69
361.39	100.69
361.616	104.69
361.843	95.69
362.07	91.69
362.296	101.69
362.523	77.69
362.749	88.69
362.976	87.69
363.203	98.69
363.429	91.69
363.656	102.69
363.882	88.69
364.109	87.69
364.335	84.69
364.562	90.69
364.788	67.69
365.015	86.69
365.241	98.69
365.468	97.69
365.694	98.69
365.92	97.69
366.147	96.69
366.373	88.69
366.599	97.69
366.826	73.69
367.052	78.69
367.278	97.69
367.505	99.69
367.731	104.69
367.957	88.69
368.184	88.69
368.41	90.69
368.636	111.69
368.862	101.69
369.089	104.69
369.315	84.69
369.541	96.69
369.767	92.69
369.993	87.69
370.219	75.69
370.445	89.69
370.672	82.69
370.898	90.69
371.124	75.69
371.35	88.69
371.576	80.69
371.802	74.69
372.028	84.69
372.254	83.69
372.48	100.69
372.706	77.69
372.932	83.69
373.158	94.69
373.384	90.69
373.61	97.69
373.835	92.69
374.061	80.69
374.287	93.69
374.513	89.69
374.739	93.69
374.965	75.69
375.191	84.69
375.416	86.69
375.642	90.69
375.868	90.69
376.094	88.69
376.319	95.69
376.545	98.69
376.771	96.69
376.997	76.69
377.222	90.69
377.448	88.69
377.674	100.69
377.899	84.69
378.125	92.69
378.35	96.69
378.576	90.69
378.802	89.69
379.027	94.69
379.253	90.69
379.478	96.69
379.704	96.69
379.929	90.69
380.155	86.69
380.38	84.69
380.606	85.69
380.831	99.69
381.057	96.69
381.282	93.69
381.507	83.69
381.733	90.69
381.958	89.69
382.184	88.69
382.409	89.69
382.634	86.69
382.86	84.69
383.085	101.69
383.31	103.69
383.535	98.69
383.761	104.69
383.986	90.69
384.211	97.69
384.436	90.69
384.662	94.69
384.887	102.69
385.112	92.69
385.337	114.69
385.562	92.69
385.787	105.69
386.013	99.69
386.238	110.69
386.463	94.69
386.688	111.69
386.913	88.69
387.138	103.69
387.363	92.69
387.588	91.69
387.813	92.69
388.038	104.69
388.263	107.69
388.488	105.69
388.713	98.69
388.938	87.69
389.163	96.69
389.387	89.69
389.612	92.69
389.837	90.69
390.062	91.69
390.287	93.69
390.512	88.69
390.736	96.69
390.961	84.69
391.186	76.69
391.411	96.69
391.636	94.69
391.86	92.69
392.085	77.69
392.31	74.69
392.534	80.69
392.759	87.69
392.984	72.69
393.208	90.69
393.433	80.69
393.658	73.69
393.882	79.69
394.107	67.69
394.331	89.69
394.556	102.69
394.78	90.69
395.005	75.69
395.229	90.69
395.454	94.69
395.678	89.69
395.903	92.69
396.127	89.69
396.352	92.69
396.576	65.69
396.801	82.69
397.025	88.69
397.249	75.69
397.474	99.69
397.698	79.69
397.922	79.69
398.147	79.69
398.371	79.69
398.595	87.69
398.82	96.69
399.044	92.69
399.268	97.69
399.492	73.69
399.717	95.69
399.941	74.69
400.165	90.69
400.389	86.69
400.613	74.69
400.837	79.69
401.062	88.69
401.286	84.69
401.51	93.69
401.734	95.69
401.958	97.69
402.182	93.69
402.406	161.69
402.63	99.69
402.854	111.69
403.078	95.69
403.302	91.69
403.526	91.69
403.75	75.69
403.974	80.69
404.198	84.69
404.422	93.69
404.645	82.69
404.869	86.69
405.093	93.69
405.317	103.69
405.541	100.69
405.765	102.69
405.988	114.69
406.212	127.69
406.436	181.69
406.66	132.69
406.883	96.69
407.107	104.69
407.331	94.69
407.555	82.69
407.778	85.69
408.002	75.69
408.226	87.69
408.449	111.69
408.673	90.69
408.896	104.69
409.12	97.69
409.344	73.69
409.567	86.69
409.791	91.69
410.014	98.69
410.238	91.69
410.461	95.69
410.685	101.69
410.908	104.69
411.132	98.69
411.355	102.69
411.578	103.69
411.802	82.69
412.025	85.69
412.249	75.69
412.472	82.69
412.695	83.69
412.919	78.69
413.142	87.69
413.365	93.69
413.589	76.69
413.812	71.69
414.035	87.69
414.258	90.69
414.482	78.69
414.705	96.69
414.928	85.69
415.151	86.69
415.374	100.69
415.597	74.69
415.821	91.69
416.044	77.69
416.267	78.69
416.49	83.69
416.713	85.69
416.936	96.69
417.159	80.69
417.382	90.69
417.605	84.69
417.828	91.69
418.051	91.69
418.274	75.69
418.497	74.69
418.72	89.69
418.943	85.69
419.166	77.69
419.389	74.69
419.611	84.69
419.834	91.69
420.057	99.69
420.28	80.69
420.503	93.69
420.726	99.69
420.948	82.69
421.171	85.69
421.394	111.69
421.617	92.69
421.839	78.69
422.062	86.69
422.285	93.69
422.507	84.69
422.73	96.69
422.953	95.69
423.175	85.69
423.398	96.69
423.621	74.69
423.843	84.69
424.066	94.69
424.288	87.69
424.511	101.69
424.733	88.69
424.956	115.69
425.178	88.69
425.401	98.69
425.623	100.69
425.846	98.69
426.068	81.69
426.291	87.69
426.513	83.69
426.735	89.69
426.958	101.69
427.18	103.69
427.402	138.69
427.625	152.69
427.847	114.69
428.069	105.69
428.292	80.69
428.514	92.69
428.736	83.69
428.958	80.69
429.181	89.69
429.403	91.69
429.625	92.69
429.847	86.69
430.069	98.69
430.292	87.69
430.514	82.69
430.736	88.69
430.958	78.69
431.18	93.69
431.402	85.69
431.624	89.69
431.846	86.69
432.068	86.69
432.29	84.69
432.512	71.69
432.734	95.69
432.956	100.69
433.178	93.69
433.4	94.69
433.622	86.69
433.844	89.69
434.066	94.69
434.287	98.69
434.509	99.69
434.731	85.69
434.953	92.69
435.175	86.69
435.397	100.69
435.618	85.69
435.84	90.69
436.062	123.69
436.284	126.69
436.505	112.69
436.727	90.69
436.949	96.69
437.17	108.69
437.392	82.69
437.614	81.69
437.835	111.69
438.057	106.69
438.278	101.69
438.5	104.69
438.721	119.69
438.943	102.69
439.165	79.69
439.386	90.69
439.608	84.69
439.829	97.69
440.05	111.69
440.272	129.69
440.493	103.69
440.715	94.69
440.936	97.69
441.158	86.69
441.379	90.69
441.6	79.69
441.822	74.69
442.043	90.69
442.264	102.69
442.486	98.69
442.707	79.69
442.928	108.69
443.149	122.69
443.371	116.69
443.592	106.69
443.813	113.69
444.034	94.69
444.255	105.69
444.476	86.69
444.698	87.69
444.919	87.69
445.14	123.69
445.361	113.69
445.582	112.69
445.803	115.69
446.024	137.69
446.245	128.69
446.466	102.69
446.687	92.69
446.908	91.69
447.129	88.69
447.35	74.69
447.571	80.69
447.792	90.69
448.013	92.69
448.234	111.69
448.455	88.69
448.675	120.69
448.896	128.69
449.117	86.69
449.338	99.69
449.559	112.69
449.779	123.69
450	98.69
450.221	94.69
450.442	84.69
450.662	78.69
450.883	96.69
451.104	99.69
451.324	86.69
451.545	85.69
451.766	99.69
451.986	96.69
452.207	86.69
452.428	97.69
452.648	85.69
452.869	89.69
453.089	106.69
453.31	92.69
453.53	94.69
453.751	100.69
453.971	108.69
454.192	103.69
454.412	92.69
454.633	83.69
454.853	96.69
455.073	85.69
455.294	83.69
455.514	96.69
455.734	85.69
455.955	90.69
456.175	96.69
456.395	99.69
456.616	86.69
456.836	84.69
457.056	86.69
457.276	82.69
457.497	85.69
457.717	77.69
457.937	100.69
458.157	84.69
458.377	90.69
458.598	95.69
458.818	137.69
459.038	138.69
459.258	114.69
459.478	79.69
459.698	76.69
459.918	83.69
460.138	76.69
460.358	74.69
460.578	94.69
460.798	85.69
461.018	85.69
461.238	72.69
461.458	82.69
461.678	95.69
461.898	72.69
462.118	80.69
462.338	82.69
462.558	93.69
462.777	87.69
462.997	71.69
463.217	68.69
463.437	90.69
463.657	86.69
463.876	84.69
464.096	73.69
464.316	87.69
464.536	87.69
464.755	83.69
464.975	110.69
465.195	142.69
465.414	137.69
465.634	102.69
465.854	92.69
466.073	102.69
466.293	98.69
466.512	80.69
466.732	70.69
466.951	89.69
467.171	86.69
467.391	93.69
467.61	102.69
467.829	97.69
468.049	103.69
468.268	109.69
468.488	94.69
468.707	69.69
468.927	82.69
469.146	78.69
469.365	81.69
469.585	79.69
469.804	80.69
470.023	96.69
470.243	88.69
470.462	84.69
470.681	90.69
470.901	89.69
471.12	86.69
471.339	100.69
471.558	82.69
471.777	76.69
471.997	88.69
472.216	113.69
472.435	137.69
472.654	93.69
472.873	92.69
473.092	73.69
473.311	90.69
473.53	68.69
473.749	89.69
473.968	84.69
474.187	99.69
474.406	96.69
474.625	90.69
474.844	99.69
475.063	89.69
475.282	86.69
475.501	86.69
475.72	78.69
475.939	90.69
476.158	82.69
476.377	91.69
476.596	85.69
476.814	94.69
477.033	88.69
477.252	71.69
477.471	86.69
477.69	94.69
477.908	80.69
478.127	93.69
478.346	74.69
478.564	92.69
478.783	91.69
479.002	84.69
479.22	86.69
479.439	103.69
479.658	100.69
479.876	88.69
480.095	97.69
480.313	88.69
480.532	85.69
480.751	85.69
480.969	119.69
481.188	201.69
481.406	136.69
481.624	93.69
481.843	93.69
482.061	81.69
482.28	88.69
482.498	89.69
482.717	89.69
482.935	79.69
483.153	92.69
483.372	92.69
483.59	94.69
483.808	72.69
484.027	93.69
484.245	75.69
484.463	78.69
484.681	93.69
484.9	82.69
485.118	103.69
485.336	96.69
485.554	92.69
485.772	94.69
485.99	86.69
486.209	96.69
486.427	90.69
486.645	109.69
486.863	108.69
487.081	83.69
487.299	85.69
487.517	82.69
487.735	93.69
487.953	66.69
488.171	96.69
488.389	83.69
488.607	108.69
488.825	94.69
489.043	90.69
489.261	90.69
489.479	84.69
489.696	78.69
489.914	83.69
490.132	89.69
490.35	87.69
490.568	89.69
490.786	89.69
491.003	84.69
491.221	89.69
491.439	81.69
491.657	97.69
491.874	86.69
492.092	88.69
492.31	82.69
492.527	88.69
492.745	89.69
492.963	96.69
493.18	86.69
493.398	84.69
493.615	87.69
493.833	84.69
494.05	86.69
494.268	90.69
494.485	78.69
494.703	83.69
494.92	94.69
495.138	95.69
495.355	74.69
495.573	89.69
495.79	80.69
496.008	81.69
496.225	95.69
496.442	82.69
496.66	84.69
496.877	96.69
497.094	103.69
497.312	73.69
497.529	92.69
497.746	91.69
497.963	84.69
498.181	90.69
498.398	90.69
498.615	98.69
498.832	99.69
499.049	83.69
499.267	98.69
499.484	94.69
499.701	88.69
499.918	94.69
500.135	92.69
500.352	99.69
500.569	90.69
500.786	90.69
501.003	96.69
501.22	78.69
501.437	90.69
501.654	79.69
501.871	86.69
502.088	84.69
502.305	97.69
502.522	80.69
502.739	87.69
502.956	86.69
503.172	84.69
503.389	103.69
503.606	103.69
503.823	89.69
504.04	91.69
504.256	86.69
504.473	89.69
504.69	93.69
504.907	86.69
505.123	76.69
505.34	83.69
505.557	84.69
505.773	96.69
505.99	90.69
506.207	84.69
506.423	82.69
506.64	81.69
506.856	93.69
507.073	85.69
507.289	90.69
507.506	93.69
507.722	92.69
507.939	110.69
508.155	112.69
508.372	91.69
508.588	83.69
508.805	94.69
509.021	76.69
509.238	97.69
509.454	86.69
509.67	96.69
509.887	99.69
510.103	115.69
510.319	188.69
510.536	639.69
510.752	1984.69
510.968	548.69
511.184	134.69
511.401	96.69
511.617	87.69
511.833	99.69
512.049	81.69
512.265	85.69
512.481	78.69
512.698	82.69
512.914	79.69
513.13	86.69
513.346	87.69
513.562	92.69
513.778	108.69
513.994	100.69
514.21	98.69
514.426	111.69
514.642	127.69
514.858	117.69
515.074	148.69
515.29	377.69
515.506	1199.69
515.721	454.69
515.937	149.69
516.153	100.69
516.369	76.69
516.585	100.69
516.801	88.69
517.016	94.69
