Data from Uncirc_1982_H10_HRD10591_00025.txt Node
Date: Wed Jan 03 12:29:30 EST 2024
User: Yrep
Spectrometer: HR+D1059
Trigger mode: 1
Integration Time (sec): 1.000000E-1
Scans to average: 1
Electric dark correction enabled: true
Nonlinearity correction enabled: false
Boxcar width: 0
XAxis mode: Wavelengths
Number of Pixels in Spectrum: 2048
>>>>>Begin Spectral Data<<<<<
223.165	-14.19
223.4	-14.19
223.635	-14.19
223.869	-28.19
224.104	-9.19
224.338	-18.19
224.573	-18.19
224.808	-22.19
225.042	-11.19
225.277	-9.19
225.511	-7.19
225.746	7.81
225.98	-3.19
226.215	8.81
226.449	28.81
226.683	30.81
226.918	21.81
227.152	42.81
227.387	30.81
227.621	30.81
227.856	45.81
228.09	43.81
228.324	65.81
228.559	51.81
228.793	66.81
229.027	68.81
229.262	61.81
229.496	71.81
229.73	86.81
229.964	87.81
230.199	72.81
230.433	75.81
230.667	82.81
230.901	72.81
231.136	85.81
231.37	81.81
231.604	87.81
231.838	88.81
232.072	71.81
232.306	82.81
232.541	80.81
232.775	87.81
233.009	85.81
233.243	76.81
233.477	84.81
233.711	77.81
233.945	90.81
234.179	88.81
234.413	72.81
234.647	83.81
234.881	82.81
235.115	67.81
235.349	69.81
235.583	74.81
235.817	70.81
236.051	79.81
236.285	73.81
236.519	72.81
236.753	72.81
236.987	81.81
237.221	87.81
237.455	80.81
237.689	85.81
237.922	74.81
238.156	84.81
238.39	75.81
238.624	76.81
238.858	83.81
239.091	75.81
239.325	94.81
239.559	86.81
239.793	65.81
240.027	86.81
240.26	67.81
240.494	74.81
240.728	83.81
240.961	72.81
241.195	74.81
241.429	73.81
241.662	77.81
241.896	84.81
242.13	72.81
242.363	68.81
242.597	81.81
242.83	78.81
243.064	94.81
243.298	77.81
243.531	88.81
243.765	84.81
243.998	85.81
244.232	80.81
244.465	91.81
244.699	91.81
244.932	76.81
245.166	82.81
245.399	82.81
245.633	84.81
245.866	78.81
246.099	67.81
246.333	86.81
246.566	87.81
246.8	82.81
247.033	77.81
247.266	64.81
247.5	77.81
247.733	92.81
247.966	88.81
248.2	89.81
248.433	81.81
248.666	82.81
248.899	68.81
249.133	82.81
249.366	91.81
249.599	85.81
249.832	103.81
250.066	78.81
250.299	84.81
250.532	72.81
250.765	89.81
250.998	78.81
251.231	79.81
251.465	91.81
251.698	85.81
251.931	70.81
252.164	76.81
252.397	82.81
252.63	68.81
252.863	70.81
253.096	74.81
253.329	85.81
253.562	73.81
253.795	80.81
254.028	90.81
254.261	87.81
254.494	84.81
254.727	85.81
254.96	81.81
255.193	93.81
255.426	85.81
255.659	86.81
255.892	100.81
256.124	82.81
256.357	73.81
256.59	100.81
256.823	75.81
257.056	86.81
257.289	85.81
257.521	89.81
257.754	84.81
257.987	81.81
258.22	76.81
258.452	75.81
258.685	81.81
258.918	89.81
259.151	85.81
259.383	73.81
259.616	91.81
259.849	96.81
260.081	82.81
260.314	85.81
260.547	87.81
260.779	92.81
261.012	76.81
261.244	92.81
261.477	89.81
261.71	101.81
261.942	97.81
262.175	109.81
262.407	70.81
262.64	77.81
262.872	84.81
263.105	75.81
263.337	92.81
263.57	74.81
263.802	77.81
264.035	82.81
264.267	82.81
264.499	88.81
264.732	90.81
264.964	89.81
265.197	69.81
265.429	79.81
265.661	71.81
265.894	84.81
266.126	93.81
266.358	73.81
266.591	82.81
266.823	75.81
267.055	101.81
267.287	75.81
267.52	75.81
267.752	98.81
267.984	90.81
268.216	83.81
268.448	92.81
268.681	90.81
268.913	74.81
269.145	85.81
269.377	93.81
269.609	85.81
269.841	89.81
270.073	102.81
270.306	93.81
270.538	93.81
270.77	87.81
271.002	76.81
271.234	78.81
271.466	85.81
271.698	92.81
271.93	88.81
272.162	75.81
272.394	94.81
272.626	88.81
272.858	84.81
273.09	86.81
273.322	80.81
273.553	78.81
273.785	83.81
274.017	78.81
274.249	73.81
274.481	84.81
274.713	92.81
274.945	85.81
275.176	86.81
275.408	74.81
275.64	88.81
275.872	84.81
276.104	83.81
276.335	81.81
276.567	84.81
276.799	102.81
277.031	88.81
277.262	97.81
277.494	81.81
277.726	77.81
277.957	84.81
278.189	76.81
278.421	80.81
278.652	80.81
278.884	83.81
279.115	72.81
279.347	93.81
279.579	89.81
279.81	101.81
280.042	87.81
280.273	95.81
280.505	76.81
280.736	84.81
280.968	96.81
281.199	92.81
281.431	89.81
281.662	84.81
281.894	75.81
282.125	108.81
282.356	110.81
282.588	129.81
282.819	114.81
283.051	97.81
283.282	90.81
283.513	83.81
283.745	86.81
283.976	101.81
284.207	87.81
284.439	93.81
284.67	101.81
284.901	80.81
285.132	64.81
285.364	94.81
285.595	94.81
285.826	85.81
286.057	86.81
286.288	74.81
286.52	80.81
286.751	94.81
286.982	85.81
287.213	97.81
287.444	84.81
287.675	87.81
287.906	86.81
288.138	87.81
288.369	102.81
288.6	89.81
288.831	88.81
289.062	85.81
289.293	81.81
289.524	94.81
289.755	82.81
289.986	71.81
290.217	88.81
290.448	86.81
290.679	83.81
290.91	97.81
291.141	91.81
291.371	74.81
291.602	83.81
291.833	68.81
292.064	88.81
292.295	76.81
292.526	92.81
292.757	74.81
292.987	87.81
293.218	84.81
293.449	84.81
293.68	90.81
293.91	84.81
294.141	69.81
294.372	97.81
294.603	95.81
294.833	92.81
295.064	85.81
295.295	89.81
295.525	88.81
295.756	100.81
295.987	105.81
296.217	109.81
296.448	115.81
296.679	99.81
296.909	97.81
297.14	80.81
297.37	94.81
297.601	94.81
297.831	92.81
298.062	101.81
298.292	104.81
298.523	90.81
298.753	91.81
298.984	84.81
299.214	78.81
299.445	96.81
299.675	79.81
299.905	96.81
300.136	88.81
300.366	73.81
300.597	90.81
300.827	98.81
301.057	102.81
301.288	104.81
301.518	102.81
301.748	82.81
301.979	98.81
302.209	80.81
302.439	90.81
302.669	88.81
302.9	87.81
303.13	92.81
303.36	96.81
303.59	85.81
303.82	102.81
304.051	95.81
304.281	91.81
304.511	93.81
304.741	86.81
304.971	81.81
305.201	87.81
305.431	67.81
305.661	99.81
305.891	90.81
306.121	109.81
306.352	91.81
306.582	89.81
306.812	92.81
307.042	96.81
307.272	108.81
307.502	101.81
307.731	93.81
307.961	83.81
308.191	82.81
308.421	90.81
308.651	100.81
308.881	86.81
309.111	82.81
309.341	85.81
309.571	91.81
309.8	84.81
310.03	82.81
310.26	92.81
310.49	100.81
310.72	86.81
310.949	97.81
311.179	108.81
311.409	103.81
311.639	82.81
311.868	96.81
312.098	94.81
312.328	94.81
312.557	96.81
312.787	98.81
313.017	86.81
313.246	97.81
313.476	87.81
313.706	94.81
313.935	97.81
314.165	76.81
314.394	97.81
314.624	99.81
314.853	101.81
315.083	74.81
315.312	94.81
315.542	90.81
315.771	88.81
316.001	101.81
316.23	84.81
316.46	92.81
316.689	91.81
316.919	80.81
317.148	77.81
317.377	93.81
317.607	103.81
317.836	91.81
318.065	95.81
318.295	70.81
318.524	76.81
318.753	82.81
318.983	84.81
319.212	102.81
319.441	100.81
319.67	97.81
319.9	81.81
320.129	90.81
320.358	89.81
320.587	100.81
320.816	109.81
321.046	80.81
321.275	89.81
321.504	100.81
321.733	90.81
321.962	82.81
322.191	86.81
322.42	96.81
322.649	99.81
322.878	106.81
323.108	119.81
323.337	116.81
323.566	124.81
323.795	146.81
324.024	172.81
324.253	349.81
324.482	735.81
324.71	1444.81
324.939	1914.81
325.168	708.81
325.397	237.81
325.626	140.81
325.855	118.81
326.084	118.81
326.313	117.81
326.542	134.81
326.77	198.81
326.999	377.81
327.228	824.81
327.457	1498.81
327.686	1199.81
327.914	340.81
328.143	171.81
328.372	133.81
328.6	114.81
328.829	114.81
329.058	115.81
329.287	117.81
329.515	119.81
329.744	109.81
329.972	107.81
330.201	105.81
330.43	131.81
330.658	113.81
330.887	119.81
331.115	93.81
331.344	101.81
331.572	97.81
331.801	106.81
332.03	90.81
332.258	84.81
332.486	88.81
332.715	84.81
332.943	100.81
333.172	105.81
333.4	99.81
333.629	101.81
333.857	104.81
334.085	110.81
334.314	100.81
334.542	115.81
334.771	117.81
334.999	102.81
335.227	103.81
335.455	93.81
335.684	92.81
335.912	100.81
336.14	98.81
336.369	98.81
336.597	96.81
336.825	102.81
337.053	109.81
337.281	100.81
337.51	99.81
337.738	96.81
337.966	97.81
338.194	106.81
338.422	108.81
338.65	100.81
338.878	82.81
339.106	103.81
339.334	88.81
339.562	78.81
339.79	74.81
340.018	93.81
340.246	108.81
340.474	97.81
340.702	91.81
340.93	84.81
341.158	88.81
341.386	109.81
341.614	97.81
341.842	89.81
342.07	83.81
342.298	95.81
342.526	94.81
342.754	91.81
342.981	102.81
343.209	98.81
343.437	93.81
343.665	84.81
343.893	101.81
344.12	86.81
344.348	100.81
344.576	84.81
344.804	99.81
345.031	92.81
345.259	96.81
345.487	72.81
345.714	109.81
345.942	85.81
346.17	96.81
346.397	94.81
346.625	91.81
346.853	94.81
347.08	96.81
347.308	100.81
347.535	97.81
347.763	109.81
347.99	100.81
348.218	93.81
348.445	98.81
348.673	84.81
348.9	95.81
349.128	99.81
349.355	101.81
349.583	98.81
349.81	93.81
350.037	88.81
350.265	92.81
350.492	103.81
350.72	104.81
350.947	100.81
351.174	108.81
351.402	106.81
351.629	97.81
351.856	95.81
352.083	99.81
352.311	92.81
352.538	107.81
352.765	119.81
352.992	112.81
353.22	108.81
353.447	96.81
353.674	90.81
353.901	100.81
354.128	90.81
354.355	93.81
354.583	91.81
354.81	108.81
355.037	103.81
355.264	96.81
355.491	97.81
355.718	101.81
355.945	97.81
356.172	77.81
356.399	100.81
356.626	84.81
356.853	105.81
357.08	108.81
357.307	103.81
357.534	90.81
357.761	81.81
357.988	82.81
358.215	100.81
358.441	90.81
358.668	106.81
358.895	93.81
359.122	98.81
359.349	96.81
359.576	83.81
359.802	89.81
360.029	89.81
360.256	82.81
360.483	93.81
360.709	82.81
360.936	92.81
361.163	101.81
361.39	96.81
361.616	105.81
361.843	82.81
362.07	94.81
362.296	85.81
362.523	75.81
362.749	95.81
362.976	102.81
363.203	90.81
363.429	92.81
363.656	101.81
363.882	91.81
364.109	96.81
364.335	99.81
364.562	86.81
364.788	81.81
365.015	86.81
365.241	103.81
365.468	92.81
365.694	108.81
365.92	103.81
366.147	84.81
366.373	83.81
366.599	89.81
366.826	90.81
367.052	110.81
367.278	99.81
367.505	87.81
367.731	86.81
367.957	86.81
368.184	92.81
368.41	106.81
368.636	104.81
368.862	112.81
369.089	101.81
369.315	95.81
369.541	82.81
369.767	90.81
369.993	98.81
370.219	66.81
370.445	88.81
370.672	90.81
370.898	89.81
371.124	93.81
371.35	92.81
371.576	98.81
371.802	99.81
372.028	88.81
372.254	101.81
372.48	98.81
372.706	91.81
372.932	91.81
373.158	92.81
373.384	86.81
373.61	83.81
373.835	89.81
374.061	84.81
374.287	104.81
374.513	85.81
374.739	90.81
374.965	90.81
375.191	95.81
375.416	88.81
375.642	90.81
375.868	89.81
376.094	101.81
376.319	95.81
376.545	104.81
376.771	83.81
376.997	79.81
377.222	89.81
377.448	93.81
377.674	96.81
377.899	90.81
378.125	92.81
378.35	84.81
378.576	84.81
378.802	97.81
379.027	93.81
379.253	100.81
379.478	99.81
379.704	92.81
379.929	100.81
380.155	102.81
380.38	100.81
380.606	98.81
380.831	102.81
381.057	102.81
381.282	92.81
381.507	96.81
381.733	96.81
381.958	90.81
382.184	93.81
382.409	100.81
382.634	115.81
382.86	89.81
383.085	85.81
383.31	105.81
383.535	119.81
383.761	113.81
383.986	115.81
384.211	98.81
384.436	104.81
384.662	99.81
384.887	97.81
385.112	128.81
385.337	106.81
385.562	116.81
385.787	113.81
386.013	104.81
386.238	123.81
386.463	104.81
386.688	116.81
386.913	111.81
387.138	137.81
387.363	105.81
387.588	108.81
387.813	103.81
388.038	115.81
388.263	109.81
388.488	112.81
388.713	106.81
388.938	98.81
389.163	112.81
389.387	97.81
389.612	91.81
389.837	106.81
390.062	109.81
390.287	97.81
390.512	98.81
390.736	77.81
390.961	82.81
391.186	88.81
391.411	101.81
391.636	89.81
391.86	86.81
392.085	89.81
392.31	90.81
392.534	77.81
392.759	83.81
392.984	86.81
393.208	93.81
393.433	100.81
393.658	101.81
393.882	96.81
394.107	76.81
394.331	76.81
394.556	76.81
394.78	110.81
395.005	88.81
395.229	84.81
395.454	84.81
395.678	86.81
395.903	81.81
396.127	73.81
396.352	80.81
396.576	76.81
396.801	86.81
397.025	63.81
397.249	87.81
397.474	94.81
397.698	103.81
397.922	95.81
398.147	77.81
398.371	88.81
398.595	100.81
398.82	88.81
399.044	88.81
399.268	92.81
399.492	100.81
399.717	101.81
399.941	91.81
400.165	101.81
400.389	80.81
400.613	70.81
400.837	90.81
401.062	80.81
401.286	92.81
401.51	89.81
401.734	93.81
401.958	94.81
402.182	121.81
402.406	112.81
402.63	93.81
402.854	89.81
403.078	99.81
403.302	95.81
403.526	97.81
403.75	94.81
403.974	94.81
404.198	88.81
404.422	92.81
404.645	73.81
404.869	82.81
405.093	106.81
405.317	84.81
405.541	104.81
405.765	100.81
405.988	102.81
406.212	134.81
406.436	165.81
406.66	126.81
406.883	84.81
407.107	89.81
407.331	94.81
407.555	105.81
407.778	104.81
408.002	99.81
408.226	86.81
408.449	107.81
408.673	87.81
408.896	95.81
409.12	93.81
409.344	92.81
409.567	91.81
409.791	89.81
410.014	101.81
410.238	104.81
410.461	100.81
410.685	100.81
410.908	101.81
411.132	108.81
411.355	93.81
411.578	103.81
411.802	99.81
412.025	100.81
412.249	92.81
412.472	91.81
412.695	102.81
412.919	90.81
413.142	91.81
413.365	97.81
413.589	103.81
413.812	86.81
414.035	88.81
414.258	92.81
414.482	87.81
414.705	96.81
414.928	96.81
415.151	89.81
415.374	104.81
415.597	89.81
415.821	88.81
416.044	86.81
416.267	100.81
416.49	82.81
416.713	91.81
416.936	100.81
417.159	88.81
417.382	91.81
417.605	84.81
417.828	90.81
418.051	81.81
418.274	77.81
418.497	85.81
418.72	88.81
418.943	93.81
419.166	92.81
419.389	86.81
419.611	91.81
419.834	99.81
420.057	87.81
420.28	92.81
420.503	77.81
420.726	86.81
420.948	84.81
421.171	85.81
421.394	88.81
421.617	85.81
421.839	80.81
422.062	87.81
422.285	94.81
422.507	94.81
422.73	90.81
422.953	102.81
423.175	88.81
423.398	87.81
423.621	90.81
423.843	91.81
424.066	74.81
424.288	85.81
424.511	84.81
424.733	84.81
424.956	94.81
425.178	96.81
425.401	97.81
425.623	102.81
425.846	91.81
426.068	92.81
426.291	85.81
426.513	92.81
426.735	94.81
426.958	84.81
427.18	92.81
427.402	108.81
427.625	158.81
427.847	122.81
428.069	117.81
428.292	98.81
428.514	100.81
428.736	92.81
428.958	89.81
429.181	87.81
429.403	89.81
429.625	105.81
429.847	78.81
430.069	100.81
430.292	88.81
430.514	92.81
430.736	86.81
430.958	82.81
431.18	88.81
431.402	86.81
431.624	104.81
431.846	84.81
432.068	84.81
432.29	91.81
432.512	79.81
432.734	90.81
432.956	101.81
433.178	97.81
433.4	98.81
433.622	71.81
433.844	88.81
434.066	94.81
434.287	99.81
434.509	105.81
434.731	86.81
434.953	104.81
435.175	90.81
435.397	94.81
435.618	91.81
435.84	98.81
436.062	116.81
436.284	103.81
436.505	97.81
436.727	102.81
436.949	97.81
437.17	92.81
437.392	92.81
437.614	92.81
437.835	94.81
438.057	124.81
438.278	106.81
438.5	105.81
438.721	104.81
438.943	104.81
439.165	89.81
439.386	89.81
439.608	88.81
439.829	96.81
440.05	104.81
440.272	131.81
440.493	95.81
440.715	71.81
440.936	99.81
441.158	75.81
441.379	74.81
441.6	91.81
441.822	100.81
442.043	96.81
442.264	110.81
442.486	112.81
442.707	96.81
442.928	94.81
443.149	110.81
443.371	120.81
443.592	95.81
443.813	87.81
444.034	105.81
444.255	95.81
444.476	88.81
444.698	76.81
444.919	87.81
445.14	130.81
445.361	104.81
445.582	122.81
445.803	121.81
446.024	121.81
446.245	141.81
446.466	110.81
446.687	84.81
446.908	89.81
447.129	84.81
447.35	100.81
447.571	102.81
447.792	89.81
448.013	90.81
448.234	105.81
448.455	103.81
448.675	99.81
448.896	100.81
449.117	98.81
449.338	83.81
449.559	118.81
449.779	130.81
450	94.81
450.221	81.81
450.442	86.81
450.662	92.81
450.883	109.81
451.104	115.81
451.324	91.81
451.545	74.81
451.766	93.81
451.986	80.81
452.207	82.81
452.428	93.81
452.648	99.81
452.869	94.81
453.089	96.81
453.31	104.81
453.53	90.81
453.751	100.81
453.971	96.81
454.192	117.81
454.412	81.81
454.633	90.81
454.853	94.81
455.073	91.81
455.294	81.81
455.514	88.81
455.734	109.81
455.955	75.81
456.175	96.81
456.395	100.81
456.616	88.81
456.836	80.81
457.056	85.81
457.276	85.81
457.497	81.81
457.717	76.81
457.937	75.81
458.157	90.81
458.377	84.81
458.598	97.81
458.818	115.81
459.038	135.81
459.258	108.81
459.478	85.81
459.698	83.81
459.918	101.81
460.138	92.81
460.358	88.81
460.578	78.81
460.798	88.81
461.018	88.81
461.238	73.81
461.458	96.81
461.678	93.81
461.898	85.81
462.118	88.81
462.338	94.81
462.558	83.81
462.777	87.81
462.997	89.81
463.217	94.81
463.437	86.81
463.657	85.81
463.876	94.81
464.096	86.81
464.316	107.81
464.536	78.81
464.755	100.81
464.975	111.81
465.195	132.81
465.414	130.81
465.634	100.81
465.854	93.81
466.073	88.81
466.293	79.81
466.512	88.81
466.732	94.81
466.951	93.81
467.171	103.81
467.391	80.81
467.61	89.81
467.829	100.81
468.049	98.81
468.268	100.81
468.488	88.81
468.707	64.81
468.927	80.81
469.146	91.81
469.365	88.81
469.585	94.81
469.804	99.81
470.023	87.81
470.243	87.81
470.462	93.81
470.681	104.81
470.901	92.81
471.12	76.81
471.339	86.81
471.558	101.81
471.777	77.81
471.997	86.81
472.216	97.81
472.435	134.81
472.654	101.81
472.873	100.81
473.092	80.81
473.311	79.81
473.53	86.81
473.749	86.81
473.968	89.81
474.187	106.81
474.406	82.81
474.625	93.81
474.844	81.81
475.063	84.81
475.282	99.81
475.501	84.81
475.72	89.81
475.939	72.81
476.158	100.81
476.377	86.81
476.596	77.81
476.814	70.81
477.033	88.81
477.252	85.81
477.471	89.81
477.69	89.81
477.908	95.81
478.127	91.81
478.346	89.81
478.564	89.81
478.783	89.81
479.002	97.81
479.22	93.81
479.439	108.81
479.658	94.81
479.876	102.81
480.095	87.81
480.313	93.81
480.532	96.81
480.751	93.81
480.969	118.81
481.188	171.81
481.406	139.81
481.624	100.81
481.843	82.81
482.061	92.81
482.28	91.81
482.498	104.81
482.717	91.81
482.935	82.81
483.153	84.81
483.372	71.81
483.59	98.81
483.808	88.81
484.027	82.81
484.245	75.81
484.463	86.81
484.681	104.81
484.9	90.81
485.118	104.81
485.336	102.81
485.554	95.81
485.772	103.81
485.99	103.81
486.209	103.81
486.427	102.81
486.645	102.81
486.863	99.81
487.081	94.81
487.299	103.81
487.517	93.81
487.735	97.81
487.953	77.81
488.171	82.81
488.389	86.81
488.607	98.81
488.825	83.81
489.043	109.81
489.261	94.81
489.479	99.81
489.696	106.81
489.914	73.81
490.132	87.81
490.35	90.81
490.568	99.81
490.786	80.81
491.003	89.81
491.221	89.81
491.439	89.81
491.657	92.81
491.874	101.81
492.092	92.81
492.31	80.81
492.527	72.81
492.745	89.81
492.963	97.81
493.18	82.81
493.398	94.81
493.615	101.81
493.833	104.81
494.05	84.81
494.268	87.81
494.485	88.81
494.703	93.81
494.92	97.81
495.138	84.81
495.355	74.81
495.573	96.81
495.79	82.81
496.008	94.81
496.225	95.81
496.442	85.81
496.66	92.81
496.877	103.81
497.094	93.81
497.312	94.81
497.529	99.81
497.746	95.81
497.963	97.81
498.181	90.81
498.398	99.81
498.615	103.81
498.832	105.81
499.049	90.81
499.267	68.81
499.484	82.81
499.701	97.81
499.918	89.81
500.135	97.81
500.352	90.81
500.569	83.81
500.786	89.81
501.003	88.81
501.22	86.81
501.437	110.81
501.654	104.81
501.871	104.81
502.088	77.81
502.305	90.81
502.522	88.81
502.739	90.81
502.956	88.81
503.172	104.81
503.389	94.81
503.606	111.81
503.823	87.81
504.04	86.81
504.256	85.81
504.473	93.81
504.69	93.81
504.907	98.81
505.123	85.81
505.34	98.81
505.557	96.81
505.773	90.81
505.99	97.81
506.207	99.81
506.423	87.81
506.64	99.81
506.856	90.81
507.073	80.81
507.289	90.81
507.506	92.81
507.722	96.81
507.939	105.81
508.155	102.81
508.372	93.81
508.588	97.81
508.805	92.81
509.021	100.81
509.238	102.81
509.454	100.81
509.67	106.81
509.887	103.81
510.103	125.81
510.319	198.81
510.536	600.81
510.752	1792.81
510.968	497.81
511.184	146.81
511.401	109.81
511.617	101.81
511.833	91.81
512.049	91.81
512.265	106.81
512.481	96.81
512.698	100.81
512.914	104.81
513.13	107.81
513.346	96.81
513.562	86.81
513.778	98.81
513.994	109.81
514.21	98.81
514.426	122.81
514.642	113.81
514.858	116.81
515.074	130.81
515.29	342.81
