Data from Uncirc_1982_H10_HRD10591_00091.txt Node
Date: Wed Jan 03 12:29:43 EST 2024
User: Yrep
Spectrometer: HR+D1059
Trigger mode: 1
Integration Time (sec): 1.000000E-1
Scans to average: 1
Electric dark correction enabled: true
Nonlinearity correction enabled: false
Boxcar width: 0
XAxis mode: Wavelengths
Number of Pixels in Spectrum: 2048
>>>>>Begin Spectral Data<<<<<
223.165	-35.44
223.4	-35.44
223.635	-35.44
223.869	-13.44
224.104	-16.44
224.338	-6.44
224.573	-26.44
224.808	-16.44
225.042	-7.44
225.277	-2.44
225.511	-7.44
225.746	-4.44
225.98	11.56
226.215	10.56
226.449	19.56
226.683	29.56
226.918	33.56
227.152	31.56
227.387	34.56
227.621	41.56
227.856	45.56
228.09	56.56
228.324	44.56
228.559	54.56
228.793	52.56
229.027	57.56
229.262	54.56
229.496	73.56
229.73	79.56
229.964	87.56
230.199	74.56
230.433	91.56
230.667	80.56
230.901	85.56
231.136	87.56
231.37	75.56
231.604	71.56
231.838	74.56
232.072	80.56
232.306	78.56
232.541	86.56
232.775	74.56
233.009	88.56
233.243	92.56
233.477	83.56
233.711	84.56
233.945	74.56
234.179	87.56
234.413	77.56
234.647	90.56
234.881	87.56
235.115	88.56
235.349	77.56
235.583	77.56
235.817	87.56
236.051	67.56
236.285	80.56
236.519	87.56
236.753	80.56
236.987	88.56
237.221	85.56
237.455	86.56
237.689	85.56
237.922	87.56
238.156	80.56
238.39	73.56
238.624	75.56
238.858	77.56
239.091	77.56
239.325	70.56
239.559	85.56
239.793	77.56
240.027	81.56
240.26	86.56
240.494	71.56
240.728	88.56
240.961	79.56
241.195	71.56
241.429	76.56
241.662	84.56
241.896	68.56
242.13	92.56
242.363	73.56
242.597	71.56
242.83	81.56
243.064	81.56
243.298	87.56
243.531	66.56
243.765	71.56
243.998	86.56
244.232	77.56
244.465	76.56
244.699	80.56
244.932	87.56
245.166	79.56
245.399	74.56
245.633	87.56
245.866	82.56
246.099	68.56
246.333	55.56
246.566	68.56
246.8	76.56
247.033	71.56
247.266	82.56
247.5	83.56
247.733	70.56
247.966	92.56
248.2	79.56
248.433	85.56
248.666	89.56
248.899	94.56
249.133	73.56
249.366	68.56
249.599	105.56
249.832	81.56
250.066	87.56
250.299	84.56
250.532	86.56
250.765	71.56
250.998	82.56
251.231	68.56
251.465	89.56
251.698	91.56
251.931	83.56
252.164	78.56
252.397	84.56
252.63	87.56
252.863	87.56
253.096	66.56
253.329	78.56
253.562	71.56
253.795	70.56
254.028	80.56
254.261	74.56
254.494	88.56
254.727	80.56
254.96	76.56
255.193	89.56
255.426	91.56
255.659	88.56
255.892	79.56
256.124	75.56
256.357	80.56
256.59	91.56
256.823	82.56
257.056	78.56
257.289	90.56
257.521	84.56
257.754	86.56
257.987	88.56
258.22	84.56
258.452	83.56
258.685	84.56
258.918	87.56
259.151	78.56
259.383	80.56
259.616	86.56
259.849	106.56
260.081	86.56
260.314	79.56
260.547	90.56
260.779	87.56
261.012	77.56
261.244	88.56
261.477	94.56
261.71	107.56
261.942	103.56
262.175	100.56
262.407	94.56
262.64	92.56
262.872	90.56
263.105	91.56
263.337	94.56
263.57	83.56
263.802	80.56
264.035	87.56
264.267	91.56
264.499	68.56
264.732	82.56
264.964	77.56
265.197	79.56
265.429	74.56
265.661	97.56
265.894	96.56
266.126	81.56
266.358	74.56
266.591	92.56
266.823	79.56
267.055	81.56
267.287	86.56
267.52	88.56
267.752	92.56
267.984	90.56
268.216	93.56
268.448	84.56
268.681	79.56
268.913	70.56
269.145	92.56
269.377	96.56
269.609	78.56
269.841	77.56
270.073	73.56
270.306	85.56
270.538	87.56
270.77	82.56
271.002	89.56
271.234	93.56
271.466	94.56
271.698	88.56
271.93	73.56
272.162	84.56
272.394	101.56
272.626	91.56
272.858	82.56
273.09	86.56
273.322	76.56
273.553	79.56
273.785	86.56
274.017	91.56
274.249	98.56
274.481	85.56
274.713	83.56
274.945	70.56
275.176	83.56
275.408	98.56
275.64	114.56
275.872	90.56
276.104	86.56
276.335	107.56
276.567	108.56
276.799	99.56
277.031	100.56
277.262	84.56
277.494	83.56
277.726	85.56
277.957	78.56
278.189	78.56
278.421	79.56
278.652	76.56
278.884	85.56
279.115	96.56
279.347	101.56
279.579	101.56
279.81	93.56
280.042	85.56
280.273	83.56
280.505	92.56
280.736	97.56
280.968	80.56
281.199	104.56
281.431	83.56
281.662	80.56
281.894	97.56
282.125	95.56
282.356	105.56
282.588	130.56
282.819	95.56
283.051	83.56
283.282	97.56
283.513	95.56
283.745	77.56
283.976	75.56
284.207	78.56
284.439	85.56
284.67	89.56
284.901	78.56
285.132	80.56
285.364	80.56
285.595	100.56
285.826	95.56
286.057	107.56
286.288	89.56
286.52	100.56
286.751	83.56
286.982	75.56
287.213	81.56
287.444	96.56
287.675	81.56
287.906	93.56
288.138	92.56
288.369	95.56
288.6	92.56
288.831	85.56
289.062	104.56
289.293	91.56
289.524	85.56
289.755	88.56
289.986	94.56
290.217	99.56
290.448	93.56
290.679	99.56
290.91	81.56
291.141	75.56
291.371	101.56
291.602	93.56
291.833	91.56
292.064	79.56
292.295	96.56
292.526	90.56
292.757	103.56
292.987	97.56
293.218	104.56
293.449	96.56
293.68	104.56
293.91	91.56
294.141	95.56
294.372	99.56
294.603	102.56
294.833	99.56
295.064	89.56
295.295	91.56
295.525	80.56
295.756	96.56
295.987	108.56
296.217	140.56
296.448	112.56
296.679	88.56
296.909	90.56
297.14	97.56
297.37	92.56
297.601	90.56
297.831	88.56
298.062	99.56
298.292	91.56
298.523	96.56
298.753	85.56
298.984	79.56
299.214	87.56
299.445	103.56
299.675	100.56
299.905	95.56
300.136	117.56
300.366	92.56
300.597	88.56
300.827	80.56
301.057	92.56
301.288	90.56
301.518	88.56
301.748	92.56
301.979	100.56
302.209	91.56
302.439	90.56
302.669	86.56
302.9	91.56
303.13	79.56
303.36	91.56
303.59	79.56
303.82	108.56
304.051	94.56
304.281	89.56
304.511	93.56
304.741	93.56
304.971	85.56
305.201	102.56
305.431	97.56
305.661	83.56
305.891	89.56
306.121	113.56
306.352	102.56
306.582	82.56
306.812	86.56
307.042	94.56
307.272	99.56
307.502	88.56
307.731	102.56
307.961	83.56
308.191	85.56
308.421	97.56
308.651	102.56
308.881	96.56
309.111	99.56
309.341	112.56
309.571	90.56
309.8	88.56
310.03	87.56
310.26	108.56
310.49	89.56
310.72	83.56
310.949	110.56
311.179	102.56
311.409	98.56
311.639	104.56
311.868	102.56
312.098	100.56
312.328	93.56
312.557	123.56
312.787	105.56
313.017	109.56
313.246	105.56
313.476	88.56
313.706	96.56
313.935	88.56
314.165	105.56
314.394	93.56
314.624	103.56
314.853	105.56
315.083	106.56
315.312	96.56
315.542	97.56
315.771	100.56
316.001	104.56
316.23	92.56
316.46	87.56
316.689	104.56
316.919	89.56
317.148	91.56
317.377	93.56
317.607	104.56
317.836	100.56
318.065	97.56
318.295	87.56
318.524	94.56
318.753	103.56
318.983	84.56
319.212	106.56
319.441	114.56
319.67	99.56
319.9	94.56
320.129	96.56
320.358	93.56
320.587	98.56
320.816	102.56
321.046	99.56
321.275	91.56
321.504	103.56
321.733	86.56
321.962	85.56
322.191	84.56
322.42	114.56
322.649	102.56
322.878	124.56
323.108	129.56
323.337	120.56
323.566	133.56
323.795	147.56
324.024	203.56
324.253	353.56
324.482	707.56
324.71	1468.56
324.939	1971.56
325.168	746.56
325.397	220.56
325.626	152.56
325.855	136.56
326.084	127.56
326.313	132.56
326.542	136.56
326.77	204.56
326.999	433.56
327.228	852.56
327.457	1551.56
327.686	1217.56
327.914	347.56
328.143	178.56
328.372	143.56
328.6	123.56
328.829	118.56
329.058	112.56
329.287	113.56
329.515	118.56
329.744	111.56
329.972	104.56
330.201	107.56
330.43	129.56
330.658	112.56
330.887	123.56
331.115	111.56
331.344	90.56
331.572	102.56
331.801	97.56
332.03	117.56
332.258	99.56
332.486	108.56
332.715	87.56
332.943	106.56
333.172	106.56
333.4	119.56
333.629	104.56
333.857	100.56
334.085	103.56
334.314	100.56
334.542	127.56
334.771	134.56
334.999	116.56
335.227	110.56
335.455	101.56
335.684	86.56
335.912	96.56
336.14	110.56
336.369	104.56
336.597	104.56
336.825	104.56
337.053	102.56
337.281	88.56
337.51	86.56
337.738	96.56
337.966	89.56
338.194	105.56
338.422	90.56
338.65	109.56
338.878	102.56
339.106	83.56
339.334	96.56
339.562	95.56
339.79	96.56
340.018	79.56
340.246	95.56
340.474	97.56
340.702	100.56
340.93	100.56
341.158	101.56
341.386	96.56
341.614	99.56
341.842	99.56
342.07	105.56
342.298	111.56
342.526	90.56
342.754	95.56
342.981	91.56
343.209	79.56
343.437	86.56
343.665	91.56
343.893	80.56
344.12	87.56
344.348	98.56
344.576	96.56
344.804	106.56
345.031	104.56
345.259	108.56
345.487	101.56
345.714	101.56
345.942	101.56
346.17	97.56
346.397	85.56
346.625	104.56
346.853	93.56
347.08	95.56
347.308	100.56
347.535	113.56
347.763	107.56
347.99	101.56
348.218	118.56
348.445	113.56
348.673	123.56
348.9	92.56
349.128	101.56
349.355	100.56
349.583	90.56
349.81	89.56
350.037	103.56
350.265	89.56
350.492	104.56
350.72	104.56
350.947	95.56
351.174	119.56
351.402	101.56
351.629	95.56
351.856	96.56
352.083	97.56
352.311	109.56
352.538	111.56
352.765	106.56
352.992	122.56
353.22	113.56
353.447	108.56
353.674	97.56
353.901	87.56
354.128	110.56
354.355	97.56
354.583	90.56
354.81	104.56
355.037	99.56
355.264	119.56
355.491	97.56
355.718	91.56
355.945	83.56
356.172	102.56
356.399	92.56
356.626	81.56
356.853	95.56
357.08	96.56
357.307	80.56
357.534	99.56
357.761	103.56
357.988	85.56
358.215	103.56
358.441	88.56
358.668	93.56
358.895	108.56
359.122	112.56
359.349	86.56
359.576	93.56
359.802	90.56
360.029	107.56
360.256	88.56
360.483	91.56
360.709	91.56
360.936	98.56
361.163	100.56
361.39	91.56
361.616	114.56
361.843	92.56
362.07	105.56
362.296	104.56
362.523	102.56
362.749	100.56
362.976	98.56
363.203	103.56
363.429	88.56
363.656	93.56
363.882	89.56
364.109	95.56
364.335	86.56
364.562	109.56
364.788	96.56
365.015	84.56
365.241	103.56
365.468	103.56
365.694	98.56
365.92	117.56
366.147	84.56
366.373	102.56
366.599	91.56
366.826	102.56
367.052	91.56
367.278	90.56
367.505	96.56
367.731	89.56
367.957	89.56
368.184	92.56
368.41	110.56
368.636	122.56
368.862	120.56
369.089	109.56
369.315	83.56
369.541	99.56
369.767	92.56
369.993	99.56
370.219	90.56
370.445	96.56
370.672	77.56
370.898	97.56
371.124	103.56
371.35	97.56
371.576	93.56
371.802	86.56
372.028	102.56
372.254	87.56
372.48	91.56
372.706	87.56
372.932	92.56
373.158	91.56
373.384	94.56
373.61	96.56
373.835	101.56
374.061	89.56
374.287	101.56
374.513	96.56
374.739	87.56
374.965	85.56
375.191	95.56
375.416	99.56
375.642	92.56
375.868	80.56
376.094	86.56
376.319	94.56
376.545	104.56
376.771	89.56
376.997	72.56
377.222	109.56
377.448	95.56
377.674	88.56
377.899	84.56
378.125	95.56
378.35	91.56
378.576	84.56
378.802	89.56
379.027	93.56
379.253	102.56
379.478	99.56
379.704	92.56
379.929	81.56
380.155	97.56
380.38	88.56
380.606	111.56
380.831	85.56
381.057	95.56
381.282	80.56
381.507	105.56
381.733	93.56
381.958	87.56
382.184	103.56
382.409	100.56
382.634	118.56
382.86	111.56
383.085	104.56
383.31	100.56
383.535	103.56
383.761	101.56
383.986	105.56
384.211	106.56
384.436	87.56
384.662	97.56
384.887	101.56
385.112	92.56
385.337	107.56
385.562	111.56
385.787	113.56
386.013	103.56
386.238	99.56
386.463	94.56
386.688	107.56
386.913	104.56
387.138	113.56
387.363	96.56
387.588	107.56
387.813	112.56
388.038	102.56
388.263	94.56
388.488	113.56
388.713	99.56
388.938	94.56
389.163	117.56
389.387	103.56
389.612	102.56
389.837	94.56
390.062	103.56
390.287	89.56
390.512	87.56
390.736	88.56
390.961	100.56
391.186	80.56
391.411	95.56
391.636	91.56
391.86	89.56
392.085	95.56
392.31	88.56
392.534	87.56
392.759	89.56
392.984	93.56
393.208	100.56
393.433	72.56
393.658	83.56
393.882	83.56
394.107	80.56
394.331	81.56
394.556	87.56
394.78	77.56
395.005	96.56
395.229	88.56
395.454	86.56
395.678	93.56
395.903	91.56
396.127	92.56
396.352	83.56
396.576	83.56
396.801	92.56
397.025	93.56
397.249	86.56
397.474	82.56
397.698	81.56
397.922	88.56
398.147	98.56
398.371	89.56
398.595	94.56
398.82	92.56
399.044	81.56
399.268	99.56
399.492	102.56
399.717	94.56
399.941	90.56
400.165	98.56
400.389	90.56
400.613	94.56
400.837	90.56
401.062	112.56
401.286	97.56
401.51	91.56
401.734	90.56
401.958	99.56
402.182	130.56
402.406	127.56
402.63	113.56
402.854	97.56
403.078	84.56
403.302	95.56
403.526	95.56
403.75	86.56
403.974	101.56
404.198	85.56
404.422	94.56
404.645	85.56
404.869	89.56
405.093	87.56
405.317	117.56
405.541	103.56
405.765	87.56
405.988	123.56
406.212	157.56
406.436	204.56
406.66	122.56
406.883	88.56
407.107	80.56
407.331	103.56
407.555	96.56
407.778	92.56
408.002	95.56
408.226	94.56
408.449	80.56
408.673	91.56
408.896	99.56
409.12	93.56
409.344	90.56
409.567	112.56
409.791	79.56
410.014	101.56
410.238	94.56
410.461	91.56
410.685	96.56
410.908	100.56
411.132	108.56
411.355	113.56
411.578	94.56
411.802	91.56
412.025	103.56
412.249	107.56
412.472	103.56
412.695	91.56
412.919	89.56
413.142	88.56
413.365	88.56
413.589	96.56
413.812	85.56
414.035	101.56
414.258	93.56
414.482	88.56
414.705	101.56
414.928	100.56
415.151	102.56
415.374	106.56
415.597	100.56
415.821	102.56
416.044	103.56
416.267	94.56
416.49	94.56
416.713	99.56
416.936	101.56
417.159	94.56
417.382	103.56
417.605	89.56
417.828	88.56
418.051	83.56
418.274	89.56
418.497	97.56
418.72	87.56
418.943	79.56
419.166	88.56
419.389	103.56
419.611	87.56
419.834	76.56
420.057	88.56
420.28	79.56
420.503	95.56
420.726	93.56
420.948	105.56
421.171	79.56
421.394	91.56
421.617	78.56
421.839	90.56
422.062	103.56
422.285	87.56
422.507	102.56
422.73	100.56
422.953	92.56
423.175	89.56
423.398	106.56
423.621	105.56
423.843	91.56
424.066	77.56
424.288	69.56
424.511	94.56
424.733	96.56
424.956	96.56
425.178	99.56
425.401	110.56
425.623	108.56
425.846	90.56
426.068	99.56
426.291	101.56
426.513	101.56
426.735	89.56
426.958	97.56
427.18	103.56
427.402	121.56
427.625	144.56
427.847	132.56
428.069	111.56
428.292	80.56
428.514	79.56
428.736	86.56
428.958	109.56
429.181	81.56
429.403	88.56
429.625	77.56
429.847	98.56
430.069	109.56
430.292	92.56
430.514	101.56
430.736	89.56
430.958	88.56
431.18	75.56
431.402	93.56
431.624	78.56
431.846	98.56
432.068	91.56
432.29	88.56
432.512	82.56
432.734	91.56
432.956	89.56
433.178	97.56
433.4	109.56
433.622	92.56
433.844	99.56
434.066	85.56
434.287	83.56
434.509	86.56
434.731	86.56
434.953	96.56
435.175	99.56
435.397	94.56
435.618	88.56
435.84	90.56
436.062	104.56
436.284	105.56
436.505	111.56
436.727	101.56
436.949	101.56
437.17	95.56
437.392	83.56
437.614	93.56
437.835	100.56
438.057	108.56
438.278	104.56
438.5	104.56
438.721	120.56
438.943	99.56
439.165	89.56
439.386	86.56
439.608	91.56
439.829	95.56
440.05	118.56
440.272	132.56
440.493	104.56
440.715	83.56
440.936	92.56
441.158	80.56
441.379	71.56
441.6	87.56
441.822	89.56
442.043	89.56
442.264	102.56
442.486	107.56
442.707	95.56
442.928	112.56
443.149	124.56
443.371	118.56
443.592	95.56
443.813	99.56
444.034	112.56
444.255	98.56
444.476	79.56
444.698	89.56
444.919	95.56
445.14	150.56
445.361	119.56
445.582	119.56
445.803	127.56
446.024	132.56
446.245	135.56
446.466	109.56
446.687	83.56
446.908	106.56
447.129	94.56
447.35	73.56
447.571	84.56
447.792	98.56
448.013	109.56
448.234	97.56
448.455	93.56
448.675	114.56
448.896	109.56
449.117	99.56
449.338	91.56
449.559	109.56
449.779	136.56
450	111.56
450.221	94.56
450.442	91.56
450.662	91.56
450.883	97.56
451.104	100.56
451.324	87.56
451.545	94.56
451.766	77.56
451.986	86.56
452.207	89.56
452.428	96.56
452.648	102.56
452.869	109.56
453.089	112.56
453.31	98.56
453.53	85.56
453.751	99.56
453.971	89.56
454.192	107.56
454.412	97.56
454.633	91.56
454.853	83.56
455.073	93.56
455.294	92.56
455.514	108.56
455.734	104.56
455.955	80.56
456.175	88.56
456.395	93.56
456.616	92.56
456.836	78.56
457.056	85.56
457.276	76.56
457.497	78.56
457.717	92.56
457.937	92.56
458.157	97.56
458.377	95.56
458.598	105.56
458.818	130.56
459.038	127.56
459.258	106.56
459.478	91.56
459.698	86.56
459.918	104.56
460.138	73.56
460.358	99.56
460.578	72.56
460.798	95.56
461.018	92.56
461.238	112.56
461.458	95.56
461.678	89.56
461.898	83.56
462.118	86.56
462.338	100.56
462.558	90.56
462.777	87.56
462.997	80.56
463.217	76.56
463.437	93.56
463.657	81.56
463.876	95.56
464.096	96.56
464.316	88.56
464.536	102.56
464.755	94.56
464.975	100.56
465.195	143.56
465.414	145.56
465.634	88.56
465.854	95.56
466.073	85.56
466.293	91.56
466.512	96.56
466.732	94.56
466.951	87.56
467.171	83.56
467.391	91.56
467.61	112.56
467.829	87.56
468.049	96.56
468.268	127.56
468.488	83.56
468.707	73.56
468.927	69.56
469.146	95.56
469.365	77.56
469.585	98.56
469.804	95.56
470.023	89.56
470.243	89.56
470.462	104.56
470.681	94.56
470.901	100.56
471.12	89.56
471.339	93.56
471.558	77.56
471.777	91.56
471.997	103.56
472.216	123.56
472.435	153.56
472.654	101.56
472.873	89.56
473.092	106.56
473.311	88.56
473.53	77.56
473.749	94.56
473.968	86.56
474.187	92.56
474.406	84.56
474.625	84.56
474.844	97.56
475.063	94.56
475.282	92.56
475.501	98.56
475.72	107.56
475.939	83.56
476.158	74.56
476.377	80.56
476.596	71.56
476.814	86.56
477.033	87.56
477.252	101.56
477.471	104.56
477.69	81.56
477.908	101.56
478.127	90.56
478.346	80.56
478.564	93.56
478.783	81.56
479.002	87.56
479.22	73.56
479.439	105.56
479.658	96.56
479.876	95.56
480.095	90.56
480.313	100.56
480.532	90.56
480.751	108.56
480.969	119.56
481.188	189.56
481.406	144.56
481.624	77.56
481.843	90.56
482.061	85.56
482.28	80.56
482.498	83.56
482.717	86.56
482.935	106.56
483.153	105.56
483.372	92.56
483.59	92.56
483.808	103.56
484.027	94.56
484.245	97.56
484.463	93.56
484.681	96.56
484.9	103.56
485.118	95.56
485.336	91.56
485.554	97.56
485.772	113.56
485.99	108.56
486.209	96.56
486.427	108.56
486.645	113.56
486.863	108.56
487.081	103.56
487.299	99.56
487.517	116.56
487.735	93.56
487.953	87.56
488.171	97.56
488.389	103.56
488.607	112.56
488.825	100.56
489.043	94.56
489.261	90.56
489.479	108.56
489.696	96.56
489.914	97.56
490.132	98.56
490.35	88.56
490.568	96.56
490.786	100.56
491.003	103.56
491.221	93.56
491.439	103.56
491.657	102.56
491.874	92.56
492.092	100.56
492.31	88.56
492.527	96.56
492.745	87.56
492.963	95.56
493.18	97.56
493.398	94.56
493.615	102.56
493.833	87.56
494.05	95.56
494.268	104.56
494.485	94.56
494.703	100.56
494.92	85.56
495.138	88.56
495.355	86.56
495.573	107.56
495.79	95.56
496.008	102.56
496.225	88.56
496.442	91.56
496.66	77.56
496.877	99.56
497.094	95.56
497.312	94.56
497.529	96.56
497.746	101.56
497.963	93.56
498.181	100.56
498.398	98.56
498.615	112.56
498.832	107.56
499.049	96.56
499.267	83.56
499.484	102.56
499.701	95.56
499.918	103.56
500.135	99.56
500.352	92.56
500.569	80.56
500.786	93.56
501.003	104.56
501.22	84.56
501.437	83.56
501.654	103.56
501.871	100.56
502.088	84.56
502.305	100.56
502.522	83.56
502.739	105.56
502.956	92.56
503.172	80.56
503.389	101.56
503.606	100.56
503.823	99.56
504.04	90.56
504.256	87.56
504.473	81.56
504.69	96.56
504.907	88.56
505.123	73.56
505.34	92.56
505.557	98.56
505.773	91.56
505.99	98.56
506.207	117.56
506.423	106.56
506.64	88.56
506.856	89.56
507.073	93.56
507.289	88.56
507.506	105.56
507.722	102.56
507.939	92.56
508.155	90.56
508.372	91.56
508.588	95.56
508.805	95.56
509.021	91.56
509.238	109.56
509.454	108.56
509.67	92.56
509.887	96.56
510.103	147.56
510.319	203.56
510.536	695.56
510.752	2081.56
510.968	559.56
511.184	153.56
511.401	119.56
511.617	114.56
511.833	105.56
512.049	101.56
512.265	89.56
512.481	95.56
512.698	93.56
512.914	84.56
513.13	99.56
513.346	95.56
513.562	102.56
513.778	107.56
513.994	98.56
514.21	107.56
514.426	101.56
