Data from Uncirc_1982_H10_HRD10591_00027.txt Node
Date: Wed Jan 03 12:29:30 EST 2024
User: Yrep
Spectrometer: HR+D1059
Trigger mode: 1
Integration Time (sec): 1.000000E-1
Scans to average: 1
Electric dark correction enabled: true
Nonlinearity correction enabled: false
Boxcar width: 0
XAxis mode: Wavelengths
Number of Pixels in Spectrum: 2048
>>>>>Begin Spectral Data<<<<<
223.165	-24.25
223.4	-24.25
223.635	-24.25
223.869	-7.25
224.104	-21.25
224.338	-17.25
224.573	-12.25
224.808	-11.25
225.042	-13.25
225.277	0.75
225.511	3.75
225.746	-3.25
225.98	7.75
226.215	6.75
226.449	20.75
226.683	17.75
226.918	6.75
227.152	45.75
227.387	46.75
227.621	47.75
227.856	39.75
228.09	45.75
228.324	54.75
228.559	66.75
228.793	61.75
229.027	68.75
229.262	63.75
229.496	89.75
229.73	67.75
229.964	76.75
230.199	75.75
230.433	87.75
230.667	63.75
230.901	75.75
231.136	91.75
231.37	65.75
231.604	70.75
231.838	89.75
232.072	74.75
232.306	76.75
232.541	98.75
232.775	69.75
233.009	74.75
233.243	81.75
233.477	89.75
233.711	67.75
233.945	74.75
234.179	83.75
234.413	75.75
234.647	85.75
234.881	70.75
235.115	70.75
235.349	72.75
235.583	84.75
235.817	69.75
236.051	63.75
236.285	72.75
236.519	75.75
236.753	76.75
236.987	67.75
237.221	74.75
237.455	91.75
237.689	91.75
237.922	71.75
238.156	69.75
238.39	62.75
238.624	75.75
238.858	79.75
239.091	74.75
239.325	70.75
239.559	72.75
239.793	85.75
240.027	73.75
240.26	76.75
240.494	84.75
240.728	81.75
240.961	91.75
241.195	71.75
241.429	79.75
241.662	84.75
241.896	87.75
242.13	76.75
242.363	83.75
242.597	83.75
242.83	62.75
243.064	81.75
243.298	72.75
243.531	83.75
243.765	85.75
243.998	69.75
244.232	79.75
244.465	89.75
244.699	87.75
244.932	93.75
245.166	72.75
245.399	73.75
245.633	76.75
245.866	89.75
246.099	75.75
246.333	88.75
246.566	77.75
246.8	69.75
247.033	79.75
247.266	75.75
247.5	80.75
247.733	71.75
247.966	87.75
248.2	76.75
248.433	68.75
248.666	93.75
248.899	80.75
249.133	77.75
249.366	91.75
249.599	95.75
249.832	83.75
250.066	89.75
250.299	80.75
250.532	88.75
250.765	80.75
250.998	71.75
251.231	89.75
251.465	85.75
251.698	82.75
251.931	78.75
252.164	81.75
252.397	82.75
252.63	81.75
252.863	105.75
253.096	86.75
253.329	92.75
253.562	79.75
253.795	75.75
254.028	65.75
254.261	69.75
254.494	64.75
254.727	81.75
254.96	59.75
255.193	85.75
255.426	80.75
255.659	76.75
255.892	91.75
256.124	79.75
256.357	87.75
256.59	88.75
256.823	77.75
257.056	79.75
257.289	87.75
257.521	83.75
257.754	79.75
257.987	79.75
258.22	72.75
258.452	101.75
258.685	68.75
258.918	83.75
259.151	81.75
259.383	90.75
259.616	76.75
259.849	68.75
260.081	81.75
260.314	69.75
260.547	76.75
260.779	79.75
261.012	76.75
261.244	82.75
261.477	74.75
261.71	95.75
261.942	80.75
262.175	111.75
262.407	92.75
262.64	76.75
262.872	71.75
263.105	84.75
263.337	84.75
263.57	98.75
263.802	83.75
264.035	79.75
264.267	96.75
264.499	75.75
264.732	88.75
264.964	81.75
265.197	86.75
265.429	79.75
265.661	98.75
265.894	85.75
266.126	89.75
266.358	90.75
266.591	81.75
266.823	71.75
267.055	82.75
267.287	89.75
267.52	72.75
267.752	83.75
267.984	84.75
268.216	91.75
268.448	90.75
268.681	86.75
268.913	83.75
269.145	91.75
269.377	87.75
269.609	83.75
269.841	82.75
270.073	90.75
270.306	87.75
270.538	96.75
270.77	81.75
271.002	87.75
271.234	89.75
271.466	74.75
271.698	85.75
271.93	96.75
272.162	81.75
272.394	66.75
272.626	85.75
272.858	66.75
273.09	92.75
273.322	77.75
273.553	96.75
273.785	99.75
274.017	91.75
274.249	93.75
274.481	88.75
274.713	91.75
274.945	94.75
275.176	85.75
275.408	89.75
275.64	87.75
275.872	85.75
276.104	76.75
276.335	99.75
276.567	85.75
276.799	83.75
277.031	89.75
277.262	92.75
277.494	99.75
277.726	73.75
277.957	86.75
278.189	83.75
278.421	94.75
278.652	83.75
278.884	88.75
279.115	88.75
279.347	83.75
279.579	89.75
279.81	96.75
280.042	91.75
280.273	90.75
280.505	86.75
280.736	74.75
280.968	89.75
281.199	95.75
281.431	83.75
281.662	91.75
281.894	89.75
282.125	89.75
282.356	98.75
282.588	128.75
282.819	105.75
283.051	89.75
283.282	83.75
283.513	75.75
283.745	72.75
283.976	86.75
284.207	81.75
284.439	76.75
284.67	87.75
284.901	69.75
285.132	73.75
285.364	82.75
285.595	84.75
285.826	91.75
286.057	91.75
286.288	91.75
286.52	77.75
286.751	90.75
286.982	85.75
287.213	100.75
287.444	92.75
287.675	84.75
287.906	81.75
288.138	91.75
288.369	90.75
288.6	92.75
288.831	87.75
289.062	82.75
289.293	85.75
289.524	91.75
289.755	91.75
289.986	97.75
290.217	90.75
290.448	87.75
290.679	85.75
290.91	89.75
291.141	92.75
291.371	96.75
291.602	87.75
291.833	79.75
292.064	79.75
292.295	81.75
292.526	91.75
292.757	88.75
292.987	92.75
293.218	76.75
293.449	79.75
293.68	91.75
293.91	98.75
294.141	103.75
294.372	84.75
294.603	85.75
294.833	80.75
295.064	84.75
295.295	99.75
295.525	91.75
295.756	95.75
295.987	110.75
296.217	136.75
296.448	116.75
296.679	99.75
296.909	68.75
297.14	91.75
297.37	89.75
297.601	72.75
297.831	73.75
298.062	95.75
298.292	87.75
298.523	90.75
298.753	91.75
298.984	79.75
299.214	98.75
299.445	98.75
299.675	91.75
299.905	105.75
300.136	82.75
300.366	95.75
300.597	101.75
300.827	103.75
301.057	89.75
301.288	96.75
301.518	88.75
301.748	90.75
301.979	99.75
302.209	94.75
302.439	88.75
302.669	87.75
302.9	89.75
303.13	95.75
303.36	100.75
303.59	97.75
303.82	102.75
304.051	106.75
304.281	93.75
304.511	88.75
304.741	92.75
304.971	96.75
305.201	100.75
305.431	79.75
305.661	80.75
305.891	89.75
306.121	85.75
306.352	103.75
306.582	97.75
306.812	89.75
307.042	84.75
307.272	78.75
307.502	90.75
307.731	100.75
307.961	85.75
308.191	89.75
308.421	101.75
308.651	96.75
308.881	93.75
309.111	91.75
309.341	95.75
309.571	100.75
309.8	83.75
310.03	95.75
310.26	83.75
310.49	97.75
310.72	106.75
310.949	95.75
311.179	93.75
311.409	91.75
311.639	100.75
311.868	89.75
312.098	93.75
312.328	101.75
312.557	103.75
312.787	97.75
313.017	89.75
313.246	79.75
313.476	97.75
313.706	109.75
313.935	101.75
314.165	81.75
314.394	115.75
314.624	104.75
314.853	95.75
315.083	80.75
315.312	100.75
315.542	96.75
315.771	95.75
316.001	99.75
316.23	108.75
316.46	86.75
316.689	91.75
316.919	90.75
317.148	87.75
317.377	90.75
317.607	79.75
317.836	97.75
318.065	98.75
318.295	98.75
318.524	98.75
318.753	100.75
318.983	97.75
319.212	92.75
319.441	96.75
319.67	114.75
319.9	77.75
320.129	91.75
320.358	88.75
320.587	102.75
320.816	97.75
321.046	100.75
321.275	105.75
321.504	90.75
321.733	91.75
321.962	95.75
322.191	112.75
322.42	100.75
322.649	110.75
322.878	116.75
323.108	113.75
323.337	104.75
323.566	127.75
323.795	139.75
324.024	172.75
324.253	355.75
324.482	712.75
324.71	1453.75
324.939	1940.75
325.168	723.75
325.397	217.75
325.626	132.75
325.855	130.75
326.084	131.75
326.313	134.75
326.542	153.75
326.77	224.75
326.999	405.75
327.228	867.75
327.457	1563.75
327.686	1171.75
327.914	331.75
328.143	179.75
328.372	151.75
328.6	105.75
328.829	112.75
329.058	94.75
329.287	115.75
329.515	84.75
329.744	106.75
329.972	93.75
330.201	113.75
330.43	123.75
330.658	115.75
330.887	114.75
331.115	109.75
331.344	103.75
331.572	81.75
331.801	97.75
332.03	95.75
332.258	104.75
332.486	93.75
332.715	101.75
332.943	99.75
333.172	89.75
333.4	105.75
333.629	115.75
333.857	103.75
334.085	93.75
334.314	103.75
334.542	132.75
334.771	125.75
334.999	102.75
335.227	95.75
335.455	91.75
335.684	101.75
335.912	91.75
336.14	94.75
336.369	93.75
336.597	99.75
336.825	88.75
337.053	91.75
337.281	86.75
337.51	92.75
337.738	98.75
337.966	79.75
338.194	95.75
338.422	108.75
338.65	100.75
338.878	90.75
339.106	98.75
339.334	91.75
339.562	87.75
339.79	84.75
340.018	82.75
340.246	87.75
340.474	82.75
340.702	91.75
340.93	90.75
341.158	93.75
341.386	96.75
341.614	96.75
341.842	91.75
342.07	94.75
342.298	77.75
342.526	87.75
342.754	95.75
342.981	91.75
343.209	74.75
343.437	96.75
343.665	91.75
343.893	101.75
344.12	92.75
344.348	100.75
344.576	91.75
344.804	94.75
345.031	91.75
345.259	94.75
345.487	85.75
345.714	93.75
345.942	91.75
346.17	93.75
346.397	101.75
346.625	101.75
346.853	88.75
347.08	104.75
347.308	90.75
347.535	86.75
347.763	103.75
347.99	98.75
348.218	103.75
348.445	117.75
348.673	106.75
348.9	93.75
349.128	99.75
349.355	97.75
349.583	97.75
349.81	90.75
350.037	95.75
350.265	102.75
350.492	99.75
350.72	99.75
350.947	96.75
351.174	98.75
351.402	106.75
351.629	89.75
351.856	86.75
352.083	95.75
352.311	96.75
352.538	96.75
352.765	100.75
352.992	101.75
353.22	102.75
353.447	91.75
353.674	91.75
353.901	96.75
354.128	100.75
354.355	96.75
354.583	93.75
354.81	99.75
355.037	83.75
355.264	92.75
355.491	91.75
355.718	87.75
355.945	83.75
356.172	90.75
356.399	94.75
356.626	93.75
356.853	88.75
357.08	96.75
357.307	99.75
357.534	83.75
357.761	92.75
357.988	85.75
358.215	92.75
358.441	99.75
358.668	90.75
358.895	103.75
359.122	97.75
359.349	93.75
359.576	98.75
359.802	83.75
360.029	112.75
360.256	106.75
360.483	110.75
360.709	90.75
360.936	79.75
361.163	102.75
361.39	85.75
361.616	91.75
361.843	88.75
362.07	92.75
362.296	92.75
362.523	85.75
362.749	86.75
362.976	104.75
363.203	96.75
363.429	90.75
363.656	107.75
363.882	96.75
364.109	107.75
364.335	84.75
364.562	96.75
364.788	92.75
365.015	92.75
365.241	97.75
365.468	94.75
365.694	105.75
365.92	90.75
366.147	96.75
366.373	93.75
366.599	91.75
366.826	72.75
367.052	95.75
367.278	90.75
367.505	87.75
367.731	92.75
367.957	86.75
368.184	93.75
368.41	97.75
368.636	102.75
368.862	122.75
369.089	108.75
369.315	91.75
369.541	91.75
369.767	90.75
369.993	92.75
370.219	93.75
370.445	103.75
370.672	91.75
370.898	85.75
371.124	91.75
371.35	87.75
371.576	73.75
371.802	80.75
372.028	74.75
372.254	85.75
372.48	83.75
372.706	98.75
372.932	96.75
373.158	96.75
373.384	104.75
373.61	98.75
373.835	110.75
374.061	92.75
374.287	93.75
374.513	90.75
374.739	77.75
374.965	88.75
375.191	95.75
375.416	84.75
375.642	81.75
375.868	94.75
376.094	101.75
376.319	84.75
376.545	82.75
376.771	75.75
376.997	83.75
377.222	93.75
377.448	88.75
377.674	96.75
377.899	89.75
378.125	97.75
378.35	108.75
378.576	94.75
378.802	93.75
379.027	98.75
379.253	107.75
379.478	95.75
379.704	97.75
379.929	82.75
380.155	97.75
380.38	92.75
380.606	73.75
380.831	101.75
381.057	99.75
381.282	92.75
381.507	101.75
381.733	97.75
381.958	104.75
382.184	98.75
382.409	97.75
382.634	117.75
382.86	102.75
383.085	103.75
383.31	103.75
383.535	91.75
383.761	92.75
383.986	82.75
384.211	100.75
384.436	100.75
384.662	94.75
384.887	108.75
385.112	101.75
385.337	116.75
385.562	103.75
385.787	111.75
386.013	101.75
386.238	116.75
386.463	101.75
386.688	103.75
386.913	108.75
387.138	127.75
387.363	111.75
387.588	119.75
387.813	111.75
388.038	110.75
388.263	116.75
388.488	101.75
388.713	89.75
388.938	99.75
389.163	100.75
389.387	94.75
389.612	107.75
389.837	81.75
390.062	99.75
390.287	99.75
390.512	84.75
390.736	102.75
390.961	97.75
391.186	88.75
391.411	87.75
391.636	105.75
391.86	90.75
392.085	84.75
392.31	82.75
392.534	93.75
392.759	94.75
392.984	85.75
393.208	92.75
393.433	84.75
393.658	84.75
393.882	81.75
394.107	74.75
394.331	92.75
394.556	76.75
394.78	103.75
395.005	100.75
395.229	81.75
395.454	86.75
395.678	97.75
395.903	85.75
396.127	95.75
396.352	93.75
396.576	83.75
396.801	88.75
397.025	85.75
397.249	89.75
397.474	88.75
397.698	82.75
397.922	88.75
398.147	91.75
398.371	83.75
398.595	88.75
398.82	95.75
399.044	93.75
399.268	93.75
399.492	77.75
399.717	96.75
399.941	95.75
400.165	94.75
400.389	100.75
400.613	91.75
400.837	74.75
401.062	90.75
401.286	83.75
401.51	79.75
401.734	87.75
401.958	85.75
402.182	104.75
402.406	144.75
402.63	108.75
402.854	92.75
403.078	95.75
403.302	83.75
403.526	72.75
403.75	98.75
403.974	69.75
404.198	82.75
404.422	83.75
404.645	100.75
404.869	87.75
405.093	88.75
405.317	107.75
405.541	90.75
405.765	101.75
405.988	104.75
406.212	140.75
406.436	162.75
406.66	122.75
406.883	100.75
407.107	88.75
407.331	95.75
407.555	91.75
407.778	107.75
408.002	76.75
408.226	88.75
408.449	89.75
408.673	81.75
408.896	93.75
409.12	85.75
409.344	102.75
409.567	83.75
409.791	83.75
410.014	96.75
410.238	104.75
410.461	88.75
410.685	103.75
410.908	99.75
411.132	106.75
411.355	106.75
411.578	89.75
411.802	99.75
412.025	81.75
412.249	85.75
412.472	97.75
412.695	95.75
412.919	88.75
413.142	71.75
413.365	98.75
413.589	85.75
413.812	98.75
414.035	80.75
414.258	93.75
414.482	85.75
414.705	91.75
414.928	94.75
415.151	106.75
415.374	109.75
415.597	85.75
415.821	86.75
416.044	97.75
416.267	95.75
416.49	83.75
416.713	95.75
416.936	102.75
417.159	77.75
417.382	86.75
417.605	76.75
417.828	100.75
418.051	104.75
418.274	91.75
418.497	84.75
418.72	97.75
418.943	85.75
419.166	90.75
419.389	84.75
419.611	99.75
419.834	88.75
420.057	95.75
420.28	92.75
420.503	89.75
420.726	83.75
420.948	91.75
421.171	88.75
421.394	105.75
421.617	99.75
421.839	79.75
422.062	71.75
422.285	96.75
422.507	99.75
422.73	107.75
422.953	100.75
423.175	85.75
423.398	85.75
423.621	84.75
423.843	76.75
424.066	93.75
424.288	76.75
424.511	91.75
424.733	95.75
424.956	99.75
425.178	80.75
425.401	87.75
425.623	107.75
425.846	90.75
426.068	99.75
426.291	81.75
426.513	91.75
426.735	82.75
426.958	89.75
427.18	106.75
427.402	136.75
427.625	128.75
427.847	124.75
428.069	102.75
428.292	87.75
428.514	93.75
428.736	84.75
428.958	89.75
429.181	81.75
429.403	77.75
429.625	86.75
429.847	97.75
430.069	83.75
430.292	100.75
430.514	87.75
430.736	80.75
430.958	88.75
431.18	75.75
431.402	79.75
431.624	92.75
431.846	85.75
432.068	83.75
432.29	97.75
432.512	85.75
432.734	90.75
432.956	92.75
433.178	87.75
433.4	90.75
433.622	77.75
433.844	93.75
434.066	86.75
434.287	99.75
434.509	89.75
434.731	76.75
434.953	81.75
435.175	82.75
435.397	73.75
435.618	83.75
435.84	91.75
436.062	97.75
436.284	100.75
436.505	84.75
436.727	81.75
436.949	82.75
437.17	95.75
437.392	80.75
437.614	86.75
437.835	120.75
438.057	111.75
438.278	107.75
438.5	104.75
438.721	95.75
438.943	106.75
439.165	88.75
439.386	106.75
439.608	86.75
439.829	99.75
440.05	113.75
440.272	131.75
440.493	77.75
440.715	82.75
440.936	89.75
441.158	68.75
441.379	72.75
441.6	80.75
441.822	89.75
442.043	111.75
442.264	90.75
442.486	96.75
442.707	90.75
442.928	106.75
443.149	97.75
443.371	106.75
443.592	99.75
443.813	117.75
444.034	99.75
444.255	87.75
444.476	93.75
444.698	96.75
444.919	84.75
445.14	124.75
445.361	131.75
445.582	115.75
445.803	117.75
446.024	116.75
446.245	129.75
446.466	110.75
446.687	97.75
446.908	89.75
447.129	75.75
447.35	96.75
447.571	96.75
447.792	93.75
448.013	90.75
448.234	98.75
448.455	92.75
448.675	111.75
448.896	124.75
449.117	97.75
449.338	112.75
449.559	113.75
449.779	119.75
450	84.75
450.221	69.75
450.442	83.75
450.662	89.75
450.883	96.75
451.104	91.75
451.324	95.75
451.545	86.75
451.766	91.75
451.986	98.75
452.207	88.75
452.428	96.75
452.648	84.75
452.869	96.75
453.089	83.75
453.31	107.75
453.53	80.75
453.751	95.75
453.971	96.75
454.192	103.75
454.412	70.75
454.633	68.75
454.853	85.75
455.073	90.75
455.294	93.75
455.514	99.75
455.734	84.75
455.955	84.75
456.175	92.75
456.395	81.75
456.616	75.75
456.836	76.75
457.056	74.75
457.276	75.75
457.497	74.75
457.717	93.75
457.937	79.75
458.157	74.75
458.377	79.75
458.598	101.75
458.818	133.75
459.038	133.75
459.258	98.75
459.478	85.75
459.698	95.75
459.918	90.75
460.138	89.75
460.358	87.75
460.578	85.75
460.798	79.75
461.018	95.75
461.238	84.75
461.458	97.75
461.678	84.75
461.898	88.75
462.118	94.75
462.338	99.75
462.558	94.75
462.777	77.75
462.997	83.75
463.217	82.75
463.437	96.75
463.657	101.75
463.876	70.75
464.096	95.75
464.316	97.75
464.536	81.75
464.755	88.75
464.975	108.75
465.195	129.75
465.414	144.75
465.634	92.75
465.854	91.75
466.073	86.75
466.293	87.75
466.512	90.75
466.732	83.75
466.951	91.75
467.171	92.75
467.391	91.75
467.61	97.75
467.829	79.75
468.049	80.75
468.268	88.75
468.488	87.75
468.707	81.75
468.927	88.75
469.146	92.75
469.365	75.75
469.585	84.75
469.804	94.75
470.023	84.75
470.243	91.75
470.462	88.75
470.681	87.75
470.901	84.75
471.12	97.75
471.339	88.75
471.558	92.75
471.777	88.75
471.997	73.75
472.216	91.75
472.435	138.75
472.654	89.75
472.873	82.75
473.092	93.75
473.311	87.75
473.53	90.75
473.749	107.75
473.968	86.75
474.187	95.75
474.406	92.75
474.625	92.75
474.844	79.75
475.063	83.75
475.282	86.75
475.501	102.75
475.72	95.75
475.939	79.75
476.158	82.75
476.377	89.75
476.596	86.75
476.814	91.75
477.033	90.75
477.252	79.75
477.471	89.75
477.69	83.75
477.908	79.75
478.127	89.75
478.346	76.75
478.564	91.75
478.783	88.75
479.002	87.75
479.22	107.75
479.439	85.75
479.658	103.75
479.876	92.75
480.095	72.75
480.313	88.75
480.532	80.75
480.751	97.75
480.969	115.75
481.188	187.75
481.406	148.75
481.624	75.75
481.843	94.75
482.061	87.75
482.28	87.75
482.498	105.75
482.717	82.75
482.935	101.75
483.153	79.75
483.372	83.75
483.59	100.75
483.808	96.75
484.027	87.75
484.245	89.75
484.463	90.75
484.681	92.75
484.9	97.75
485.118	102.75
485.336	87.75
485.554	93.75
485.772	87.75
485.99	96.75
486.209	111.75
486.427	79.75
486.645	100.75
486.863	102.75
487.081	101.75
487.299	100.75
487.517	102.75
487.735	87.75
487.953	106.75
488.171	96.75
488.389	89.75
488.607	100.75
488.825	85.75
489.043	89.75
489.261	91.75
489.479	83.75
489.696	85.75
489.914	95.75
490.132	85.75
490.35	97.75
490.568	63.75
490.786	80.75
491.003	86.75
491.221	91.75
491.439	105.75
491.657	104.75
491.874	101.75
492.092	85.75
492.31	87.75
492.527	103.75
492.745	101.75
492.963	100.75
493.18	90.75
493.398	96.75
493.615	94.75
493.833	95.75
494.05	91.75
494.268	88.75
494.485	87.75
494.703	93.75
494.92	93.75
495.138	91.75
495.355	96.75
495.573	87.75
495.79	93.75
496.008	88.75
496.225	98.75
496.442	97.75
496.66	103.75
496.877	83.75
497.094	107.75
497.312	91.75
497.529	86.75
497.746	88.75
497.963	108.75
498.181	90.75
498.398	92.75
498.615	86.75
498.832	96.75
499.049	95.75
499.267	89.75
499.484	89.75
499.701	92.75
499.918	77.75
500.135	76.75
500.352	88.75
500.569	84.75
500.786	86.75
501.003	100.75
501.22	87.75
501.437	97.75
501.654	84.75
501.871	109.75
502.088	97.75
502.305	99.75
502.522	103.75
502.739	83.75
502.956	88.75
503.172	88.75
503.389	95.75
503.606	108.75
503.823	105.75
504.04	94.75
504.256	87.75
504.473	73.75
504.69	103.75
504.907	93.75
505.123	88.75
505.34	101.75
505.557	89.75
505.773	85.75
505.99	91.75
506.207	77.75
506.423	83.75
506.64	97.75
506.856	74.75
507.073	79.75
507.289	89.75
507.506	91.75
507.722	106.75
507.939	97.75
508.155	96.75
508.372	91.75
508.588	92.75
508.805	106.75
509.021	98.75
509.238	97.75
509.454	106.75
509.67	99.75
509.887	120.75
510.103	115.75
510.319	176.75
510.536	621.75
510.752	1845.75
510.968	501.75
511.184	127.75
511.401	107.75
511.617	98.75
511.833	70.75
512.049	79.75
512.265	89.75
512.481	99.75
512.698	109.75
512.914	88.75
513.13	99.75
513.346	90.75
513.562	93.75
513.778	97.75
513.994	94.75
514.21	93.75
514.426	116.75
514.642	110.75
514.858	108.75
515.074	141.75
515.29	363.75
515.506	1041.75
515.721	393.75
515.937	127.75
516.153	95.75
