Data from Uncirc_1982_H10_HRD10591_00079.txt Node
Date: Wed Jan 03 12:29:40 EST 2024
User: Yrep
Spectrometer: HR+D1059
Trigger mode: 1
Integration Time (sec): 1.000000E-1
Scans to average: 1
Electric dark correction enabled: true
Nonlinearity correction enabled: false
Boxcar width: 0
XAxis mode: Wavelengths
Number of Pixels in Spectrum: 2048
>>>>>Begin Spectral Data<<<<<
223.165	-26.94
223.4	-26.94
223.635	-26.94
223.869	-15.94
224.104	-21.94
224.338	-13.94
224.573	-6.94
224.808	-15.94
225.042	-19.94
225.277	-1.94
225.511	8.06
225.746	2.06
225.98	11.06
226.215	16.06
226.449	22.06
226.683	16.06
226.918	10.06
227.152	38.06
227.387	32.06
227.621	37.06
227.856	34.06
228.09	47.06
228.324	48.06
228.559	50.06
228.793	54.06
229.027	52.06
229.262	56.06
229.496	80.06
229.73	81.06
229.964	67.06
230.199	89.06
230.433	73.06
230.667	71.06
230.901	79.06
231.136	83.06
231.37	68.06
231.604	64.06
231.838	84.06
232.072	70.06
232.306	85.06
232.541	75.06
232.775	66.06
233.009	76.06
233.243	95.06
233.477	80.06
233.711	84.06
233.945	91.06
234.179	103.06
234.413	82.06
234.647	72.06
234.881	78.06
235.115	80.06
235.349	65.06
235.583	68.06
235.817	73.06
236.051	73.06
236.285	78.06
236.519	75.06
236.753	68.06
236.987	58.06
237.221	82.06
237.455	75.06
237.689	75.06
237.922	74.06
238.156	80.06
238.39	60.06
238.624	66.06
238.858	74.06
239.091	64.06
239.325	85.06
239.559	73.06
239.793	71.06
240.027	73.06
240.26	64.06
240.494	74.06
240.728	74.06
240.961	84.06
241.195	82.06
241.429	71.06
241.662	78.06
241.896	96.06
242.13	83.06
242.363	71.06
242.597	66.06
242.83	72.06
243.064	70.06
243.298	76.06
243.531	83.06
243.765	80.06
243.998	79.06
244.232	85.06
244.465	84.06
244.699	79.06
244.932	82.06
245.166	75.06
245.399	82.06
245.633	85.06
245.866	81.06
246.099	68.06
246.333	68.06
246.566	70.06
246.8	80.06
247.033	70.06
247.266	80.06
247.5	71.06
247.733	75.06
247.966	83.06
248.2	83.06
248.433	66.06
248.666	84.06
248.899	75.06
249.133	89.06
249.366	81.06
249.599	85.06
249.832	84.06
250.066	59.06
250.299	78.06
250.532	87.06
250.765	71.06
250.998	58.06
251.231	82.06
251.465	84.06
251.698	72.06
251.931	80.06
252.164	83.06
252.397	67.06
252.63	70.06
252.863	82.06
253.096	73.06
253.329	93.06
253.562	86.06
253.795	85.06
254.028	84.06
254.261	88.06
254.494	80.06
254.727	86.06
254.96	79.06
255.193	83.06
255.426	68.06
255.659	76.06
255.892	80.06
256.124	82.06
256.357	67.06
256.59	63.06
256.823	78.06
257.056	78.06
257.289	93.06
257.521	58.06
257.754	70.06
257.987	85.06
258.22	55.06
258.452	75.06
258.685	77.06
258.918	71.06
259.151	73.06
259.383	81.06
259.616	89.06
259.849	83.06
260.081	65.06
260.314	84.06
260.547	84.06
260.779	79.06
261.012	78.06
261.244	84.06
261.477	82.06
261.71	82.06
261.942	117.06
262.175	93.06
262.407	82.06
262.64	78.06
262.872	74.06
263.105	75.06
263.337	67.06
263.57	87.06
263.802	75.06
264.035	72.06
264.267	86.06
264.499	73.06
264.732	84.06
264.964	78.06
265.197	82.06
265.429	79.06
265.661	89.06
265.894	82.06
266.126	71.06
266.358	81.06
266.591	86.06
266.823	82.06
267.055	83.06
267.287	72.06
267.52	88.06
267.752	81.06
267.984	72.06
268.216	90.06
268.448	75.06
268.681	76.06
268.913	77.06
269.145	90.06
269.377	74.06
269.609	85.06
269.841	76.06
270.073	86.06
270.306	88.06
270.538	70.06
270.77	82.06
271.002	79.06
271.234	86.06
271.466	70.06
271.698	87.06
271.93	84.06
272.162	75.06
272.394	89.06
272.626	84.06
272.858	75.06
273.09	81.06
273.322	76.06
273.553	67.06
273.785	80.06
274.017	88.06
274.249	86.06
274.481	91.06
274.713	80.06
274.945	72.06
275.176	81.06
275.408	81.06
275.64	73.06
275.872	83.06
276.104	82.06
276.335	88.06
276.567	89.06
276.799	90.06
277.031	91.06
277.262	71.06
277.494	74.06
277.726	66.06
277.957	82.06
278.189	92.06
278.421	88.06
278.652	87.06
278.884	82.06
279.115	74.06
279.347	73.06
279.579	87.06
279.81	94.06
280.042	84.06
280.273	71.06
280.505	86.06
280.736	76.06
280.968	83.06
281.199	72.06
281.431	97.06
281.662	83.06
281.894	83.06
282.125	91.06
282.356	109.06
282.588	116.06
282.819	91.06
283.051	80.06
283.282	80.06
283.513	79.06
283.745	82.06
283.976	88.06
284.207	81.06
284.439	74.06
284.67	79.06
284.901	84.06
285.132	93.06
285.364	82.06
285.595	83.06
285.826	87.06
286.057	93.06
286.288	99.06
286.52	88.06
286.751	80.06
286.982	72.06
287.213	86.06
287.444	95.06
287.675	98.06
287.906	89.06
288.138	85.06
288.369	84.06
288.6	87.06
288.831	86.06
289.062	79.06
289.293	86.06
289.524	84.06
289.755	74.06
289.986	90.06
290.217	82.06
290.448	81.06
290.679	80.06
290.91	95.06
291.141	92.06
291.371	81.06
291.602	70.06
291.833	86.06
292.064	75.06
292.295	87.06
292.526	99.06
292.757	90.06
292.987	84.06
293.218	92.06
293.449	99.06
293.68	95.06
293.91	87.06
294.141	75.06
294.372	82.06
294.603	88.06
294.833	86.06
295.064	82.06
295.295	80.06
295.525	81.06
295.756	92.06
295.987	106.06
296.217	121.06
296.448	103.06
296.679	74.06
296.909	91.06
297.14	86.06
297.37	99.06
297.601	86.06
297.831	91.06
298.062	93.06
298.292	75.06
298.523	92.06
298.753	66.06
298.984	82.06
299.214	92.06
299.445	84.06
299.675	75.06
299.905	87.06
300.136	89.06
300.366	88.06
300.597	97.06
300.827	88.06
301.057	80.06
301.288	106.06
301.518	89.06
301.748	89.06
301.979	101.06
302.209	90.06
302.439	96.06
302.669	97.06
302.9	91.06
303.13	72.06
303.36	78.06
303.59	92.06
303.82	104.06
304.051	105.06
304.281	91.06
304.511	96.06
304.741	93.06
304.971	79.06
305.201	88.06
305.431	99.06
305.661	82.06
305.891	83.06
306.121	104.06
306.352	98.06
306.582	88.06
306.812	90.06
307.042	93.06
307.272	95.06
307.502	96.06
307.731	101.06
307.961	98.06
308.191	96.06
308.421	92.06
308.651	82.06
308.881	90.06
309.111	85.06
309.341	82.06
309.571	81.06
309.8	110.06
310.03	97.06
310.26	82.06
310.49	80.06
310.72	78.06
310.949	88.06
311.179	91.06
311.409	81.06
311.639	86.06
311.868	92.06
312.098	91.06
312.328	101.06
312.557	99.06
312.787	93.06
313.017	97.06
313.246	102.06
313.476	86.06
313.706	82.06
313.935	89.06
314.165	80.06
314.394	100.06
314.624	85.06
314.853	100.06
315.083	84.06
315.312	83.06
315.542	87.06
315.771	87.06
316.001	84.06
316.23	76.06
316.46	82.06
316.689	80.06
316.919	88.06
317.148	85.06
317.377	95.06
317.607	99.06
317.836	90.06
318.065	90.06
318.295	100.06
318.524	85.06
318.753	91.06
318.983	99.06
319.212	103.06
319.441	81.06
319.67	92.06
319.9	94.06
320.129	74.06
320.358	75.06
320.587	86.06
320.816	92.06
321.046	101.06
321.275	86.06
321.504	82.06
321.733	71.06
321.962	85.06
322.191	83.06
322.42	82.06
322.649	86.06
322.878	101.06
323.108	100.06
323.337	103.06
323.566	112.06
323.795	124.06
324.024	175.06
324.253	334.06
324.482	710.06
324.71	1442.06
324.939	1919.06
325.168	696.06
325.397	220.06
325.626	135.06
325.855	114.06
326.084	121.06
326.313	118.06
326.542	144.06
326.77	197.06
326.999	410.06
327.228	820.06
327.457	1458.06
327.686	1163.06
327.914	314.06
328.143	165.06
328.372	142.06
328.6	107.06
328.829	112.06
329.058	115.06
329.287	101.06
329.515	99.06
329.744	105.06
329.972	98.06
330.201	106.06
330.43	119.06
330.658	104.06
330.887	101.06
331.115	105.06
331.344	91.06
331.572	105.06
331.801	98.06
332.03	112.06
332.258	80.06
332.486	109.06
332.715	80.06
332.943	104.06
333.172	82.06
333.4	101.06
333.629	95.06
333.857	109.06
334.085	90.06
334.314	120.06
334.542	119.06
334.771	104.06
334.999	78.06
335.227	102.06
335.455	95.06
335.684	91.06
335.912	102.06
336.14	98.06
336.369	97.06
336.597	90.06
336.825	97.06
337.053	90.06
337.281	80.06
337.51	103.06
337.738	78.06
337.966	91.06
338.194	91.06
338.422	83.06
338.65	84.06
338.878	91.06
339.106	90.06
339.334	94.06
339.562	93.06
339.79	92.06
340.018	86.06
340.246	74.06
340.474	86.06
340.702	94.06
340.93	79.06
341.158	87.06
341.386	101.06
341.614	88.06
341.842	86.06
342.07	95.06
342.298	86.06
342.526	79.06
342.754	74.06
342.981	88.06
343.209	102.06
343.437	96.06
343.665	80.06
343.893	81.06
344.12	91.06
344.348	82.06
344.576	82.06
344.804	82.06
345.031	83.06
345.259	87.06
345.487	90.06
345.714	78.06
345.942	90.06
346.17	97.06
346.397	82.06
346.625	91.06
346.853	87.06
347.08	98.06
347.308	82.06
347.535	90.06
347.763	92.06
347.99	102.06
348.218	82.06
348.445	103.06
348.673	100.06
348.9	82.06
349.128	83.06
349.355	92.06
349.583	86.06
349.81	86.06
350.037	88.06
350.265	91.06
350.492	78.06
350.72	91.06
350.947	96.06
351.174	97.06
351.402	105.06
351.629	99.06
351.856	100.06
352.083	82.06
352.311	116.06
352.538	114.06
352.765	102.06
352.992	102.06
353.22	104.06
353.447	91.06
353.674	102.06
353.901	117.06
354.128	100.06
354.355	76.06
354.583	105.06
354.81	93.06
355.037	96.06
355.264	91.06
355.491	99.06
355.718	97.06
355.945	97.06
356.172	84.06
356.399	106.06
356.626	94.06
356.853	103.06
357.08	76.06
357.307	93.06
357.534	96.06
357.761	75.06
357.988	89.06
358.215	79.06
358.441	91.06
358.668	94.06
358.895	92.06
359.122	94.06
359.349	88.06
359.576	94.06
359.802	86.06
360.029	84.06
360.256	100.06
360.483	87.06
360.709	89.06
360.936	102.06
361.163	88.06
361.39	88.06
361.616	93.06
361.843	91.06
362.07	92.06
362.296	89.06
362.523	82.06
362.749	78.06
362.976	87.06
363.203	91.06
363.429	88.06
363.656	85.06
363.882	78.06
364.109	98.06
364.335	81.06
364.562	92.06
364.788	62.06
365.015	90.06
365.241	82.06
365.468	100.06
365.694	105.06
365.92	87.06
366.147	76.06
366.373	80.06
366.599	86.06
366.826	90.06
367.052	81.06
367.278	99.06
367.505	92.06
367.731	95.06
367.957	72.06
368.184	78.06
368.41	97.06
368.636	102.06
368.862	107.06
369.089	88.06
369.315	86.06
369.541	83.06
369.767	93.06
369.993	80.06
370.219	100.06
370.445	87.06
370.672	80.06
370.898	90.06
371.124	81.06
371.35	86.06
371.576	96.06
371.802	101.06
372.028	92.06
372.254	85.06
372.48	88.06
372.706	82.06
372.932	99.06
373.158	80.06
373.384	89.06
373.61	96.06
373.835	86.06
374.061	80.06
374.287	81.06
374.513	89.06
374.739	85.06
374.965	96.06
375.191	94.06
375.416	96.06
375.642	88.06
375.868	69.06
376.094	80.06
376.319	72.06
376.545	80.06
376.771	88.06
376.997	91.06
377.222	92.06
377.448	97.06
377.674	95.06
377.899	105.06
378.125	86.06
378.35	95.06
378.576	84.06
378.802	83.06
379.027	81.06
379.253	106.06
379.478	83.06
379.704	88.06
379.929	97.06
380.155	93.06
380.38	94.06
380.606	97.06
380.831	93.06
381.057	91.06
381.282	87.06
381.507	90.06
381.733	87.06
381.958	97.06
382.184	96.06
382.409	85.06
382.634	100.06
382.86	101.06
383.085	84.06
383.31	104.06
383.535	106.06
383.761	84.06
383.986	81.06
384.211	105.06
384.436	93.06
384.662	82.06
384.887	91.06
385.112	97.06
385.337	97.06
385.562	113.06
385.787	75.06
386.013	105.06
386.238	107.06
386.463	105.06
386.688	103.06
386.913	106.06
387.138	94.06
387.363	104.06
387.588	103.06
387.813	80.06
388.038	96.06
388.263	100.06
388.488	87.06
388.713	99.06
388.938	102.06
389.163	95.06
389.387	105.06
389.612	100.06
389.837	93.06
390.062	81.06
390.287	86.06
390.512	86.06
390.736	91.06
390.961	95.06
391.186	102.06
391.411	94.06
391.636	92.06
391.86	86.06
392.085	93.06
392.31	77.06
392.534	87.06
392.759	83.06
392.984	112.06
393.208	89.06
393.433	102.06
393.658	89.06
393.882	63.06
394.107	92.06
394.331	80.06
394.556	79.06
394.78	72.06
395.005	93.06
395.229	80.06
395.454	87.06
395.678	91.06
395.903	91.06
396.127	96.06
396.352	89.06
396.576	82.06
396.801	75.06
397.025	82.06
397.249	84.06
397.474	69.06
397.698	78.06
397.922	88.06
398.147	91.06
398.371	87.06
398.595	88.06
398.82	79.06
399.044	84.06
399.268	81.06
399.492	68.06
399.717	70.06
399.941	98.06
400.165	79.06
400.389	101.06
400.613	86.06
400.837	88.06
401.062	94.06
401.286	64.06
401.51	92.06
401.734	90.06
401.958	96.06
402.182	91.06
402.406	132.06
402.63	105.06
402.854	89.06
403.078	97.06
403.302	82.06
403.526	90.06
403.75	83.06
403.974	86.06
404.198	90.06
404.422	88.06
404.645	78.06
404.869	83.06
405.093	106.06
405.317	88.06
405.541	104.06
405.765	87.06
405.988	102.06
406.212	123.06
406.436	169.06
406.66	117.06
406.883	94.06
407.107	86.06
407.331	91.06
407.555	95.06
407.778	108.06
408.002	87.06
408.226	90.06
408.449	83.06
408.673	80.06
408.896	83.06
409.12	93.06
409.344	82.06
409.567	92.06
409.791	86.06
410.014	83.06
410.238	87.06
410.461	83.06
410.685	95.06
410.908	105.06
411.132	98.06
411.355	98.06
411.578	85.06
411.802	78.06
412.025	88.06
412.249	85.06
412.472	79.06
412.695	93.06
412.919	95.06
413.142	87.06
413.365	81.06
413.589	79.06
413.812	88.06
414.035	102.06
414.258	85.06
414.482	94.06
414.705	91.06
414.928	90.06
415.151	102.06
415.374	92.06
415.597	83.06
415.821	87.06
416.044	79.06
416.267	96.06
416.49	89.06
416.713	84.06
416.936	87.06
417.159	79.06
417.382	92.06
417.605	85.06
417.828	91.06
418.051	87.06
418.274	93.06
418.497	87.06
418.72	95.06
418.943	80.06
419.166	77.06
419.389	83.06
419.611	84.06
419.834	90.06
420.057	95.06
420.28	82.06
420.503	84.06
420.726	81.06
420.948	88.06
421.171	69.06
421.394	99.06
421.617	89.06
421.839	94.06
422.062	85.06
422.285	94.06
422.507	86.06
422.73	84.06
422.953	95.06
423.175	85.06
423.398	100.06
423.621	88.06
423.843	82.06
424.066	75.06
424.288	80.06
424.511	80.06
424.733	91.06
424.956	98.06
425.178	100.06
425.401	86.06
425.623	84.06
425.846	90.06
426.068	84.06
426.291	94.06
426.513	74.06
426.735	86.06
426.958	85.06
427.18	99.06
427.402	128.06
427.625	134.06
427.847	106.06
428.069	100.06
428.292	87.06
428.514	86.06
428.736	73.06
428.958	82.06
429.181	69.06
429.403	91.06
429.625	81.06
429.847	91.06
430.069	98.06
430.292	92.06
430.514	77.06
430.736	81.06
430.958	84.06
431.18	75.06
431.402	89.06
431.624	84.06
431.846	82.06
432.068	84.06
432.29	65.06
432.512	75.06
432.734	72.06
432.956	76.06
433.178	78.06
433.4	97.06
433.622	99.06
433.844	95.06
434.066	91.06
434.287	100.06
434.509	96.06
434.731	83.06
434.953	89.06
435.175	78.06
435.397	80.06
435.618	82.06
435.84	92.06
436.062	102.06
436.284	94.06
436.505	92.06
436.727	95.06
436.949	98.06
437.17	91.06
437.392	85.06
437.614	80.06
437.835	79.06
438.057	109.06
438.278	107.06
438.5	89.06
438.721	98.06
438.943	81.06
439.165	82.06
439.386	84.06
439.608	90.06
439.829	92.06
440.05	98.06
440.272	120.06
440.493	91.06
440.715	83.06
440.936	69.06
441.158	77.06
441.379	94.06
441.6	83.06
441.822	102.06
442.043	99.06
442.264	97.06
442.486	88.06
442.707	101.06
442.928	91.06
443.149	91.06
443.371	104.06
443.592	92.06
443.813	100.06
444.034	101.06
444.255	86.06
444.476	89.06
444.698	74.06
444.919	95.06
445.14	129.06
445.361	114.06
445.582	119.06
445.803	118.06
446.024	107.06
446.245	130.06
446.466	108.06
446.687	89.06
446.908	82.06
447.129	85.06
447.35	83.06
447.571	86.06
447.792	78.06
448.013	101.06
448.234	99.06
448.455	119.06
448.675	101.06
448.896	109.06
449.117	87.06
449.338	96.06
449.559	114.06
449.779	108.06
450	99.06
450.221	68.06
450.442	98.06
450.662	66.06
450.883	88.06
451.104	92.06
451.324	99.06
451.545	83.06
451.766	80.06
451.986	88.06
452.207	94.06
452.428	84.06
452.648	81.06
452.869	96.06
453.089	102.06
453.31	101.06
453.53	93.06
453.751	84.06
453.971	83.06
454.192	99.06
454.412	76.06
454.633	73.06
454.853	95.06
455.073	87.06
455.294	74.06
455.514	90.06
455.734	97.06
455.955	86.06
456.175	76.06
456.395	71.06
456.616	82.06
456.836	102.06
457.056	81.06
457.276	86.06
457.497	71.06
457.717	82.06
457.937	87.06
458.157	84.06
458.377	98.06
458.598	92.06
458.818	112.06
459.038	121.06
459.258	109.06
459.478	78.06
459.698	87.06
459.918	65.06
460.138	85.06
460.358	74.06
460.578	91.06
460.798	84.06
461.018	87.06
461.238	65.06
461.458	72.06
461.678	70.06
461.898	82.06
462.118	85.06
462.338	92.06
462.558	92.06
462.777	75.06
462.997	82.06
463.217	88.06
463.437	81.06
463.657	90.06
463.876	82.06
464.096	71.06
464.316	98.06
464.536	99.06
464.755	92.06
464.975	87.06
465.195	131.06
465.414	134.06
465.634	89.06
465.854	87.06
466.073	73.06
466.293	80.06
466.512	92.06
466.732	71.06
466.951	90.06
467.171	89.06
467.391	89.06
467.61	91.06
467.829	86.06
468.049	79.06
468.268	96.06
468.488	86.06
468.707	78.06
468.927	71.06
469.146	73.06
469.365	92.06
469.585	100.06
469.804	92.06
470.023	82.06
470.243	97.06
470.462	103.06
470.681	97.06
470.901	100.06
471.12	100.06
471.339	96.06
471.558	82.06
471.777	84.06
471.997	90.06
472.216	91.06
472.435	118.06
472.654	86.06
472.873	96.06
473.092	91.06
473.311	82.06
473.53	84.06
473.749	83.06
473.968	87.06
474.187	97.06
474.406	90.06
474.625	87.06
474.844	84.06
475.063	82.06
475.282	71.06
475.501	80.06
475.72	78.06
475.939	70.06
476.158	68.06
476.377	84.06
476.596	72.06
476.814	82.06
477.033	76.06
477.252	87.06
477.471	89.06
477.69	86.06
477.908	88.06
478.127	85.06
478.346	95.06
478.564	79.06
478.783	92.06
479.002	89.06
479.22	80.06
479.439	104.06
479.658	89.06
479.876	93.06
480.095	78.06
480.313	79.06
480.532	82.06
480.751	88.06
480.969	109.06
481.188	194.06
481.406	134.06
481.624	96.06
481.843	91.06
482.061	80.06
482.28	85.06
482.498	83.06
482.717	75.06
482.935	75.06
483.153	91.06
483.372	98.06
483.59	91.06
483.808	86.06
484.027	90.06
484.245	82.06
484.463	84.06
484.681	87.06
484.9	66.06
485.118	108.06
485.336	93.06
485.554	98.06
485.772	96.06
485.99	97.06
486.209	101.06
486.427	86.06
486.645	98.06
486.863	114.06
487.081	107.06
487.299	105.06
487.517	103.06
487.735	88.06
487.953	78.06
488.171	81.06
488.389	95.06
488.607	96.06
488.825	72.06
489.043	87.06
489.261	94.06
489.479	77.06
489.696	90.06
489.914	88.06
490.132	79.06
490.35	77.06
490.568	78.06
490.786	69.06
491.003	88.06
491.221	89.06
491.439	85.06
491.657	91.06
491.874	97.06
492.092	98.06
492.31	96.06
492.527	83.06
492.745	80.06
492.963	79.06
493.18	89.06
493.398	95.06
493.615	98.06
493.833	88.06
494.05	90.06
494.268	82.06
494.485	107.06
494.703	88.06
494.92	97.06
495.138	96.06
495.355	84.06
495.573	75.06
495.79	73.06
496.008	88.06
496.225	84.06
496.442	96.06
496.66	92.06
496.877	96.06
497.094	82.06
497.312	106.06
497.529	79.06
497.746	85.06
497.963	87.06
498.181	89.06
498.398	94.06
498.615	103.06
498.832	87.06
499.049	81.06
499.267	90.06
499.484	97.06
499.701	88.06
499.918	88.06
500.135	90.06
500.352	85.06
500.569	95.06
500.786	91.06
501.003	87.06
501.22	92.06
501.437	88.06
501.654	95.06
501.871	87.06
502.088	82.06
502.305	79.06
502.522	86.06
502.739	93.06
502.956	90.06
503.172	79.06
503.389	98.06
503.606	88.06
503.823	103.06
504.04	90.06
504.256	96.06
504.473	80.06
504.69	87.06
504.907	78.06
505.123	80.06
505.34	75.06
505.557	82.06
505.773	95.06
505.99	86.06
506.207	79.06
506.423	73.06
506.64	87.06
506.856	101.06
507.073	101.06
507.289	76.06
507.506	86.06
507.722	105.06
507.939	100.06
508.155	94.06
508.372	92.06
508.588	83.06
508.805	102.06
509.021	90.06
509.238	94.06
509.454	92.06
509.67	102.06
509.887	96.06
510.103	127.06
510.319	199.06
510.536	628.06
510.752	1864.06
510.968	512.06
511.184	147.06
511.401	99.06
511.617	74.06
511.833	78.06
512.049	90.06
512.265	93.06
512.481	93.06
512.698	94.06
512.914	80.06
513.13	82.06
513.346	94.06
513.562	87.06
513.778	90.06
513.994	88.06
514.21	82.06
514.426	112.06
514.642	131.06
514.858	123.06
515.074	133.06
515.29	367.06
515.506	1068.06
515.721	383.06
515.937	115.06
516.153	94.06
516.369	98.06
516.585	95.06
516.801	82.06
517.016	88.06
517.232	90.06
