Data from Uncirc_1982_H10_HRD10591_00047.txt Node
Date: Wed Jan 03 12:29:34 EST 2024
User: Yrep
Spectrometer: HR+D1059
Trigger mode: 1
Integration Time (sec): 1.000000E-1
Scans to average: 1
Electric dark correction enabled: true
Nonlinearity correction enabled: false
Boxcar width: 0
XAxis mode: Wavelengths
Number of Pixels in Spectrum: 2048
>>>>>Begin Spectral Data<<<<<
223.165	-20.5
223.4	-20.5
223.635	-20.5
223.869	-30.5
224.104	-7.5
224.338	-18.5
224.573	-18.5
224.808	1.5
225.042	-3.5
225.277	-21.5
225.511	0.5
225.746	21.5
225.98	4.5
226.215	11.5
226.449	17.5
226.683	25.5
226.918	6.5
227.152	31.5
227.387	27.5
227.621	42.5
227.856	34.5
228.09	37.5
228.324	53.5
228.559	38.5
228.793	47.5
229.027	71.5
229.262	64.5
229.496	63.5
229.73	71.5
229.964	74.5
230.199	77.5
230.433	76.5
230.667	75.5
230.901	67.5
231.136	64.5
231.37	65.5
231.604	79.5
231.838	74.5
232.072	71.5
232.306	80.5
232.541	79.5
232.775	74.5
233.009	81.5
233.243	95.5
233.477	86.5
233.711	81.5
233.945	88.5
234.179	78.5
234.413	74.5
234.647	77.5
234.881	89.5
235.115	81.5
235.349	68.5
235.583	75.5
235.817	80.5
236.051	74.5
236.285	83.5
236.519	72.5
236.753	58.5
236.987	85.5
237.221	70.5
237.455	80.5
237.689	85.5
237.922	76.5
238.156	64.5
238.39	77.5
238.624	79.5
238.858	77.5
239.091	75.5
239.325	72.5
239.559	71.5
239.793	73.5
240.027	91.5
240.26	82.5
240.494	83.5
240.728	64.5
240.961	75.5
241.195	82.5
241.429	86.5
241.662	67.5
241.896	80.5
242.13	72.5
242.363	82.5
242.597	63.5
242.83	66.5
243.064	74.5
243.298	71.5
243.531	67.5
243.765	74.5
243.998	70.5
244.232	80.5
244.465	73.5
244.699	72.5
244.932	77.5
245.166	85.5
245.399	88.5
245.633	68.5
245.866	91.5
246.099	70.5
246.333	76.5
246.566	82.5
246.8	74.5
247.033	85.5
247.266	76.5
247.5	82.5
247.733	70.5
247.966	72.5
248.2	74.5
248.433	68.5
248.666	83.5
248.899	83.5
249.133	76.5
249.366	67.5
249.599	91.5
249.832	75.5
250.066	71.5
250.299	79.5
250.532	71.5
250.765	76.5
250.998	88.5
251.231	60.5
251.465	71.5
251.698	73.5
251.931	71.5
252.164	97.5
252.397	86.5
252.63	81.5
252.863	67.5
253.096	69.5
253.329	70.5
253.562	76.5
253.795	86.5
254.028	87.5
254.261	85.5
254.494	71.5
254.727	81.5
254.96	74.5
255.193	71.5
255.426	58.5
255.659	65.5
255.892	101.5
256.124	91.5
256.357	75.5
256.59	87.5
256.823	86.5
257.056	85.5
257.289	87.5
257.521	74.5
257.754	91.5
257.987	69.5
258.22	78.5
258.452	76.5
258.685	79.5
258.918	64.5
259.151	89.5
259.383	83.5
259.616	79.5
259.849	80.5
260.081	73.5
260.314	85.5
260.547	72.5
260.779	83.5
261.012	79.5
261.244	83.5
261.477	82.5
261.71	83.5
261.942	99.5
262.175	85.5
262.407	83.5
262.64	80.5
262.872	94.5
263.105	82.5
263.337	82.5
263.57	81.5
263.802	85.5
264.035	77.5
264.267	80.5
264.499	83.5
264.732	78.5
264.964	66.5
265.197	83.5
265.429	81.5
265.661	85.5
265.894	97.5
266.126	89.5
266.358	94.5
266.591	78.5
266.823	75.5
267.055	73.5
267.287	82.5
267.52	82.5
267.752	68.5
267.984	71.5
268.216	69.5
268.448	92.5
268.681	79.5
268.913	83.5
269.145	83.5
269.377	77.5
269.609	85.5
269.841	96.5
270.073	93.5
270.306	83.5
270.538	91.5
270.77	74.5
271.002	71.5
271.234	83.5
271.466	89.5
271.698	76.5
271.93	84.5
272.162	83.5
272.394	81.5
272.626	79.5
272.858	83.5
273.09	89.5
273.322	77.5
273.553	85.5
273.785	93.5
274.017	80.5
274.249	73.5
274.481	83.5
274.713	94.5
274.945	91.5
275.176	76.5
275.408	83.5
275.64	99.5
275.872	76.5
276.104	76.5
276.335	99.5
276.567	96.5
276.799	100.5
277.031	95.5
277.262	80.5
277.494	71.5
277.726	82.5
277.957	81.5
278.189	84.5
278.421	83.5
278.652	84.5
278.884	91.5
279.115	85.5
279.347	77.5
279.579	91.5
279.81	75.5
280.042	91.5
280.273	84.5
280.505	89.5
280.736	87.5
280.968	75.5
281.199	90.5
281.431	86.5
281.662	98.5
281.894	93.5
282.125	92.5
282.356	125.5
282.588	117.5
282.819	94.5
283.051	90.5
283.282	74.5
283.513	89.5
283.745	95.5
283.976	72.5
284.207	75.5
284.439	81.5
284.67	76.5
284.901	76.5
285.132	83.5
285.364	90.5
285.595	83.5
285.826	83.5
286.057	89.5
286.288	87.5
286.52	81.5
286.751	75.5
286.982	73.5
287.213	77.5
287.444	89.5
287.675	88.5
287.906	84.5
288.138	81.5
288.369	85.5
288.6	83.5
288.831	90.5
289.062	80.5
289.293	74.5
289.524	81.5
289.755	79.5
289.986	69.5
290.217	91.5
290.448	91.5
290.679	101.5
290.91	76.5
291.141	93.5
291.371	88.5
291.602	77.5
291.833	87.5
292.064	96.5
292.295	83.5
292.526	79.5
292.757	77.5
292.987	98.5
293.218	72.5
293.449	100.5
293.68	85.5
293.91	78.5
294.141	85.5
294.372	90.5
294.603	97.5
294.833	83.5
295.064	106.5
295.295	104.5
295.525	90.5
295.756	105.5
295.987	100.5
296.217	106.5
296.448	101.5
296.679	83.5
296.909	83.5
297.14	82.5
297.37	76.5
297.601	77.5
297.831	88.5
298.062	89.5
298.292	83.5
298.523	91.5
298.753	85.5
298.984	88.5
299.214	74.5
299.445	87.5
299.675	87.5
299.905	87.5
300.136	84.5
300.366	83.5
300.597	86.5
300.827	93.5
301.057	99.5
301.288	99.5
301.518	93.5
301.748	96.5
301.979	97.5
302.209	88.5
302.439	88.5
302.669	99.5
302.9	73.5
303.13	76.5
303.36	98.5
303.59	104.5
303.82	101.5
304.051	84.5
304.281	98.5
304.511	89.5
304.741	88.5
304.971	84.5
305.201	95.5
305.431	99.5
305.661	93.5
305.891	89.5
306.121	86.5
306.352	100.5
306.582	74.5
306.812	83.5
307.042	81.5
307.272	96.5
307.502	95.5
307.731	104.5
307.961	91.5
308.191	97.5
308.421	90.5
308.651	93.5
308.881	87.5
309.111	96.5
309.341	83.5
309.571	100.5
309.8	81.5
310.03	93.5
310.26	92.5
310.49	84.5
310.72	80.5
310.949	87.5
311.179	101.5
311.409	95.5
311.639	97.5
311.868	92.5
312.098	102.5
312.328	90.5
312.557	103.5
312.787	84.5
313.017	99.5
313.246	77.5
313.476	92.5
313.706	97.5
313.935	92.5
314.165	91.5
314.394	98.5
314.624	98.5
314.853	94.5
315.083	86.5
315.312	66.5
315.542	95.5
315.771	103.5
316.001	89.5
316.23	90.5
316.46	74.5
316.689	87.5
316.919	97.5
317.148	91.5
317.377	98.5
317.607	97.5
317.836	108.5
318.065	91.5
318.295	89.5
318.524	88.5
318.753	88.5
318.983	88.5
319.212	104.5
319.441	108.5
319.67	89.5
319.9	84.5
320.129	87.5
320.358	75.5
320.587	102.5
320.816	96.5
321.046	106.5
321.275	103.5
321.504	94.5
321.733	97.5
321.962	96.5
322.191	101.5
322.42	97.5
322.649	101.5
322.878	89.5
323.108	113.5
323.337	112.5
323.566	111.5
323.795	130.5
324.024	166.5
324.253	316.5
324.482	633.5
324.71	1295.5
324.939	1660.5
325.168	619.5
325.397	195.5
325.626	131.5
325.855	114.5
326.084	122.5
326.313	116.5
326.542	139.5
326.77	196.5
326.999	371.5
327.228	742.5
327.457	1291.5
327.686	1049.5
327.914	297.5
328.143	165.5
328.372	136.5
328.6	107.5
328.829	105.5
329.058	117.5
329.287	108.5
329.515	96.5
329.744	96.5
329.972	113.5
330.201	104.5
330.43	119.5
330.658	118.5
330.887	116.5
331.115	109.5
331.344	95.5
331.572	103.5
331.801	103.5
332.03	100.5
332.258	93.5
332.486	84.5
332.715	112.5
332.943	82.5
333.172	85.5
333.4	106.5
333.629	102.5
333.857	81.5
334.085	120.5
334.314	118.5
334.542	121.5
334.771	131.5
334.999	92.5
335.227	93.5
335.455	91.5
335.684	93.5
335.912	90.5
336.14	99.5
336.369	111.5
336.597	93.5
336.825	93.5
337.053	84.5
337.281	93.5
337.51	84.5
337.738	101.5
337.966	83.5
338.194	79.5
338.422	87.5
338.65	105.5
338.878	96.5
339.106	90.5
339.334	81.5
339.562	106.5
339.79	89.5
340.018	77.5
340.246	76.5
340.474	93.5
340.702	90.5
340.93	88.5
341.158	88.5
341.386	107.5
341.614	92.5
341.842	86.5
342.07	83.5
342.298	99.5
342.526	88.5
342.754	93.5
342.981	79.5
343.209	97.5
343.437	99.5
343.665	83.5
343.893	104.5
344.12	105.5
344.348	76.5
344.576	92.5
344.804	88.5
345.031	95.5
345.259	97.5
345.487	91.5
345.714	95.5
345.942	91.5
346.17	89.5
346.397	107.5
346.625	93.5
346.853	97.5
347.08	93.5
347.308	103.5
347.535	89.5
347.763	90.5
347.99	99.5
348.218	98.5
348.445	100.5
348.673	100.5
348.9	89.5
349.128	105.5
349.355	93.5
349.583	85.5
349.81	99.5
350.037	105.5
350.265	94.5
350.492	101.5
350.72	98.5
350.947	98.5
351.174	97.5
351.402	113.5
351.629	97.5
351.856	103.5
352.083	98.5
352.311	84.5
352.538	92.5
352.765	109.5
352.992	104.5
353.22	119.5
353.447	110.5
353.674	106.5
353.901	96.5
354.128	100.5
354.355	98.5
354.583	113.5
354.81	113.5
355.037	100.5
355.264	95.5
355.491	85.5
355.718	101.5
355.945	88.5
356.172	103.5
356.399	92.5
356.626	97.5
356.853	87.5
357.08	86.5
357.307	72.5
357.534	86.5
357.761	101.5
357.988	88.5
358.215	100.5
358.441	102.5
358.668	91.5
358.895	84.5
359.122	98.5
359.349	91.5
359.576	102.5
359.802	95.5
360.029	83.5
360.256	92.5
360.483	95.5
360.709	79.5
360.936	91.5
361.163	99.5
361.39	90.5
361.616	100.5
361.843	94.5
362.07	93.5
362.296	85.5
362.523	95.5
362.749	85.5
362.976	96.5
363.203	105.5
363.429	99.5
363.656	89.5
363.882	89.5
364.109	77.5
364.335	92.5
364.562	86.5
364.788	95.5
365.015	104.5
365.241	100.5
365.468	109.5
365.694	109.5
365.92	85.5
366.147	90.5
366.373	74.5
366.599	80.5
366.826	89.5
367.052	90.5
367.278	83.5
367.505	92.5
367.731	100.5
367.957	90.5
368.184	86.5
368.41	97.5
368.636	111.5
368.862	98.5
369.089	106.5
369.315	93.5
369.541	78.5
369.767	79.5
369.993	91.5
370.219	84.5
370.445	65.5
370.672	96.5
370.898	70.5
371.124	90.5
371.35	87.5
371.576	94.5
371.802	91.5
372.028	74.5
372.254	87.5
372.48	86.5
372.706	96.5
372.932	93.5
373.158	67.5
373.384	87.5
373.61	84.5
373.835	89.5
374.061	87.5
374.287	99.5
374.513	84.5
374.739	85.5
374.965	84.5
375.191	83.5
375.416	98.5
375.642	90.5
375.868	90.5
376.094	96.5
376.319	89.5
376.545	79.5
376.771	83.5
376.997	72.5
377.222	85.5
377.448	93.5
377.674	91.5
377.899	90.5
378.125	87.5
378.35	93.5
378.576	94.5
378.802	87.5
379.027	88.5
379.253	86.5
379.478	88.5
379.704	97.5
379.929	89.5
380.155	92.5
380.38	91.5
380.606	88.5
380.831	81.5
381.057	100.5
381.282	107.5
381.507	102.5
381.733	87.5
381.958	91.5
382.184	96.5
382.409	91.5
382.634	100.5
382.86	111.5
383.085	104.5
383.31	108.5
383.535	100.5
383.761	104.5
383.986	97.5
384.211	116.5
384.436	83.5
384.662	101.5
384.887	116.5
385.112	100.5
385.337	91.5
385.562	108.5
385.787	96.5
386.013	97.5
386.238	115.5
386.463	105.5
386.688	93.5
386.913	108.5
387.138	110.5
387.363	92.5
387.588	111.5
387.813	91.5
388.038	100.5
388.263	123.5
388.488	108.5
388.713	82.5
388.938	90.5
389.163	90.5
389.387	97.5
389.612	94.5
389.837	85.5
390.062	99.5
390.287	94.5
390.512	88.5
390.736	100.5
390.961	94.5
391.186	98.5
391.411	85.5
391.636	91.5
391.86	71.5
392.085	78.5
392.31	94.5
392.534	84.5
392.759	83.5
392.984	90.5
393.208	82.5
393.433	86.5
393.658	98.5
393.882	103.5
394.107	91.5
394.331	85.5
394.556	70.5
394.78	85.5
395.005	81.5
395.229	85.5
395.454	79.5
395.678	83.5
395.903	80.5
396.127	85.5
396.352	83.5
396.576	77.5
396.801	87.5
397.025	79.5
397.249	85.5
397.474	92.5
397.698	91.5
397.922	97.5
398.147	92.5
398.371	87.5
398.595	81.5
398.82	85.5
399.044	76.5
399.268	74.5
399.492	77.5
399.717	77.5
399.941	75.5
400.165	95.5
400.389	87.5
400.613	72.5
400.837	84.5
401.062	90.5
401.286	92.5
401.51	77.5
401.734	97.5
401.958	85.5
402.182	116.5
402.406	143.5
402.63	114.5
402.854	90.5
403.078	80.5
403.302	90.5
403.526	87.5
403.75	91.5
403.974	94.5
404.198	95.5
404.422	104.5
404.645	81.5
404.869	104.5
405.093	107.5
405.317	92.5
405.541	87.5
405.765	111.5
405.988	93.5
406.212	136.5
406.436	152.5
406.66	117.5
406.883	108.5
407.107	82.5
407.331	86.5
407.555	91.5
407.778	86.5
408.002	90.5
408.226	81.5
408.449	92.5
408.673	101.5
408.896	84.5
409.12	100.5
409.344	100.5
409.567	86.5
409.791	94.5
410.014	112.5
410.238	96.5
410.461	92.5
410.685	87.5
410.908	98.5
411.132	104.5
411.355	86.5
411.578	103.5
411.802	95.5
412.025	83.5
412.249	77.5
412.472	93.5
412.695	95.5
412.919	100.5
413.142	75.5
413.365	97.5
413.589	97.5
413.812	108.5
414.035	98.5
414.258	92.5
414.482	84.5
414.705	96.5
414.928	90.5
415.151	89.5
415.374	98.5
415.597	77.5
415.821	87.5
416.044	81.5
416.267	76.5
416.49	79.5
416.713	89.5
416.936	94.5
417.159	88.5
417.382	74.5
417.605	87.5
417.828	105.5
418.051	74.5
418.274	100.5
418.497	92.5
418.72	77.5
418.943	84.5
419.166	73.5
419.389	104.5
419.611	84.5
419.834	88.5
420.057	85.5
420.28	98.5
420.503	73.5
420.726	75.5
420.948	80.5
421.171	95.5
421.394	101.5
421.617	91.5
421.839	88.5
422.062	95.5
422.285	94.5
422.507	102.5
422.73	93.5
422.953	81.5
423.175	92.5
423.398	80.5
423.621	87.5
423.843	98.5
424.066	79.5
424.288	107.5
424.511	101.5
424.733	87.5
424.956	106.5
425.178	92.5
425.401	94.5
425.623	83.5
425.846	85.5
426.068	87.5
426.291	82.5
426.513	90.5
426.735	81.5
426.958	89.5
427.18	110.5
427.402	125.5
427.625	143.5
427.847	112.5
428.069	100.5
428.292	90.5
428.514	96.5
428.736	83.5
428.958	72.5
429.181	80.5
429.403	87.5
429.625	94.5
429.847	87.5
430.069	97.5
430.292	85.5
430.514	89.5
430.736	92.5
430.958	83.5
431.18	77.5
431.402	87.5
431.624	88.5
431.846	76.5
432.068	78.5
432.29	99.5
432.512	79.5
432.734	109.5
432.956	93.5
433.178	92.5
433.4	84.5
433.622	94.5
433.844	103.5
434.066	76.5
434.287	106.5
434.509	89.5
434.731	82.5
434.953	97.5
435.175	76.5
435.397	89.5
435.618	91.5
435.84	94.5
436.062	113.5
436.284	95.5
436.505	95.5
436.727	94.5
436.949	90.5
437.17	90.5
437.392	87.5
437.614	82.5
437.835	108.5
438.057	99.5
438.278	88.5
438.5	93.5
438.721	104.5
438.943	92.5
439.165	83.5
439.386	91.5
439.608	91.5
439.829	89.5
440.05	112.5
440.272	117.5
440.493	89.5
440.715	94.5
440.936	90.5
441.158	88.5
441.379	91.5
441.6	94.5
441.822	100.5
442.043	97.5
442.264	101.5
442.486	86.5
442.707	73.5
442.928	97.5
443.149	95.5
443.371	107.5
443.592	93.5
443.813	111.5
444.034	104.5
444.255	93.5
444.476	95.5
444.698	84.5
444.919	96.5
445.14	151.5
445.361	117.5
445.582	103.5
445.803	104.5
446.024	109.5
446.245	113.5
446.466	105.5
446.687	88.5
446.908	103.5
447.129	100.5
447.35	97.5
447.571	79.5
447.792	90.5
448.013	80.5
448.234	90.5
448.455	79.5
448.675	92.5
448.896	104.5
449.117	91.5
449.338	93.5
449.559	124.5
449.779	116.5
450	77.5
450.221	84.5
450.442	95.5
450.662	87.5
450.883	92.5
451.104	97.5
451.324	77.5
451.545	84.5
451.766	87.5
451.986	81.5
452.207	91.5
452.428	91.5
452.648	93.5
452.869	108.5
453.089	99.5
453.31	102.5
453.53	88.5
453.751	83.5
453.971	77.5
454.192	108.5
454.412	93.5
454.633	81.5
454.853	83.5
455.073	88.5
455.294	91.5
455.514	97.5
455.734	89.5
455.955	75.5
456.175	73.5
456.395	92.5
456.616	104.5
456.836	81.5
457.056	70.5
457.276	70.5
457.497	86.5
457.717	77.5
457.937	79.5
458.157	84.5
458.377	88.5
458.598	92.5
458.818	109.5
459.038	131.5
459.258	89.5
459.478	80.5
459.698	86.5
459.918	86.5
460.138	72.5
460.358	93.5
460.578	85.5
460.798	95.5
461.018	84.5
461.238	86.5
461.458	89.5
461.678	85.5
461.898	82.5
462.118	88.5
462.338	87.5
462.558	77.5
462.777	83.5
462.997	91.5
463.217	84.5
463.437	84.5
463.657	88.5
463.876	77.5
464.096	81.5
464.316	91.5
464.536	93.5
464.755	84.5
464.975	72.5
465.195	129.5
465.414	122.5
465.634	79.5
465.854	79.5
466.073	78.5
466.293	91.5
466.512	84.5
466.732	76.5
466.951	82.5
467.171	99.5
467.391	89.5
467.61	97.5
467.829	88.5
468.049	103.5
468.268	85.5
468.488	87.5
468.707	102.5
468.927	78.5
469.146	79.5
469.365	84.5
469.585	76.5
469.804	83.5
470.023	97.5
470.243	92.5
470.462	89.5
470.681	97.5
470.901	92.5
471.12	85.5
471.339	89.5
471.558	83.5
471.777	88.5
471.997	87.5
472.216	100.5
472.435	124.5
472.654	93.5
472.873	76.5
473.092	85.5
473.311	89.5
473.53	81.5
473.749	88.5
473.968	92.5
474.187	104.5
474.406	80.5
474.625	80.5
474.844	85.5
475.063	85.5
475.282	83.5
475.501	88.5
475.72	92.5
475.939	91.5
476.158	82.5
476.377	92.5
476.596	86.5
476.814	96.5
477.033	93.5
477.252	81.5
477.471	90.5
477.69	87.5
477.908	74.5
478.127	102.5
478.346	95.5
478.564	99.5
478.783	103.5
479.002	95.5
479.22	94.5
479.439	96.5
479.658	96.5
479.876	97.5
480.095	101.5
480.313	93.5
480.532	95.5
480.751	92.5
480.969	99.5
481.188	175.5
481.406	125.5
481.624	89.5
481.843	90.5
482.061	101.5
482.28	91.5
482.498	84.5
482.717	81.5
482.935	98.5
483.153	85.5
483.372	84.5
483.59	96.5
483.808	97.5
484.027	89.5
484.245	109.5
484.463	86.5
484.681	83.5
484.9	85.5
485.118	101.5
485.336	83.5
485.554	98.5
485.772	99.5
485.99	103.5
486.209	97.5
486.427	105.5
486.645	100.5
486.863	114.5
487.081	97.5
487.299	88.5
487.517	98.5
487.735	97.5
487.953	82.5
488.171	107.5
488.389	96.5
488.607	96.5
488.825	85.5
489.043	83.5
489.261	89.5
489.479	103.5
489.696	66.5
489.914	95.5
490.132	92.5
490.35	93.5
490.568	83.5
490.786	86.5
491.003	83.5
491.221	104.5
491.439	85.5
491.657	100.5
491.874	89.5
492.092	88.5
492.31	101.5
492.527	88.5
492.745	76.5
492.963	102.5
493.18	75.5
493.398	79.5
493.615	94.5
493.833	88.5
494.05	84.5
494.268	82.5
494.485	76.5
494.703	83.5
494.92	93.5
495.138	75.5
495.355	90.5
495.573	87.5
495.79	90.5
496.008	84.5
496.225	93.5
496.442	88.5
496.66	95.5
496.877	93.5
497.094	103.5
497.312	82.5
497.529	93.5
497.746	99.5
497.963	89.5
498.181	85.5
498.398	96.5
498.615	105.5
498.832	107.5
499.049	76.5
499.267	82.5
499.484	95.5
499.701	86.5
499.918	87.5
500.135	80.5
500.352	77.5
500.569	84.5
500.786	87.5
501.003	92.5
501.22	85.5
501.437	103.5
501.654	85.5
501.871	92.5
502.088	76.5
502.305	82.5
502.522	83.5
502.739	92.5
502.956	83.5
503.172	83.5
503.389	97.5
503.606	114.5
503.823	83.5
504.04	84.5
504.256	82.5
504.473	92.5
504.69	92.5
504.907	87.5
505.123	97.5
505.34	93.5
505.557	90.5
505.773	75.5
505.99	79.5
506.207	95.5
506.423	85.5
506.64	92.5
506.856	77.5
507.073	80.5
507.289	95.5
507.506	89.5
507.722	81.5
507.939	96.5
508.155	74.5
508.372	81.5
508.588	96.5
508.805	91.5
509.021	91.5
509.238	85.5
509.454	84.5
509.67	93.5
509.887	109.5
510.103	123.5
510.319	174.5
510.536	570.5
510.752	1667.5
510.968	470.5
511.184	125.5
511.401	97.5
511.617	86.5
511.833	90.5
512.049	93.5
512.265	95.5
512.481	85.5
512.698	99.5
512.914	81.5
513.13	91.5
513.346	91.5
513.562	84.5
513.778	103.5
513.994	107.5
514.21	93.5
514.426	98.5
514.642	103.5
514.858	97.5
515.074	132.5
515.29	325.5
515.506	954.5
515.721	355.5
515.937	127.5
516.153	105.5
516.369	100.5
516.585	83.5
516.801	92.5
517.016	98.5
517.232	87.5
517.448	94.5
517.664	84.5
517.879	105.5
518.095	79.5
518.311	100.5
518.527	88.5
518.742	103.5
518.958	96.5
519.173	95.5
519.389	94.5
519.605	94.5
519.82	75.5
520.036	99.5
520.251	113.5
520.467	100.5
520.682	95.5
520.898	84.5
521.113	110.5
521.329	120.5
521.544	153.5
521.76	375.5
521.975	1557.5
522.19	918.5
522.406	215.5
522.621	118.5
522.836	90.5
523.052	89.5
523.267	85.5
523.482	99.5
523.698	101.5
523.913	104.5
524.128	89.5
524.343	97.5
524.559	86.5
524.774	87.5
524.989	85.5
525.204	84.5
525.419	86.5
525.634	80.5
525.849	87.5
526.064	92.5
526.28	93.5
526.495	81.5
526.71	95.5
526.925	72.5
527.14	99.5
527.355	92.5
527.57	94.5
527.785	100.5
527.999	87.5
528.214	101.5
528.429	95.5
528.644	89.5
528.859	83.5
529.074	91.5
529.289	120.5
529.503	139.5
529.718	100.5
529.933	94.5
530.148	89.5
530.363	87.5
530.577	76.5
530.792	88.5
531.007	89.5
531.221	85.5
531.436	86.5
531.651	101.5
531.865	106.5
532.08	97.5
532.295	86.5
532.509	80.5
532.724	66.5
532.938	97.5
533.153	95.5
533.367	101.5
533.582	106.5
533.796	95.5
534.011	92.5
534.225	96.5
534.44	89.5
534.654	90.5
534.868	90.5
535.083	96.5
535.297	91.5
535.511	103.5
535.726	104.5
535.94	84.5
536.154	87.5
536.369	80.5
