Data from Uncirc_1982_H10_HRD10591_00062.txt Node
Date: Wed Jan 03 12:29:37 EST 2024
User: Yrep
Spectrometer: HR+D1059
Trigger mode: 1
Integration Time (sec): 1.000000E-1
Scans to average: 1
Electric dark correction enabled: true
Nonlinearity correction enabled: false
Boxcar width: 0
XAxis mode: Wavelengths
Number of Pixels in Spectrum: 2048
>>>>>Begin Spectral Data<<<<<
223.165	-8.81
223.4	-8.81
223.635	-8.81
223.869	-13.81
224.104	-21.81
224.338	-21.81
224.573	-4.81
224.808	-19.81
225.042	-16.81
225.277	-2.81
225.511	-4.81
225.746	12.19
225.98	9.19
226.215	13.19
226.449	5.19
226.683	22.19
226.918	21.19
227.152	32.19
227.387	27.19
227.621	34.19
227.856	49.19
228.09	45.19
228.324	63.19
228.559	54.19
228.793	60.19
229.027	66.19
229.262	67.19
229.496	70.19
229.73	72.19
229.964	73.19
230.199	79.19
230.433	54.19
230.667	80.19
230.901	94.19
231.136	81.19
231.37	81.19
231.604	88.19
231.838	69.19
232.072	77.19
232.306	79.19
232.541	86.19
232.775	83.19
233.009	75.19
233.243	79.19
233.477	67.19
233.711	97.19
233.945	71.19
234.179	98.19
234.413	80.19
234.647	77.19
234.881	83.19
235.115	86.19
235.349	65.19
235.583	73.19
235.817	81.19
236.051	71.19
236.285	76.19
236.519	70.19
236.753	73.19
236.987	82.19
237.221	87.19
237.455	84.19
237.689	73.19
237.922	93.19
238.156	74.19
238.39	85.19
238.624	67.19
238.858	73.19
239.091	74.19
239.325	71.19
239.559	95.19
239.793	82.19
240.027	78.19
240.26	82.19
240.494	85.19
240.728	85.19
240.961	78.19
241.195	81.19
241.429	67.19
241.662	83.19
241.896	71.19
242.13	84.19
242.363	77.19
242.597	74.19
242.83	81.19
243.064	73.19
243.298	71.19
243.531	67.19
243.765	75.19
243.998	60.19
244.232	75.19
244.465	89.19
244.699	69.19
244.932	83.19
245.166	77.19
245.399	81.19
245.633	74.19
245.866	91.19
246.099	77.19
246.333	82.19
246.566	71.19
246.8	81.19
247.033	77.19
247.266	79.19
247.5	90.19
247.733	86.19
247.966	87.19
248.2	99.19
248.433	77.19
248.666	71.19
248.899	73.19
249.133	89.19
249.366	82.19
249.599	102.19
249.832	85.19
250.066	83.19
250.299	86.19
250.532	95.19
250.765	86.19
250.998	72.19
251.231	76.19
251.465	83.19
251.698	74.19
251.931	76.19
252.164	93.19
252.397	79.19
252.63	88.19
252.863	73.19
253.096	67.19
253.329	77.19
253.562	91.19
253.795	81.19
254.028	86.19
254.261	89.19
254.494	85.19
254.727	89.19
254.96	79.19
255.193	86.19
255.426	72.19
255.659	94.19
255.892	85.19
256.124	74.19
256.357	92.19
256.59	90.19
256.823	85.19
257.056	97.19
257.289	71.19
257.521	79.19
257.754	83.19
257.987	88.19
258.22	69.19
258.452	89.19
258.685	70.19
258.918	89.19
259.151	75.19
259.383	78.19
259.616	81.19
259.849	87.19
260.081	83.19
260.314	81.19
260.547	81.19
260.779	73.19
261.012	82.19
261.244	79.19
261.477	73.19
261.71	99.19
261.942	101.19
262.175	94.19
262.407	87.19
262.64	79.19
262.872	81.19
263.105	78.19
263.337	81.19
263.57	85.19
263.802	84.19
264.035	71.19
264.267	85.19
264.499	86.19
264.732	89.19
264.964	104.19
265.197	83.19
265.429	99.19
265.661	79.19
265.894	74.19
266.126	62.19
266.358	72.19
266.591	89.19
266.823	101.19
267.055	85.19
267.287	91.19
267.52	68.19
267.752	71.19
267.984	84.19
268.216	76.19
268.448	83.19
268.681	81.19
268.913	84.19
269.145	75.19
269.377	81.19
269.609	84.19
269.841	85.19
270.073	94.19
270.306	85.19
270.538	97.19
270.77	90.19
271.002	86.19
271.234	68.19
271.466	83.19
271.698	93.19
271.93	85.19
272.162	82.19
272.394	85.19
272.626	89.19
272.858	95.19
273.09	84.19
273.322	87.19
273.553	83.19
273.785	93.19
274.017	98.19
274.249	79.19
274.481	81.19
274.713	83.19
274.945	89.19
275.176	95.19
275.408	87.19
275.64	91.19
275.872	88.19
276.104	78.19
276.335	84.19
276.567	88.19
276.799	92.19
277.031	78.19
277.262	84.19
277.494	89.19
277.726	78.19
277.957	85.19
278.189	81.19
278.421	88.19
278.652	87.19
278.884	91.19
279.115	89.19
279.347	78.19
279.579	81.19
279.81	90.19
280.042	86.19
280.273	93.19
280.505	106.19
280.736	95.19
280.968	86.19
281.199	77.19
281.431	89.19
281.662	68.19
281.894	99.19
282.125	94.19
282.356	111.19
282.588	125.19
282.819	95.19
283.051	93.19
283.282	92.19
283.513	92.19
283.745	91.19
283.976	88.19
284.207	89.19
284.439	79.19
284.67	97.19
284.901	85.19
285.132	86.19
285.364	94.19
285.595	100.19
285.826	85.19
286.057	74.19
286.288	73.19
286.52	85.19
286.751	89.19
286.982	81.19
287.213	80.19
287.444	98.19
287.675	83.19
287.906	90.19
288.138	89.19
288.369	83.19
288.6	83.19
288.831	79.19
289.062	87.19
289.293	95.19
289.524	87.19
289.755	89.19
289.986	100.19
290.217	75.19
290.448	83.19
290.679	85.19
290.91	87.19
291.141	94.19
291.371	82.19
291.602	92.19
291.833	93.19
292.064	85.19
292.295	97.19
292.526	88.19
292.757	84.19
292.987	91.19
293.218	93.19
293.449	84.19
293.68	79.19
293.91	77.19
294.141	90.19
294.372	91.19
294.603	89.19
294.833	92.19
295.064	88.19
295.295	84.19
295.525	99.19
295.756	90.19
295.987	101.19
296.217	121.19
296.448	110.19
296.679	92.19
296.909	110.19
297.14	101.19
297.37	102.19
297.601	89.19
297.831	87.19
298.062	97.19
298.292	98.19
298.523	95.19
298.753	94.19
298.984	94.19
299.214	87.19
299.445	90.19
299.675	106.19
299.905	87.19
300.136	94.19
300.366	94.19
300.597	99.19
300.827	77.19
301.057	87.19
301.288	89.19
301.518	94.19
301.748	86.19
301.979	100.19
302.209	79.19
302.439	91.19
302.669	79.19
302.9	85.19
303.13	92.19
303.36	98.19
303.59	101.19
303.82	101.19
304.051	105.19
304.281	89.19
304.511	98.19
304.741	81.19
304.971	85.19
305.201	89.19
305.431	100.19
305.661	93.19
305.891	91.19
306.121	77.19
306.352	86.19
306.582	99.19
306.812	86.19
307.042	70.19
307.272	95.19
307.502	102.19
307.731	102.19
307.961	91.19
308.191	91.19
308.421	111.19
308.651	88.19
308.881	89.19
309.111	93.19
309.341	90.19
309.571	84.19
309.8	95.19
310.03	78.19
310.26	95.19
310.49	92.19
310.72	101.19
310.949	97.19
311.179	98.19
311.409	79.19
311.639	85.19
311.868	90.19
312.098	87.19
312.328	75.19
312.557	112.19
312.787	102.19
313.017	99.19
313.246	99.19
313.476	90.19
313.706	101.19
313.935	98.19
314.165	89.19
314.394	90.19
314.624	87.19
314.853	102.19
315.083	89.19
315.312	93.19
315.542	86.19
315.771	86.19
316.001	90.19
316.23	87.19
316.46	85.19
316.689	82.19
316.919	92.19
317.148	82.19
317.377	86.19
317.607	98.19
317.836	97.19
318.065	97.19
318.295	92.19
318.524	89.19
318.753	89.19
318.983	86.19
319.212	101.19
319.441	100.19
319.67	93.19
319.9	99.19
320.129	95.19
320.358	87.19
320.587	93.19
320.816	92.19
321.046	89.19
321.275	104.19
321.504	99.19
321.733	79.19
321.962	93.19
322.191	105.19
322.42	109.19
322.649	114.19
322.878	85.19
323.108	111.19
323.337	108.19
323.566	123.19
323.795	147.19
324.024	177.19
324.253	328.19
324.482	661.19
324.71	1373.19
324.939	1749.19
325.168	657.19
325.397	210.19
325.626	140.19
325.855	115.19
326.084	99.19
326.313	120.19
326.542	111.19
326.77	207.19
326.999	385.19
327.228	761.19
327.457	1410.19
327.686	1106.19
327.914	321.19
328.143	174.19
328.372	141.19
328.6	112.19
328.829	109.19
329.058	113.19
329.287	119.19
329.515	107.19
329.744	97.19
329.972	111.19
330.201	107.19
330.43	120.19
330.658	125.19
330.887	118.19
331.115	118.19
331.344	99.19
331.572	103.19
331.801	93.19
332.03	99.19
332.258	77.19
332.486	91.19
332.715	96.19
332.943	104.19
333.172	105.19
333.4	99.19
333.629	92.19
333.857	110.19
334.085	91.19
334.314	110.19
334.542	117.19
334.771	129.19
334.999	102.19
335.227	94.19
335.455	100.19
335.684	103.19
335.912	110.19
336.14	102.19
336.369	87.19
336.597	91.19
336.825	98.19
337.053	103.19
337.281	97.19
337.51	108.19
337.738	90.19
337.966	89.19
338.194	84.19
338.422	87.19
338.65	91.19
338.878	80.19
339.106	100.19
339.334	94.19
339.562	83.19
339.79	86.19
340.018	88.19
340.246	87.19
340.474	82.19
340.702	88.19
340.93	96.19
341.158	94.19
341.386	92.19
341.614	98.19
341.842	84.19
342.07	91.19
342.298	83.19
342.526	99.19
342.754	83.19
342.981	103.19
343.209	82.19
343.437	107.19
343.665	84.19
343.893	89.19
344.12	85.19
344.348	76.19
344.576	81.19
344.804	100.19
345.031	102.19
345.259	97.19
345.487	93.19
345.714	97.19
345.942	97.19
346.17	86.19
346.397	86.19
346.625	78.19
346.853	81.19
347.08	91.19
347.308	89.19
347.535	93.19
347.763	99.19
347.99	95.19
348.218	97.19
348.445	119.19
348.673	89.19
348.9	108.19
349.128	90.19
349.355	83.19
349.583	99.19
349.81	90.19
350.037	89.19
350.265	93.19
350.492	102.19
350.72	84.19
350.947	99.19
351.174	100.19
351.402	103.19
351.629	101.19
351.856	110.19
352.083	95.19
352.311	100.19
352.538	101.19
352.765	111.19
352.992	102.19
353.22	121.19
353.447	103.19
353.674	99.19
353.901	103.19
354.128	101.19
354.355	96.19
354.583	107.19
354.81	87.19
355.037	100.19
355.264	94.19
355.491	94.19
355.718	81.19
355.945	91.19
356.172	90.19
356.399	87.19
356.626	113.19
356.853	98.19
357.08	81.19
357.307	95.19
357.534	89.19
357.761	92.19
357.988	94.19
358.215	93.19
358.441	94.19
358.668	103.19
358.895	88.19
359.122	85.19
359.349	79.19
359.576	91.19
359.802	88.19
360.029	108.19
360.256	119.19
360.483	97.19
360.709	76.19
360.936	97.19
361.163	94.19
361.39	85.19
361.616	83.19
361.843	71.19
362.07	105.19
362.296	109.19
362.523	95.19
362.749	98.19
362.976	89.19
363.203	90.19
363.429	74.19
363.656	91.19
363.882	85.19
364.109	88.19
364.335	86.19
364.562	92.19
364.788	87.19
365.015	106.19
365.241	99.19
365.468	104.19
365.694	93.19
365.92	86.19
366.147	95.19
366.373	87.19
366.599	93.19
366.826	81.19
367.052	87.19
367.278	92.19
367.505	82.19
367.731	109.19
367.957	91.19
368.184	101.19
368.41	84.19
368.636	97.19
368.862	107.19
369.089	93.19
369.315	87.19
369.541	102.19
369.767	99.19
369.993	87.19
370.219	91.19
370.445	107.19
370.672	91.19
370.898	99.19
371.124	89.19
371.35	77.19
371.576	91.19
371.802	103.19
372.028	93.19
372.254	98.19
372.48	73.19
372.706	85.19
372.932	82.19
373.158	98.19
373.384	91.19
373.61	97.19
373.835	88.19
374.061	75.19
374.287	100.19
374.513	93.19
374.739	91.19
374.965	102.19
375.191	88.19
375.416	86.19
375.642	85.19
375.868	97.19
376.094	90.19
376.319	94.19
376.545	85.19
376.771	97.19
376.997	84.19
377.222	85.19
377.448	87.19
377.674	95.19
377.899	78.19
378.125	89.19
378.35	97.19
378.576	87.19
378.802	98.19
379.027	93.19
379.253	99.19
379.478	96.19
379.704	81.19
379.929	93.19
380.155	88.19
380.38	105.19
380.606	105.19
380.831	91.19
381.057	105.19
381.282	90.19
381.507	98.19
381.733	103.19
381.958	87.19
382.184	76.19
382.409	90.19
382.634	107.19
382.86	106.19
383.085	111.19
383.31	119.19
383.535	103.19
383.761	97.19
383.986	112.19
384.211	103.19
384.436	98.19
384.662	99.19
384.887	95.19
385.112	104.19
385.337	108.19
385.562	103.19
385.787	95.19
386.013	96.19
386.238	105.19
386.463	107.19
386.688	103.19
386.913	91.19
387.138	100.19
387.363	95.19
387.588	106.19
387.813	104.19
388.038	108.19
388.263	106.19
388.488	113.19
388.713	98.19
388.938	91.19
389.163	98.19
389.387	96.19
389.612	103.19
389.837	94.19
390.062	88.19
390.287	93.19
390.512	89.19
390.736	85.19
390.961	85.19
391.186	78.19
391.411	91.19
391.636	95.19
391.86	94.19
392.085	93.19
392.31	89.19
392.534	81.19
392.759	86.19
392.984	89.19
393.208	66.19
393.433	100.19
393.658	85.19
393.882	101.19
394.107	98.19
394.331	100.19
394.556	86.19
394.78	97.19
395.005	85.19
395.229	85.19
395.454	82.19
395.678	83.19
395.903	88.19
396.127	89.19
396.352	86.19
396.576	84.19
396.801	86.19
397.025	92.19
397.249	88.19
397.474	87.19
397.698	89.19
397.922	85.19
398.147	92.19
398.371	86.19
398.595	67.19
398.82	88.19
399.044	81.19
399.268	83.19
399.492	95.19
399.717	87.19
399.941	88.19
400.165	89.19
400.389	101.19
400.613	83.19
400.837	78.19
401.062	96.19
401.286	87.19
401.51	101.19
401.734	84.19
401.958	89.19
402.182	106.19
402.406	145.19
402.63	95.19
402.854	81.19
403.078	80.19
403.302	84.19
403.526	93.19
403.75	98.19
403.974	81.19
404.198	81.19
404.422	81.19
404.645	75.19
404.869	89.19
405.093	93.19
405.317	102.19
405.541	101.19
405.765	113.19
405.988	107.19
406.212	141.19
406.436	172.19
406.66	123.19
406.883	85.19
407.107	89.19
407.331	91.19
407.555	101.19
407.778	91.19
408.002	85.19
408.226	76.19
408.449	97.19
408.673	91.19
408.896	90.19
409.12	109.19
409.344	100.19
409.567	91.19
409.791	104.19
410.014	81.19
410.238	94.19
410.461	90.19
410.685	91.19
410.908	96.19
411.132	97.19
411.355	94.19
411.578	86.19
411.802	95.19
412.025	79.19
412.249	77.19
412.472	86.19
412.695	84.19
412.919	68.19
413.142	93.19
413.365	78.19
413.589	75.19
413.812	76.19
414.035	99.19
414.258	93.19
414.482	92.19
414.705	105.19
414.928	102.19
415.151	100.19
415.374	93.19
415.597	95.19
415.821	72.19
416.044	91.19
416.267	81.19
416.49	74.19
416.713	77.19
416.936	91.19
417.159	85.19
417.382	94.19
417.605	93.19
417.828	91.19
418.051	100.19
418.274	98.19
418.497	86.19
418.72	96.19
418.943	86.19
419.166	99.19
419.389	95.19
419.611	74.19
419.834	89.19
420.057	72.19
420.28	73.19
420.503	99.19
420.726	83.19
420.948	78.19
421.171	83.19
421.394	91.19
421.617	86.19
421.839	93.19
422.062	97.19
422.285	88.19
422.507	102.19
422.73	100.19
422.953	92.19
423.175	90.19
423.398	89.19
423.621	87.19
423.843	75.19
424.066	95.19
424.288	86.19
424.511	87.19
424.733	89.19
424.956	94.19
425.178	86.19
425.401	106.19
425.623	95.19
425.846	97.19
426.068	79.19
426.291	86.19
426.513	89.19
426.735	104.19
426.958	106.19
427.18	109.19
427.402	119.19
427.625	142.19
427.847	117.19
428.069	122.19
428.292	82.19
428.514	92.19
428.736	82.19
428.958	79.19
429.181	87.19
429.403	90.19
429.625	88.19
429.847	93.19
430.069	86.19
430.292	92.19
430.514	90.19
430.736	83.19
430.958	87.19
431.18	83.19
431.402	73.19
431.624	78.19
431.846	95.19
432.068	95.19
432.29	89.19
432.512	90.19
432.734	98.19
432.956	83.19
433.178	102.19
433.4	107.19
433.622	98.19
433.844	102.19
434.066	81.19
434.287	94.19
434.509	85.19
434.731	75.19
434.953	87.19
435.175	89.19
435.397	83.19
435.618	98.19
435.84	90.19
436.062	109.19
436.284	94.19
436.505	88.19
436.727	95.19
436.949	107.19
437.17	93.19
437.392	93.19
437.614	89.19
437.835	87.19
438.057	101.19
438.278	84.19
438.5	94.19
438.721	106.19
438.943	95.19
439.165	94.19
439.386	82.19
439.608	82.19
439.829	97.19
440.05	103.19
440.272	113.19
440.493	110.19
440.715	93.19
440.936	91.19
441.158	93.19
441.379	90.19
441.6	95.19
441.822	76.19
442.043	105.19
442.264	83.19
442.486	87.19
442.707	96.19
442.928	93.19
443.149	108.19
443.371	105.19
443.592	93.19
443.813	99.19
444.034	101.19
444.255	85.19
444.476	78.19
444.698	84.19
444.919	92.19
445.14	130.19
445.361	126.19
445.582	113.19
445.803	109.19
446.024	108.19
446.245	125.19
446.466	105.19
446.687	96.19
446.908	88.19
447.129	85.19
447.35	95.19
447.571	89.19
447.792	100.19
448.013	91.19
448.234	101.19
448.455	111.19
448.675	110.19
448.896	109.19
449.117	90.19
449.338	98.19
449.559	113.19
449.779	105.19
450	90.19
450.221	90.19
450.442	98.19
450.662	87.19
450.883	113.19
451.104	105.19
451.324	81.19
451.545	98.19
451.766	91.19
451.986	82.19
452.207	78.19
452.428	95.19
452.648	95.19
452.869	110.19
453.089	105.19
453.31	114.19
453.53	88.19
453.751	90.19
453.971	99.19
454.192	95.19
454.412	73.19
454.633	87.19
454.853	87.19
455.073	82.19
455.294	82.19
455.514	84.19
455.734	101.19
455.955	96.19
456.175	95.19
456.395	93.19
456.616	92.19
456.836	82.19
457.056	88.19
457.276	86.19
457.497	108.19
457.717	90.19
457.937	94.19
458.157	70.19
458.377	84.19
458.598	107.19
458.818	130.19
459.038	119.19
459.258	108.19
459.478	95.19
459.698	82.19
459.918	88.19
460.138	77.19
460.358	78.19
460.578	93.19
460.798	92.19
461.018	77.19
461.238	78.19
461.458	74.19
461.678	73.19
461.898	86.19
462.118	91.19
462.338	97.19
462.558	74.19
462.777	99.19
462.997	79.19
463.217	87.19
463.437	81.19
463.657	91.19
463.876	84.19
464.096	83.19
464.316	85.19
464.536	87.19
464.755	86.19
464.975	93.19
465.195	137.19
465.414	136.19
465.634	88.19
465.854	101.19
466.073	97.19
466.293	77.19
466.512	89.19
466.732	107.19
466.951	90.19
467.171	81.19
467.391	85.19
467.61	96.19
467.829	91.19
468.049	98.19
468.268	106.19
468.488	85.19
468.707	73.19
468.927	89.19
469.146	78.19
469.365	100.19
469.585	85.19
469.804	94.19
470.023	82.19
470.243	85.19
470.462	87.19
470.681	98.19
470.901	84.19
471.12	84.19
471.339	89.19
471.558	86.19
471.777	80.19
471.997	90.19
472.216	109.19
472.435	136.19
472.654	84.19
472.873	83.19
473.092	77.19
473.311	72.19
473.53	84.19
473.749	101.19
473.968	85.19
474.187	102.19
474.406	82.19
474.625	88.19
474.844	94.19
475.063	84.19
475.282	93.19
475.501	93.19
475.72	90.19
475.939	87.19
476.158	98.19
476.377	89.19
476.596	84.19
476.814	100.19
477.033	76.19
477.252	101.19
477.471	103.19
477.69	88.19
477.908	94.19
478.127	86.19
478.346	87.19
478.564	93.19
478.783	105.19
479.002	97.19
479.22	93.19
479.439	87.19
479.658	103.19
479.876	94.19
480.095	87.19
480.313	89.19
480.532	91.19
480.751	113.19
480.969	101.19
481.188	181.19
481.406	148.19
481.624	101.19
481.843	83.19
482.061	71.19
482.28	97.19
482.498	85.19
482.717	95.19
482.935	86.19
483.153	86.19
483.372	85.19
483.59	90.19
483.808	83.19
484.027	89.19
484.245	79.19
484.463	93.19
484.681	105.19
484.9	98.19
485.118	103.19
485.336	96.19
485.554	109.19
485.772	91.19
485.99	89.19
486.209	94.19
486.427	105.19
486.645	116.19
486.863	102.19
487.081	87.19
487.299	108.19
487.517	102.19
487.735	90.19
487.953	89.19
488.171	92.19
488.389	87.19
488.607	93.19
488.825	75.19
489.043	94.19
489.261	83.19
489.479	102.19
489.696	93.19
489.914	89.19
490.132	105.19
490.35	88.19
490.568	93.19
490.786	96.19
491.003	78.19
491.221	85.19
491.439	103.19
491.657	96.19
491.874	96.19
492.092	95.19
492.31	84.19
492.527	83.19
492.745	85.19
492.963	98.19
493.18	97.19
493.398	89.19
493.615	82.19
493.833	91.19
494.05	101.19
494.268	85.19
494.485	78.19
494.703	88.19
494.92	93.19
495.138	90.19
495.355	95.19
495.573	96.19
495.79	101.19
496.008	92.19
496.225	77.19
496.442	87.19
496.66	88.19
496.877	99.19
497.094	92.19
497.312	94.19
497.529	94.19
497.746	94.19
497.963	89.19
498.181	97.19
498.398	86.19
498.615	106.19
498.832	98.19
499.049	76.19
499.267	104.19
499.484	91.19
499.701	82.19
499.918	91.19
500.135	77.19
500.352	83.19
500.569	94.19
500.786	89.19
501.003	94.19
501.22	83.19
501.437	86.19
501.654	88.19
501.871	101.19
502.088	86.19
502.305	91.19
502.522	99.19
502.739	83.19
502.956	98.19
503.172	84.19
503.389	88.19
503.606	96.19
503.823	89.19
504.04	90.19
504.256	83.19
504.473	83.19
504.69	90.19
504.907	89.19
505.123	86.19
505.34	88.19
505.557	84.19
505.773	83.19
505.99	94.19
506.207	91.19
506.423	75.19
506.64	86.19
506.856	105.19
507.073	99.19
507.289	100.19
507.506	102.19
507.722	106.19
507.939	106.19
508.155	95.19
508.372	94.19
508.588	93.19
508.805	86.19
509.021	95.19
509.238	104.19
509.454	86.19
509.67	102.19
509.887	95.19
510.103	121.19
510.319	196.19
510.536	621.19
510.752	1911.19
510.968	525.19
511.184	131.19
511.401	96.19
511.617	96.19
511.833	88.19
512.049	94.19
512.265	93.19
512.481	99.19
512.698	95.19
512.914	96.19
513.13	85.19
513.346	95.19
513.562	92.19
513.778	91.19
513.994	101.19
514.21	99.19
514.426	107.19
514.642	111.19
514.858	103.19
515.074	131.19
515.29	355.19
515.506	1089.19
515.721	400.19
515.937	142.19
516.153	118.19
