Data from Uncirc_1982_H10_HRD10591_00028.txt Node
Date: Wed Jan 03 12:29:30 EST 2024
User: Yrep
Spectrometer: HR+D1059
Trigger mode: 1
Integration Time (sec): 1.000000E-1
Scans to average: 1
Electric dark correction enabled: true
Nonlinearity correction enabled: false
Boxcar width: 0
XAxis mode: Wavelengths
Number of Pixels in Spectrum: 2048
>>>>>Begin Spectral Data<<<<<
223.165	-33.5
223.4	-33.5
223.635	-33.5
223.869	-17.5
224.104	-34.5
224.338	-17.5
224.573	-22.5
224.808	-22.5
225.042	-8.5
225.277	-12.5
225.511	7.5
225.746	15.5
225.98	14.5
226.215	10.5
226.449	23.5
226.683	36.5
226.918	29.5
227.152	31.5
227.387	23.5
227.621	38.5
227.856	52.5
228.09	42.5
228.324	50.5
228.559	51.5
228.793	54.5
229.027	70.5
229.262	76.5
229.496	69.5
229.73	79.5
229.964	96.5
230.199	74.5
230.433	63.5
230.667	82.5
230.901	83.5
231.136	89.5
231.37	91.5
231.604	77.5
231.838	90.5
232.072	82.5
232.306	80.5
232.541	73.5
232.775	80.5
233.009	82.5
233.243	91.5
233.477	79.5
233.711	93.5
233.945	82.5
234.179	95.5
234.413	84.5
234.647	85.5
234.881	82.5
235.115	77.5
235.349	87.5
235.583	73.5
235.817	71.5
236.051	87.5
236.285	86.5
236.519	86.5
236.753	85.5
236.987	81.5
237.221	69.5
237.455	90.5
237.689	81.5
237.922	73.5
238.156	86.5
238.39	87.5
238.624	69.5
238.858	71.5
239.091	87.5
239.325	66.5
239.559	72.5
239.793	86.5
240.027	76.5
240.26	97.5
240.494	78.5
240.728	80.5
240.961	71.5
241.195	82.5
241.429	92.5
241.662	86.5
241.896	80.5
242.13	84.5
242.363	74.5
242.597	91.5
242.83	82.5
243.064	61.5
243.298	76.5
243.531	74.5
243.765	84.5
243.998	98.5
244.232	91.5
244.465	89.5
244.699	86.5
244.932	86.5
245.166	88.5
245.399	92.5
245.633	82.5
245.866	87.5
246.099	80.5
246.333	74.5
246.566	71.5
246.8	71.5
247.033	75.5
247.266	71.5
247.5	82.5
247.733	83.5
247.966	95.5
248.2	78.5
248.433	65.5
248.666	72.5
248.899	93.5
249.133	93.5
249.366	94.5
249.599	79.5
249.832	81.5
250.066	83.5
250.299	85.5
250.532	83.5
250.765	82.5
250.998	77.5
251.231	70.5
251.465	79.5
251.698	91.5
251.931	84.5
252.164	74.5
252.397	67.5
252.63	97.5
252.863	77.5
253.096	79.5
253.329	78.5
253.562	79.5
253.795	84.5
254.028	84.5
254.261	72.5
254.494	85.5
254.727	86.5
254.96	79.5
255.193	71.5
255.426	83.5
255.659	91.5
255.892	82.5
256.124	89.5
256.357	83.5
256.59	73.5
256.823	87.5
257.056	68.5
257.289	88.5
257.521	85.5
257.754	92.5
257.987	95.5
258.22	82.5
258.452	69.5
258.685	94.5
258.918	90.5
259.151	84.5
259.383	79.5
259.616	84.5
259.849	71.5
260.081	80.5
260.314	90.5
260.547	70.5
260.779	86.5
261.012	77.5
261.244	74.5
261.477	91.5
261.71	95.5
261.942	111.5
262.175	107.5
262.407	88.5
262.64	79.5
262.872	90.5
263.105	82.5
263.337	79.5
263.57	84.5
263.802	84.5
264.035	82.5
264.267	78.5
264.499	71.5
264.732	94.5
264.964	90.5
265.197	77.5
265.429	96.5
265.661	106.5
265.894	78.5
266.126	74.5
266.358	80.5
266.591	72.5
266.823	84.5
267.055	85.5
267.287	100.5
267.52	100.5
267.752	83.5
267.984	93.5
268.216	83.5
268.448	74.5
268.681	90.5
268.913	80.5
269.145	100.5
269.377	98.5
269.609	82.5
269.841	88.5
270.073	73.5
270.306	72.5
270.538	77.5
270.77	92.5
271.002	87.5
271.234	84.5
271.466	90.5
271.698	94.5
271.93	73.5
272.162	71.5
272.394	84.5
272.626	92.5
272.858	91.5
273.09	79.5
273.322	98.5
273.553	96.5
273.785	94.5
274.017	91.5
274.249	85.5
274.481	91.5
274.713	85.5
274.945	86.5
275.176	81.5
275.408	96.5
275.64	100.5
275.872	78.5
276.104	101.5
276.335	85.5
276.567	102.5
276.799	76.5
277.031	81.5
277.262	88.5
277.494	92.5
277.726	88.5
277.957	100.5
278.189	87.5
278.421	102.5
278.652	90.5
278.884	94.5
279.115	95.5
279.347	92.5
279.579	86.5
279.81	80.5
280.042	92.5
280.273	93.5
280.505	76.5
280.736	85.5
280.968	74.5
281.199	86.5
281.431	90.5
281.662	93.5
281.894	93.5
282.125	97.5
282.356	94.5
282.588	116.5
282.819	114.5
283.051	82.5
283.282	68.5
283.513	78.5
283.745	82.5
283.976	97.5
284.207	82.5
284.439	84.5
284.67	89.5
284.901	89.5
285.132	85.5
285.364	88.5
285.595	87.5
285.826	88.5
286.057	93.5
286.288	95.5
286.52	91.5
286.751	86.5
286.982	101.5
287.213	97.5
287.444	94.5
287.675	97.5
287.906	96.5
288.138	94.5
288.369	84.5
288.6	83.5
288.831	86.5
289.062	89.5
289.293	92.5
289.524	83.5
289.755	92.5
289.986	82.5
290.217	95.5
290.448	91.5
290.679	76.5
290.91	90.5
291.141	83.5
291.371	89.5
291.602	83.5
291.833	91.5
292.064	88.5
292.295	101.5
292.526	93.5
292.757	94.5
292.987	82.5
293.218	91.5
293.449	86.5
293.68	84.5
293.91	88.5
294.141	99.5
294.372	89.5
294.603	104.5
294.833	103.5
295.064	90.5
295.295	93.5
295.525	93.5
295.756	95.5
295.987	101.5
296.217	132.5
296.448	103.5
296.679	96.5
296.909	102.5
297.14	82.5
297.37	98.5
297.601	79.5
297.831	97.5
298.062	102.5
298.292	94.5
298.523	74.5
298.753	86.5
298.984	96.5
299.214	94.5
299.445	95.5
299.675	88.5
299.905	91.5
300.136	102.5
300.366	98.5
300.597	88.5
300.827	93.5
301.057	97.5
301.288	78.5
301.518	106.5
301.748	92.5
301.979	100.5
302.209	94.5
302.439	91.5
302.669	93.5
302.9	90.5
303.13	102.5
303.36	108.5
303.59	102.5
303.82	104.5
304.051	100.5
304.281	92.5
304.511	88.5
304.741	88.5
304.971	88.5
305.201	86.5
305.431	84.5
305.661	91.5
305.891	90.5
306.121	98.5
306.352	100.5
306.582	111.5
306.812	98.5
307.042	93.5
307.272	99.5
307.502	70.5
307.731	94.5
307.961	92.5
308.191	101.5
308.421	94.5
308.651	89.5
308.881	87.5
309.111	102.5
309.341	91.5
309.571	96.5
309.8	90.5
310.03	94.5
310.26	101.5
310.49	91.5
310.72	92.5
310.949	107.5
311.179	93.5
311.409	87.5
311.639	93.5
311.868	78.5
312.098	92.5
312.328	99.5
312.557	101.5
312.787	111.5
313.017	111.5
313.246	97.5
313.476	87.5
313.706	84.5
313.935	97.5
314.165	104.5
314.394	100.5
314.624	103.5
314.853	102.5
315.083	87.5
315.312	90.5
315.542	97.5
315.771	69.5
316.001	101.5
316.23	101.5
316.46	84.5
316.689	95.5
316.919	72.5
317.148	86.5
317.377	92.5
317.607	76.5
317.836	95.5
318.065	91.5
318.295	94.5
318.524	92.5
318.753	92.5
318.983	102.5
319.212	103.5
319.441	96.5
319.67	107.5
319.9	94.5
320.129	98.5
320.358	100.5
320.587	94.5
320.816	108.5
321.046	104.5
321.275	102.5
321.504	84.5
321.733	99.5
321.962	101.5
322.191	92.5
322.42	100.5
322.649	119.5
322.878	113.5
323.108	116.5
323.337	120.5
323.566	133.5
323.795	134.5
324.024	177.5
324.253	330.5
324.482	692.5
324.71	1429.5
324.939	1844.5
325.168	702.5
325.397	226.5
325.626	126.5
325.855	122.5
326.084	124.5
326.313	117.5
326.542	151.5
326.77	230.5
326.999	404.5
327.228	800.5
327.457	1450.5
327.686	1170.5
327.914	331.5
328.143	173.5
328.372	141.5
328.6	120.5
328.829	116.5
329.058	115.5
329.287	132.5
329.515	107.5
329.744	87.5
329.972	100.5
330.201	116.5
330.43	111.5
330.658	115.5
330.887	109.5
331.115	103.5
331.344	100.5
331.572	111.5
331.801	100.5
332.03	104.5
332.258	87.5
332.486	94.5
332.715	97.5
332.943	94.5
333.172	76.5
333.4	98.5
333.629	106.5
333.857	94.5
334.085	86.5
334.314	110.5
334.542	127.5
334.771	118.5
334.999	95.5
335.227	108.5
335.455	90.5
335.684	92.5
335.912	97.5
336.14	102.5
336.369	90.5
336.597	95.5
336.825	87.5
337.053	88.5
337.281	83.5
337.51	91.5
337.738	95.5
337.966	92.5
338.194	110.5
338.422	88.5
338.65	109.5
338.878	107.5
339.106	88.5
339.334	95.5
339.562	70.5
339.79	104.5
340.018	90.5
340.246	86.5
340.474	88.5
340.702	95.5
340.93	69.5
341.158	90.5
341.386	88.5
341.614	109.5
341.842	103.5
342.07	86.5
342.298	104.5
342.526	98.5
342.754	89.5
342.981	83.5
343.209	85.5
343.437	99.5
343.665	91.5
343.893	90.5
344.12	93.5
344.348	98.5
344.576	102.5
344.804	89.5
345.031	96.5
345.259	100.5
345.487	95.5
345.714	98.5
345.942	105.5
346.17	104.5
346.397	89.5
346.625	99.5
346.853	87.5
347.08	100.5
347.308	88.5
347.535	106.5
347.763	90.5
347.99	100.5
348.218	104.5
348.445	94.5
348.673	82.5
348.9	109.5
349.128	90.5
349.355	97.5
349.583	102.5
349.81	91.5
350.037	107.5
350.265	103.5
350.492	112.5
350.72	109.5
350.947	117.5
351.174	114.5
351.402	101.5
351.629	102.5
351.856	99.5
352.083	107.5
352.311	93.5
352.538	104.5
352.765	111.5
352.992	106.5
353.22	111.5
353.447	100.5
353.674	100.5
353.901	95.5
354.128	93.5
354.355	101.5
354.583	105.5
354.81	104.5
355.037	105.5
355.264	91.5
355.491	96.5
355.718	100.5
355.945	94.5
356.172	110.5
356.399	84.5
356.626	93.5
356.853	85.5
357.08	95.5
357.307	99.5
357.534	91.5
357.761	86.5
357.988	87.5
358.215	98.5
358.441	98.5
358.668	91.5
358.895	79.5
359.122	88.5
359.349	91.5
359.576	97.5
359.802	103.5
360.029	105.5
360.256	97.5
360.483	103.5
360.709	91.5
360.936	104.5
361.163	95.5
361.39	98.5
361.616	88.5
361.843	82.5
362.07	95.5
362.296	92.5
362.523	88.5
362.749	86.5
362.976	89.5
363.203	98.5
363.429	102.5
363.656	95.5
363.882	103.5
364.109	101.5
364.335	97.5
364.562	99.5
364.788	99.5
365.015	93.5
365.241	94.5
365.468	111.5
365.694	104.5
365.92	81.5
366.147	69.5
366.373	91.5
366.599	95.5
366.826	105.5
367.052	96.5
367.278	90.5
367.505	89.5
367.731	98.5
367.957	87.5
368.184	90.5
368.41	88.5
368.636	114.5
368.862	109.5
369.089	105.5
369.315	99.5
369.541	99.5
369.767	93.5
369.993	94.5
370.219	85.5
370.445	90.5
370.672	91.5
370.898	84.5
371.124	93.5
371.35	96.5
371.576	86.5
371.802	94.5
372.028	86.5
372.254	78.5
372.48	84.5
372.706	91.5
372.932	85.5
373.158	84.5
373.384	98.5
373.61	102.5
373.835	98.5
374.061	84.5
374.287	92.5
374.513	88.5
374.739	99.5
374.965	78.5
375.191	69.5
375.416	85.5
375.642	88.5
375.868	95.5
376.094	92.5
376.319	83.5
376.545	92.5
376.771	98.5
376.997	82.5
377.222	78.5
377.448	102.5
377.674	89.5
377.899	83.5
378.125	97.5
378.35	96.5
378.576	97.5
378.802	94.5
379.027	93.5
379.253	92.5
379.478	90.5
379.704	87.5
379.929	88.5
380.155	110.5
380.38	106.5
380.606	99.5
380.831	97.5
381.057	98.5
381.282	103.5
381.507	94.5
381.733	96.5
381.958	97.5
382.184	110.5
382.409	108.5
382.634	98.5
382.86	112.5
383.085	109.5
383.31	106.5
383.535	99.5
383.761	94.5
383.986	101.5
384.211	102.5
384.436	109.5
384.662	98.5
384.887	111.5
385.112	122.5
385.337	109.5
385.562	112.5
385.787	98.5
386.013	112.5
386.238	124.5
386.463	103.5
386.688	115.5
386.913	118.5
387.138	119.5
387.363	108.5
387.588	98.5
387.813	113.5
388.038	112.5
388.263	134.5
388.488	111.5
388.713	111.5
388.938	101.5
389.163	103.5
389.387	87.5
389.612	91.5
389.837	107.5
390.062	94.5
390.287	94.5
390.512	91.5
390.736	95.5
390.961	77.5
391.186	102.5
391.411	108.5
391.636	96.5
391.86	92.5
392.085	94.5
392.31	72.5
392.534	89.5
392.759	86.5
392.984	86.5
393.208	95.5
393.433	85.5
393.658	91.5
393.882	86.5
394.107	70.5
394.331	66.5
394.556	87.5
394.78	102.5
395.005	96.5
395.229	95.5
395.454	91.5
395.678	73.5
395.903	90.5
396.127	86.5
396.352	98.5
396.576	95.5
396.801	103.5
397.025	78.5
397.249	102.5
397.474	88.5
397.698	90.5
397.922	85.5
398.147	94.5
398.371	86.5
398.595	103.5
398.82	101.5
399.044	87.5
399.268	91.5
399.492	97.5
399.717	79.5
399.941	98.5
400.165	96.5
400.389	85.5
400.613	102.5
400.837	95.5
401.062	103.5
401.286	95.5
401.51	91.5
401.734	87.5
401.958	104.5
402.182	107.5
402.406	135.5
402.63	105.5
402.854	92.5
403.078	93.5
403.302	83.5
403.526	90.5
403.75	77.5
403.974	86.5
404.198	107.5
404.422	91.5
404.645	85.5
404.869	91.5
405.093	91.5
405.317	95.5
405.541	94.5
405.765	104.5
405.988	102.5
406.212	139.5
406.436	186.5
406.66	119.5
406.883	91.5
407.107	96.5
407.331	90.5
407.555	79.5
407.778	95.5
408.002	100.5
408.226	94.5
408.449	99.5
408.673	100.5
408.896	93.5
409.12	93.5
409.344	95.5
409.567	100.5
409.791	99.5
410.014	90.5
410.238	91.5
410.461	87.5
410.685	87.5
410.908	104.5
411.132	122.5
411.355	88.5
411.578	81.5
411.802	84.5
412.025	92.5
412.249	98.5
412.472	106.5
412.695	112.5
412.919	96.5
413.142	80.5
413.365	102.5
413.589	100.5
413.812	98.5
414.035	94.5
414.258	90.5
414.482	82.5
414.705	105.5
414.928	82.5
415.151	84.5
415.374	102.5
415.597	82.5
415.821	100.5
416.044	107.5
416.267	98.5
416.49	91.5
416.713	82.5
416.936	75.5
417.159	92.5
417.382	86.5
417.605	94.5
417.828	105.5
418.051	78.5
418.274	89.5
418.497	99.5
418.72	92.5
418.943	93.5
419.166	82.5
419.389	95.5
419.611	106.5
419.834	99.5
420.057	110.5
420.28	92.5
420.503	93.5
420.726	85.5
420.948	95.5
421.171	105.5
421.394	79.5
421.617	105.5
421.839	94.5
422.062	82.5
422.285	96.5
422.507	99.5
422.73	99.5
422.953	88.5
423.175	86.5
423.398	75.5
423.621	73.5
423.843	90.5
424.066	71.5
424.288	100.5
424.511	106.5
424.733	93.5
424.956	98.5
425.178	101.5
425.401	97.5
425.623	101.5
425.846	79.5
426.068	106.5
426.291	96.5
426.513	93.5
426.735	89.5
426.958	80.5
427.18	100.5
427.402	124.5
427.625	145.5
427.847	108.5
428.069	112.5
428.292	90.5
428.514	87.5
428.736	94.5
428.958	74.5
429.181	96.5
429.403	83.5
429.625	82.5
429.847	79.5
430.069	90.5
430.292	104.5
430.514	86.5
430.736	85.5
430.958	92.5
431.18	86.5
431.402	87.5
431.624	94.5
431.846	92.5
432.068	90.5
432.29	93.5
432.512	100.5
432.734	96.5
432.956	101.5
433.178	93.5
433.4	91.5
433.622	99.5
433.844	91.5
434.066	85.5
434.287	75.5
434.509	90.5
434.731	101.5
434.953	88.5
435.175	98.5
435.397	92.5
435.618	89.5
435.84	94.5
436.062	118.5
436.284	109.5
436.505	100.5
436.727	89.5
436.949	86.5
437.17	96.5
437.392	95.5
437.614	86.5
437.835	111.5
438.057	115.5
438.278	102.5
438.5	104.5
438.721	111.5
438.943	96.5
439.165	116.5
439.386	86.5
439.608	100.5
439.829	115.5
440.05	122.5
440.272	127.5
440.493	95.5
440.715	102.5
440.936	105.5
441.158	92.5
441.379	111.5
441.6	87.5
441.822	97.5
442.043	98.5
442.264	105.5
442.486	90.5
442.707	94.5
442.928	106.5
443.149	115.5
443.371	124.5
443.592	94.5
443.813	105.5
444.034	90.5
444.255	96.5
444.476	90.5
444.698	93.5
444.919	89.5
445.14	153.5
445.361	123.5
445.582	111.5
445.803	133.5
446.024	129.5
446.245	112.5
446.466	125.5
446.687	100.5
446.908	82.5
447.129	86.5
447.35	94.5
447.571	78.5
447.792	84.5
448.013	91.5
448.234	108.5
448.455	83.5
448.675	100.5
448.896	112.5
449.117	96.5
449.338	87.5
449.559	110.5
449.779	120.5
450	99.5
450.221	90.5
450.442	98.5
450.662	98.5
450.883	92.5
451.104	103.5
451.324	90.5
451.545	95.5
451.766	95.5
451.986	88.5
452.207	84.5
452.428	87.5
452.648	99.5
452.869	101.5
453.089	107.5
453.31	115.5
453.53	95.5
453.751	102.5
453.971	106.5
454.192	97.5
454.412	95.5
454.633	87.5
454.853	96.5
455.073	86.5
455.294	89.5
455.514	92.5
455.734	77.5
455.955	95.5
456.175	89.5
456.395	92.5
456.616	76.5
456.836	93.5
457.056	103.5
457.276	78.5
457.497	82.5
457.717	70.5
457.937	91.5
458.157	82.5
458.377	92.5
458.598	109.5
458.818	112.5
459.038	130.5
459.258	103.5
459.478	89.5
459.698	101.5
459.918	99.5
460.138	93.5
460.358	88.5
460.578	86.5
460.798	83.5
461.018	107.5
461.238	84.5
461.458	93.5
461.678	87.5
461.898	93.5
462.118	98.5
462.338	94.5
462.558	71.5
462.777	88.5
462.997	79.5
463.217	91.5
463.437	100.5
463.657	98.5
463.876	105.5
464.096	94.5
464.316	86.5
464.536	96.5
464.755	90.5
464.975	98.5
465.195	138.5
465.414	134.5
465.634	93.5
465.854	75.5
466.073	86.5
466.293	86.5
466.512	73.5
466.732	88.5
466.951	85.5
467.171	80.5
467.391	107.5
467.61	97.5
467.829	98.5
468.049	94.5
468.268	103.5
468.488	87.5
468.707	91.5
468.927	89.5
469.146	86.5
469.365	89.5
469.585	96.5
469.804	97.5
470.023	90.5
470.243	91.5
470.462	104.5
470.681	103.5
470.901	95.5
471.12	88.5
471.339	86.5
471.558	79.5
471.777	99.5
471.997	102.5
472.216	110.5
472.435	136.5
472.654	100.5
472.873	101.5
473.092	93.5
473.311	94.5
473.53	73.5
473.749	96.5
473.968	92.5
474.187	90.5
474.406	101.5
474.625	98.5
474.844	89.5
475.063	79.5
475.282	70.5
475.501	83.5
475.72	87.5
475.939	80.5
476.158	75.5
476.377	83.5
476.596	80.5
476.814	99.5
477.033	97.5
477.252	99.5
477.471	98.5
477.69	80.5
477.908	88.5
478.127	87.5
478.346	83.5
478.564	84.5
478.783	83.5
479.002	109.5
479.22	100.5
479.439	97.5
479.658	91.5
479.876	103.5
480.095	76.5
480.313	87.5
480.532	104.5
480.751	97.5
480.969	125.5
481.188	189.5
481.406	137.5
481.624	98.5
481.843	83.5
482.061	83.5
482.28	83.5
482.498	85.5
482.717	82.5
482.935	90.5
483.153	90.5
483.372	105.5
483.59	96.5
483.808	101.5
484.027	91.5
484.245	105.5
484.463	105.5
484.681	107.5
484.9	91.5
485.118	97.5
485.336	90.5
485.554	98.5
485.772	109.5
485.99	97.5
486.209	112.5
486.427	110.5
486.645	111.5
486.863	113.5
487.081	98.5
487.299	103.5
487.517	104.5
487.735	97.5
487.953	80.5
488.171	92.5
488.389	104.5
488.607	82.5
488.825	81.5
489.043	88.5
489.261	96.5
489.479	78.5
489.696	115.5
489.914	100.5
490.132	99.5
490.35	100.5
490.568	88.5
490.786	83.5
491.003	103.5
491.221	92.5
491.439	82.5
491.657	83.5
491.874	90.5
492.092	90.5
492.31	99.5
492.527	82.5
492.745	79.5
492.963	93.5
493.18	89.5
493.398	77.5
493.615	105.5
493.833	90.5
494.05	80.5
494.268	86.5
494.485	91.5
494.703	97.5
494.92	95.5
495.138	102.5
495.355	98.5
495.573	107.5
495.79	91.5
496.008	84.5
496.225	83.5
496.442	91.5
496.66	95.5
496.877	96.5
497.094	100.5
497.312	99.5
497.529	94.5
497.746	90.5
497.963	101.5
498.181	106.5
498.398	111.5
498.615	99.5
498.832	92.5
499.049	104.5
499.267	99.5
499.484	102.5
499.701	108.5
499.918	89.5
500.135	90.5
500.352	103.5
500.569	88.5
500.786	89.5
501.003	104.5
501.22	95.5
501.437	95.5
501.654	101.5
501.871	103.5
502.088	117.5
502.305	89.5
502.522	95.5
502.739	92.5
502.956	92.5
503.172	86.5
503.389	105.5
503.606	121.5
503.823	104.5
504.04	95.5
504.256	88.5
504.473	85.5
504.69	78.5
504.907	99.5
505.123	75.5
505.34	77.5
505.557	93.5
505.773	97.5
505.99	87.5
506.207	98.5
506.423	99.5
506.64	97.5
506.856	107.5
507.073	94.5
507.289	96.5
507.506	101.5
507.722	108.5
507.939	112.5
508.155	99.5
508.372	100.5
508.588	86.5
508.805	102.5
509.021	80.5
509.238	101.5
509.454	116.5
509.67	105.5
509.887	102.5
510.103	123.5
510.319	183.5
510.536	605.5
510.752	1822.5
510.968	514.5
511.184	141.5
511.401	123.5
511.617	83.5
511.833	98.5
512.049	95.5
512.265	103.5
512.481	100.5
512.698	96.5
512.914	90.5
513.13	94.5
513.346	99.5
513.562	95.5
513.778	94.5
513.994	88.5
514.21	93.5
514.426	98.5
514.642	116.5
514.858	124.5
515.074	142.5
515.29	359.5
515.506	1058.5
515.721	398.5
515.937	124.5
516.153	128.5
516.369	106.5
516.585	93.5
516.801	86.5
517.016	107.5
517.232	86.5
517.448	88.5
517.664	99.5
517.879	103.5
518.095	99.5
518.311	85.5
518.527	96.5
518.742	88.5
518.958	89.5
519.173	98.5
519.389	98.5
519.605	114.5
519.82	111.5
520.036	102.5
520.251	103.5
520.467	110.5
520.682	112.5
520.898	96.5
521.113	100.5
521.329	134.5
521.544	172.5
521.76	420.5
521.975	1795.5
522.19	1028.5
522.406	255.5
522.621	132.5
522.836	101.5
523.052	100.5
523.267	97.5
523.482	90.5
523.698	98.5
523.913	106.5
524.128	110.5
524.343	110.5
524.559	112.5
524.774	79.5
524.989	94.5
525.204	110.5
525.419	105.5
525.634	93.5
525.849	96.5
526.064	79.5
526.28	82.5
526.495	95.5
526.71	76.5
526.925	92.5
527.14	94.5
527.355	92.5
527.57	84.5
527.785	95.5
527.999	90.5
528.214	91.5
528.429	105.5
528.644	95.5
528.859	84.5
529.074	101.5
529.289	109.5
529.503	165.5
529.718	115.5
529.933	96.5
530.148	91.5
530.363	90.5
530.577	93.5
530.792	94.5
531.007	92.5
531.221	92.5
531.436	91.5
531.651	83.5
531.865	103.5
532.08	87.5
532.295	106.5
532.509	108.5
532.724	109.5
532.938	100.5
533.153	114.5
533.367	100.5
533.582	93.5
533.796	89.5
534.011	99.5
534.225	99.5
