Data from Uncirc_1982_H10_HRD10591_00077.txt Node
Date: Wed Jan 03 12:29:40 EST 2024
User: Yrep
Spectrometer: HR+D1059
Trigger mode: 1
Integration Time (sec): 1.000000E-1
Scans to average: 1
Electric dark correction enabled: true
Nonlinearity correction enabled: false
Boxcar width: 0
XAxis mode: Wavelengths
Number of Pixels in Spectrum: 2048
>>>>>Begin Spectral Data<<<<<
223.165	-11.31
223.4	-11.31
223.635	-11.31
223.869	-19.31
224.104	-19.31
224.338	-23.31
224.573	-15.31
224.808	-12.31
225.042	-1.31
225.277	-1.31
225.511	-12.31
225.746	-5.31
225.98	4.69
226.215	4.69
226.449	26.69
226.683	27.69
226.918	30.69
227.152	26.69
227.387	35.69
227.621	51.69
227.856	42.69
228.09	60.69
228.324	64.69
228.559	42.69
228.793	152.69
229.027	440.69
229.262	508.69
229.496	575.69
229.73	754.69
229.964	785.69
230.199	526.69
230.433	489.69
230.667	464.69
230.901	459.69
231.136	453.69
231.37	428.69
231.604	458.69
231.838	469.69
232.072	475.69
232.306	474.69
232.541	496.69
232.775	465.69
233.009	499.69
233.243	479.69
233.477	502.69
233.711	492.69
233.945	534.69
234.179	513.69
234.413	500.69
234.647	487.69
234.881	522.69
235.115	533.69
235.349	564.69
235.583	577.69
235.817	594.69
236.051	623.69
236.285	636.69
236.519	638.69
236.753	710.69
236.987	870.69
237.221	1343.69
237.455	1450.69
237.689	890.69
237.922	719.69
238.156	730.69
238.39	684.69
238.624	676.69
238.858	663.69
239.091	667.69
239.325	695.69
239.559	694.69
239.793	713.69
240.027	768.69
240.26	905.69
240.494	971.69
240.728	958.69
240.961	935.69
241.195	853.69
241.429	825.69
241.662	811.69
241.896	788.69
242.13	777.69
242.363	789.69
242.597	831.69
242.83	860.69
243.064	871.69
243.298	857.69
243.531	859.69
243.765	877.69
243.998	900.69
244.232	902.69
244.465	901.69
244.699	961.69
244.932	935.69
245.166	931.69
245.399	944.69
245.633	935.69
245.866	974.69
246.099	965.69
246.333	969.69
246.566	1016.69
246.8	1020.69
247.033	1028.69
247.266	1114.69
247.5	1146.69
247.733	1188.69
247.966	1202.69
248.2	1203.69
248.433	1177.69
248.666	1251.69
248.899	1346.69
249.133	1454.69
249.366	1470.69
249.599	1346.69
249.832	1253.69
250.066	1233.69
250.299	1357.69
250.532	1418.69
250.765	1581.69
250.998	1752.69
251.231	1660.69
251.465	1566.69
251.698	1459.69
251.931	1481.69
252.164	1415.69
252.397	1498.69
252.63	1498.69
252.863	1587.69
253.096	1714.69
253.329	1775.69
253.562	1651.69
253.795	1630.69
254.028	1627.69
254.261	1683.69
254.494	1852.69
254.727	2179.69
254.96	2257.69
255.193	2028.69
255.426	1796.69
255.659	1721.69
255.892	1743.69
256.124	1776.69
256.357	1761.69
256.59	1646.69
256.823	1645.69
257.056	1591.69
257.289	1587.69
257.521	1594.69
257.754	1624.69
257.987	1593.69
258.22	1584.69
258.452	1597.69
258.685	1609.69
258.918	1632.69
259.151	1660.69
259.383	1765.69
259.616	1776.69
259.849	1814.69
260.081	1964.69
260.314	2100.69
260.547	2080.69
260.779	1906.69
261.012	1828.69
261.244	1812.69
261.477	1743.69
261.71	1740.69
261.942	1748.69
262.175	1787.69
262.407	1751.69
262.64	1734.69
262.872	1678.69
263.105	1700.69
263.337	1713.69
263.57	1672.69
263.802	1707.69
264.035	1709.69
264.267	1738.69
264.499	1700.69
264.732	1712.69
264.964	1752.69
265.197	1770.69
265.429	1730.69
265.661	1761.69
265.894	1810.69
266.126	1762.69
266.358	1822.69
266.591	1851.69
266.823	1922.69
267.055	1882.69
267.287	1960.69
267.52	1903.69
267.752	1909.69
267.984	1897.69
268.216	1916.69
268.448	1991.69
268.681	2025.69
268.913	2129.69
269.145	2331.69
269.377	2450.69
269.609	2338.69
269.841	2287.69
270.073	2386.69
270.306	2606.69
270.538	2761.69
270.77	2679.69
271.002	2476.69
271.234	2451.69
271.466	2579.69
271.698	2751.69
271.93	2776.69
272.162	2778.69
272.394	2663.69
272.626	2558.69
272.858	2404.69
273.09	2338.69
273.322	2276.69
273.553	2290.69
273.785	2269.69
274.017	2281.69
274.249	2289.69
274.481	2323.69
274.713	2313.69
274.945	2329.69
275.176	2349.69
275.408	2338.69
275.64	2321.69
275.872	2294.69
276.104	2357.69
276.335	2330.69
276.567	2459.69
276.799	2506.69
277.031	2793.69
277.262	2882.69
277.494	2764.69
277.726	2612.69
277.957	2536.69
278.189	2478.69
278.421	2421.69
278.652	2412.69
278.884	2448.69
279.115	2403.69
279.347	2434.69
279.579	2447.69
279.81	2432.69
280.042	2410.69
280.273	2460.69
280.505	2450.69
280.736	2439.69
280.968	2429.69
281.199	2460.69
281.431	2521.69
281.662	2536.69
281.894	2562.69
282.125	2565.69
282.356	2711.69
282.588	2784.69
282.819	2678.69
283.051	2582.69
283.282	2554.69
283.513	2645.69
283.745	2591.69
283.976	2708.69
284.207	2704.69
284.439	2668.69
284.67	2678.69
284.901	2692.69
285.132	2741.69
285.364	2693.69
285.595	2664.69
285.826	2673.69
286.057	2736.69
286.288	2745.69
286.52	2720.69
286.751	2738.69
286.982	2744.69
287.213	2747.69
287.444	2819.69
287.675	2865.69
287.906	2916.69
288.138	2998.69
288.369	2928.69
288.6	2902.69
288.831	2888.69
289.062	2828.69
289.293	2897.69
289.524	2891.69
289.755	2849.69
289.986	2836.69
290.217	2834.69
290.448	2822.69
290.679	2906.69
290.91	2857.69
291.141	2884.69
291.371	2848.69
291.602	2837.69
291.833	2831.69
292.064	2862.69
292.295	2911.69
292.526	2907.69
292.757	2852.69
292.987	2853.69
293.218	2865.69
293.449	2927.69
293.68	2878.69
293.91	2907.69
294.141	2894.69
294.372	2931.69
294.603	2931.69
294.833	2979.69
295.064	2928.69
295.295	2988.69
295.525	2945.69
295.756	2938.69
295.987	3024.69
296.217	3191.69
296.448	3146.69
296.679	3032.69
296.909	3032.69
297.14	3001.69
297.37	3061.69
297.601	3070.69
297.831	3098.69
298.062	3090.69
298.292	3097.69
298.523	3234.69
298.753	3238.69
298.984	3148.69
299.214	3201.69
299.445	3191.69
299.675	3162.69
299.905	3181.69
300.136	3174.69
300.366	3188.69
300.597	3275.69
300.827	3268.69
301.057	3370.69
301.288	3414.69
301.518	3371.69
301.748	3336.69
301.979	3466.69
302.209	3456.69
302.439	3395.69
302.669	3421.69
302.9	3407.69
303.13	3303.69
303.36	3331.69
303.59	3407.69
303.82	3432.69
304.051	3454.69
304.281	3388.69
304.511	3335.69
304.741	3324.69
304.971	3336.69
305.201	3271.69
305.431	3351.69
305.661	3366.69
305.891	3291.69
306.121	3346.69
306.352	3376.69
306.582	3390.69
306.812	3267.69
307.042	3315.69
307.272	3293.69
307.502	3307.69
307.731	3358.69
307.961	3332.69
308.191	3339.69
308.421	3291.69
308.651	3326.69
308.881	3346.69
309.111	3423.69
309.341	3376.69
309.571	3472.69
309.8	3519.69
310.03	3567.69
310.26	3611.69
310.49	3625.69
310.72	3614.69
310.949	3738.69
311.179	3690.69
311.409	3593.69
311.639	3636.69
311.868	3665.69
312.098	3681.69
312.328	3767.69
312.557	3863.69
312.787	3915.69
313.017	3818.69
313.246	3760.69
313.476	3770.69
313.706	3773.69
313.935	3870.69
314.165	3860.69
314.394	4013.69
314.624	3957.69
314.853	3808.69
315.083	3760.69
315.312	3723.69
315.542	3743.69
315.771	3736.69
316.001	3714.69
316.23	3678.69
316.46	3627.69
316.689	3791.69
316.919	3753.69
317.148	3802.69
317.377	3769.69
317.607	3714.69
317.836	3738.69
318.065	3734.69
318.295	3689.69
318.524	3677.69
318.753	3650.69
318.983	3675.69
319.212	3629.69
319.441	3777.69
319.67	3781.69
319.9	3675.69
320.129	3755.69
320.358	3757.69
320.587	3710.69
320.816	3761.69
321.046	3827.69
321.275	3835.69
321.504	3812.69
321.733	3853.69
321.962	3939.69
322.191	3961.69
322.42	4043.69
322.649	4110.69
322.878	4161.69
323.108	4174.69
323.337	4401.69
323.566	4516.69
323.795	4753.69
324.024	5208.69
324.253	6576.69
324.482	9407.69
324.71	13979.69
324.939	15628.69
325.168	10590.69
325.397	5949.69
325.626	5003.69
325.855	4653.69
326.084	4642.69
326.313	4654.69
326.542	4683.69
326.77	5221.69
326.999	6366.69
327.228	9116.69
327.457	13023.69
327.686	12202.69
327.914	6678.69
328.143	5500.69
328.372	5280.69
328.6	5032.69
328.829	4978.69
329.058	5130.69
329.287	5115.69
329.515	4829.69
329.744	4768.69
329.972	4922.69
330.201	5001.69
330.43	5275.69
330.658	5327.69
330.887	5510.69
331.115	5174.69
331.344	4922.69
331.572	4900.69
331.801	4963.69
332.03	4998.69
332.258	4975.69
332.486	4975.69
332.715	5083.69
332.943	5235.69
333.172	5418.69
333.4	5619.69
333.629	5646.69
333.857	5750.69
334.085	5684.69
334.314	5823.69
334.542	5942.69
334.771	5814.69
334.999	5509.69
335.227	5341.69
335.455	5221.69
335.684	5036.69
335.912	5046.69
336.14	4997.69
336.369	4974.69
336.597	5085.69
336.825	4954.69
337.053	4864.69
337.281	4750.69
337.51	4810.69
337.738	4791.69
337.966	4711.69
338.194	4714.69
338.422	4677.69
338.65	4615.69
338.878	4535.69
339.106	4527.69
339.334	4514.69
339.562	4458.69
339.79	4455.69
340.018	4435.69
340.246	4404.69
340.474	4488.69
340.702	4384.69
340.93	4487.69
341.158	4462.69
341.386	4372.69
341.614	4409.69
341.842	4337.69
342.07	4322.69
342.298	4309.69
342.526	4347.69
342.754	4385.69
342.981	4320.69
343.209	4463.69
343.437	4686.69
343.665	4982.69
343.893	5216.69
344.12	5289.69
344.348	4990.69
344.576	4846.69
344.804	4713.69
345.031	4664.69
345.259	4582.69
345.487	4477.69
345.714	4339.69
345.942	4354.69
346.17	4279.69
346.397	4218.69
346.625	4229.69
346.853	4244.69
347.08	4145.69
347.308	4211.69
347.535	4278.69
347.763	4337.69
347.99	4291.69
348.218	4298.69
348.445	4336.69
348.673	4238.69
348.9	4242.69
349.128	4110.69
349.355	4092.69
349.583	4101.69
349.81	4082.69
350.037	4131.69
350.265	4073.69
350.492	4024.69
350.72	4155.69
350.947	4137.69
351.174	4168.69
351.402	4175.69
351.629	4117.69
351.856	4134.69
352.083	4232.69
352.311	4247.69
352.538	4124.69
352.765	4196.69
352.992	4126.69
353.22	4093.69
353.447	4085.69
353.674	3973.69
353.901	4009.69
354.128	4009.69
354.355	4011.69
354.583	4034.69
354.81	3963.69
355.037	4008.69
355.264	3959.69
355.491	4001.69
355.718	3912.69
355.945	3900.69
356.172	3990.69
356.399	3981.69
356.626	4012.69
356.853	4005.69
357.08	4018.69
357.307	3968.69
357.534	4001.69
357.761	4061.69
357.988	4029.69
358.215	4008.69
358.441	4070.69
358.668	4040.69
358.895	4078.69
359.122	4109.69
359.349	4201.69
359.576	4259.69
359.802	4387.69
360.029	4490.69
360.256	4531.69
360.483	4334.69
360.709	4229.69
360.936	4197.69
361.163	4159.69
361.39	4240.69
361.616	4201.69
361.843	4186.69
362.07	4199.69
362.296	4175.69
362.523	4129.69
362.749	4139.69
362.976	4164.69
363.203	4113.69
363.429	4040.69
363.656	4118.69
363.882	4068.69
364.109	4097.69
364.335	4008.69
364.562	4049.69
364.788	4057.69
365.015	4034.69
365.241	4068.69
365.468	4071.69
365.694	4051.69
365.92	4082.69
366.147	4030.69
366.373	4091.69
366.599	4058.69
366.826	3977.69
367.052	3994.69
367.278	4058.69
367.505	4096.69
367.731	4157.69
367.957	4159.69
368.184	4104.69
368.41	4242.69
368.636	4247.69
368.862	4313.69
369.089	4200.69
369.315	4215.69
369.541	4240.69
369.767	4228.69
369.993	4159.69
370.219	4209.69
370.445	4327.69
370.672	4262.69
370.898	4311.69
371.124	4375.69
371.35	4321.69
371.576	4364.69
371.802	4349.69
372.028	4297.69
372.254	4366.69
372.48	4401.69
372.706	4505.69
372.932	4550.69
373.158	4523.69
373.384	4442.69
373.61	4276.69
373.835	4376.69
374.061	4438.69
374.287	4451.69
374.513	4528.69
374.739	4703.69
374.965	4694.69
375.191	4811.69
375.416	4746.69
375.642	4560.69
375.868	4615.69
376.094	4476.69
376.319	4457.69
376.545	4420.69
376.771	4382.69
376.997	4405.69
377.222	4411.69
377.448	4330.69
377.674	4345.69
377.899	4383.69
378.125	4334.69
378.35	4384.69
378.576	4375.69
378.802	4350.69
379.027	4393.69
379.253	4360.69
379.478	4276.69
379.704	4248.69
379.929	4374.69
380.155	4379.69
380.38	4312.69
380.606	4382.69
380.831	4362.69
381.057	4398.69
381.282	4362.69
381.507	4414.69
381.733	4484.69
381.958	4498.69
382.184	4526.69
382.409	4565.69
382.634	4594.69
382.86	4672.69
383.085	4699.69
383.31	4731.69
383.535	4787.69
383.761	4893.69
383.986	4913.69
384.211	5033.69
384.436	5116.69
384.662	5193.69
384.887	5218.69
385.112	5175.69
385.337	5381.69
385.562	5298.69
385.787	5332.69
386.013	5450.69
386.238	5418.69
386.463	5392.69
386.688	5409.69
386.913	5216.69
387.138	5263.69
387.363	5252.69
387.588	5138.69
387.813	5235.69
388.038	5196.69
388.263	5226.69
388.488	5202.69
388.713	5202.69
388.938	5200.69
389.163	5193.69
389.387	5234.69
389.612	5075.69
389.837	5129.69
390.062	5123.69
390.287	5172.69
390.512	5190.69
390.736	5193.69
390.961	5335.69
391.186	5413.69
391.411	5592.69
391.636	5684.69
391.86	5866.69
392.085	5876.69
392.31	5767.69
392.534	5706.69
392.759	5616.69
392.984	5561.69
393.208	5452.69
393.433	5392.69
393.658	5369.69
393.882	5393.69
394.107	5502.69
394.331	5527.69
394.556	5506.69
394.78	5636.69
395.005	5592.69
395.229	5653.69
395.454	5760.69
395.678	5950.69
395.903	5861.69
396.127	5942.69
396.352	5796.69
396.576	5629.69
396.801	5525.69
397.025	5715.69
397.249	5734.69
397.474	5846.69
397.698	5942.69
397.922	5968.69
398.147	6105.69
398.371	6248.69
398.595	6349.69
398.82	6660.69
399.044	7282.69
399.268	8003.69
399.492	9145.69
399.717	9827.69
399.941	9491.69
400.165	8807.69
400.389	8184.69
400.613	7366.69
400.837	6914.69
401.062	6822.69
401.286	6676.69
401.51	6591.69
401.734	6586.69
401.958	6673.69
402.182	6807.69
402.406	6892.69
402.63	6985.69
402.854	7140.69
403.078	7150.69
403.302	7356.69
403.526	7496.69
403.75	7514.69
403.974	7512.69
404.198	7526.69
404.422	7620.69
404.645	7488.69
404.869	7493.69
405.093	7787.69
405.317	8028.69
405.541	7963.69
405.765	7560.69
405.988	7364.69
406.212	7519.69
406.436	7626.69
406.66	7854.69
406.883	7794.69
407.107	8391.69
407.331	8908.69
407.555	9384.69
407.778	9161.69
408.002	8457.69
408.226	8076.69
408.449	7894.69
408.673	7724.69
408.896	7922.69
409.12	8031.69
409.344	7622.69
409.567	7219.69
409.791	7348.69
410.014	7139.69
410.238	7096.69
410.461	7094.69
410.685	7123.69
410.908	7220.69
411.132	7424.69
411.355	7499.69
411.578	7109.69
411.802	6911.69
412.025	6944.69
412.249	7004.69
412.472	7207.69
412.695	7352.69
412.919	6920.69
413.142	6723.69
413.365	6675.69
413.589	6661.69
413.812	6516.69
414.035	6454.69
414.258	6523.69
414.482	6501.69
414.705	6581.69
414.928	6585.69
415.151	6521.69
415.374	6558.69
415.597	6383.69
415.821	6359.69
416.044	6329.69
416.267	6323.69
416.49	6327.69
416.713	6272.69
416.936	6386.69
417.159	6401.69
417.382	6475.69
417.605	6488.69
417.828	6625.69
418.051	6702.69
418.274	6631.69
418.497	6501.69
418.72	6726.69
418.943	6628.69
419.166	7035.69
419.389	7378.69
419.611	7326.69
419.834	7002.69
420.057	6960.69
420.28	6818.69
420.503	6673.69
420.726	6702.69
420.948	6801.69
421.171	7121.69
421.394	7071.69
421.617	6655.69
421.839	6584.69
422.062	6690.69
422.285	6938.69
422.507	7514.69
422.73	7906.69
422.953	7495.69
423.175	7042.69
423.398	7092.69
423.621	7095.69
423.843	7404.69
424.066	7337.69
424.288	7210.69
424.511	7430.69
424.733	7791.69
424.956	8217.69
425.178	7734.69
425.401	7893.69
425.623	7807.69
425.846	6816.69
426.068	6788.69
426.291	6681.69
426.513	6639.69
426.735	6708.69
426.958	7018.69
427.18	7816.69
427.402	8862.69
427.625	8833.69
427.847	7643.69
428.069	6990.69
428.292	6519.69
428.514	6194.69
428.736	5994.69
428.958	6084.69
429.181	5894.69
429.403	5876.69
429.625	6019.69
429.847	6358.69
430.069	6874.69
430.292	6428.69
430.514	5900.69
430.736	5905.69
430.958	5846.69
431.18	5713.69
431.402	5786.69
431.624	5753.69
431.846	5772.69
432.068	5819.69
432.29	5973.69
432.512	5776.69
432.734	5906.69
432.956	5842.69
433.178	5904.69
433.4	5899.69
433.622	5824.69
433.844	5942.69
434.066	5892.69
434.287	5992.69
434.509	6187.69
434.731	6470.69
434.953	6589.69
435.175	6756.69
435.397	6789.69
435.618	6686.69
435.84	6994.69
436.062	7820.69
436.284	7650.69
436.505	6556.69
436.727	6318.69
436.949	6083.69
437.17	5969.69
437.392	5834.69
437.614	6006.69
437.835	6367.69
438.057	7245.69
438.278	7828.69
438.5	7734.69
438.721	8531.69
438.943	7511.69
439.165	6438.69
439.386	6224.69
439.608	6316.69
439.829	6324.69
440.05	6621.69
440.272	6907.69
440.493	6503.69
440.715	6176.69
440.936	6170.69
441.158	6170.69
441.379	6292.69
441.6	6639.69
441.822	6843.69
442.043	7316.69
442.264	7989.69
442.486	7740.69
442.707	6957.69
442.928	6848.69
443.149	6885.69
443.371	7162.69
443.592	7667.69
443.813	8712.69
444.034	8619.69
444.255	7604.69
444.476	7442.69
444.698	7710.69
444.919	7798.69
445.14	7455.69
445.361	7288.69
445.582	7434.69
445.803	7831.69
446.024	8398.69
446.245	8026.69
446.466	7285.69
446.687	6486.69
446.908	6104.69
447.129	5975.69
447.35	5702.69
447.571	5798.69
447.792	5641.69
448.013	5761.69
448.234	5875.69
448.455	6451.69
448.675	7643.69
448.896	7990.69
449.117	6702.69
449.338	6825.69
449.559	8050.69
449.779	8216.69
450	6363.69
450.221	5851.69
450.442	5578.69
450.662	5560.69
450.883	5560.69
451.104	5601.69
451.324	5472.69
451.545	5398.69
451.766	5315.69
451.986	5126.69
452.207	5111.69
452.428	5065.69
452.648	5145.69
452.869	5186.69
453.089	5224.69
453.31	5334.69
453.53	5127.69
453.751	5035.69
453.971	5093.69
454.192	5187.69
454.412	4978.69
454.633	4940.69
454.853	4981.69
455.073	4987.69
455.294	5339.69
455.514	5840.69
455.734	5414.69
455.955	4824.69
456.175	4752.69
456.395	4686.69
456.616	4710.69
456.836	4796.69
457.056	4768.69
457.276	4658.69
457.497	4839.69
457.717	4794.69
457.937	4809.69
458.157	4990.69
458.377	4957.69
458.598	5276.69
458.818	5917.69
459.038	6616.69
459.258	6625.69
459.478	5932.69
459.698	5888.69
459.918	6017.69
460.138	6223.69
460.358	6441.69
460.578	6386.69
460.798	6460.69
461.018	6377.69
461.238	6378.69
461.458	6344.69
461.678	6265.69
461.898	6480.69
462.118	6522.69
462.338	6803.69
462.558	7051.69
462.777	7328.69
462.997	7950.69
463.217	8410.69
463.437	8084.69
463.657	7418.69
463.876	7296.69
464.096	7318.69
464.316	7225.69
464.536	7327.69
464.755	7126.69
464.975	6934.69
465.195	6975.69
465.414	6881.69
465.634	6215.69
465.854	5938.69
466.073	5759.69
466.293	5580.69
466.512	5408.69
466.732	5300.69
466.951	5315.69
467.171	5290.69
467.391	5383.69
467.61	5370.69
467.829	5390.69
468.049	5298.69
468.268	5164.69
468.488	5161.69
468.707	5024.69
468.927	5043.69
469.146	5041.69
469.365	5104.69
469.585	5072.69
469.804	5361.69
470.023	5490.69
470.243	5490.69
470.462	5584.69
470.681	5558.69
470.901	5612.69
471.12	5546.69
471.339	5425.69
471.558	5317.69
471.777	5257.69
471.997	5159.69
472.216	5265.69
472.435	5386.69
472.654	5185.69
472.873	5076.69
473.092	5066.69
473.311	5058.69
473.53	4995.69
473.749	5251.69
473.968	5681.69
474.187	6614.69
474.406	6158.69
474.625	5334.69
474.844	5111.69
475.063	5132.69
475.282	5150.69
475.501	5203.69
475.72	5211.69
475.939	5249.69
476.158	5282.69
476.377	5297.69
476.596	5193.69
476.814	5414.69
477.033	5483.69
477.252	5475.69
477.471	5582.69
477.69	5780.69
477.908	5896.69
478.127	6012.69
478.346	6092.69
478.564	6181.69
478.783	6280.69
479.002	6399.69
479.22	6368.69
479.439	6410.69
479.658	6594.69
479.876	6682.69
480.095	6858.69
480.313	7280.69
480.532	7163.69
480.751	6980.69
480.969	6964.69
481.188	7264.69
481.406	7042.69
481.624	6566.69
481.843	6422.69
482.061	6263.69
482.28	6132.69
482.498	6163.69
482.717	6020.69
482.935	6000.69
483.153	6024.69
483.372	5959.69
483.59	5990.69
483.808	6006.69
484.027	6024.69
484.245	6068.69
484.463	6098.69
484.681	6199.69
484.9	6145.69
485.118	6200.69
485.336	6236.69
485.554	6371.69
485.772	6334.69
485.99	6236.69
486.209	6303.69
486.427	6430.69
486.645	6395.69
486.863	6594.69
487.081	6516.69
487.299	6467.69
487.517	6341.69
487.735	6450.69
