Data from Uncirc_1982_H10_HRD10591_00072.txt Node
Date: Wed Jan 03 12:29:39 EST 2024
User: Yrep
Spectrometer: HR+D1059
Trigger mode: 1
Integration Time (sec): 1.000000E-1
Scans to average: 1
Electric dark correction enabled: true
Nonlinearity correction enabled: false
Boxcar width: 0
XAxis mode: Wavelengths
Number of Pixels in Spectrum: 2048
>>>>>Begin Spectral Data<<<<<
223.165	-18.5
223.4	-18.5
223.635	-18.5
223.869	-21.5
224.104	-9.5
224.338	-21.5
224.573	-23.5
224.808	-15.5
225.042	-7.5
225.277	-8.5
225.511	-14.5
225.746	5.5
225.98	6.5
226.215	14.5
226.449	30.5
226.683	14.5
226.918	34.5
227.152	34.5
227.387	28.5
227.621	42.5
227.856	42.5
228.09	45.5
228.324	59.5
228.559	74.5
228.793	53.5
229.027	61.5
229.262	77.5
229.496	65.5
229.73	84.5
229.964	88.5
230.199	72.5
230.433	74.5
230.667	64.5
230.901	82.5
231.136	90.5
231.37	89.5
231.604	89.5
231.838	73.5
232.072	83.5
232.306	92.5
232.541	93.5
232.775	86.5
233.009	90.5
233.243	85.5
233.477	96.5
233.711	70.5
233.945	82.5
234.179	90.5
234.413	87.5
234.647	82.5
234.881	79.5
235.115	78.5
235.349	80.5
235.583	72.5
235.817	79.5
236.051	78.5
236.285	79.5
236.519	82.5
236.753	68.5
236.987	84.5
237.221	74.5
237.455	91.5
237.689	74.5
237.922	75.5
238.156	75.5
238.39	88.5
238.624	70.5
238.858	79.5
239.091	61.5
239.325	74.5
239.559	83.5
239.793	85.5
240.027	80.5
240.26	76.5
240.494	74.5
240.728	71.5
240.961	70.5
241.195	87.5
241.429	76.5
241.662	88.5
241.896	84.5
242.13	98.5
242.363	91.5
242.597	61.5
242.83	92.5
243.064	64.5
243.298	87.5
243.531	68.5
243.765	75.5
243.998	75.5
244.232	80.5
244.465	82.5
244.699	87.5
244.932	81.5
245.166	78.5
245.399	79.5
245.633	79.5
245.866	74.5
246.099	72.5
246.333	74.5
246.566	82.5
246.8	79.5
247.033	77.5
247.266	92.5
247.5	83.5
247.733	85.5
247.966	87.5
248.2	79.5
248.433	83.5
248.666	69.5
248.899	79.5
249.133	94.5
249.366	108.5
249.599	94.5
249.832	94.5
250.066	83.5
250.299	83.5
250.532	72.5
250.765	79.5
250.998	94.5
251.231	86.5
251.465	69.5
251.698	77.5
251.931	64.5
252.164	74.5
252.397	71.5
252.63	77.5
252.863	95.5
253.096	84.5
253.329	86.5
253.562	69.5
253.795	89.5
254.028	88.5
254.261	89.5
254.494	79.5
254.727	76.5
254.96	77.5
255.193	100.5
255.426	98.5
255.659	100.5
255.892	92.5
256.124	82.5
256.357	78.5
256.59	84.5
256.823	78.5
257.056	84.5
257.289	78.5
257.521	86.5
257.754	82.5
257.987	82.5
258.22	77.5
258.452	86.5
258.685	83.5
258.918	79.5
259.151	82.5
259.383	89.5
259.616	74.5
259.849	79.5
260.081	75.5
260.314	98.5
260.547	76.5
260.779	78.5
261.012	87.5
261.244	82.5
261.477	91.5
261.71	90.5
261.942	98.5
262.175	114.5
262.407	86.5
262.64	82.5
262.872	83.5
263.105	78.5
263.337	82.5
263.57	64.5
263.802	84.5
264.035	95.5
264.267	86.5
264.499	96.5
264.732	75.5
264.964	76.5
265.197	88.5
265.429	90.5
265.661	82.5
265.894	84.5
266.126	76.5
266.358	75.5
266.591	91.5
266.823	78.5
267.055	100.5
267.287	87.5
267.52	98.5
267.752	93.5
267.984	94.5
268.216	80.5
268.448	94.5
268.681	98.5
268.913	97.5
269.145	86.5
269.377	88.5
269.609	86.5
269.841	86.5
270.073	84.5
270.306	93.5
270.538	74.5
270.77	88.5
271.002	76.5
271.234	76.5
271.466	85.5
271.698	84.5
271.93	89.5
272.162	95.5
272.394	87.5
272.626	75.5
272.858	84.5
273.09	84.5
273.322	90.5
273.553	76.5
273.785	92.5
274.017	74.5
274.249	98.5
274.481	94.5
274.713	97.5
274.945	82.5
275.176	78.5
275.408	98.5
275.64	96.5
275.872	71.5
276.104	86.5
276.335	100.5
276.567	91.5
276.799	101.5
277.031	101.5
277.262	86.5
277.494	95.5
277.726	95.5
277.957	92.5
278.189	89.5
278.421	98.5
278.652	93.5
278.884	92.5
279.115	83.5
279.347	95.5
279.579	93.5
279.81	91.5
280.042	96.5
280.273	75.5
280.505	86.5
280.736	82.5
280.968	88.5
281.199	102.5
281.431	91.5
281.662	94.5
281.894	84.5
282.125	101.5
282.356	123.5
282.588	125.5
282.819	96.5
283.051	85.5
283.282	71.5
283.513	92.5
283.745	88.5
283.976	79.5
284.207	90.5
284.439	81.5
284.67	90.5
284.901	92.5
285.132	87.5
285.364	90.5
285.595	89.5
285.826	105.5
286.057	91.5
286.288	82.5
286.52	77.5
286.751	74.5
286.982	105.5
287.213	90.5
287.444	75.5
287.675	73.5
287.906	88.5
288.138	90.5
288.369	88.5
288.6	83.5
288.831	89.5
289.062	87.5
289.293	83.5
289.524	100.5
289.755	79.5
289.986	86.5
290.217	86.5
290.448	103.5
290.679	95.5
290.91	88.5
291.141	92.5
291.371	94.5
291.602	88.5
291.833	82.5
292.064	92.5
292.295	106.5
292.526	90.5
292.757	89.5
292.987	97.5
293.218	89.5
293.449	86.5
293.68	81.5
293.91	83.5
294.141	97.5
294.372	88.5
294.603	88.5
294.833	99.5
295.064	88.5
295.295	93.5
295.525	77.5
295.756	106.5
295.987	106.5
296.217	128.5
296.448	122.5
296.679	103.5
296.909	99.5
297.14	108.5
297.37	92.5
297.601	78.5
297.831	79.5
298.062	93.5
298.292	112.5
298.523	110.5
298.753	98.5
298.984	93.5
299.214	93.5
299.445	87.5
299.675	86.5
299.905	103.5
300.136	106.5
300.366	106.5
300.597	94.5
300.827	90.5
301.057	104.5
301.288	103.5
301.518	102.5
301.748	95.5
301.979	111.5
302.209	86.5
302.439	101.5
302.669	100.5
302.9	94.5
303.13	83.5
303.36	91.5
303.59	86.5
303.82	99.5
304.051	95.5
304.281	91.5
304.511	100.5
304.741	93.5
304.971	99.5
305.201	102.5
305.431	95.5
305.661	87.5
305.891	83.5
306.121	107.5
306.352	100.5
306.582	93.5
306.812	94.5
307.042	98.5
307.272	97.5
307.502	86.5
307.731	104.5
307.961	98.5
308.191	86.5
308.421	75.5
308.651	99.5
308.881	96.5
309.111	104.5
309.341	84.5
309.571	106.5
309.8	88.5
310.03	88.5
310.26	107.5
310.49	109.5
310.72	110.5
310.949	102.5
311.179	98.5
311.409	94.5
311.639	91.5
311.868	98.5
312.098	88.5
312.328	114.5
312.557	91.5
312.787	96.5
313.017	98.5
313.246	95.5
313.476	87.5
313.706	89.5
313.935	92.5
314.165	109.5
314.394	105.5
314.624	101.5
314.853	92.5
315.083	86.5
315.312	82.5
315.542	79.5
315.771	82.5
316.001	93.5
316.23	80.5
316.46	101.5
316.689	89.5
316.919	90.5
317.148	89.5
317.377	87.5
317.607	101.5
317.836	84.5
318.065	84.5
318.295	95.5
318.524	95.5
318.753	99.5
318.983	106.5
319.212	107.5
319.441	105.5
319.67	95.5
319.9	82.5
320.129	110.5
320.358	90.5
320.587	92.5
320.816	95.5
321.046	88.5
321.275	96.5
321.504	94.5
321.733	98.5
321.962	107.5
322.191	103.5
322.42	90.5
322.649	110.5
322.878	108.5
323.108	112.5
323.337	104.5
323.566	131.5
323.795	140.5
324.024	194.5
324.253	357.5
324.482	767.5
324.71	1563.5
324.939	2077.5
325.168	747.5
325.397	231.5
325.626	152.5
325.855	140.5
326.084	105.5
326.313	133.5
326.542	153.5
326.77	217.5
326.999	429.5
327.228	847.5
327.457	1622.5
327.686	1281.5
327.914	350.5
328.143	191.5
328.372	148.5
328.6	130.5
328.829	118.5
329.058	128.5
329.287	125.5
329.515	119.5
329.744	100.5
329.972	126.5
330.201	127.5
330.43	128.5
330.658	121.5
330.887	137.5
331.115	109.5
331.344	100.5
331.572	107.5
331.801	95.5
332.03	111.5
332.258	92.5
332.486	106.5
332.715	104.5
332.943	105.5
333.172	93.5
333.4	112.5
333.629	110.5
333.857	111.5
334.085	96.5
334.314	101.5
334.542	129.5
334.771	115.5
334.999	107.5
335.227	92.5
335.455	78.5
335.684	91.5
335.912	98.5
336.14	88.5
336.369	108.5
336.597	103.5
336.825	98.5
337.053	95.5
337.281	91.5
337.51	100.5
337.738	96.5
337.966	96.5
338.194	87.5
338.422	90.5
338.65	103.5
338.878	110.5
339.106	90.5
339.334	87.5
339.562	78.5
339.79	82.5
340.018	86.5
340.246	97.5
340.474	83.5
340.702	94.5
340.93	85.5
341.158	91.5
341.386	102.5
341.614	102.5
341.842	86.5
342.07	85.5
342.298	113.5
342.526	106.5
342.754	82.5
342.981	86.5
343.209	64.5
343.437	110.5
343.665	86.5
343.893	98.5
344.12	89.5
344.348	86.5
344.576	91.5
344.804	94.5
345.031	90.5
345.259	112.5
345.487	109.5
345.714	103.5
345.942	99.5
346.17	99.5
346.397	82.5
346.625	94.5
346.853	95.5
347.08	93.5
347.308	102.5
347.535	108.5
347.763	94.5
347.99	103.5
348.218	118.5
348.445	108.5
348.673	118.5
348.9	102.5
349.128	97.5
349.355	93.5
349.583	103.5
349.81	91.5
350.037	88.5
350.265	100.5
350.492	90.5
350.72	85.5
350.947	104.5
351.174	110.5
351.402	118.5
351.629	108.5
351.856	84.5
352.083	108.5
352.311	115.5
352.538	103.5
352.765	108.5
352.992	116.5
353.22	115.5
353.447	114.5
353.674	102.5
353.901	105.5
354.128	110.5
354.355	90.5
354.583	103.5
354.81	109.5
355.037	94.5
355.264	102.5
355.491	109.5
355.718	99.5
355.945	97.5
356.172	109.5
356.399	107.5
356.626	85.5
356.853	97.5
357.08	107.5
357.307	96.5
357.534	103.5
357.761	92.5
357.988	98.5
358.215	104.5
358.441	101.5
358.668	89.5
358.895	90.5
359.122	97.5
359.349	92.5
359.576	93.5
359.802	95.5
360.029	102.5
360.256	96.5
360.483	109.5
360.709	81.5
360.936	94.5
361.163	88.5
361.39	107.5
361.616	86.5
361.843	87.5
362.07	103.5
362.296	97.5
362.523	95.5
362.749	89.5
362.976	103.5
363.203	102.5
363.429	88.5
363.656	88.5
363.882	91.5
364.109	96.5
364.335	107.5
364.562	111.5
364.788	90.5
365.015	90.5
365.241	107.5
365.468	100.5
365.694	110.5
365.92	94.5
366.147	76.5
366.373	101.5
366.599	95.5
366.826	94.5
367.052	80.5
367.278	96.5
367.505	90.5
367.731	84.5
367.957	92.5
368.184	99.5
368.41	102.5
368.636	107.5
368.862	125.5
369.089	101.5
369.315	100.5
369.541	103.5
369.767	88.5
369.993	95.5
370.219	98.5
370.445	96.5
370.672	82.5
370.898	86.5
371.124	80.5
371.35	100.5
371.576	98.5
371.802	86.5
372.028	86.5
372.254	94.5
372.48	93.5
372.706	98.5
372.932	87.5
373.158	92.5
373.384	98.5
373.61	92.5
373.835	93.5
374.061	104.5
374.287	77.5
374.513	104.5
374.739	98.5
374.965	103.5
375.191	98.5
375.416	88.5
375.642	94.5
375.868	82.5
376.094	102.5
376.319	89.5
376.545	94.5
376.771	93.5
376.997	95.5
377.222	89.5
377.448	111.5
377.674	99.5
377.899	97.5
378.125	106.5
378.35	92.5
378.576	85.5
378.802	96.5
379.027	100.5
379.253	94.5
379.478	104.5
379.704	103.5
379.929	101.5
380.155	104.5
380.38	99.5
380.606	91.5
380.831	97.5
381.057	98.5
381.282	94.5
381.507	102.5
381.733	101.5
381.958	98.5
382.184	118.5
382.409	101.5
382.634	103.5
382.86	97.5
383.085	100.5
383.31	110.5
383.535	98.5
383.761	110.5
383.986	86.5
384.211	107.5
384.436	107.5
384.662	88.5
384.887	98.5
385.112	96.5
385.337	105.5
385.562	99.5
385.787	120.5
386.013	102.5
386.238	108.5
386.463	106.5
386.688	115.5
386.913	104.5
387.138	95.5
387.363	100.5
387.588	108.5
387.813	107.5
388.038	97.5
388.263	100.5
388.488	114.5
388.713	109.5
388.938	107.5
389.163	114.5
389.387	91.5
389.612	96.5
389.837	97.5
390.062	90.5
390.287	109.5
390.512	94.5
390.736	94.5
390.961	86.5
391.186	94.5
391.411	108.5
391.636	94.5
391.86	75.5
392.085	93.5
392.31	82.5
392.534	109.5
392.759	107.5
392.984	92.5
393.208	94.5
393.433	95.5
393.658	92.5
393.882	76.5
394.107	79.5
394.331	91.5
394.556	91.5
394.78	96.5
395.005	79.5
395.229	78.5
395.454	93.5
395.678	84.5
395.903	85.5
396.127	87.5
396.352	71.5
396.576	98.5
396.801	91.5
397.025	94.5
397.249	108.5
397.474	88.5
397.698	99.5
397.922	91.5
398.147	92.5
398.371	94.5
398.595	86.5
398.82	100.5
399.044	92.5
399.268	85.5
399.492	89.5
399.717	92.5
399.941	99.5
400.165	98.5
400.389	93.5
400.613	99.5
400.837	92.5
401.062	95.5
401.286	102.5
401.51	104.5
401.734	86.5
401.958	95.5
402.182	126.5
402.406	139.5
402.63	119.5
402.854	98.5
403.078	84.5
403.302	91.5
403.526	96.5
403.75	90.5
403.974	94.5
404.198	77.5
404.422	90.5
404.645	86.5
404.869	101.5
405.093	103.5
405.317	103.5
405.541	108.5
405.765	109.5
405.988	115.5
406.212	152.5
406.436	210.5
406.66	126.5
406.883	90.5
407.107	105.5
407.331	92.5
407.555	80.5
407.778	93.5
408.002	101.5
408.226	93.5
408.449	94.5
408.673	96.5
408.896	117.5
409.12	106.5
409.344	105.5
409.567	103.5
409.791	89.5
410.014	91.5
410.238	94.5
410.461	107.5
410.685	91.5
410.908	100.5
411.132	103.5
411.355	103.5
411.578	95.5
411.802	95.5
412.025	97.5
412.249	103.5
412.472	90.5
412.695	90.5
412.919	102.5
413.142	106.5
413.365	69.5
413.589	101.5
413.812	106.5
414.035	94.5
414.258	107.5
414.482	114.5
414.705	88.5
414.928	95.5
415.151	99.5
415.374	85.5
415.597	98.5
415.821	99.5
416.044	85.5
416.267	88.5
416.49	100.5
416.713	95.5
416.936	84.5
417.159	91.5
417.382	88.5
417.605	100.5
417.828	84.5
418.051	79.5
418.274	110.5
418.497	87.5
418.72	86.5
418.943	96.5
419.166	85.5
419.389	95.5
419.611	95.5
419.834	99.5
420.057	101.5
420.28	99.5
420.503	87.5
420.726	92.5
420.948	85.5
421.171	100.5
421.394	77.5
421.617	88.5
421.839	92.5
422.062	83.5
422.285	88.5
422.507	90.5
422.73	111.5
422.953	99.5
423.175	88.5
423.398	82.5
423.621	91.5
423.843	97.5
424.066	100.5
424.288	100.5
424.511	98.5
424.733	97.5
424.956	116.5
425.178	95.5
425.401	98.5
425.623	105.5
425.846	98.5
426.068	89.5
426.291	90.5
426.513	104.5
426.735	89.5
426.958	104.5
427.18	109.5
427.402	135.5
427.625	166.5
427.847	124.5
428.069	107.5
428.292	98.5
428.514	107.5
428.736	91.5
428.958	95.5
429.181	75.5
429.403	92.5
429.625	92.5
429.847	92.5
430.069	90.5
430.292	99.5
430.514	92.5
430.736	98.5
430.958	95.5
431.18	90.5
431.402	82.5
431.624	79.5
431.846	85.5
432.068	88.5
432.29	101.5
432.512	87.5
432.734	89.5
432.956	80.5
433.178	105.5
433.4	98.5
433.622	106.5
433.844	89.5
434.066	84.5
434.287	100.5
434.509	91.5
434.731	94.5
434.953	82.5
435.175	96.5
435.397	88.5
435.618	92.5
435.84	116.5
436.062	120.5
436.284	104.5
436.505	114.5
436.727	98.5
436.949	91.5
437.17	87.5
437.392	90.5
437.614	100.5
437.835	112.5
438.057	105.5
438.278	109.5
438.5	83.5
438.721	111.5
438.943	88.5
439.165	83.5
439.386	91.5
439.608	89.5
439.829	102.5
440.05	117.5
440.272	116.5
440.493	107.5
440.715	94.5
440.936	75.5
441.158	82.5
441.379	99.5
441.6	96.5
441.822	91.5
442.043	97.5
442.264	97.5
442.486	91.5
442.707	91.5
442.928	95.5
443.149	120.5
443.371	100.5
443.592	111.5
443.813	116.5
444.034	114.5
444.255	102.5
444.476	91.5
444.698	91.5
444.919	72.5
445.14	134.5
445.361	131.5
445.582	112.5
445.803	137.5
446.024	126.5
446.245	141.5
446.466	130.5
446.687	94.5
446.908	92.5
447.129	93.5
447.35	84.5
447.571	73.5
447.792	75.5
448.013	103.5
448.234	107.5
448.455	94.5
448.675	123.5
448.896	107.5
449.117	101.5
449.338	86.5
449.559	118.5
449.779	124.5
450	85.5
450.221	86.5
450.442	80.5
450.662	89.5
450.883	100.5
451.104	108.5
451.324	101.5
451.545	84.5
451.766	88.5
451.986	94.5
452.207	103.5
452.428	102.5
452.648	106.5
452.869	101.5
453.089	107.5
453.31	110.5
453.53	86.5
453.751	82.5
453.971	93.5
454.192	85.5
454.412	101.5
454.633	77.5
454.853	98.5
455.073	97.5
455.294	95.5
455.514	98.5
455.734	91.5
455.955	88.5
456.175	101.5
456.395	95.5
456.616	97.5
456.836	95.5
457.056	103.5
457.276	81.5
457.497	105.5
457.717	82.5
457.937	98.5
458.157	94.5
458.377	90.5
458.598	92.5
458.818	136.5
459.038	139.5
459.258	113.5
459.478	80.5
459.698	77.5
459.918	76.5
460.138	87.5
460.358	94.5
460.578	99.5
460.798	105.5
461.018	85.5
461.238	85.5
461.458	87.5
461.678	90.5
461.898	97.5
462.118	87.5
462.338	88.5
462.558	96.5
462.777	94.5
462.997	91.5
463.217	85.5
463.437	100.5
463.657	94.5
463.876	87.5
464.096	76.5
464.316	84.5
464.536	87.5
464.755	96.5
464.975	106.5
465.195	153.5
465.414	147.5
465.634	102.5
465.854	99.5
466.073	86.5
466.293	90.5
466.512	86.5
466.732	95.5
466.951	98.5
467.171	86.5
467.391	96.5
467.61	89.5
467.829	104.5
468.049	100.5
468.268	114.5
468.488	102.5
468.707	98.5
468.927	96.5
469.146	98.5
469.365	82.5
469.585	88.5
469.804	107.5
470.023	95.5
470.243	83.5
470.462	101.5
470.681	89.5
470.901	85.5
471.12	94.5
471.339	83.5
471.558	95.5
471.777	85.5
471.997	97.5
472.216	128.5
472.435	154.5
472.654	86.5
472.873	97.5
473.092	85.5
473.311	99.5
473.53	96.5
473.749	94.5
473.968	92.5
474.187	102.5
474.406	91.5
474.625	98.5
474.844	91.5
475.063	104.5
475.282	98.5
475.501	79.5
475.72	98.5
475.939	91.5
476.158	94.5
476.377	77.5
476.596	85.5
476.814	102.5
477.033	89.5
477.252	91.5
477.471	99.5
477.69	96.5
477.908	90.5
478.127	84.5
478.346	92.5
478.564	99.5
478.783	100.5
479.002	84.5
479.22	93.5
479.439	123.5
479.658	95.5
479.876	92.5
480.095	92.5
480.313	99.5
480.532	98.5
480.751	100.5
480.969	118.5
481.188	192.5
481.406	149.5
481.624	98.5
481.843	98.5
482.061	95.5
482.28	81.5
482.498	100.5
482.717	79.5
482.935	88.5
483.153	92.5
483.372	104.5
483.59	102.5
483.808	106.5
484.027	76.5
484.245	108.5
484.463	102.5
484.681	108.5
484.9	103.5
485.118	95.5
485.336	103.5
485.554	90.5
485.772	112.5
485.99	114.5
486.209	104.5
486.427	103.5
486.645	104.5
486.863	108.5
487.081	108.5
487.299	97.5
487.517	94.5
487.735	108.5
487.953	95.5
488.171	97.5
488.389	86.5
488.607	94.5
488.825	91.5
489.043	84.5
489.261	109.5
489.479	95.5
489.696	94.5
489.914	102.5
490.132	84.5
490.35	71.5
490.568	99.5
490.786	87.5
491.003	101.5
491.221	100.5
491.439	79.5
491.657	98.5
491.874	96.5
492.092	93.5
492.31	95.5
492.527	105.5
492.745	104.5
492.963	95.5
493.18	94.5
493.398	87.5
493.615	98.5
493.833	91.5
494.05	93.5
494.268	97.5
494.485	98.5
494.703	91.5
494.92	94.5
495.138	81.5
495.355	98.5
495.573	93.5
495.79	93.5
496.008	98.5
496.225	103.5
496.442	92.5
496.66	93.5
496.877	89.5
497.094	91.5
497.312	98.5
497.529	97.5
497.746	86.5
497.963	98.5
498.181	105.5
498.398	100.5
498.615	113.5
498.832	101.5
499.049	94.5
499.267	99.5
499.484	83.5
499.701	90.5
499.918	94.5
500.135	95.5
500.352	86.5
500.569	83.5
500.786	82.5
501.003	99.5
501.22	104.5
501.437	101.5
501.654	103.5
501.871	107.5
502.088	82.5
502.305	102.5
502.522	86.5
502.739	95.5
502.956	92.5
503.172	95.5
503.389	104.5
503.606	109.5
503.823	88.5
504.04	98.5
504.256	82.5
504.473	92.5
504.69	86.5
504.907	92.5
505.123	90.5
505.34	102.5
505.557	94.5
505.773	105.5
505.99	104.5
506.207	78.5
506.423	92.5
506.64	88.5
506.856	98.5
507.073	108.5
507.289	90.5
507.506	114.5
507.722	102.5
507.939	94.5
508.155	112.5
508.372	95.5
508.588	93.5
508.805	79.5
509.021	98.5
509.238	95.5
509.454	94.5
509.67	111.5
509.887	102.5
510.103	123.5
510.319	194.5
510.536	672.5
510.752	2043.5
510.968	564.5
511.184	139.5
511.401	117.5
511.617	93.5
511.833	94.5
512.049	86.5
512.265	93.5
512.481	80.5
512.698	108.5
512.914	94.5
513.13	88.5
513.346	100.5
513.562	101.5
513.778	92.5
513.994	106.5
514.21	103.5
514.426	119.5
514.642	124.5
514.858	117.5
515.074	158.5
515.29	396.5
515.506	1225.5
515.721	439.5
515.937	150.5
516.153	106.5
516.369	108.5
516.585	112.5
516.801	88.5
517.016	102.5
517.232	101.5
517.448	98.5
517.664	100.5
517.879	86.5
518.095	98.5
518.311	105.5
518.527	105.5
518.742	99.5
518.958	98.5
519.173	111.5
519.389	101.5
519.605	92.5
519.82	96.5
520.036	94.5
520.251	122.5
520.467	115.5
520.682	103.5
520.898	117.5
521.113	127.5
521.329	135.5
521.544	175.5
521.76	498.5
521.975	2040.5
522.19	1175.5
522.406	280.5
522.621	116.5
522.836	99.5
523.052	95.5
523.267	99.5
523.482	102.5
523.698	98.5
523.913	101.5
524.128	100.5
524.343	93.5
524.559	103.5
524.774	93.5
524.989	95.5
525.204	98.5
525.419	94.5
525.634	98.5
525.849	113.5
526.064	98.5
526.28	90.5
526.495	104.5
526.71	105.5
526.925	98.5
527.14	81.5
527.355	84.5
527.57	94.5
527.785	86.5
527.999	87.5
528.214	97.5
528.429	96.5
528.644	96.5
528.859	102.5
529.074	105.5
529.289	123.5
529.503	162.5
529.718	102.5
529.933	93.5
530.148	94.5
530.363	94.5
530.577	92.5
530.792	94.5
531.007	90.5
531.221	93.5
531.436	96.5
531.651	86.5
531.865	90.5
532.08	104.5
532.295	98.5
532.509	92.5
532.724	90.5
532.938	110.5
533.153	87.5
533.367	94.5
533.582	108.5
