Data from Uncirc_1982_H10_HRD10591_00041.txt Node
Date: Wed Jan 03 12:29:33 EST 2024
User: Yrep
Spectrometer: HR+D1059
Trigger mode: 1
Integration Time (sec): 1.000000E-1
Scans to average: 1
Electric dark correction enabled: true
Nonlinearity correction enabled: false
Boxcar width: 0
XAxis mode: Wavelengths
Number of Pixels in Spectrum: 2048
>>>>>Begin Spectral Data<<<<<
223.165	-20.25
223.4	-20.25
223.635	-20.25
223.869	-14.25
224.104	-17.25
224.338	-24.25
224.573	-20.25
224.808	-14.25
225.042	-13.25
225.277	-7.25
225.511	0.75
225.746	-1.25
225.98	8.75
226.215	6.75
226.449	25.75
226.683	32.75
226.918	24.75
227.152	32.75
227.387	36.75
227.621	28.75
227.856	39.75
228.09	40.75
228.324	41.75
228.559	55.75
228.793	58.75
229.027	60.75
229.262	61.75
229.496	60.75
229.73	62.75
229.964	64.75
230.199	73.75
230.433	68.75
230.667	56.75
230.901	82.75
231.136	66.75
231.37	68.75
231.604	81.75
231.838	84.75
232.072	65.75
232.306	88.75
232.541	67.75
232.775	80.75
233.009	80.75
233.243	69.75
233.477	68.75
233.711	86.75
233.945	77.75
234.179	64.75
234.413	58.75
234.647	78.75
234.881	86.75
235.115	71.75
235.349	64.75
235.583	87.75
235.817	81.75
236.051	63.75
236.285	86.75
236.519	76.75
236.753	81.75
236.987	65.75
237.221	62.75
237.455	66.75
237.689	71.75
237.922	99.75
238.156	73.75
238.39	67.75
238.624	71.75
238.858	88.75
239.091	67.75
239.325	76.75
239.559	85.75
239.793	65.75
240.027	67.75
240.26	78.75
240.494	71.75
240.728	94.75
240.961	68.75
241.195	79.75
241.429	70.75
241.662	68.75
241.896	78.75
242.13	72.75
242.363	72.75
242.597	76.75
242.83	71.75
243.064	86.75
243.298	69.75
243.531	78.75
243.765	84.75
243.998	72.75
244.232	60.75
244.465	64.75
244.699	77.75
244.932	84.75
245.166	71.75
245.399	84.75
245.633	67.75
245.866	61.75
246.099	70.75
246.333	73.75
246.566	75.75
246.8	69.75
247.033	78.75
247.266	68.75
247.5	78.75
247.733	86.75
247.966	88.75
248.2	79.75
248.433	78.75
248.666	66.75
248.899	68.75
249.133	88.75
249.366	83.75
249.599	89.75
249.832	76.75
250.066	72.75
250.299	92.75
250.532	74.75
250.765	56.75
250.998	79.75
251.231	75.75
251.465	73.75
251.698	79.75
251.931	77.75
252.164	77.75
252.397	84.75
252.63	81.75
252.863	72.75
253.096	81.75
253.329	81.75
253.562	77.75
253.795	74.75
254.028	78.75
254.261	85.75
254.494	67.75
254.727	82.75
254.96	68.75
255.193	63.75
255.426	82.75
255.659	78.75
255.892	84.75
256.124	82.75
256.357	88.75
256.59	76.75
256.823	68.75
257.056	73.75
257.289	70.75
257.521	81.75
257.754	66.75
257.987	78.75
258.22	92.75
258.452	96.75
258.685	80.75
258.918	80.75
259.151	83.75
259.383	70.75
259.616	65.75
259.849	92.75
260.081	76.75
260.314	76.75
260.547	77.75
260.779	76.75
261.012	79.75
261.244	73.75
261.477	86.75
261.71	83.75
261.942	100.75
262.175	102.75
262.407	84.75
262.64	72.75
262.872	64.75
263.105	81.75
263.337	87.75
263.57	82.75
263.802	73.75
264.035	71.75
264.267	78.75
264.499	88.75
264.732	84.75
264.964	88.75
265.197	72.75
265.429	81.75
265.661	83.75
265.894	78.75
266.126	91.75
266.358	88.75
266.591	81.75
266.823	89.75
267.055	66.75
267.287	65.75
267.52	79.75
267.752	84.75
267.984	76.75
268.216	92.75
268.448	85.75
268.681	72.75
268.913	93.75
269.145	78.75
269.377	72.75
269.609	69.75
269.841	78.75
270.073	80.75
270.306	83.75
270.538	85.75
270.77	82.75
271.002	77.75
271.234	77.75
271.466	76.75
271.698	83.75
271.93	84.75
272.162	84.75
272.394	72.75
272.626	80.75
272.858	84.75
273.09	85.75
273.322	89.75
273.553	81.75
273.785	81.75
274.017	84.75
274.249	88.75
274.481	76.75
274.713	81.75
274.945	80.75
275.176	68.75
275.408	86.75
275.64	86.75
275.872	80.75
276.104	90.75
276.335	72.75
276.567	78.75
276.799	99.75
277.031	91.75
277.262	89.75
277.494	86.75
277.726	83.75
277.957	79.75
278.189	82.75
278.421	84.75
278.652	90.75
278.884	92.75
279.115	95.75
279.347	78.75
279.579	58.75
279.81	87.75
280.042	84.75
280.273	87.75
280.505	90.75
280.736	76.75
280.968	87.75
281.199	77.75
281.431	71.75
281.662	80.75
281.894	92.75
282.125	89.75
282.356	104.75
282.588	105.75
282.819	90.75
283.051	82.75
283.282	80.75
283.513	81.75
283.745	79.75
283.976	84.75
284.207	79.75
284.439	73.75
284.67	90.75
284.901	86.75
285.132	84.75
285.364	82.75
285.595	78.75
285.826	88.75
286.057	80.75
286.288	86.75
286.52	76.75
286.751	86.75
286.982	81.75
287.213	85.75
287.444	76.75
287.675	93.75
287.906	94.75
288.138	83.75
288.369	69.75
288.6	85.75
288.831	80.75
289.062	87.75
289.293	92.75
289.524	75.75
289.755	82.75
289.986	82.75
290.217	101.75
290.448	76.75
290.679	69.75
290.91	94.75
291.141	82.75
291.371	81.75
291.602	80.75
291.833	89.75
292.064	84.75
292.295	82.75
292.526	94.75
292.757	81.75
292.987	68.75
293.218	71.75
293.449	84.75
293.68	81.75
293.91	78.75
294.141	73.75
294.372	99.75
294.603	100.75
294.833	88.75
295.064	70.75
295.295	79.75
295.525	80.75
295.756	102.75
295.987	103.75
296.217	107.75
296.448	115.75
296.679	76.75
296.909	92.75
297.14	86.75
297.37	85.75
297.601	76.75
297.831	90.75
298.062	86.75
298.292	82.75
298.523	95.75
298.753	76.75
298.984	78.75
299.214	84.75
299.445	77.75
299.675	94.75
299.905	85.75
300.136	80.75
300.366	89.75
300.597	86.75
300.827	89.75
301.057	90.75
301.288	97.75
301.518	90.75
301.748	84.75
301.979	92.75
302.209	96.75
302.439	93.75
302.669	77.75
302.9	74.75
303.13	82.75
303.36	82.75
303.59	93.75
303.82	106.75
304.051	81.75
304.281	90.75
304.511	94.75
304.741	86.75
304.971	85.75
305.201	98.75
305.431	88.75
305.661	84.75
305.891	70.75
306.121	80.75
306.352	90.75
306.582	95.75
306.812	102.75
307.042	95.75
307.272	101.75
307.502	84.75
307.731	81.75
307.961	93.75
308.191	84.75
308.421	89.75
308.651	87.75
308.881	86.75
309.111	83.75
309.341	110.75
309.571	88.75
309.8	78.75
310.03	73.75
310.26	93.75
310.49	93.75
310.72	102.75
310.949	89.75
311.179	83.75
311.409	82.75
311.639	96.75
311.868	94.75
312.098	73.75
312.328	88.75
312.557	93.75
312.787	95.75
313.017	102.75
313.246	87.75
313.476	87.75
313.706	86.75
313.935	93.75
314.165	94.75
314.394	94.75
314.624	100.75
314.853	95.75
315.083	87.75
315.312	93.75
315.542	85.75
315.771	87.75
316.001	90.75
316.23	76.75
316.46	87.75
316.689	97.75
316.919	86.75
317.148	78.75
317.377	99.75
317.607	82.75
317.836	87.75
318.065	83.75
318.295	101.75
318.524	93.75
318.753	82.75
318.983	83.75
319.212	90.75
319.441	107.75
319.67	100.75
319.9	82.75
320.129	91.75
320.358	76.75
320.587	89.75
320.816	73.75
321.046	100.75
321.275	87.75
321.504	98.75
321.733	81.75
321.962	89.75
322.191	98.75
322.42	97.75
322.649	93.75
322.878	94.75
323.108	104.75
323.337	102.75
323.566	124.75
323.795	131.75
324.024	151.75
324.253	320.75
324.482	680.75
324.71	1389.75
324.939	1838.75
325.168	680.75
325.397	191.75
325.626	127.75
325.855	122.75
326.084	121.75
326.313	117.75
326.542	140.75
326.77	196.75
326.999	384.75
327.228	759.75
327.457	1444.75
327.686	1152.75
327.914	310.75
328.143	160.75
328.372	140.75
328.6	110.75
328.829	116.75
329.058	119.75
329.287	113.75
329.515	105.75
329.744	83.75
329.972	90.75
330.201	114.75
330.43	110.75
330.658	114.75
330.887	106.75
331.115	90.75
331.344	93.75
331.572	97.75
331.801	93.75
332.03	83.75
332.258	77.75
332.486	80.75
332.715	72.75
332.943	72.75
333.172	82.75
333.4	90.75
333.629	88.75
333.857	102.75
334.085	107.75
334.314	97.75
334.542	131.75
334.771	115.75
334.999	99.75
335.227	99.75
335.455	96.75
335.684	97.75
335.912	83.75
336.14	97.75
336.369	93.75
336.597	93.75
336.825	91.75
337.053	93.75
337.281	92.75
337.51	84.75
337.738	86.75
337.966	97.75
338.194	88.75
338.422	88.75
338.65	92.75
338.878	82.75
339.106	90.75
339.334	94.75
339.562	98.75
339.79	97.75
340.018	78.75
340.246	95.75
340.474	80.75
340.702	96.75
340.93	77.75
341.158	90.75
341.386	83.75
341.614	97.75
341.842	85.75
342.07	84.75
342.298	92.75
342.526	92.75
342.754	83.75
342.981	82.75
343.209	90.75
343.437	99.75
343.665	84.75
343.893	90.75
344.12	92.75
344.348	90.75
344.576	98.75
344.804	87.75
345.031	89.75
345.259	99.75
345.487	78.75
345.714	98.75
345.942	86.75
346.17	87.75
346.397	71.75
346.625	109.75
346.853	92.75
347.08	80.75
347.308	89.75
347.535	84.75
347.763	98.75
347.99	88.75
348.218	101.75
348.445	97.75
348.673	93.75
348.9	97.75
349.128	93.75
349.355	93.75
349.583	99.75
349.81	88.75
350.037	96.75
350.265	85.75
350.492	95.75
350.72	89.75
350.947	105.75
351.174	102.75
351.402	90.75
351.629	98.75
351.856	82.75
352.083	110.75
352.311	107.75
352.538	113.75
352.765	96.75
352.992	94.75
353.22	95.75
353.447	109.75
353.674	107.75
353.901	94.75
354.128	107.75
354.355	78.75
354.583	86.75
354.81	95.75
355.037	92.75
355.264	105.75
355.491	95.75
355.718	98.75
355.945	89.75
356.172	104.75
356.399	96.75
356.626	89.75
356.853	93.75
357.08	103.75
357.307	89.75
357.534	104.75
357.761	87.75
357.988	86.75
358.215	96.75
358.441	91.75
358.668	92.75
358.895	85.75
359.122	82.75
359.349	82.75
359.576	84.75
359.802	86.75
360.029	109.75
360.256	95.75
360.483	78.75
360.709	85.75
360.936	92.75
361.163	88.75
361.39	90.75
361.616	89.75
361.843	96.75
362.07	83.75
362.296	82.75
362.523	91.75
362.749	68.75
362.976	82.75
363.203	107.75
363.429	92.75
363.656	97.75
363.882	88.75
364.109	77.75
364.335	80.75
364.562	86.75
364.788	84.75
365.015	74.75
365.241	81.75
365.468	98.75
365.694	97.75
365.92	96.75
366.147	73.75
366.373	85.75
366.599	102.75
366.826	96.75
367.052	82.75
367.278	69.75
367.505	91.75
367.731	86.75
367.957	88.75
368.184	82.75
368.41	87.75
368.636	90.75
368.862	100.75
369.089	103.75
369.315	90.75
369.541	94.75
369.767	99.75
369.993	85.75
370.219	84.75
370.445	86.75
370.672	76.75
370.898	80.75
371.124	88.75
371.35	95.75
371.576	82.75
371.802	96.75
372.028	78.75
372.254	81.75
372.48	94.75
372.706	82.75
372.932	83.75
373.158	89.75
373.384	96.75
373.61	101.75
373.835	94.75
374.061	91.75
374.287	86.75
374.513	78.75
374.739	93.75
374.965	84.75
375.191	106.75
375.416	98.75
375.642	97.75
375.868	90.75
376.094	96.75
376.319	87.75
376.545	89.75
376.771	81.75
376.997	81.75
377.222	94.75
377.448	100.75
377.674	85.75
377.899	80.75
378.125	76.75
378.35	84.75
378.576	88.75
378.802	84.75
379.027	85.75
379.253	80.75
379.478	95.75
379.704	85.75
379.929	101.75
380.155	86.75
380.38	88.75
380.606	90.75
380.831	96.75
381.057	98.75
381.282	96.75
381.507	90.75
381.733	84.75
381.958	86.75
382.184	95.75
382.409	96.75
382.634	88.75
382.86	112.75
383.085	102.75
383.31	93.75
383.535	105.75
383.761	98.75
383.986	101.75
384.211	91.75
384.436	93.75
384.662	93.75
384.887	87.75
385.112	113.75
385.337	89.75
385.562	86.75
385.787	100.75
386.013	119.75
386.238	112.75
386.463	89.75
386.688	119.75
386.913	96.75
387.138	109.75
387.363	103.75
387.588	101.75
387.813	90.75
388.038	119.75
388.263	117.75
388.488	109.75
388.713	97.75
388.938	94.75
389.163	101.75
389.387	91.75
389.612	99.75
389.837	87.75
390.062	106.75
390.287	98.75
390.512	94.75
390.736	86.75
390.961	105.75
391.186	92.75
391.411	96.75
391.636	94.75
391.86	87.75
392.085	88.75
392.31	79.75
392.534	74.75
392.759	83.75
392.984	82.75
393.208	81.75
393.433	93.75
393.658	88.75
393.882	80.75
394.107	71.75
394.331	90.75
394.556	88.75
394.78	91.75
395.005	81.75
395.229	91.75
395.454	94.75
395.678	98.75
395.903	85.75
396.127	71.75
396.352	92.75
396.576	84.75
396.801	85.75
397.025	86.75
397.249	83.75
397.474	80.75
397.698	72.75
397.922	76.75
398.147	82.75
398.371	94.75
398.595	92.75
398.82	86.75
399.044	78.75
399.268	82.75
399.492	74.75
399.717	86.75
399.941	90.75
400.165	78.75
400.389	100.75
400.613	92.75
400.837	77.75
401.062	103.75
401.286	94.75
401.51	96.75
401.734	87.75
401.958	102.75
402.182	95.75
402.406	125.75
402.63	97.75
402.854	83.75
403.078	96.75
403.302	78.75
403.526	79.75
403.75	84.75
403.974	89.75
404.198	84.75
404.422	90.75
404.645	87.75
404.869	89.75
405.093	96.75
405.317	88.75
405.541	103.75
405.765	101.75
405.988	94.75
406.212	132.75
406.436	180.75
406.66	117.75
406.883	96.75
407.107	95.75
407.331	97.75
407.555	99.75
407.778	95.75
408.002	86.75
408.226	73.75
408.449	99.75
408.673	94.75
408.896	86.75
409.12	87.75
409.344	77.75
409.567	103.75
409.791	86.75
410.014	110.75
410.238	90.75
410.461	80.75
410.685	81.75
410.908	93.75
411.132	93.75
411.355	100.75
411.578	92.75
411.802	82.75
412.025	96.75
412.249	85.75
412.472	85.75
412.695	81.75
412.919	91.75
413.142	88.75
413.365	87.75
413.589	86.75
413.812	78.75
414.035	80.75
414.258	96.75
414.482	106.75
414.705	80.75
414.928	81.75
415.151	89.75
415.374	102.75
415.597	83.75
415.821	87.75
416.044	80.75
416.267	84.75
416.49	93.75
416.713	86.75
416.936	91.75
417.159	91.75
417.382	78.75
417.605	88.75
417.828	93.75
418.051	84.75
418.274	85.75
418.497	78.75
418.72	89.75
418.943	95.75
419.166	92.75
419.389	106.75
419.611	74.75
419.834	85.75
420.057	82.75
420.28	76.75
420.503	88.75
420.726	74.75
420.948	77.75
421.171	73.75
421.394	89.75
421.617	88.75
421.839	89.75
422.062	88.75
422.285	90.75
422.507	96.75
422.73	93.75
422.953	95.75
423.175	88.75
423.398	84.75
423.621	91.75
423.843	70.75
424.066	73.75
424.288	84.75
424.511	94.75
424.733	86.75
424.956	93.75
425.178	82.75
425.401	97.75
425.623	85.75
425.846	88.75
426.068	88.75
426.291	84.75
426.513	80.75
426.735	79.75
426.958	87.75
427.18	99.75
427.402	131.75
427.625	145.75
427.847	106.75
428.069	87.75
428.292	77.75
428.514	99.75
428.736	96.75
428.958	83.75
429.181	74.75
429.403	86.75
429.625	87.75
429.847	78.75
430.069	93.75
430.292	83.75
430.514	92.75
430.736	77.75
430.958	76.75
431.18	81.75
431.402	73.75
431.624	88.75
431.846	87.75
432.068	81.75
432.29	83.75
432.512	75.75
432.734	88.75
432.956	83.75
433.178	91.75
433.4	93.75
433.622	81.75
433.844	88.75
434.066	77.75
434.287	80.75
434.509	96.75
434.731	81.75
434.953	99.75
435.175	90.75
435.397	82.75
435.618	87.75
435.84	92.75
436.062	120.75
436.284	101.75
436.505	86.75
436.727	91.75
436.949	91.75
437.17	93.75
437.392	84.75
437.614	78.75
437.835	100.75
438.057	95.75
438.278	101.75
438.5	106.75
438.721	95.75
438.943	100.75
439.165	85.75
439.386	87.75
439.608	95.75
439.829	80.75
440.05	100.75
440.272	116.75
440.493	90.75
440.715	80.75
440.936	85.75
441.158	89.75
441.379	91.75
441.6	86.75
441.822	105.75
442.043	93.75
442.264	95.75
442.486	99.75
442.707	103.75
442.928	94.75
443.149	105.75
443.371	103.75
443.592	92.75
443.813	111.75
444.034	92.75
444.255	96.75
444.476	93.75
444.698	78.75
444.919	94.75
445.14	138.75
445.361	123.75
445.582	104.75
445.803	109.75
446.024	116.75
446.245	113.75
446.466	114.75
446.687	90.75
446.908	92.75
447.129	73.75
447.35	80.75
447.571	91.75
447.792	95.75
448.013	97.75
448.234	100.75
448.455	92.75
448.675	103.75
448.896	114.75
449.117	104.75
449.338	93.75
449.559	111.75
449.779	123.75
450	97.75
450.221	100.75
450.442	85.75
450.662	88.75
450.883	101.75
451.104	92.75
451.324	96.75
451.545	84.75
451.766	68.75
451.986	86.75
452.207	80.75
452.428	76.75
452.648	95.75
452.869	83.75
453.089	92.75
453.31	86.75
453.53	80.75
453.751	80.75
453.971	90.75
454.192	102.75
454.412	102.75
454.633	86.75
454.853	82.75
455.073	85.75
455.294	78.75
455.514	94.75
455.734	79.75
455.955	80.75
456.175	74.75
456.395	93.75
456.616	92.75
456.836	86.75
457.056	77.75
457.276	70.75
457.497	85.75
457.717	74.75
457.937	73.75
458.157	99.75
458.377	88.75
458.598	86.75
458.818	118.75
459.038	131.75
459.258	104.75
459.478	80.75
459.698	84.75
459.918	81.75
460.138	84.75
460.358	83.75
460.578	76.75
460.798	80.75
461.018	86.75
461.238	64.75
461.458	80.75
461.678	93.75
461.898	81.75
462.118	88.75
462.338	79.75
462.558	97.75
462.777	72.75
462.997	81.75
463.217	90.75
463.437	68.75
463.657	86.75
463.876	90.75
464.096	83.75
464.316	73.75
464.536	74.75
464.755	80.75
464.975	103.75
465.195	137.75
465.414	123.75
465.634	99.75
465.854	93.75
466.073	89.75
466.293	97.75
466.512	74.75
466.732	82.75
466.951	82.75
467.171	77.75
467.391	86.75
467.61	98.75
467.829	104.75
468.049	80.75
468.268	92.75
468.488	79.75
468.707	79.75
468.927	82.75
469.146	77.75
469.365	92.75
469.585	89.75
469.804	89.75
470.023	93.75
470.243	88.75
470.462	93.75
470.681	82.75
470.901	86.75
471.12	81.75
471.339	81.75
471.558	86.75
471.777	89.75
471.997	85.75
472.216	100.75
472.435	119.75
472.654	81.75
472.873	77.75
473.092	84.75
473.311	80.75
473.53	85.75
473.749	90.75
473.968	79.75
474.187	95.75
474.406	86.75
474.625	76.75
474.844	92.75
475.063	88.75
475.282	101.75
475.501	83.75
475.72	98.75
475.939	92.75
476.158	84.75
476.377	77.75
476.596	81.75
476.814	93.75
477.033	103.75
477.252	89.75
477.471	72.75
477.69	78.75
477.908	100.75
478.127	86.75
478.346	93.75
478.564	78.75
478.783	80.75
479.002	79.75
479.22	80.75
479.439	101.75
479.658	98.75
479.876	90.75
480.095	90.75
480.313	81.75
480.532	89.75
480.751	92.75
480.969	111.75
481.188	183.75
481.406	139.75
481.624	100.75
481.843	73.75
482.061	101.75
482.28	83.75
482.498	92.75
482.717	76.75
482.935	82.75
483.153	88.75
483.372	90.75
483.59	97.75
483.808	87.75
484.027	82.75
484.245	86.75
484.463	98.75
484.681	92.75
484.9	95.75
485.118	102.75
485.336	84.75
485.554	99.75
485.772	88.75
485.99	91.75
486.209	105.75
486.427	98.75
486.645	92.75
486.863	115.75
487.081	98.75
487.299	85.75
487.517	86.75
487.735	83.75
487.953	97.75
488.171	93.75
488.389	109.75
488.607	81.75
488.825	88.75
489.043	96.75
489.261	87.75
489.479	80.75
489.696	79.75
489.914	83.75
490.132	77.75
490.35	92.75
490.568	83.75
490.786	86.75
491.003	71.75
491.221	98.75
491.439	96.75
491.657	92.75
491.874	65.75
492.092	83.75
492.31	102.75
492.527	87.75
492.745	80.75
492.963	90.75
493.18	93.75
493.398	97.75
493.615	91.75
493.833	87.75
494.05	81.75
494.268	91.75
494.485	80.75
494.703	65.75
494.92	86.75
495.138	76.75
495.355	95.75
495.573	98.75
495.79	90.75
496.008	89.75
496.225	76.75
496.442	94.75
496.66	72.75
496.877	79.75
497.094	98.75
497.312	98.75
497.529	86.75
497.746	83.75
497.963	91.75
498.181	98.75
498.398	95.75
498.615	97.75
498.832	95.75
499.049	87.75
499.267	97.75
499.484	101.75
499.701	88.75
499.918	86.75
500.135	83.75
500.352	84.75
500.569	87.75
500.786	81.75
501.003	86.75
501.22	78.75
501.437	82.75
501.654	81.75
501.871	95.75
502.088	101.75
502.305	96.75
502.522	72.75
502.739	84.75
502.956	82.75
503.172	88.75
503.389	105.75
503.606	93.75
503.823	94.75
504.04	105.75
504.256	69.75
504.473	74.75
504.69	93.75
504.907	94.75
505.123	88.75
505.34	85.75
505.557	96.75
505.773	90.75
505.99	86.75
506.207	76.75
506.423	82.75
506.64	84.75
506.856	87.75
507.073	78.75
507.289	88.75
507.506	93.75
507.722	97.75
507.939	104.75
508.155	92.75
508.372	94.75
508.588	88.75
508.805	91.75
509.021	88.75
509.238	87.75
509.454	83.75
509.67	111.75
509.887	101.75
510.103	111.75
510.319	193.75
510.536	594.75
510.752	1835.75
510.968	518.75
511.184	138.75
511.401	120.75
511.617	96.75
511.833	98.75
512.049	89.75
512.265	87.75
512.481	100.75
512.698	88.75
512.914	92.75
513.13	92.75
513.346	82.75
513.562	87.75
513.778	90.75
513.994	90.75
514.21	99.75
514.426	107.75
514.642	120.75
514.858	115.75
515.074	137.75
515.29	340.75
515.506	1058.75
515.721	366.75
515.937	133.75
516.153	101.75
516.369	95.75
516.585	85.75
516.801	63.75
517.016	80.75
517.232	98.75
