Data from Uncirc_1982_H10_HRD10591_00089.txt Node
Date: Wed Jan 03 12:29:42 EST 2024
User: Yrep
Spectrometer: HR+D1059
Trigger mode: 1
Integration Time (sec): 1.000000E-1
Scans to average: 1
Electric dark correction enabled: true
Nonlinearity correction enabled: false
Boxcar width: 0
XAxis mode: Wavelengths
Number of Pixels in Spectrum: 2048
>>>>>Begin Spectral Data<<<<<
223.165	-24.25
223.4	-24.25
223.635	-24.25
223.869	-26.25
224.104	-6.25
224.338	-20.25
224.573	-23.25
224.808	-11.25
225.042	0.75
225.277	-5.25
225.511	-9.25
225.746	5.75
225.98	20.75
226.215	14.75
226.449	11.75
226.683	19.75
226.918	26.75
227.152	25.75
227.387	40.75
227.621	46.75
227.856	50.75
228.09	49.75
228.324	47.75
228.559	47.75
228.793	51.75
229.027	63.75
229.262	63.75
229.496	61.75
229.73	77.75
229.964	76.75
230.199	69.75
230.433	69.75
230.667	78.75
230.901	82.75
231.136	88.75
231.37	82.75
231.604	91.75
231.838	82.75
232.072	76.75
232.306	72.75
232.541	82.75
232.775	76.75
233.009	76.75
233.243	75.75
233.477	84.75
233.711	85.75
233.945	74.75
234.179	82.75
234.413	88.75
234.647	89.75
234.881	86.75
235.115	75.75
235.349	95.75
235.583	84.75
235.817	89.75
236.051	87.75
236.285	69.75
236.519	73.75
236.753	65.75
236.987	82.75
237.221	79.75
237.455	85.75
237.689	85.75
237.922	76.75
238.156	70.75
238.39	78.75
238.624	71.75
238.858	81.75
239.091	78.75
239.325	78.75
239.559	84.75
239.793	91.75
240.027	71.75
240.26	87.75
240.494	75.75
240.728	82.75
240.961	67.75
241.195	86.75
241.429	79.75
241.662	82.75
241.896	73.75
242.13	82.75
242.363	69.75
242.597	82.75
242.83	79.75
243.064	75.75
243.298	71.75
243.531	89.75
243.765	64.75
243.998	84.75
244.232	76.75
244.465	86.75
244.699	78.75
244.932	88.75
245.166	78.75
245.399	79.75
245.633	82.75
245.866	73.75
246.099	96.75
246.333	80.75
246.566	69.75
246.8	70.75
247.033	84.75
247.266	91.75
247.5	83.75
247.733	78.75
247.966	62.75
248.2	94.75
248.433	83.75
248.666	92.75
248.899	88.75
249.133	94.75
249.366	106.75
249.599	91.75
249.832	77.75
250.066	86.75
250.299	83.75
250.532	95.75
250.765	73.75
250.998	84.75
251.231	88.75
251.465	89.75
251.698	76.75
251.931	87.75
252.164	81.75
252.397	80.75
252.63	84.75
252.863	95.75
253.096	70.75
253.329	91.75
253.562	82.75
253.795	96.75
254.028	89.75
254.261	86.75
254.494	90.75
254.727	84.75
254.96	86.75
255.193	89.75
255.426	76.75
255.659	80.75
255.892	87.75
256.124	89.75
256.357	86.75
256.59	71.75
256.823	83.75
257.056	76.75
257.289	83.75
257.521	80.75
257.754	90.75
257.987	88.75
258.22	94.75
258.452	89.75
258.685	91.75
258.918	78.75
259.151	80.75
259.383	93.75
259.616	77.75
259.849	73.75
260.081	82.75
260.314	80.75
260.547	72.75
260.779	72.75
261.012	75.75
261.244	82.75
261.477	98.75
261.71	92.75
261.942	94.75
262.175	115.75
262.407	78.75
262.64	86.75
262.872	70.75
263.105	96.75
263.337	106.75
263.57	74.75
263.802	80.75
264.035	76.75
264.267	82.75
264.499	80.75
264.732	96.75
264.964	88.75
265.197	84.75
265.429	86.75
265.661	95.75
265.894	84.75
266.126	63.75
266.358	70.75
266.591	83.75
266.823	84.75
267.055	83.75
267.287	83.75
267.52	74.75
267.752	93.75
267.984	76.75
268.216	79.75
268.448	84.75
268.681	74.75
268.913	102.75
269.145	94.75
269.377	88.75
269.609	82.75
269.841	90.75
270.073	84.75
270.306	78.75
270.538	76.75
270.77	73.75
271.002	90.75
271.234	93.75
271.466	86.75
271.698	90.75
271.93	85.75
272.162	100.75
272.394	83.75
272.626	73.75
272.858	78.75
273.09	87.75
273.322	59.75
273.553	83.75
273.785	83.75
274.017	86.75
274.249	75.75
274.481	92.75
274.713	69.75
274.945	82.75
275.176	71.75
275.408	79.75
275.64	82.75
275.872	94.75
276.104	87.75
276.335	108.75
276.567	98.75
276.799	96.75
277.031	100.75
277.262	80.75
277.494	86.75
277.726	86.75
277.957	89.75
278.189	85.75
278.421	92.75
278.652	91.75
278.884	87.75
279.115	82.75
279.347	93.75
279.579	88.75
279.81	79.75
280.042	88.75
280.273	80.75
280.505	84.75
280.736	98.75
280.968	83.75
281.199	93.75
281.431	94.75
281.662	89.75
281.894	86.75
282.125	95.75
282.356	108.75
282.588	112.75
282.819	126.75
283.051	85.75
283.282	84.75
283.513	98.75
283.745	90.75
283.976	78.75
284.207	83.75
284.439	86.75
284.67	70.75
284.901	75.75
285.132	86.75
285.364	87.75
285.595	84.75
285.826	90.75
286.057	70.75
286.288	86.75
286.52	74.75
286.751	83.75
286.982	86.75
287.213	96.75
287.444	92.75
287.675	89.75
287.906	85.75
288.138	95.75
288.369	99.75
288.6	94.75
288.831	90.75
289.062	100.75
289.293	84.75
289.524	87.75
289.755	66.75
289.986	75.75
290.217	87.75
290.448	85.75
290.679	85.75
290.91	100.75
291.141	71.75
291.371	82.75
291.602	80.75
291.833	88.75
292.064	87.75
292.295	90.75
292.526	94.75
292.757	90.75
292.987	77.75
293.218	88.75
293.449	89.75
293.68	77.75
293.91	83.75
294.141	95.75
294.372	79.75
294.603	79.75
294.833	93.75
295.064	85.75
295.295	87.75
295.525	86.75
295.756	90.75
295.987	111.75
296.217	127.75
296.448	119.75
296.679	101.75
296.909	108.75
297.14	92.75
297.37	95.75
297.601	86.75
297.831	88.75
298.062	83.75
298.292	76.75
298.523	90.75
298.753	101.75
298.984	90.75
299.214	83.75
299.445	96.75
299.675	93.75
299.905	88.75
300.136	73.75
300.366	94.75
300.597	92.75
300.827	75.75
301.057	91.75
301.288	90.75
301.518	78.75
301.748	97.75
301.979	106.75
302.209	97.75
302.439	92.75
302.669	90.75
302.9	102.75
303.13	91.75
303.36	80.75
303.59	92.75
303.82	93.75
304.051	77.75
304.281	88.75
304.511	92.75
304.741	92.75
304.971	95.75
305.201	77.75
305.431	101.75
305.661	91.75
305.891	91.75
306.121	100.75
306.352	95.75
306.582	94.75
306.812	90.75
307.042	94.75
307.272	100.75
307.502	77.75
307.731	92.75
307.961	99.75
308.191	95.75
308.421	95.75
308.651	79.75
308.881	89.75
309.111	102.75
309.341	105.75
309.571	98.75
309.8	66.75
310.03	90.75
310.26	88.75
310.49	100.75
310.72	96.75
310.949	88.75
311.179	93.75
311.409	92.75
311.639	93.75
311.868	101.75
312.098	83.75
312.328	106.75
312.557	92.75
312.787	100.75
313.017	106.75
313.246	103.75
313.476	94.75
313.706	92.75
313.935	98.75
314.165	102.75
314.394	93.75
314.624	101.75
314.853	103.75
315.083	100.75
315.312	98.75
315.542	99.75
315.771	80.75
316.001	93.75
316.23	100.75
316.46	84.75
316.689	80.75
316.919	91.75
317.148	89.75
317.377	99.75
317.607	88.75
317.836	96.75
318.065	85.75
318.295	95.75
318.524	79.75
318.753	109.75
318.983	84.75
319.212	107.75
319.441	106.75
319.67	114.75
319.9	85.75
320.129	88.75
320.358	84.75
320.587	104.75
320.816	86.75
321.046	125.75
321.275	93.75
321.504	91.75
321.733	88.75
321.962	106.75
322.191	92.75
322.42	92.75
322.649	96.75
322.878	99.75
323.108	110.75
323.337	122.75
323.566	108.75
323.795	140.75
324.024	176.75
324.253	323.75
324.482	670.75
324.71	1352.75
324.939	1811.75
325.168	669.75
325.397	222.75
325.626	124.75
325.855	103.75
326.084	123.75
326.313	118.75
326.542	138.75
326.77	200.75
326.999	383.75
327.228	771.75
327.457	1441.75
327.686	1111.75
327.914	321.75
328.143	165.75
328.372	139.75
328.6	107.75
328.829	124.75
329.058	119.75
329.287	109.75
329.515	101.75
329.744	90.75
329.972	98.75
330.201	109.75
330.43	105.75
330.658	112.75
330.887	122.75
331.115	112.75
331.344	92.75
331.572	92.75
331.801	102.75
332.03	95.75
332.258	99.75
332.486	98.75
332.715	94.75
332.943	99.75
333.172	100.75
333.4	103.75
333.629	90.75
333.857	89.75
334.085	103.75
334.314	123.75
334.542	107.75
334.771	113.75
334.999	98.75
335.227	84.75
335.455	95.75
335.684	92.75
335.912	97.75
336.14	84.75
336.369	112.75
336.597	98.75
336.825	96.75
337.053	96.75
337.281	103.75
337.51	96.75
337.738	95.75
337.966	78.75
338.194	86.75
338.422	84.75
338.65	92.75
338.878	98.75
339.106	87.75
339.334	98.75
339.562	88.75
339.79	84.75
340.018	100.75
340.246	92.75
340.474	86.75
340.702	89.75
340.93	93.75
341.158	84.75
341.386	97.75
341.614	102.75
341.842	89.75
342.07	93.75
342.298	88.75
342.526	89.75
342.754	90.75
342.981	93.75
343.209	94.75
343.437	90.75
343.665	90.75
343.893	97.75
344.12	95.75
344.348	79.75
344.576	97.75
344.804	99.75
345.031	99.75
345.259	104.75
345.487	73.75
345.714	86.75
345.942	92.75
346.17	98.75
346.397	93.75
346.625	90.75
346.853	92.75
347.08	89.75
347.308	94.75
347.535	90.75
347.763	86.75
347.99	106.75
348.218	99.75
348.445	95.75
348.673	90.75
348.9	94.75
349.128	83.75
349.355	69.75
349.583	96.75
349.81	90.75
350.037	104.75
350.265	107.75
350.492	74.75
350.72	91.75
350.947	100.75
351.174	102.75
351.402	92.75
351.629	96.75
351.856	97.75
352.083	95.75
352.311	112.75
352.538	115.75
352.765	107.75
352.992	121.75
353.22	121.75
353.447	88.75
353.674	115.75
353.901	96.75
354.128	93.75
354.355	100.75
354.583	104.75
354.81	95.75
355.037	99.75
355.264	102.75
355.491	106.75
355.718	100.75
355.945	89.75
356.172	83.75
356.399	107.75
356.626	104.75
356.853	97.75
357.08	84.75
357.307	93.75
357.534	103.75
357.761	94.75
357.988	98.75
358.215	96.75
358.441	98.75
358.668	102.75
358.895	83.75
359.122	103.75
359.349	93.75
359.576	84.75
359.802	93.75
360.029	105.75
360.256	100.75
360.483	105.75
360.709	79.75
360.936	84.75
361.163	103.75
361.39	98.75
361.616	85.75
361.843	78.75
362.07	84.75
362.296	78.75
362.523	113.75
362.749	94.75
362.976	98.75
363.203	85.75
363.429	99.75
363.656	103.75
363.882	92.75
364.109	92.75
364.335	105.75
364.562	88.75
364.788	88.75
365.015	80.75
365.241	104.75
365.468	105.75
365.694	103.75
365.92	89.75
366.147	82.75
366.373	93.75
366.599	91.75
366.826	91.75
367.052	82.75
367.278	79.75
367.505	96.75
367.731	75.75
367.957	85.75
368.184	92.75
368.41	82.75
368.636	78.75
368.862	108.75
369.089	102.75
369.315	84.75
369.541	80.75
369.767	93.75
369.993	97.75
370.219	102.75
370.445	89.75
370.672	82.75
370.898	95.75
371.124	94.75
371.35	93.75
371.576	82.75
371.802	71.75
372.028	91.75
372.254	94.75
372.48	95.75
372.706	76.75
372.932	93.75
373.158	86.75
373.384	80.75
373.61	92.75
373.835	96.75
374.061	88.75
374.287	85.75
374.513	86.75
374.739	84.75
374.965	76.75
375.191	90.75
375.416	100.75
375.642	84.75
375.868	100.75
376.094	87.75
376.319	86.75
376.545	100.75
376.771	87.75
376.997	91.75
377.222	94.75
377.448	94.75
377.674	75.75
377.899	86.75
378.125	101.75
378.35	97.75
378.576	88.75
378.802	94.75
379.027	93.75
379.253	88.75
379.478	102.75
379.704	106.75
379.929	93.75
380.155	105.75
380.38	91.75
380.606	97.75
380.831	92.75
381.057	105.75
381.282	88.75
381.507	111.75
381.733	95.75
381.958	87.75
382.184	89.75
382.409	91.75
382.634	94.75
382.86	96.75
383.085	96.75
383.31	91.75
383.535	100.75
383.761	100.75
383.986	91.75
384.211	106.75
384.436	84.75
384.662	88.75
384.887	102.75
385.112	95.75
385.337	113.75
385.562	92.75
385.787	98.75
386.013	100.75
386.238	94.75
386.463	100.75
386.688	99.75
386.913	99.75
387.138	107.75
387.363	100.75
387.588	101.75
387.813	89.75
388.038	104.75
388.263	114.75
388.488	95.75
388.713	92.75
388.938	107.75
389.163	113.75
389.387	105.75
389.612	94.75
389.837	91.75
390.062	88.75
390.287	87.75
390.512	92.75
390.736	95.75
390.961	88.75
391.186	78.75
391.411	90.75
391.636	102.75
391.86	83.75
392.085	90.75
392.31	90.75
392.534	88.75
392.759	91.75
392.984	91.75
393.208	96.75
393.433	86.75
393.658	83.75
393.882	80.75
394.107	91.75
394.331	88.75
394.556	84.75
394.78	92.75
395.005	101.75
395.229	79.75
395.454	78.75
395.678	80.75
395.903	95.75
396.127	90.75
396.352	86.75
396.576	84.75
396.801	94.75
397.025	80.75
397.249	92.75
397.474	96.75
397.698	79.75
397.922	80.75
398.147	91.75
398.371	95.75
398.595	94.75
398.82	90.75
399.044	79.75
399.268	82.75
399.492	92.75
399.717	88.75
399.941	98.75
400.165	101.75
400.389	89.75
400.613	101.75
400.837	88.75
401.062	83.75
401.286	73.75
401.51	77.75
401.734	83.75
401.958	94.75
402.182	113.75
402.406	154.75
402.63	100.75
402.854	101.75
403.078	91.75
403.302	84.75
403.526	96.75
403.75	78.75
403.974	85.75
404.198	81.75
404.422	93.75
404.645	78.75
404.869	100.75
405.093	99.75
405.317	94.75
405.541	102.75
405.765	104.75
405.988	97.75
406.212	150.75
406.436	182.75
406.66	128.75
406.883	104.75
407.107	85.75
407.331	96.75
407.555	93.75
407.778	96.75
408.002	82.75
408.226	96.75
408.449	89.75
408.673	76.75
408.896	92.75
409.12	91.75
409.344	81.75
409.567	94.75
409.791	99.75
410.014	99.75
410.238	107.75
410.461	93.75
410.685	96.75
410.908	105.75
411.132	102.75
411.355	95.75
411.578	88.75
411.802	75.75
412.025	82.75
412.249	96.75
412.472	93.75
412.695	86.75
412.919	86.75
413.142	87.75
413.365	93.75
413.589	91.75
413.812	72.75
414.035	94.75
414.258	91.75
414.482	107.75
414.705	94.75
414.928	108.75
415.151	84.75
415.374	107.75
415.597	86.75
415.821	94.75
416.044	78.75
416.267	99.75
416.49	103.75
416.713	94.75
416.936	91.75
417.159	96.75
417.382	95.75
417.605	102.75
417.828	87.75
418.051	92.75
418.274	78.75
418.497	84.75
418.72	95.75
418.943	89.75
419.166	84.75
419.389	71.75
419.611	82.75
419.834	84.75
420.057	94.75
420.28	92.75
420.503	102.75
420.726	89.75
420.948	91.75
421.171	96.75
421.394	107.75
421.617	94.75
421.839	98.75
422.062	79.75
422.285	86.75
422.507	98.75
422.73	93.75
422.953	97.75
423.175	78.75
423.398	74.75
423.621	93.75
423.843	86.75
424.066	80.75
424.288	86.75
424.511	102.75
424.733	102.75
424.956	102.75
425.178	102.75
425.401	94.75
425.623	95.75
425.846	99.75
426.068	89.75
426.291	92.75
426.513	93.75
426.735	91.75
426.958	100.75
427.18	105.75
427.402	107.75
427.625	144.75
427.847	123.75
428.069	114.75
428.292	92.75
428.514	104.75
428.736	92.75
428.958	93.75
429.181	79.75
429.403	91.75
429.625	86.75
429.847	83.75
430.069	87.75
430.292	78.75
430.514	86.75
430.736	92.75
430.958	93.75
431.18	94.75
431.402	83.75
431.624	82.75
431.846	91.75
432.068	103.75
432.29	87.75
432.512	90.75
432.734	84.75
432.956	98.75
433.178	102.75
433.4	91.75
433.622	109.75
433.844	80.75
434.066	86.75
434.287	82.75
434.509	77.75
434.731	78.75
434.953	77.75
435.175	96.75
435.397	87.75
435.618	95.75
435.84	94.75
436.062	120.75
436.284	102.75
436.505	106.75
436.727	98.75
436.949	82.75
437.17	82.75
437.392	88.75
437.614	96.75
437.835	102.75
438.057	100.75
438.278	93.75
438.5	102.75
438.721	120.75
438.943	108.75
439.165	98.75
439.386	78.75
439.608	89.75
439.829	98.75
440.05	104.75
440.272	135.75
440.493	87.75
440.715	98.75
440.936	90.75
441.158	101.75
441.379	95.75
441.6	90.75
441.822	96.75
442.043	106.75
442.264	103.75
442.486	95.75
442.707	92.75
442.928	93.75
443.149	123.75
443.371	123.75
443.592	87.75
443.813	94.75
444.034	96.75
444.255	98.75
444.476	88.75
444.698	83.75
444.919	83.75
445.14	144.75
445.361	130.75
445.582	91.75
445.803	111.75
446.024	124.75
446.245	107.75
446.466	111.75
446.687	71.75
446.908	80.75
447.129	88.75
447.35	78.75
447.571	88.75
447.792	84.75
448.013	102.75
448.234	104.75
448.455	96.75
448.675	107.75
448.896	110.75
449.117	89.75
449.338	102.75
449.559	119.75
449.779	112.75
450	94.75
450.221	91.75
450.442	94.75
450.662	88.75
450.883	102.75
451.104	106.75
451.324	95.75
451.545	94.75
451.766	89.75
451.986	77.75
452.207	107.75
452.428	88.75
452.648	105.75
452.869	99.75
453.089	101.75
453.31	117.75
453.53	96.75
453.751	82.75
453.971	80.75
454.192	104.75
454.412	94.75
454.633	88.75
454.853	85.75
455.073	93.75
455.294	88.75
455.514	101.75
455.734	77.75
455.955	98.75
456.175	87.75
456.395	78.75
456.616	76.75
456.836	86.75
457.056	92.75
457.276	98.75
457.497	103.75
457.717	86.75
457.937	97.75
458.157	85.75
458.377	86.75
458.598	105.75
458.818	102.75
459.038	130.75
459.258	105.75
459.478	106.75
459.698	76.75
459.918	99.75
460.138	98.75
460.358	82.75
460.578	71.75
460.798	96.75
461.018	80.75
461.238	88.75
461.458	82.75
461.678	100.75
461.898	79.75
462.118	80.75
462.338	71.75
462.558	89.75
462.777	85.75
462.997	76.75
463.217	83.75
463.437	98.75
463.657	95.75
463.876	85.75
464.096	86.75
464.316	78.75
464.536	80.75
464.755	85.75
464.975	79.75
465.195	135.75
465.414	130.75
465.634	98.75
465.854	92.75
466.073	93.75
466.293	69.75
466.512	71.75
466.732	87.75
466.951	94.75
467.171	98.75
467.391	92.75
467.61	106.75
467.829	100.75
468.049	76.75
468.268	102.75
468.488	88.75
468.707	94.75
468.927	87.75
469.146	81.75
469.365	94.75
469.585	98.75
469.804	100.75
470.023	105.75
470.243	91.75
470.462	88.75
470.681	107.75
470.901	86.75
471.12	76.75
471.339	90.75
471.558	94.75
471.777	85.75
471.997	83.75
472.216	104.75
472.435	132.75
472.654	106.75
472.873	85.75
473.092	82.75
473.311	92.75
473.53	84.75
473.749	96.75
473.968	82.75
474.187	99.75
474.406	84.75
474.625	88.75
474.844	82.75
475.063	100.75
475.282	101.75
475.501	94.75
475.72	83.75
475.939	84.75
476.158	90.75
476.377	85.75
476.596	82.75
476.814	87.75
477.033	88.75
477.252	91.75
477.471	81.75
477.69	95.75
477.908	84.75
478.127	84.75
478.346	98.75
478.564	97.75
478.783	98.75
479.002	78.75
479.22	104.75
479.439	100.75
479.658	110.75
479.876	95.75
480.095	88.75
480.313	92.75
480.532	84.75
480.751	87.75
480.969	107.75
481.188	192.75
481.406	141.75
481.624	85.75
481.843	94.75
482.061	84.75
482.28	92.75
482.498	99.75
482.717	81.75
482.935	84.75
483.153	88.75
483.372	86.75
483.59	86.75
483.808	74.75
484.027	100.75
484.245	98.75
484.463	100.75
484.681	101.75
484.9	93.75
485.118	101.75
485.336	87.75
485.554	99.75
485.772	108.75
485.99	98.75
486.209	95.75
486.427	93.75
486.645	100.75
486.863	98.75
487.081	101.75
487.299	100.75
487.517	92.75
487.735	91.75
487.953	95.75
488.171	102.75
488.389	100.75
488.607	94.75
488.825	100.75
489.043	88.75
489.261	85.75
489.479	97.75
489.696	102.75
489.914	90.75
490.132	88.75
490.35	87.75
490.568	91.75
490.786	93.75
491.003	84.75
491.221	88.75
491.439	86.75
491.657	85.75
491.874	88.75
492.092	90.75
492.31	97.75
492.527	96.75
492.745	87.75
492.963	100.75
493.18	93.75
493.398	100.75
493.615	106.75
493.833	97.75
494.05	82.75
494.268	105.75
494.485	85.75
494.703	84.75
494.92	89.75
495.138	88.75
495.355	87.75
495.573	91.75
495.79	84.75
496.008	87.75
496.225	91.75
496.442	86.75
496.66	110.75
496.877	109.75
497.094	99.75
497.312	95.75
497.529	95.75
497.746	94.75
497.963	94.75
498.181	94.75
498.398	110.75
498.615	104.75
498.832	88.75
499.049	101.75
499.267	84.75
499.484	85.75
499.701	91.75
499.918	103.75
500.135	79.75
500.352	87.75
500.569	104.75
500.786	100.75
501.003	85.75
501.22	90.75
501.437	84.75
501.654	85.75
501.871	85.75
502.088	83.75
502.305	85.75
502.522	100.75
502.739	78.75
502.956	83.75
503.172	91.75
503.389	90.75
503.606	100.75
503.823	94.75
504.04	104.75
504.256	99.75
504.473	99.75
504.69	88.75
504.907	90.75
505.123	81.75
505.34	100.75
505.557	107.75
505.773	89.75
505.99	89.75
506.207	75.75
506.423	97.75
506.64	90.75
506.856	90.75
507.073	95.75
507.289	95.75
507.506	94.75
507.722	99.75
507.939	106.75
508.155	105.75
508.372	103.75
508.588	92.75
508.805	109.75
509.021	98.75
509.238	101.75
509.454	98.75
509.67	94.75
509.887	122.75
510.103	114.75
510.319	182.75
510.536	560.75
510.752	1775.75
510.968	522.75
511.184	131.75
511.401	94.75
511.617	94.75
511.833	101.75
512.049	97.75
512.265	101.75
512.481	86.75
512.698	87.75
512.914	98.75
513.13	85.75
513.346	96.75
513.562	114.75
513.778	92.75
513.994	82.75
514.21	106.75
514.426	118.75
514.642	126.75
514.858	114.75
515.074	141.75
515.29	312.75
515.506	1020.75
515.721	387.75
