Data from Uncirc_1982_H10_HRD10591_00022.txt Node
Date: Wed Jan 03 12:29:29 EST 2024
User: Yrep
Spectrometer: HR+D1059
Trigger mode: 1
Integration Time (sec): 1.000000E-1
Scans to average: 1
Electric dark correction enabled: true
Nonlinearity correction enabled: false
Boxcar width: 0
XAxis mode: Wavelengths
Number of Pixels in Spectrum: 2048
>>>>>Begin Spectral Data<<<<<
223.165	-15.38
223.4	-15.38
223.635	-15.38
223.869	-12.38
224.104	-18.38
224.338	-23.38
224.573	-15.38
224.808	-17.38
225.042	-12.38
225.277	2.62
225.511	-1.38
225.746	6.62
225.98	0.62
226.215	13.62
226.449	17.62
226.683	20.62
226.918	23.62
227.152	30.62
227.387	29.62
227.621	27.62
227.856	40.62
228.09	47.62
228.324	61.62
228.559	56.62
228.793	64.62
229.027	63.62
229.262	61.62
229.496	53.62
229.73	75.62
229.964	79.62
230.199	81.62
230.433	76.62
230.667	89.62
230.901	72.62
231.136	86.62
231.37	73.62
231.604	75.62
231.838	66.62
232.072	61.62
232.306	75.62
232.541	72.62
232.775	94.62
233.009	78.62
233.243	84.62
233.477	69.62
233.711	92.62
233.945	80.62
234.179	83.62
234.413	69.62
234.647	76.62
234.881	74.62
235.115	98.62
235.349	89.62
235.583	75.62
235.817	86.62
236.051	66.62
236.285	78.62
236.519	83.62
236.753	85.62
236.987	84.62
237.221	70.62
237.455	77.62
237.689	88.62
237.922	78.62
238.156	75.62
238.39	89.62
238.624	76.62
238.858	76.62
239.091	77.62
239.325	81.62
239.559	75.62
239.793	85.62
240.027	75.62
240.26	88.62
240.494	71.62
240.728	81.62
240.961	71.62
241.195	72.62
241.429	82.62
241.662	82.62
241.896	73.62
242.13	99.62
242.363	86.62
242.597	68.62
242.83	79.62
243.064	75.62
243.298	76.62
243.531	61.62
243.765	74.62
243.998	68.62
244.232	82.62
244.465	84.62
244.699	92.62
244.932	85.62
245.166	80.62
245.399	94.62
245.633	84.62
245.866	78.62
246.099	76.62
246.333	82.62
246.566	86.62
246.8	68.62
247.033	66.62
247.266	75.62
247.5	77.62
247.733	75.62
247.966	84.62
248.2	67.62
248.433	74.62
248.666	80.62
248.899	86.62
249.133	85.62
249.366	97.62
249.599	90.62
249.832	84.62
250.066	83.62
250.299	84.62
250.532	77.62
250.765	86.62
250.998	83.62
251.231	89.62
251.465	88.62
251.698	72.62
251.931	89.62
252.164	84.62
252.397	86.62
252.63	93.62
252.863	87.62
253.096	77.62
253.329	81.62
253.562	82.62
253.795	87.62
254.028	94.62
254.261	88.62
254.494	69.62
254.727	88.62
254.96	90.62
255.193	67.62
255.426	84.62
255.659	88.62
255.892	73.62
256.124	84.62
256.357	72.62
256.59	88.62
256.823	90.62
257.056	83.62
257.289	77.62
257.521	82.62
257.754	90.62
257.987	77.62
258.22	90.62
258.452	96.62
258.685	77.62
258.918	93.62
259.151	74.62
259.383	88.62
259.616	68.62
259.849	85.62
260.081	81.62
260.314	82.62
260.547	76.62
260.779	72.62
261.012	83.62
261.244	88.62
261.477	91.62
261.71	95.62
261.942	112.62
262.175	103.62
262.407	90.62
262.64	85.62
262.872	78.62
263.105	84.62
263.337	94.62
263.57	90.62
263.802	69.62
264.035	88.62
264.267	78.62
264.499	84.62
264.732	89.62
264.964	67.62
265.197	82.62
265.429	83.62
265.661	94.62
265.894	81.62
266.126	96.62
266.358	90.62
266.591	81.62
266.823	80.62
267.055	77.62
267.287	80.62
267.52	72.62
267.752	86.62
267.984	80.62
268.216	87.62
268.448	74.62
268.681	77.62
268.913	82.62
269.145	85.62
269.377	88.62
269.609	88.62
269.841	81.62
270.073	80.62
270.306	80.62
270.538	81.62
270.77	88.62
271.002	93.62
271.234	92.62
271.466	76.62
271.698	86.62
271.93	95.62
272.162	96.62
272.394	91.62
272.626	87.62
272.858	85.62
273.09	97.62
273.322	87.62
273.553	83.62
273.785	91.62
274.017	85.62
274.249	92.62
274.481	94.62
274.713	70.62
274.945	91.62
275.176	84.62
275.408	89.62
275.64	80.62
275.872	99.62
276.104	96.62
276.335	88.62
276.567	93.62
276.799	85.62
277.031	99.62
277.262	93.62
277.494	88.62
277.726	82.62
277.957	77.62
278.189	86.62
278.421	105.62
278.652	88.62
278.884	85.62
279.115	73.62
279.347	86.62
279.579	88.62
279.81	94.62
280.042	84.62
280.273	87.62
280.505	72.62
280.736	78.62
280.968	96.62
281.199	72.62
281.431	88.62
281.662	89.62
281.894	93.62
282.125	106.62
282.356	108.62
282.588	111.62
282.819	98.62
283.051	82.62
283.282	83.62
283.513	94.62
283.745	89.62
283.976	89.62
284.207	80.62
284.439	83.62
284.67	87.62
284.901	77.62
285.132	88.62
285.364	78.62
285.595	70.62
285.826	82.62
286.057	100.62
286.288	105.62
286.52	94.62
286.751	88.62
286.982	89.62
287.213	89.62
287.444	81.62
287.675	91.62
287.906	83.62
288.138	90.62
288.369	97.62
288.6	87.62
288.831	92.62
289.062	73.62
289.293	87.62
289.524	84.62
289.755	76.62
289.986	73.62
290.217	82.62
290.448	82.62
290.679	86.62
290.91	82.62
291.141	89.62
291.371	89.62
291.602	92.62
291.833	81.62
292.064	94.62
292.295	90.62
292.526	80.62
292.757	82.62
292.987	96.62
293.218	81.62
293.449	81.62
293.68	73.62
293.91	82.62
294.141	83.62
294.372	90.62
294.603	84.62
294.833	83.62
295.064	84.62
295.295	87.62
295.525	97.62
295.756	94.62
295.987	104.62
296.217	130.62
296.448	120.62
296.679	94.62
296.909	94.62
297.14	81.62
297.37	85.62
297.601	73.62
297.831	83.62
298.062	106.62
298.292	108.62
298.523	85.62
298.753	96.62
298.984	91.62
299.214	80.62
299.445	87.62
299.675	86.62
299.905	104.62
300.136	81.62
300.366	81.62
300.597	92.62
300.827	85.62
301.057	96.62
301.288	109.62
301.518	96.62
301.748	92.62
301.979	95.62
302.209	92.62
302.439	102.62
302.669	101.62
302.9	100.62
303.13	89.62
303.36	101.62
303.59	84.62
303.82	103.62
304.051	94.62
304.281	87.62
304.511	97.62
304.741	103.62
304.971	89.62
305.201	81.62
305.431	90.62
305.661	99.62
305.891	97.62
306.121	84.62
306.352	101.62
306.582	113.62
306.812	99.62
307.042	88.62
307.272	104.62
307.502	89.62
307.731	71.62
307.961	85.62
308.191	89.62
308.421	86.62
308.651	105.62
308.881	96.62
309.111	97.62
309.341	92.62
309.571	109.62
309.8	98.62
310.03	89.62
310.26	102.62
310.49	109.62
310.72	84.62
310.949	91.62
311.179	95.62
311.409	87.62
311.639	91.62
311.868	91.62
312.098	110.62
312.328	96.62
312.557	102.62
312.787	96.62
313.017	94.62
313.246	92.62
313.476	91.62
313.706	92.62
313.935	96.62
314.165	83.62
314.394	86.62
314.624	94.62
314.853	76.62
315.083	86.62
315.312	89.62
315.542	88.62
315.771	81.62
316.001	77.62
316.23	72.62
316.46	83.62
316.689	92.62
316.919	95.62
317.148	86.62
317.377	96.62
317.607	84.62
317.836	89.62
318.065	90.62
318.295	90.62
318.524	82.62
318.753	85.62
318.983	96.62
319.212	110.62
319.441	108.62
319.67	97.62
319.9	93.62
320.129	97.62
320.358	88.62
320.587	81.62
320.816	96.62
321.046	96.62
321.275	97.62
321.504	105.62
321.733	97.62
321.962	89.62
322.191	82.62
322.42	110.62
322.649	101.62
322.878	118.62
323.108	105.62
323.337	116.62
323.566	110.62
323.795	145.62
324.024	171.62
324.253	334.62
324.482	702.62
324.71	1451.62
324.939	1892.62
325.168	678.62
325.397	234.62
325.626	139.62
325.855	117.62
326.084	115.62
326.313	117.62
326.542	153.62
326.77	204.62
326.999	391.62
327.228	798.62
327.457	1468.62
327.686	1137.62
327.914	336.62
328.143	172.62
328.372	138.62
328.6	123.62
328.829	100.62
329.058	121.62
329.287	131.62
329.515	100.62
329.744	109.62
329.972	101.62
330.201	100.62
330.43	114.62
330.658	114.62
330.887	125.62
331.115	112.62
331.344	103.62
331.572	104.62
331.801	106.62
332.03	96.62
332.258	96.62
332.486	96.62
332.715	82.62
332.943	102.62
333.172	108.62
333.4	99.62
333.629	114.62
333.857	98.62
334.085	109.62
334.314	118.62
334.542	119.62
334.771	119.62
334.999	89.62
335.227	103.62
335.455	101.62
335.684	84.62
335.912	109.62
336.14	110.62
336.369	84.62
336.597	82.62
336.825	96.62
337.053	91.62
337.281	104.62
337.51	100.62
337.738	84.62
337.966	85.62
338.194	98.62
338.422	109.62
338.65	88.62
338.878	107.62
339.106	88.62
339.334	93.62
339.562	94.62
339.79	89.62
340.018	85.62
340.246	77.62
340.474	92.62
340.702	98.62
340.93	88.62
341.158	80.62
341.386	100.62
341.614	110.62
341.842	97.62
342.07	96.62
342.298	88.62
342.526	99.62
342.754	73.62
342.981	100.62
343.209	91.62
343.437	99.62
343.665	90.62
343.893	88.62
344.12	105.62
344.348	95.62
344.576	80.62
344.804	100.62
345.031	104.62
345.259	98.62
345.487	83.62
345.714	89.62
345.942	82.62
346.17	94.62
346.397	85.62
346.625	91.62
346.853	83.62
347.08	99.62
347.308	97.62
347.535	98.62
347.763	109.62
347.99	113.62
348.218	106.62
348.445	93.62
348.673	107.62
348.9	86.62
349.128	64.62
349.355	97.62
349.583	91.62
349.81	93.62
350.037	86.62
350.265	94.62
350.492	85.62
350.72	111.62
350.947	104.62
351.174	110.62
351.402	104.62
351.629	107.62
351.856	120.62
352.083	104.62
352.311	101.62
352.538	108.62
352.765	102.62
352.992	98.62
353.22	105.62
353.447	96.62
353.674	94.62
353.901	105.62
354.128	113.62
354.355	95.62
354.583	105.62
354.81	103.62
355.037	97.62
355.264	90.62
355.491	85.62
355.718	111.62
355.945	109.62
356.172	97.62
356.399	106.62
356.626	94.62
356.853	94.62
357.08	92.62
357.307	87.62
357.534	86.62
357.761	98.62
357.988	109.62
358.215	96.62
358.441	106.62
358.668	101.62
358.895	106.62
359.122	105.62
359.349	96.62
359.576	92.62
359.802	101.62
360.029	107.62
360.256	107.62
360.483	100.62
360.709	86.62
360.936	100.62
361.163	98.62
361.39	98.62
361.616	98.62
361.843	101.62
362.07	98.62
362.296	86.62
362.523	100.62
362.749	98.62
362.976	96.62
363.203	81.62
363.429	88.62
363.656	79.62
363.882	94.62
364.109	91.62
364.335	95.62
364.562	94.62
364.788	81.62
365.015	103.62
365.241	108.62
365.468	96.62
365.694	104.62
365.92	91.62
366.147	104.62
366.373	104.62
366.599	97.62
366.826	80.62
367.052	88.62
367.278	81.62
367.505	81.62
367.731	103.62
367.957	102.62
368.184	89.62
368.41	106.62
368.636	102.62
368.862	93.62
369.089	98.62
369.315	84.62
369.541	88.62
369.767	81.62
369.993	74.62
370.219	92.62
370.445	96.62
370.672	98.62
370.898	95.62
371.124	97.62
371.35	99.62
371.576	101.62
371.802	91.62
372.028	85.62
372.254	98.62
372.48	97.62
372.706	87.62
372.932	96.62
373.158	100.62
373.384	76.62
373.61	104.62
373.835	99.62
374.061	87.62
374.287	84.62
374.513	100.62
374.739	89.62
374.965	77.62
375.191	87.62
375.416	74.62
375.642	93.62
375.868	92.62
376.094	87.62
376.319	91.62
376.545	93.62
376.771	92.62
376.997	77.62
377.222	90.62
377.448	90.62
377.674	97.62
377.899	87.62
378.125	79.62
378.35	97.62
378.576	100.62
378.802	88.62
379.027	101.62
379.253	95.62
379.478	92.62
379.704	86.62
379.929	89.62
380.155	98.62
380.38	109.62
380.606	100.62
380.831	99.62
381.057	109.62
381.282	106.62
381.507	88.62
381.733	102.62
381.958	107.62
382.184	105.62
382.409	105.62
382.634	97.62
382.86	91.62
383.085	112.62
383.31	120.62
383.535	127.62
383.761	102.62
383.986	96.62
384.211	104.62
384.436	84.62
384.662	91.62
384.887	107.62
385.112	114.62
385.337	120.62
385.562	110.62
385.787	120.62
386.013	113.62
386.238	116.62
386.463	117.62
386.688	112.62
386.913	119.62
387.138	107.62
387.363	116.62
387.588	96.62
387.813	118.62
388.038	121.62
388.263	131.62
388.488	116.62
388.713	108.62
388.938	94.62
389.163	89.62
389.387	92.62
389.612	112.62
389.837	108.62
390.062	93.62
390.287	80.62
390.512	86.62
390.736	85.62
390.961	98.62
391.186	96.62
391.411	90.62
391.636	96.62
391.86	89.62
392.085	96.62
392.31	73.62
392.534	91.62
392.759	92.62
392.984	88.62
393.208	84.62
393.433	96.62
393.658	90.62
393.882	73.62
394.107	88.62
394.331	81.62
394.556	95.62
394.78	96.62
395.005	92.62
395.229	87.62
395.454	90.62
395.678	77.62
395.903	81.62
396.127	91.62
396.352	78.62
396.576	84.62
396.801	91.62
397.025	86.62
397.249	80.62
397.474	89.62
397.698	90.62
397.922	85.62
398.147	87.62
398.371	90.62
398.595	89.62
398.82	90.62
399.044	103.62
399.268	88.62
399.492	80.62
399.717	85.62
399.941	80.62
400.165	90.62
400.389	84.62
400.613	90.62
400.837	91.62
401.062	97.62
401.286	85.62
401.51	91.62
401.734	96.62
401.958	115.62
402.182	113.62
402.406	136.62
402.63	100.62
402.854	86.62
403.078	89.62
403.302	85.62
403.526	86.62
403.75	78.62
403.974	70.62
404.198	70.62
404.422	89.62
404.645	90.62
404.869	90.62
405.093	97.62
405.317	101.62
405.541	87.62
405.765	93.62
405.988	121.62
406.212	144.62
406.436	196.62
406.66	119.62
406.883	96.62
407.107	82.62
407.331	89.62
407.555	86.62
407.778	96.62
408.002	85.62
408.226	100.62
408.449	88.62
408.673	90.62
408.896	98.62
409.12	94.62
409.344	87.62
409.567	100.62
409.791	101.62
410.014	96.62
410.238	102.62
410.461	84.62
410.685	104.62
410.908	93.62
411.132	115.62
411.355	102.62
411.578	83.62
411.802	96.62
412.025	85.62
412.249	90.62
412.472	92.62
412.695	109.62
412.919	86.62
413.142	96.62
413.365	80.62
413.589	66.62
413.812	100.62
414.035	109.62
414.258	96.62
414.482	96.62
414.705	95.62
414.928	86.62
415.151	93.62
415.374	96.62
415.597	85.62
415.821	96.62
416.044	94.62
416.267	89.62
416.49	93.62
416.713	80.62
416.936	92.62
417.159	92.62
417.382	79.62
417.605	84.62
417.828	91.62
418.051	92.62
418.274	93.62
418.497	84.62
418.72	84.62
418.943	77.62
419.166	88.62
419.389	94.62
419.611	100.62
419.834	87.62
420.057	98.62
420.28	91.62
420.503	84.62
420.726	90.62
420.948	96.62
421.171	108.62
421.394	105.62
421.617	81.62
421.839	82.62
422.062	92.62
422.285	97.62
422.507	98.62
422.73	93.62
422.953	91.62
423.175	99.62
423.398	81.62
423.621	90.62
423.843	86.62
424.066	68.62
424.288	85.62
424.511	97.62
424.733	92.62
424.956	98.62
425.178	86.62
425.401	90.62
425.623	83.62
425.846	92.62
426.068	105.62
426.291	101.62
426.513	96.62
426.735	84.62
426.958	93.62
427.18	99.62
427.402	120.62
427.625	143.62
427.847	113.62
428.069	112.62
428.292	103.62
428.514	98.62
428.736	75.62
428.958	82.62
429.181	90.62
429.403	98.62
429.625	81.62
429.847	92.62
430.069	89.62
430.292	93.62
430.514	93.62
430.736	92.62
430.958	95.62
431.18	75.62
431.402	84.62
431.624	78.62
431.846	95.62
432.068	87.62
432.29	87.62
432.512	75.62
432.734	84.62
432.956	88.62
433.178	95.62
433.4	99.62
433.622	96.62
433.844	89.62
434.066	89.62
434.287	84.62
434.509	97.62
434.731	84.62
434.953	84.62
435.175	97.62
435.397	95.62
435.618	95.62
435.84	94.62
436.062	110.62
436.284	101.62
436.505	101.62
436.727	97.62
436.949	99.62
437.17	100.62
437.392	93.62
437.614	96.62
437.835	104.62
438.057	106.62
438.278	84.62
438.5	100.62
438.721	105.62
438.943	90.62
439.165	75.62
439.386	80.62
439.608	91.62
439.829	94.62
440.05	113.62
440.272	128.62
440.493	98.62
440.715	85.62
440.936	94.62
441.158	90.62
441.379	85.62
441.6	94.62
441.822	97.62
442.043	103.62
442.264	95.62
442.486	98.62
442.707	94.62
442.928	97.62
443.149	108.62
443.371	112.62
443.592	101.62
443.813	108.62
444.034	108.62
444.255	95.62
444.476	90.62
444.698	80.62
444.919	82.62
445.14	117.62
445.361	112.62
445.582	107.62
445.803	125.62
446.024	111.62
446.245	120.62
446.466	105.62
446.687	82.62
446.908	80.62
447.129	78.62
447.35	80.62
447.571	87.62
447.792	94.62
448.013	94.62
448.234	99.62
448.455	81.62
448.675	91.62
448.896	115.62
449.117	104.62
449.338	104.62
449.559	134.62
449.779	114.62
450	92.62
450.221	90.62
450.442	81.62
450.662	85.62
450.883	104.62
451.104	84.62
451.324	86.62
451.545	92.62
451.766	103.62
451.986	93.62
452.207	86.62
452.428	92.62
452.648	107.62
452.869	96.62
453.089	111.62
453.31	96.62
453.53	92.62
453.751	100.62
453.971	96.62
454.192	109.62
454.412	94.62
454.633	84.62
454.853	87.62
455.073	90.62
455.294	91.62
455.514	93.62
455.734	99.62
455.955	77.62
456.175	82.62
456.395	83.62
456.616	78.62
456.836	84.62
457.056	91.62
457.276	113.62
457.497	78.62
457.717	88.62
457.937	94.62
458.157	92.62
458.377	97.62
458.598	98.62
458.818	125.62
459.038	129.62
459.258	92.62
459.478	73.62
459.698	94.62
459.918	88.62
460.138	81.62
460.358	77.62
460.578	92.62
460.798	95.62
461.018	85.62
461.238	95.62
461.458	93.62
461.678	98.62
461.898	76.62
462.118	89.62
462.338	89.62
462.558	97.62
462.777	69.62
462.997	87.62
463.217	89.62
463.437	89.62
463.657	84.62
463.876	80.62
464.096	94.62
464.316	73.62
464.536	84.62
464.755	84.62
464.975	95.62
465.195	137.62
465.414	124.62
465.634	82.62
465.854	84.62
466.073	80.62
466.293	88.62
466.512	86.62
466.732	91.62
466.951	76.62
467.171	91.62
467.391	95.62
467.61	100.62
467.829	88.62
468.049	97.62
468.268	94.62
468.488	80.62
468.707	88.62
468.927	87.62
469.146	93.62
469.365	96.62
469.585	96.62
469.804	81.62
470.023	87.62
470.243	87.62
470.462	104.62
470.681	109.62
470.901	103.62
471.12	92.62
471.339	87.62
471.558	94.62
471.777	86.62
471.997	108.62
472.216	110.62
472.435	117.62
472.654	82.62
472.873	82.62
473.092	86.62
473.311	59.62
473.53	85.62
473.749	84.62
473.968	84.62
474.187	91.62
474.406	93.62
474.625	86.62
474.844	102.62
475.063	87.62
475.282	90.62
475.501	85.62
475.72	85.62
475.939	110.62
476.158	96.62
476.377	83.62
476.596	87.62
476.814	84.62
477.033	83.62
477.252	95.62
477.471	81.62
477.69	90.62
477.908	88.62
478.127	80.62
478.346	88.62
478.564	84.62
478.783	88.62
479.002	93.62
479.22	93.62
479.439	103.62
479.658	104.62
479.876	88.62
480.095	104.62
480.313	106.62
480.532	90.62
480.751	105.62
480.969	104.62
481.188	172.62
481.406	148.62
481.624	86.62
481.843	89.62
482.061	90.62
482.28	78.62
482.498	90.62
482.717	97.62
482.935	94.62
483.153	88.62
483.372	90.62
483.59	79.62
483.808	90.62
484.027	95.62
484.245	70.62
484.463	83.62
484.681	97.62
484.9	89.62
485.118	109.62
485.336	97.62
485.554	108.62
485.772	99.62
485.99	99.62
486.209	108.62
486.427	101.62
486.645	107.62
486.863	101.62
487.081	104.62
487.299	91.62
487.517	100.62
487.735	98.62
487.953	80.62
488.171	86.62
488.389	88.62
488.607	110.62
488.825	106.62
489.043	93.62
489.261	90.62
489.479	95.62
489.696	85.62
489.914	103.62
490.132	91.62
490.35	86.62
490.568	85.62
490.786	73.62
491.003	87.62
491.221	86.62
491.439	101.62
491.657	90.62
491.874	93.62
492.092	90.62
492.31	101.62
492.527	86.62
492.745	65.62
492.963	98.62
493.18	75.62
493.398	83.62
493.615	92.62
493.833	100.62
494.05	94.62
494.268	90.62
494.485	82.62
494.703	90.62
494.92	87.62
495.138	106.62
495.355	102.62
495.573	101.62
495.79	100.62
496.008	104.62
496.225	107.62
496.442	89.62
496.66	88.62
496.877	89.62
497.094	105.62
497.312	87.62
497.529	92.62
497.746	80.62
497.963	102.62
498.181	83.62
498.398	78.62
498.615	92.62
498.832	99.62
499.049	82.62
499.267	80.62
499.484	81.62
499.701	96.62
499.918	99.62
500.135	91.62
500.352	89.62
500.569	95.62
500.786	84.62
501.003	87.62
501.22	75.62
501.437	90.62
501.654	92.62
501.871	93.62
502.088	82.62
502.305	95.62
502.522	93.62
502.739	77.62
502.956	89.62
503.172	85.62
503.389	107.62
503.606	104.62
503.823	98.62
504.04	102.62
504.256	84.62
504.473	102.62
504.69	95.62
504.907	104.62
505.123	88.62
505.34	88.62
505.557	93.62
505.773	88.62
505.99	94.62
506.207	93.62
506.423	87.62
506.64	91.62
506.856	108.62
507.073	94.62
507.289	94.62
507.506	84.62
507.722	100.62
507.939	103.62
508.155	104.62
508.372	99.62
508.588	94.62
508.805	88.62
509.021	92.62
509.238	103.62
509.454	103.62
509.67	128.62
509.887	88.62
510.103	122.62
510.319	183.62
510.536	621.62
510.752	1839.62
510.968	514.62
511.184	137.62
511.401	106.62
511.617	106.62
511.833	103.62
512.049	84.62
512.265	87.62
512.481	93.62
512.698	104.62
512.914	99.62
513.13	95.62
513.346	86.62
513.562	85.62
513.778	87.62
513.994	105.62
514.21	102.62
514.426	108.62
514.642	101.62
514.858	106.62
515.074	146.62
515.29	369.62
515.506	1046.62
