Data from Uncirc_1982_H10_HRD10591_00060.txt Node
Date: Wed Jan 03 12:29:37 EST 2024
User: Yrep
Spectrometer: HR+D1059
Trigger mode: 1
Integration Time (sec): 1.000000E-1
Scans to average: 1
Electric dark correction enabled: true
Nonlinearity correction enabled: false
Boxcar width: 0
XAxis mode: Wavelengths
Number of Pixels in Spectrum: 2048
>>>>>Begin Spectral Data<<<<<
223.165	-11.38
223.4	-11.38
223.635	-11.38
223.869	-16.38
224.104	-25.38
224.338	-20.38
224.573	-9.38
224.808	-6.38
225.042	-23.38
225.277	1.62
225.511	-14.38
225.746	-4.38
225.98	6.62
226.215	16.62
226.449	25.62
226.683	27.62
226.918	27.62
227.152	25.62
227.387	40.62
227.621	41.62
227.856	52.62
228.09	36.62
228.324	49.62
228.559	56.62
228.793	57.62
229.027	51.62
229.262	58.62
229.496	64.62
229.73	80.62
229.964	79.62
230.199	85.62
230.433	70.62
230.667	85.62
230.901	61.62
231.136	72.62
231.37	75.62
231.604	81.62
231.838	76.62
232.072	81.62
232.306	81.62
232.541	76.62
232.775	85.62
233.009	71.62
233.243	82.62
233.477	68.62
233.711	79.62
233.945	86.62
234.179	77.62
234.413	83.62
234.647	84.62
234.881	89.62
235.115	79.62
235.349	73.62
235.583	84.62
235.817	76.62
236.051	67.62
236.285	72.62
236.519	83.62
236.753	76.62
236.987	83.62
237.221	76.62
237.455	73.62
237.689	66.62
237.922	64.62
238.156	59.62
238.39	71.62
238.624	72.62
238.858	66.62
239.091	60.62
239.325	70.62
239.559	77.62
239.793	95.62
240.027	72.62
240.26	75.62
240.494	68.62
240.728	69.62
240.961	89.62
241.195	73.62
241.429	72.62
241.662	76.62
241.896	70.62
242.13	76.62
242.363	64.62
242.597	67.62
242.83	81.62
243.064	77.62
243.298	93.62
243.531	87.62
243.765	84.62
243.998	76.62
244.232	82.62
244.465	74.62
244.699	88.62
244.932	71.62
245.166	75.62
245.399	70.62
245.633	81.62
245.866	79.62
246.099	85.62
246.333	68.62
246.566	74.62
246.8	68.62
247.033	72.62
247.266	90.62
247.5	77.62
247.733	59.62
247.966	68.62
248.2	82.62
248.433	68.62
248.666	74.62
248.899	84.62
249.133	71.62
249.366	85.62
249.599	94.62
249.832	75.62
250.066	86.62
250.299	82.62
250.532	84.62
250.765	68.62
250.998	77.62
251.231	67.62
251.465	80.62
251.698	81.62
251.931	92.62
252.164	82.62
252.397	76.62
252.63	82.62
252.863	68.62
253.096	76.62
253.329	70.62
253.562	68.62
253.795	82.62
254.028	79.62
254.261	86.62
254.494	81.62
254.727	79.62
254.96	89.62
255.193	70.62
255.426	83.62
255.659	66.62
255.892	83.62
256.124	80.62
256.357	75.62
256.59	81.62
256.823	81.62
257.056	76.62
257.289	84.62
257.521	87.62
257.754	78.62
257.987	80.62
258.22	66.62
258.452	76.62
258.685	83.62
258.918	75.62
259.151	91.62
259.383	89.62
259.616	84.62
259.849	84.62
260.081	92.62
260.314	76.62
260.547	72.62
260.779	73.62
261.012	83.62
261.244	91.62
261.477	99.62
261.71	86.62
261.942	90.62
262.175	100.62
262.407	86.62
262.64	63.62
262.872	72.62
263.105	77.62
263.337	77.62
263.57	87.62
263.802	83.62
264.035	77.62
264.267	75.62
264.499	68.62
264.732	64.62
264.964	74.62
265.197	80.62
265.429	72.62
265.661	69.62
265.894	87.62
266.126	69.62
266.358	83.62
266.591	76.62
266.823	87.62
267.055	73.62
267.287	94.62
267.52	87.62
267.752	87.62
267.984	93.62
268.216	100.62
268.448	83.62
268.681	95.62
268.913	82.62
269.145	80.62
269.377	64.62
269.609	74.62
269.841	89.62
270.073	67.62
270.306	73.62
270.538	86.62
270.77	84.62
271.002	67.62
271.234	83.62
271.466	86.62
271.698	71.62
271.93	89.62
272.162	96.62
272.394	85.62
272.626	81.62
272.858	72.62
273.09	82.62
273.322	69.62
273.553	76.62
273.785	81.62
274.017	92.62
274.249	86.62
274.481	75.62
274.713	81.62
274.945	80.62
275.176	79.62
275.408	90.62
275.64	90.62
275.872	85.62
276.104	76.62
276.335	80.62
276.567	76.62
276.799	101.62
277.031	89.62
277.262	88.62
277.494	104.62
277.726	83.62
277.957	79.62
278.189	87.62
278.421	75.62
278.652	83.62
278.884	88.62
279.115	91.62
279.347	81.62
279.579	81.62
279.81	77.62
280.042	97.62
280.273	89.62
280.505	85.62
280.736	88.62
280.968	92.62
281.199	80.62
281.431	77.62
281.662	82.62
281.894	83.62
282.125	83.62
282.356	107.62
282.588	122.62
282.819	100.62
283.051	86.62
283.282	92.62
283.513	86.62
283.745	87.62
283.976	81.62
284.207	79.62
284.439	68.62
284.67	94.62
284.901	94.62
285.132	82.62
285.364	69.62
285.595	71.62
285.826	84.62
286.057	84.62
286.288	68.62
286.52	79.62
286.751	95.62
286.982	88.62
287.213	89.62
287.444	82.62
287.675	81.62
287.906	84.62
288.138	77.62
288.369	82.62
288.6	87.62
288.831	75.62
289.062	92.62
289.293	83.62
289.524	84.62
289.755	85.62
289.986	82.62
290.217	75.62
290.448	84.62
290.679	75.62
290.91	95.62
291.141	82.62
291.371	92.62
291.602	90.62
291.833	82.62
292.064	89.62
292.295	84.62
292.526	84.62
292.757	84.62
292.987	89.62
293.218	86.62
293.449	82.62
293.68	82.62
293.91	83.62
294.141	81.62
294.372	75.62
294.603	96.62
294.833	88.62
295.064	91.62
295.295	89.62
295.525	83.62
295.756	102.62
295.987	106.62
296.217	119.62
296.448	113.62
296.679	88.62
296.909	79.62
297.14	77.62
297.37	93.62
297.601	94.62
297.831	88.62
298.062	75.62
298.292	67.62
298.523	82.62
298.753	92.62
298.984	97.62
299.214	83.62
299.445	96.62
299.675	81.62
299.905	97.62
300.136	96.62
300.366	78.62
300.597	93.62
300.827	90.62
301.057	89.62
301.288	102.62
301.518	95.62
301.748	93.62
301.979	85.62
302.209	76.62
302.439	75.62
302.669	75.62
302.9	93.62
303.13	82.62
303.36	79.62
303.59	95.62
303.82	83.62
304.051	92.62
304.281	95.62
304.511	93.62
304.741	82.62
304.971	83.62
305.201	86.62
305.431	83.62
305.661	86.62
305.891	75.62
306.121	95.62
306.352	96.62
306.582	99.62
306.812	92.62
307.042	97.62
307.272	91.62
307.502	85.62
307.731	100.62
307.961	84.62
308.191	84.62
308.421	90.62
308.651	96.62
308.881	103.62
309.111	76.62
309.341	81.62
309.571	97.62
309.8	101.62
310.03	99.62
310.26	81.62
310.49	89.62
310.72	93.62
310.949	85.62
311.179	95.62
311.409	81.62
311.639	99.62
311.868	89.62
312.098	96.62
312.328	85.62
312.557	86.62
312.787	95.62
313.017	103.62
313.246	88.62
313.476	86.62
313.706	96.62
313.935	99.62
314.165	90.62
314.394	99.62
314.624	83.62
314.853	89.62
315.083	91.62
315.312	104.62
315.542	87.62
315.771	94.62
316.001	85.62
316.23	92.62
316.46	106.62
316.689	91.62
316.919	93.62
317.148	94.62
317.377	116.62
317.607	90.62
317.836	91.62
318.065	91.62
318.295	86.62
318.524	97.62
318.753	85.62
318.983	92.62
319.212	89.62
319.441	92.62
319.67	91.62
319.9	112.62
320.129	102.62
320.358	87.62
320.587	100.62
320.816	92.62
321.046	98.62
321.275	96.62
321.504	93.62
321.733	92.62
321.962	93.62
322.191	89.62
322.42	108.62
322.649	108.62
322.878	111.62
323.108	101.62
323.337	109.62
323.566	109.62
323.795	138.62
324.024	184.62
324.253	328.62
324.482	727.62
324.71	1459.62
324.939	1933.62
325.168	716.62
325.397	239.62
325.626	143.62
325.855	119.62
326.084	120.62
326.313	114.62
326.542	129.62
326.77	211.62
326.999	403.62
327.228	821.62
327.457	1499.62
327.686	1195.62
327.914	345.62
328.143	172.62
328.372	133.62
328.6	116.62
328.829	112.62
329.058	125.62
329.287	103.62
329.515	111.62
329.744	117.62
329.972	113.62
330.201	116.62
330.43	119.62
330.658	105.62
330.887	120.62
331.115	117.62
331.344	102.62
331.572	99.62
331.801	92.62
332.03	92.62
332.258	87.62
332.486	82.62
332.715	90.62
332.943	85.62
333.172	85.62
333.4	103.62
333.629	107.62
333.857	108.62
334.085	99.62
334.314	87.62
334.542	133.62
334.771	117.62
334.999	115.62
335.227	96.62
335.455	102.62
335.684	74.62
335.912	94.62
336.14	109.62
336.369	94.62
336.597	96.62
336.825	93.62
337.053	83.62
337.281	91.62
337.51	87.62
337.738	86.62
337.966	92.62
338.194	93.62
338.422	95.62
338.65	78.62
338.878	73.62
339.106	108.62
339.334	75.62
339.562	87.62
339.79	90.62
340.018	67.62
340.246	92.62
340.474	72.62
340.702	93.62
340.93	71.62
341.158	105.62
341.386	98.62
341.614	97.62
341.842	79.62
342.07	76.62
342.298	92.62
342.526	88.62
342.754	96.62
342.981	87.62
343.209	91.62
343.437	106.62
343.665	80.62
343.893	81.62
344.12	91.62
344.348	86.62
344.576	83.62
344.804	87.62
345.031	88.62
345.259	87.62
345.487	101.62
345.714	91.62
345.942	96.62
346.17	106.62
346.397	80.62
346.625	92.62
346.853	91.62
347.08	86.62
347.308	94.62
347.535	93.62
347.763	96.62
347.99	99.62
348.218	105.62
348.445	95.62
348.673	89.62
348.9	104.62
349.128	84.62
349.355	86.62
349.583	90.62
349.81	100.62
350.037	103.62
350.265	105.62
350.492	95.62
350.72	89.62
350.947	112.62
351.174	111.62
351.402	107.62
351.629	118.62
351.856	103.62
352.083	106.62
352.311	107.62
352.538	96.62
352.765	88.62
352.992	123.62
353.22	113.62
353.447	120.62
353.674	87.62
353.901	93.62
354.128	83.62
354.355	86.62
354.583	102.62
354.81	107.62
355.037	95.62
355.264	96.62
355.491	75.62
355.718	82.62
355.945	92.62
356.172	105.62
356.399	92.62
356.626	93.62
356.853	104.62
357.08	106.62
357.307	93.62
357.534	88.62
357.761	88.62
357.988	88.62
358.215	90.62
358.441	88.62
358.668	83.62
358.895	67.62
359.122	88.62
359.349	91.62
359.576	91.62
359.802	96.62
360.029	97.62
360.256	96.62
360.483	85.62
360.709	80.62
360.936	81.62
361.163	87.62
361.39	84.62
361.616	77.62
361.843	75.62
362.07	104.62
362.296	85.62
362.523	81.62
362.749	82.62
362.976	81.62
363.203	84.62
363.429	97.62
363.656	90.62
363.882	91.62
364.109	100.62
364.335	83.62
364.562	91.62
364.788	84.62
365.015	74.62
365.241	98.62
365.468	104.62
365.694	100.62
365.92	106.62
366.147	95.62
366.373	81.62
366.599	87.62
366.826	84.62
367.052	83.62
367.278	86.62
367.505	95.62
367.731	105.62
367.957	80.62
368.184	88.62
368.41	87.62
368.636	101.62
368.862	122.62
369.089	97.62
369.315	81.62
369.541	83.62
369.767	85.62
369.993	81.62
370.219	104.62
370.445	67.62
370.672	79.62
370.898	104.62
371.124	94.62
371.35	89.62
371.576	87.62
371.802	80.62
372.028	95.62
372.254	91.62
372.48	94.62
372.706	95.62
372.932	86.62
373.158	95.62
373.384	95.62
373.61	92.62
373.835	77.62
374.061	78.62
374.287	92.62
374.513	89.62
374.739	83.62
374.965	82.62
375.191	90.62
375.416	92.62
375.642	73.62
375.868	95.62
376.094	80.62
376.319	106.62
376.545	88.62
376.771	75.62
376.997	91.62
377.222	94.62
377.448	89.62
377.674	88.62
377.899	96.62
378.125	99.62
378.35	96.62
378.576	78.62
378.802	73.62
379.027	92.62
379.253	95.62
379.478	84.62
379.704	79.62
379.929	100.62
380.155	81.62
380.38	90.62
380.606	114.62
380.831	93.62
381.057	89.62
381.282	91.62
381.507	104.62
381.733	101.62
381.958	87.62
382.184	97.62
382.409	91.62
382.634	93.62
382.86	106.62
383.085	94.62
383.31	102.62
383.535	113.62
383.761	98.62
383.986	106.62
384.211	98.62
384.436	75.62
384.662	91.62
384.887	97.62
385.112	105.62
385.337	104.62
385.562	112.62
385.787	101.62
386.013	116.62
386.238	119.62
386.463	89.62
386.688	120.62
386.913	111.62
387.138	88.62
387.363	89.62
387.588	103.62
387.813	104.62
388.038	117.62
388.263	110.62
388.488	105.62
388.713	110.62
388.938	99.62
389.163	90.62
389.387	96.62
389.612	93.62
389.837	95.62
390.062	89.62
390.287	85.62
390.512	89.62
390.736	92.62
390.961	89.62
391.186	90.62
391.411	86.62
391.636	96.62
391.86	92.62
392.085	86.62
392.31	96.62
392.534	77.62
392.759	88.62
392.984	96.62
393.208	93.62
393.433	88.62
393.658	87.62
393.882	87.62
394.107	83.62
394.331	99.62
394.556	88.62
394.78	95.62
395.005	92.62
395.229	83.62
395.454	79.62
395.678	83.62
395.903	81.62
396.127	76.62
396.352	83.62
396.576	80.62
396.801	77.62
397.025	83.62
397.249	89.62
397.474	84.62
397.698	93.62
397.922	84.62
398.147	97.62
398.371	80.62
398.595	77.62
398.82	102.62
399.044	88.62
399.268	93.62
399.492	80.62
399.717	103.62
399.941	74.62
400.165	101.62
400.389	87.62
400.613	99.62
400.837	84.62
401.062	83.62
401.286	104.62
401.51	75.62
401.734	86.62
401.958	105.62
402.182	122.62
402.406	140.62
402.63	114.62
402.854	93.62
403.078	103.62
403.302	98.62
403.526	90.62
403.75	84.62
403.974	77.62
404.198	89.62
404.422	95.62
404.645	87.62
404.869	85.62
405.093	102.62
405.317	101.62
405.541	101.62
405.765	103.62
405.988	113.62
406.212	143.62
406.436	180.62
406.66	129.62
406.883	103.62
407.107	91.62
407.331	69.62
407.555	101.62
407.778	102.62
408.002	99.62
408.226	85.62
408.449	91.62
408.673	91.62
408.896	92.62
409.12	88.62
409.344	101.62
409.567	97.62
409.791	100.62
410.014	100.62
410.238	86.62
410.461	104.62
410.685	84.62
410.908	89.62
411.132	100.62
411.355	101.62
411.578	85.62
411.802	76.62
412.025	105.62
412.249	77.62
412.472	95.62
412.695	97.62
412.919	90.62
413.142	97.62
413.365	95.62
413.589	86.62
413.812	84.62
414.035	89.62
414.258	88.62
414.482	79.62
414.705	92.62
414.928	87.62
415.151	97.62
415.374	87.62
415.597	75.62
415.821	99.62
416.044	73.62
416.267	87.62
416.49	92.62
416.713	100.62
416.936	90.62
417.159	91.62
417.382	99.62
417.605	89.62
417.828	90.62
418.051	102.62
418.274	76.62
418.497	90.62
418.72	83.62
418.943	97.62
419.166	86.62
419.389	98.62
419.611	87.62
419.834	101.62
420.057	97.62
420.28	79.62
420.503	95.62
420.726	95.62
420.948	83.62
421.171	84.62
421.394	91.62
421.617	88.62
421.839	74.62
422.062	89.62
422.285	102.62
422.507	103.62
422.73	100.62
422.953	79.62
423.175	85.62
423.398	89.62
423.621	82.62
423.843	95.62
424.066	85.62
424.288	99.62
424.511	94.62
424.733	89.62
424.956	108.62
425.178	82.62
425.401	91.62
425.623	99.62
425.846	83.62
426.068	87.62
426.291	93.62
426.513	90.62
426.735	82.62
426.958	68.62
427.18	93.62
427.402	123.62
427.625	147.62
427.847	125.62
428.069	104.62
428.292	91.62
428.514	83.62
428.736	105.62
428.958	76.62
429.181	76.62
429.403	97.62
429.625	88.62
429.847	95.62
430.069	103.62
430.292	82.62
430.514	100.62
430.736	93.62
430.958	89.62
431.18	92.62
431.402	85.62
431.624	91.62
431.846	85.62
432.068	91.62
432.29	87.62
432.512	92.62
432.734	82.62
432.956	74.62
433.178	105.62
433.4	95.62
433.622	107.62
433.844	82.62
434.066	105.62
434.287	108.62
434.509	89.62
434.731	96.62
434.953	84.62
435.175	98.62
435.397	97.62
435.618	93.62
435.84	94.62
436.062	116.62
436.284	107.62
436.505	108.62
436.727	95.62
436.949	84.62
437.17	96.62
437.392	86.62
437.614	76.62
437.835	83.62
438.057	114.62
438.278	99.62
438.5	92.62
438.721	114.62
438.943	89.62
439.165	87.62
439.386	87.62
439.608	88.62
439.829	100.62
440.05	94.62
440.272	132.62
440.493	90.62
440.715	93.62
440.936	93.62
441.158	89.62
441.379	82.62
441.6	79.62
441.822	90.62
442.043	93.62
442.264	97.62
442.486	91.62
442.707	85.62
442.928	102.62
443.149	110.62
443.371	109.62
443.592	108.62
443.813	114.62
444.034	97.62
444.255	87.62
444.476	87.62
444.698	88.62
444.919	91.62
445.14	125.62
445.361	123.62
445.582	104.62
445.803	132.62
446.024	119.62
446.245	119.62
446.466	102.62
446.687	90.62
446.908	83.62
447.129	96.62
447.35	83.62
447.571	97.62
447.792	95.62
448.013	94.62
448.234	102.62
448.455	96.62
448.675	103.62
448.896	95.62
449.117	99.62
449.338	96.62
449.559	126.62
449.779	115.62
450	93.62
450.221	94.62
450.442	91.62
450.662	85.62
450.883	98.62
451.104	103.62
451.324	87.62
451.545	77.62
451.766	93.62
451.986	81.62
452.207	99.62
452.428	100.62
452.648	88.62
452.869	96.62
453.089	97.62
453.31	94.62
453.53	93.62
453.751	98.62
453.971	92.62
454.192	93.62
454.412	82.62
454.633	82.62
454.853	97.62
455.073	93.62
455.294	81.62
455.514	102.62
455.734	81.62
455.955	91.62
456.175	91.62
456.395	89.62
456.616	80.62
456.836	80.62
457.056	88.62
457.276	85.62
457.497	74.62
457.717	83.62
457.937	85.62
458.157	94.62
458.377	95.62
458.598	90.62
458.818	127.62
459.038	131.62
459.258	92.62
459.478	85.62
459.698	92.62
459.918	89.62
460.138	93.62
460.358	83.62
460.578	81.62
460.798	87.62
461.018	78.62
461.238	82.62
461.458	79.62
461.678	88.62
461.898	83.62
462.118	94.62
462.338	95.62
462.558	93.62
462.777	73.62
462.997	89.62
463.217	84.62
463.437	83.62
463.657	89.62
463.876	91.62
464.096	89.62
464.316	86.62
464.536	99.62
464.755	88.62
464.975	94.62
465.195	137.62
465.414	134.62
465.634	91.62
465.854	85.62
466.073	89.62
466.293	85.62
466.512	87.62
466.732	99.62
466.951	81.62
467.171	91.62
467.391	106.62
467.61	99.62
467.829	98.62
468.049	100.62
468.268	93.62
468.488	81.62
468.707	75.62
468.927	86.62
469.146	79.62
469.365	73.62
469.585	86.62
469.804	84.62
470.023	73.62
470.243	80.62
470.462	99.62
470.681	91.62
470.901	94.62
471.12	77.62
471.339	89.62
471.558	91.62
471.777	103.62
471.997	107.62
472.216	112.62
472.435	132.62
472.654	92.62
472.873	93.62
473.092	85.62
473.311	81.62
473.53	93.62
473.749	97.62
473.968	87.62
474.187	87.62
474.406	93.62
474.625	98.62
474.844	90.62
475.063	76.62
475.282	75.62
475.501	92.62
475.72	82.62
475.939	78.62
476.158	93.62
476.377	89.62
476.596	90.62
476.814	83.62
477.033	76.62
477.252	95.62
477.471	89.62
477.69	94.62
477.908	92.62
478.127	83.62
478.346	87.62
478.564	76.62
478.783	100.62
479.002	84.62
479.22	93.62
479.439	92.62
479.658	90.62
479.876	101.62
480.095	72.62
480.313	97.62
480.532	90.62
480.751	95.62
480.969	115.62
481.188	185.62
481.406	139.62
481.624	95.62
481.843	92.62
482.061	86.62
482.28	84.62
482.498	81.62
482.717	89.62
482.935	96.62
483.153	91.62
483.372	91.62
483.59	80.62
483.808	91.62
484.027	89.62
484.245	79.62
484.463	89.62
484.681	90.62
484.9	93.62
485.118	102.62
485.336	104.62
485.554	99.62
485.772	93.62
485.99	106.62
486.209	99.62
486.427	97.62
486.645	103.62
486.863	112.62
487.081	101.62
487.299	96.62
487.517	104.62
487.735	80.62
487.953	81.62
488.171	88.62
488.389	88.62
488.607	86.62
488.825	89.62
489.043	89.62
489.261	96.62
489.479	83.62
489.696	68.62
489.914	83.62
490.132	91.62
490.35	82.62
490.568	101.62
490.786	84.62
491.003	82.62
491.221	89.62
491.439	95.62
491.657	101.62
491.874	103.62
492.092	82.62
492.31	75.62
492.527	79.62
492.745	88.62
492.963	72.62
493.18	87.62
493.398	96.62
493.615	92.62
493.833	95.62
494.05	91.62
494.268	92.62
494.485	94.62
494.703	91.62
494.92	80.62
495.138	96.62
495.355	91.62
495.573	91.62
495.79	96.62
496.008	108.62
496.225	95.62
496.442	96.62
496.66	98.62
496.877	95.62
497.094	104.62
497.312	106.62
497.529	79.62
497.746	82.62
497.963	81.62
498.181	88.62
498.398	95.62
498.615	104.62
498.832	107.62
499.049	84.62
499.267	92.62
499.484	85.62
499.701	88.62
499.918	91.62
500.135	89.62
500.352	98.62
500.569	87.62
500.786	76.62
501.003	107.62
501.22	86.62
501.437	93.62
501.654	88.62
501.871	96.62
502.088	86.62
502.305	87.62
502.522	103.62
502.739	103.62
502.956	79.62
503.172	90.62
503.389	98.62
503.606	95.62
503.823	90.62
504.04	92.62
504.256	84.62
504.473	84.62
504.69	96.62
504.907	82.62
505.123	74.62
505.34	87.62
505.557	75.62
505.773	98.62
505.99	89.62
506.207	90.62
506.423	99.62
506.64	89.62
506.856	89.62
507.073	83.62
507.289	85.62
507.506	94.62
507.722	101.62
507.939	90.62
508.155	96.62
508.372	103.62
508.588	80.62
508.805	81.62
509.021	96.62
509.238	84.62
509.454	108.62
509.67	94.62
509.887	98.62
510.103	116.62
510.319	213.62
510.536	665.62
510.752	1951.62
510.968	528.62
511.184	134.62
511.401	92.62
511.617	94.62
511.833	76.62
512.049	94.62
512.265	79.62
512.481	80.62
512.698	92.62
512.914	89.62
513.13	96.62
513.346	103.62
513.562	98.62
513.778	97.62
513.994	96.62
514.21	100.62
514.426	110.62
514.642	121.62
514.858	122.62
515.074	151.62
515.29	386.62
515.506	1144.62
515.721	426.62
515.937	132.62
516.153	109.62
516.369	97.62
