Data from Uncirc_1982_H10_HRD10591_00080.txt Node
Date: Wed Jan 03 12:29:41 EST 2024
User: Yrep
Spectrometer: HR+D1059
Trigger mode: 1
Integration Time (sec): 1.000000E-1
Scans to average: 1
Electric dark correction enabled: true
Nonlinearity correction enabled: false
Boxcar width: 0
XAxis mode: Wavelengths
Number of Pixels in Spectrum: 2048
>>>>>Begin Spectral Data<<<<<
223.165	-2.31
223.4	-2.31
223.635	-2.31
223.869	-12.31
224.104	-30.31
224.338	-12.31
224.573	-6.31
224.808	-18.31
225.042	-20.31
225.277	-10.31
225.511	-9.31
225.746	17.69
225.98	14.69
226.215	21.69
226.449	6.69
226.683	4.69
226.918	21.69
227.152	34.69
227.387	39.69
227.621	42.69
227.856	31.69
228.09	46.69
228.324	42.69
228.559	55.69
228.793	68.69
229.027	65.69
229.262	52.69
229.496	65.69
229.73	81.69
229.964	65.69
230.199	67.69
230.433	67.69
230.667	71.69
230.901	80.69
231.136	86.69
231.37	69.69
231.604	71.69
231.838	74.69
232.072	74.69
232.306	86.69
232.541	82.69
232.775	77.69
233.009	83.69
233.243	72.69
233.477	76.69
233.711	86.69
233.945	73.69
234.179	77.69
234.413	80.69
234.647	55.69
234.881	79.69
235.115	81.69
235.349	73.69
235.583	58.69
235.817	72.69
236.051	91.69
236.285	67.69
236.519	74.69
236.753	72.69
236.987	66.69
237.221	83.69
237.455	76.69
237.689	75.69
237.922	81.69
238.156	79.69
238.39	74.69
238.624	66.69
238.858	69.69
239.091	89.69
239.325	91.69
239.559	75.69
239.793	80.69
240.027	63.69
240.26	78.69
240.494	82.69
240.728	61.69
240.961	69.69
241.195	68.69
241.429	84.69
241.662	92.69
241.896	71.69
242.13	91.69
242.363	72.69
242.597	90.69
242.83	85.69
243.064	71.69
243.298	73.69
243.531	84.69
243.765	79.69
243.998	60.69
244.232	96.69
244.465	87.69
244.699	78.69
244.932	67.69
245.166	69.69
245.399	91.69
245.633	76.69
245.866	68.69
246.099	73.69
246.333	72.69
246.566	82.69
246.8	82.69
247.033	73.69
247.266	95.69
247.5	87.69
247.733	74.69
247.966	83.69
248.2	82.69
248.433	79.69
248.666	98.69
248.899	83.69
249.133	77.69
249.366	98.69
249.599	87.69
249.832	76.69
250.066	95.69
250.299	74.69
250.532	66.69
250.765	82.69
250.998	83.69
251.231	76.69
251.465	75.69
251.698	80.69
251.931	64.69
252.164	75.69
252.397	79.69
252.63	66.69
252.863	93.69
253.096	81.69
253.329	81.69
253.562	76.69
253.795	73.69
254.028	68.69
254.261	96.69
254.494	72.69
254.727	55.69
254.96	73.69
255.193	90.69
255.426	73.69
255.659	79.69
255.892	79.69
256.124	55.69
256.357	74.69
256.59	81.69
256.823	83.69
257.056	80.69
257.289	81.69
257.521	83.69
257.754	78.69
257.987	95.69
258.22	81.69
258.452	75.69
258.685	94.69
258.918	84.69
259.151	73.69
259.383	81.69
259.616	79.69
259.849	81.69
260.081	83.69
260.314	70.69
260.547	86.69
260.779	79.69
261.012	69.69
261.244	83.69
261.477	87.69
261.71	86.69
261.942	81.69
262.175	99.69
262.407	100.69
262.64	73.69
262.872	77.69
263.105	73.69
263.337	84.69
263.57	87.69
263.802	78.69
264.035	70.69
264.267	73.69
264.499	71.69
264.732	76.69
264.964	73.69
265.197	89.69
265.429	88.69
265.661	84.69
265.894	74.69
266.126	87.69
266.358	93.69
266.591	75.69
266.823	76.69
267.055	69.69
267.287	88.69
267.52	74.69
267.752	90.69
267.984	88.69
268.216	87.69
268.448	79.69
268.681	96.69
268.913	90.69
269.145	76.69
269.377	81.69
269.609	87.69
269.841	76.69
270.073	79.69
270.306	85.69
270.538	81.69
270.77	88.69
271.002	72.69
271.234	86.69
271.466	91.69
271.698	83.69
271.93	70.69
272.162	76.69
272.394	83.69
272.626	67.69
272.858	72.69
273.09	85.69
273.322	77.69
273.553	69.69
273.785	81.69
274.017	84.69
274.249	82.69
274.481	70.69
274.713	87.69
274.945	90.69
275.176	69.69
275.408	91.69
275.64	95.69
275.872	82.69
276.104	91.69
276.335	83.69
276.567	90.69
276.799	101.69
277.031	81.69
277.262	84.69
277.494	85.69
277.726	79.69
277.957	91.69
278.189	76.69
278.421	93.69
278.652	85.69
278.884	87.69
279.115	85.69
279.347	85.69
279.579	79.69
279.81	82.69
280.042	66.69
280.273	76.69
280.505	78.69
280.736	84.69
280.968	91.69
281.199	87.69
281.431	63.69
281.662	75.69
281.894	100.69
282.125	110.69
282.356	109.69
282.588	125.69
282.819	104.69
283.051	84.69
283.282	84.69
283.513	102.69
283.745	85.69
283.976	87.69
284.207	102.69
284.439	93.69
284.67	101.69
284.901	88.69
285.132	98.69
285.364	83.69
285.595	77.69
285.826	90.69
286.057	76.69
286.288	81.69
286.52	87.69
286.751	84.69
286.982	82.69
287.213	84.69
287.444	86.69
287.675	87.69
287.906	88.69
288.138	85.69
288.369	97.69
288.6	81.69
288.831	87.69
289.062	86.69
289.293	86.69
289.524	80.69
289.755	95.69
289.986	70.69
290.217	87.69
290.448	82.69
290.679	81.69
290.91	101.69
291.141	70.69
291.371	79.69
291.602	103.69
291.833	88.69
292.064	86.69
292.295	87.69
292.526	82.69
292.757	71.69
292.987	103.69
293.218	90.69
293.449	72.69
293.68	87.69
293.91	81.69
294.141	88.69
294.372	90.69
294.603	85.69
294.833	83.69
295.064	73.69
295.295	76.69
295.525	84.69
295.756	101.69
295.987	105.69
296.217	138.69
296.448	128.69
296.679	91.69
296.909	93.69
297.14	89.69
297.37	97.69
297.601	81.69
297.831	85.69
298.062	92.69
298.292	93.69
298.523	100.69
298.753	77.69
298.984	91.69
299.214	92.69
299.445	98.69
299.675	85.69
299.905	103.69
300.136	109.69
300.366	75.69
300.597	83.69
300.827	89.69
301.057	90.69
301.288	83.69
301.518	91.69
301.748	97.69
301.979	103.69
302.209	87.69
302.439	87.69
302.669	84.69
302.9	77.69
303.13	81.69
303.36	99.69
303.59	83.69
303.82	94.69
304.051	88.69
304.281	92.69
304.511	88.69
304.741	76.69
304.971	87.69
305.201	91.69
305.431	100.69
305.661	91.69
305.891	87.69
306.121	87.69
306.352	98.69
306.582	98.69
306.812	76.69
307.042	89.69
307.272	88.69
307.502	108.69
307.731	84.69
307.961	96.69
308.191	89.69
308.421	102.69
308.651	85.69
308.881	87.69
309.111	89.69
309.341	111.69
309.571	105.69
309.8	104.69
310.03	92.69
310.26	92.69
310.49	87.69
310.72	85.69
310.949	99.69
311.179	91.69
311.409	91.69
311.639	91.69
311.868	104.69
312.098	88.69
312.328	93.69
312.557	90.69
312.787	99.69
313.017	95.69
313.246	101.69
313.476	94.69
313.706	108.69
313.935	84.69
314.165	97.69
314.394	91.69
314.624	100.69
314.853	95.69
315.083	91.69
315.312	93.69
315.542	96.69
315.771	90.69
316.001	85.69
316.23	84.69
316.46	88.69
316.689	92.69
316.919	108.69
317.148	93.69
317.377	87.69
317.607	89.69
317.836	99.69
318.065	109.69
318.295	92.69
318.524	82.69
318.753	91.69
318.983	99.69
319.212	107.69
319.441	101.69
319.67	104.69
319.9	95.69
320.129	91.69
320.358	103.69
320.587	81.69
320.816	93.69
321.046	101.69
321.275	99.69
321.504	86.69
321.733	102.69
321.962	93.69
322.191	101.69
322.42	102.69
322.649	100.69
322.878	96.69
323.108	115.69
323.337	104.69
323.566	109.69
323.795	148.69
324.024	182.69
324.253	342.69
324.482	722.69
324.71	1489.69
324.939	1953.69
325.168	743.69
325.397	203.69
325.626	145.69
325.855	121.69
326.084	125.69
326.313	124.69
326.542	136.69
326.77	210.69
326.999	404.69
327.228	853.69
327.457	1509.69
327.686	1244.69
327.914	339.69
328.143	175.69
328.372	136.69
328.6	138.69
328.829	118.69
329.058	113.69
329.287	115.69
329.515	93.69
329.744	109.69
329.972	102.69
330.201	115.69
330.43	117.69
330.658	109.69
330.887	135.69
331.115	110.69
331.344	103.69
331.572	100.69
331.801	89.69
332.03	106.69
332.258	88.69
332.486	111.69
332.715	97.69
332.943	94.69
333.172	100.69
333.4	86.69
333.629	101.69
333.857	115.69
334.085	120.69
334.314	120.69
334.542	128.69
334.771	126.69
334.999	118.69
335.227	102.69
335.455	98.69
335.684	102.69
335.912	97.69
336.14	102.69
336.369	92.69
336.597	90.69
336.825	115.69
337.053	95.69
337.281	86.69
337.51	91.69
337.738	108.69
337.966	82.69
338.194	79.69
338.422	83.69
338.65	80.69
338.878	84.69
339.106	83.69
339.334	94.69
339.562	92.69
339.79	97.69
340.018	87.69
340.246	97.69
340.474	99.69
340.702	81.69
340.93	99.69
341.158	99.69
341.386	89.69
341.614	96.69
341.842	87.69
342.07	92.69
342.298	85.69
342.526	91.69
342.754	77.69
342.981	92.69
343.209	106.69
343.437	104.69
343.665	96.69
343.893	87.69
344.12	85.69
344.348	97.69
344.576	80.69
344.804	101.69
345.031	91.69
345.259	107.69
345.487	66.69
345.714	86.69
345.942	88.69
346.17	90.69
346.397	103.69
346.625	109.69
346.853	88.69
347.08	79.69
347.308	96.69
347.535	90.69
347.763	97.69
347.99	100.69
348.218	102.69
348.445	93.69
348.673	91.69
348.9	104.69
349.128	98.69
349.355	93.69
349.583	99.69
349.81	101.69
350.037	101.69
350.265	90.69
350.492	95.69
350.72	91.69
350.947	96.69
351.174	100.69
351.402	105.69
351.629	95.69
351.856	98.69
352.083	108.69
352.311	104.69
352.538	99.69
352.765	103.69
352.992	114.69
353.22	103.69
353.447	107.69
353.674	100.69
353.901	99.69
354.128	99.69
354.355	89.69
354.583	95.69
354.81	87.69
355.037	94.69
355.264	79.69
355.491	91.69
355.718	96.69
355.945	91.69
356.172	97.69
356.399	95.69
356.626	89.69
356.853	99.69
357.08	98.69
357.307	84.69
357.534	97.69
357.761	95.69
357.988	92.69
358.215	96.69
358.441	95.69
358.668	86.69
358.895	87.69
359.122	88.69
359.349	92.69
359.576	104.69
359.802	86.69
360.029	107.69
360.256	105.69
360.483	87.69
360.709	88.69
360.936	106.69
361.163	106.69
361.39	79.69
361.616	89.69
361.843	103.69
362.07	93.69
362.296	100.69
362.523	96.69
362.749	93.69
362.976	97.69
363.203	84.69
363.429	89.69
363.656	91.69
363.882	91.69
364.109	81.69
364.335	83.69
364.562	89.69
364.788	92.69
365.015	92.69
365.241	91.69
365.468	100.69
365.694	88.69
365.92	106.69
366.147	79.69
366.373	83.69
366.599	80.69
366.826	78.69
367.052	93.69
367.278	89.69
367.505	77.69
367.731	96.69
367.957	85.69
368.184	74.69
368.41	99.69
368.636	109.69
368.862	116.69
369.089	91.69
369.315	85.69
369.541	88.69
369.767	95.69
369.993	96.69
370.219	87.69
370.445	97.69
370.672	90.69
370.898	82.69
371.124	75.69
371.35	97.69
371.576	81.69
371.802	100.69
372.028	98.69
372.254	91.69
372.48	87.69
372.706	83.69
372.932	93.69
373.158	75.69
373.384	90.69
373.61	100.69
373.835	93.69
374.061	103.69
374.287	87.69
374.513	88.69
374.739	89.69
374.965	74.69
375.191	90.69
375.416	96.69
375.642	92.69
375.868	98.69
376.094	98.69
376.319	88.69
376.545	88.69
376.771	88.69
376.997	88.69
377.222	96.69
377.448	84.69
377.674	72.69
377.899	85.69
378.125	93.69
378.35	85.69
378.576	78.69
378.802	100.69
379.027	90.69
379.253	88.69
379.478	91.69
379.704	92.69
379.929	96.69
380.155	105.69
380.38	103.69
380.606	86.69
380.831	98.69
381.057	85.69
381.282	76.69
381.507	85.69
381.733	91.69
381.958	89.69
382.184	98.69
382.409	98.69
382.634	102.69
382.86	88.69
383.085	95.69
383.31	102.69
383.535	88.69
383.761	80.69
383.986	103.69
384.211	99.69
384.436	100.69
384.662	94.69
384.887	102.69
385.112	102.69
385.337	109.69
385.562	115.69
385.787	95.69
386.013	108.69
386.238	98.69
386.463	103.69
386.688	100.69
386.913	96.69
387.138	97.69
387.363	99.69
387.588	91.69
387.813	91.69
388.038	96.69
388.263	112.69
388.488	100.69
388.713	95.69
388.938	100.69
389.163	96.69
389.387	80.69
389.612	91.69
389.837	100.69
390.062	73.69
390.287	92.69
390.512	89.69
390.736	81.69
390.961	96.69
391.186	92.69
391.411	96.69
391.636	92.69
391.86	80.69
392.085	84.69
392.31	92.69
392.534	93.69
392.759	92.69
392.984	90.69
393.208	83.69
393.433	69.69
393.658	88.69
393.882	83.69
394.107	97.69
394.331	87.69
394.556	81.69
394.78	73.69
395.005	95.69
395.229	90.69
395.454	92.69
395.678	85.69
395.903	103.69
396.127	82.69
396.352	87.69
396.576	103.69
396.801	75.69
397.025	74.69
397.249	89.69
397.474	97.69
397.698	73.69
397.922	91.69
398.147	87.69
398.371	72.69
398.595	85.69
398.82	87.69
399.044	90.69
399.268	82.69
399.492	92.69
399.717	83.69
399.941	99.69
400.165	93.69
400.389	91.69
400.613	88.69
400.837	87.69
401.062	81.69
401.286	71.69
401.51	83.69
401.734	105.69
401.958	109.69
402.182	100.69
402.406	125.69
402.63	105.69
402.854	91.69
403.078	105.69
403.302	81.69
403.526	98.69
403.75	76.69
403.974	83.69
404.198	97.69
404.422	89.69
404.645	93.69
404.869	101.69
405.093	87.69
405.317	91.69
405.541	100.69
405.765	87.69
405.988	120.69
406.212	138.69
406.436	207.69
406.66	110.69
406.883	90.69
407.107	101.69
407.331	97.69
407.555	71.69
407.778	92.69
408.002	91.69
408.226	68.69
408.449	83.69
408.673	79.69
408.896	95.69
409.12	91.69
409.344	83.69
409.567	97.69
409.791	84.69
410.014	101.69
410.238	86.69
410.461	113.69
410.685	98.69
410.908	93.69
411.132	85.69
411.355	85.69
411.578	96.69
411.802	91.69
412.025	90.69
412.249	92.69
412.472	92.69
412.695	93.69
412.919	84.69
413.142	86.69
413.365	81.69
413.589	90.69
413.812	77.69
414.035	90.69
414.258	87.69
414.482	85.69
414.705	84.69
414.928	91.69
415.151	83.69
415.374	92.69
415.597	99.69
415.821	85.69
416.044	87.69
416.267	87.69
416.49	92.69
416.713	92.69
416.936	75.69
417.159	83.69
417.382	93.69
417.605	89.69
417.828	90.69
418.051	101.69
418.274	79.69
418.497	70.69
418.72	76.69
418.943	92.69
419.166	82.69
419.389	100.69
419.611	85.69
419.834	96.69
420.057	90.69
420.28	87.69
420.503	69.69
420.726	82.69
420.948	92.69
421.171	95.69
421.394	86.69
421.617	101.69
421.839	92.69
422.062	89.69
422.285	95.69
422.507	97.69
422.73	91.69
422.953	80.69
423.175	85.69
423.398	87.69
423.621	105.69
423.843	98.69
424.066	95.69
424.288	76.69
424.511	81.69
424.733	96.69
424.956	114.69
425.178	99.69
425.401	104.69
425.623	100.69
425.846	71.69
426.068	85.69
426.291	107.69
426.513	96.69
426.735	76.69
426.958	97.69
427.18	105.69
427.402	124.69
427.625	144.69
427.847	123.69
428.069	103.69
428.292	98.69
428.514	87.69
428.736	76.69
428.958	76.69
429.181	92.69
429.403	91.69
429.625	88.69
429.847	79.69
430.069	82.69
430.292	104.69
430.514	73.69
430.736	77.69
430.958	85.69
431.18	75.69
431.402	82.69
431.624	75.69
431.846	91.69
432.068	82.69
432.29	95.69
432.512	100.69
432.734	82.69
432.956	85.69
433.178	89.69
433.4	105.69
433.622	97.69
433.844	91.69
434.066	79.69
434.287	88.69
434.509	82.69
434.731	94.69
434.953	76.69
435.175	86.69
435.397	83.69
435.618	97.69
435.84	100.69
436.062	128.69
436.284	109.69
436.505	89.69
436.727	87.69
436.949	97.69
437.17	92.69
437.392	74.69
437.614	77.69
437.835	97.69
438.057	106.69
438.278	103.69
438.5	99.69
438.721	108.69
438.943	92.69
439.165	87.69
439.386	86.69
439.608	79.69
439.829	91.69
440.05	115.69
440.272	118.69
440.493	102.69
440.715	85.69
440.936	91.69
441.158	86.69
441.379	91.69
441.6	92.69
441.822	82.69
442.043	80.69
442.264	90.69
442.486	87.69
442.707	83.69
442.928	102.69
443.149	120.69
443.371	111.69
443.592	96.69
443.813	101.69
444.034	100.69
444.255	88.69
444.476	87.69
444.698	96.69
444.919	104.69
445.14	129.69
445.361	119.69
445.582	108.69
445.803	120.69
446.024	113.69
446.245	118.69
446.466	117.69
446.687	94.69
446.908	71.69
447.129	95.69
447.35	69.69
447.571	91.69
447.792	74.69
448.013	87.69
448.234	103.69
448.455	101.69
448.675	95.69
448.896	104.69
449.117	87.69
449.338	98.69
449.559	124.69
449.779	127.69
450	97.69
450.221	81.69
450.442	100.69
450.662	72.69
450.883	90.69
451.104	96.69
451.324	92.69
451.545	76.69
451.766	75.69
451.986	88.69
452.207	93.69
452.428	82.69
452.648	101.69
452.869	100.69
453.089	113.69
453.31	99.69
453.53	81.69
453.751	92.69
453.971	93.69
454.192	117.69
454.412	98.69
454.633	84.69
454.853	88.69
455.073	81.69
455.294	76.69
455.514	99.69
455.734	87.69
455.955	87.69
456.175	84.69
456.395	83.69
456.616	89.69
456.836	85.69
457.056	95.69
457.276	87.69
457.497	84.69
457.717	87.69
457.937	83.69
458.157	81.69
458.377	89.69
458.598	89.69
458.818	127.69
459.038	152.69
459.258	97.69
459.478	69.69
459.698	83.69
459.918	85.69
460.138	80.69
460.358	87.69
460.578	74.69
460.798	89.69
461.018	99.69
461.238	93.69
461.458	82.69
461.678	95.69
461.898	84.69
462.118	73.69
462.338	83.69
462.558	83.69
462.777	69.69
462.997	79.69
463.217	100.69
463.437	90.69
463.657	94.69
463.876	79.69
464.096	89.69
464.316	86.69
464.536	95.69
464.755	87.69
464.975	91.69
465.195	157.69
465.414	133.69
465.634	80.69
465.854	75.69
466.073	61.69
466.293	84.69
466.512	91.69
466.732	88.69
466.951	94.69
467.171	103.69
467.391	82.69
467.61	106.69
467.829	83.69
468.049	87.69
468.268	96.69
468.488	95.69
468.707	80.69
468.927	81.69
469.146	83.69
469.365	99.69
469.585	86.69
469.804	85.69
470.023	92.69
470.243	83.69
470.462	99.69
470.681	112.69
470.901	97.69
471.12	95.69
471.339	87.69
471.558	80.69
471.777	88.69
471.997	80.69
472.216	116.69
472.435	149.69
472.654	103.69
472.873	86.69
473.092	86.69
473.311	98.69
473.53	89.69
473.749	85.69
473.968	80.69
474.187	76.69
474.406	91.69
474.625	79.69
474.844	81.69
475.063	96.69
475.282	78.69
475.501	85.69
475.72	79.69
475.939	90.69
476.158	82.69
476.377	89.69
476.596	77.69
476.814	97.69
477.033	88.69
477.252	87.69
477.471	84.69
477.69	86.69
477.908	95.69
478.127	90.69
478.346	97.69
478.564	90.69
478.783	97.69
479.002	93.69
479.22	89.69
479.439	82.69
479.658	102.69
479.876	91.69
480.095	92.69
480.313	99.69
480.532	89.69
480.751	92.69
480.969	117.69
481.188	219.69
481.406	134.69
481.624	96.69
481.843	93.69
482.061	83.69
482.28	79.69
482.498	96.69
482.717	91.69
482.935	95.69
483.153	89.69
483.372	92.69
483.59	97.69
483.808	87.69
484.027	90.69
484.245	99.69
484.463	96.69
484.681	90.69
484.9	103.69
485.118	94.69
485.336	91.69
485.554	103.69
485.772	89.69
485.99	107.69
486.209	105.69
486.427	104.69
486.645	100.69
486.863	102.69
487.081	109.69
487.299	91.69
487.517	98.69
487.735	81.69
487.953	89.69
488.171	83.69
488.389	102.69
488.607	101.69
488.825	68.69
489.043	88.69
489.261	90.69
489.479	90.69
489.696	71.69
489.914	92.69
490.132	88.69
490.35	85.69
490.568	92.69
490.786	85.69
491.003	97.69
491.221	94.69
491.439	71.69
491.657	91.69
491.874	93.69
492.092	67.69
492.31	85.69
492.527	79.69
492.745	72.69
492.963	92.69
493.18	77.69
493.398	89.69
493.615	102.69
493.833	98.69
494.05	85.69
494.268	80.69
494.485	83.69
494.703	79.69
494.92	93.69
495.138	87.69
495.355	90.69
495.573	95.69
495.79	95.69
496.008	96.69
496.225	88.69
496.442	99.69
496.66	97.69
496.877	92.69
497.094	101.69
497.312	95.69
497.529	84.69
497.746	88.69
497.963	86.69
498.181	95.69
498.398	98.69
498.615	106.69
498.832	87.69
499.049	81.69
499.267	89.69
499.484	102.69
499.701	89.69
499.918	83.69
500.135	95.69
500.352	89.69
500.569	90.69
500.786	79.69
501.003	89.69
501.22	83.69
501.437	84.69
501.654	92.69
501.871	95.69
502.088	95.69
502.305	80.69
502.522	76.69
502.739	87.69
502.956	83.69
503.172	81.69
503.389	98.69
503.606	101.69
503.823	94.69
504.04	89.69
504.256	89.69
504.473	75.69
504.69	85.69
504.907	89.69
505.123	95.69
505.34	95.69
505.557	87.69
505.773	103.69
505.99	96.69
506.207	81.69
506.423	99.69
506.64	100.69
506.856	94.69
507.073	106.69
507.289	84.69
507.506	97.69
507.722	105.69
507.939	108.69
508.155	99.69
508.372	90.69
508.588	87.69
508.805	95.69
509.021	97.69
509.238	103.69
509.454	109.69
509.67	98.69
509.887	108.69
510.103	107.69
510.319	199.69
510.536	691.69
510.752	2038.69
510.968	543.69
511.184	138.69
511.401	113.69
511.617	98.69
511.833	92.69
512.049	92.69
512.265	95.69
512.481	96.69
512.698	99.69
512.914	94.69
513.13	91.69
513.346	95.69
513.562	95.69
513.778	90.69
513.994	95.69
514.21	94.69
514.426	114.69
514.642	128.69
514.858	120.69
515.074	135.69
515.29	376.69
515.506	1174.69
515.721	426.69
515.937	143.69
516.153	100.69
516.369	104.69
