Data from Uncirc_1982_H10_HRD10591_00096.txt Node
Date: Wed Jan 03 12:29:44 EST 2024
User: Yrep
Spectrometer: HR+D1059
Trigger mode: 1
Integration Time (sec): 1.000000E-1
Scans to average: 1
Electric dark correction enabled: true
Nonlinearity correction enabled: false
Boxcar width: 0
XAxis mode: Wavelengths
Number of Pixels in Spectrum: 2048
>>>>>Begin Spectral Data<<<<<
223.165	-26.81
223.4	-26.81
223.635	-26.81
223.869	-6.81
224.104	-27.81
224.338	-8.81
224.573	-17.81
224.808	-23.81
225.042	1.19
225.277	-6.81
225.511	-7.81
225.746	-0.81
225.98	6.19
226.215	16.19
226.449	9.19
226.683	34.19
226.918	36.19
227.152	24.19
227.387	28.19
227.621	36.19
227.856	48.19
228.09	40.19
228.324	42.19
228.559	46.19
228.793	65.19
229.027	58.19
229.262	65.19
229.496	65.19
229.73	84.19
229.964	83.19
230.199	72.19
230.433	75.19
230.667	79.19
230.901	74.19
231.136	73.19
231.37	80.19
231.604	82.19
231.838	84.19
232.072	75.19
232.306	69.19
232.541	64.19
232.775	62.19
233.009	86.19
233.243	59.19
233.477	74.19
233.711	73.19
233.945	86.19
234.179	87.19
234.413	79.19
234.647	86.19
234.881	80.19
235.115	64.19
235.349	77.19
235.583	72.19
235.817	65.19
236.051	87.19
236.285	83.19
236.519	71.19
236.753	74.19
236.987	75.19
237.221	71.19
237.455	71.19
237.689	88.19
237.922	72.19
238.156	75.19
238.39	64.19
238.624	67.19
238.858	76.19
239.091	72.19
239.325	73.19
239.559	71.19
239.793	78.19
240.027	73.19
240.26	77.19
240.494	80.19
240.728	71.19
240.961	72.19
241.195	65.19
241.429	69.19
241.662	80.19
241.896	80.19
242.13	68.19
242.363	68.19
242.597	71.19
242.83	78.19
243.064	80.19
243.298	67.19
243.531	67.19
243.765	75.19
243.998	72.19
244.232	76.19
244.465	80.19
244.699	63.19
244.932	74.19
245.166	87.19
245.399	101.19
245.633	85.19
245.866	79.19
246.099	69.19
246.333	75.19
246.566	67.19
246.8	80.19
247.033	87.19
247.266	83.19
247.5	74.19
247.733	75.19
247.966	72.19
248.2	78.19
248.433	74.19
248.666	72.19
248.899	66.19
249.133	79.19
249.366	99.19
249.599	88.19
249.832	75.19
250.066	88.19
250.299	62.19
250.532	69.19
250.765	95.19
250.998	83.19
251.231	71.19
251.465	67.19
251.698	70.19
251.931	79.19
252.164	90.19
252.397	71.19
252.63	81.19
252.863	76.19
253.096	72.19
253.329	82.19
253.562	90.19
253.795	84.19
254.028	85.19
254.261	82.19
254.494	82.19
254.727	82.19
254.96	84.19
255.193	96.19
255.426	57.19
255.659	70.19
255.892	79.19
256.124	86.19
256.357	66.19
256.59	75.19
256.823	70.19
257.056	77.19
257.289	77.19
257.521	83.19
257.754	81.19
257.987	81.19
258.22	80.19
258.452	62.19
258.685	75.19
258.918	74.19
259.151	78.19
259.383	78.19
259.616	98.19
259.849	72.19
260.081	92.19
260.314	92.19
260.547	81.19
260.779	70.19
261.012	68.19
261.244	84.19
261.477	84.19
261.71	84.19
261.942	97.19
262.175	99.19
262.407	80.19
262.64	94.19
262.872	66.19
263.105	91.19
263.337	76.19
263.57	70.19
263.802	89.19
264.035	78.19
264.267	85.19
264.499	91.19
264.732	87.19
264.964	80.19
265.197	95.19
265.429	80.19
265.661	89.19
265.894	72.19
266.126	86.19
266.358	68.19
266.591	76.19
266.823	72.19
267.055	94.19
267.287	85.19
267.52	83.19
267.752	81.19
267.984	85.19
268.216	75.19
268.448	91.19
268.681	72.19
268.913	90.19
269.145	78.19
269.377	74.19
269.609	83.19
269.841	87.19
270.073	84.19
270.306	80.19
270.538	85.19
270.77	89.19
271.002	83.19
271.234	99.19
271.466	95.19
271.698	79.19
271.93	69.19
272.162	82.19
272.394	99.19
272.626	90.19
272.858	73.19
273.09	88.19
273.322	88.19
273.553	92.19
273.785	94.19
274.017	98.19
274.249	80.19
274.481	90.19
274.713	86.19
274.945	87.19
275.176	74.19
275.408	69.19
275.64	89.19
275.872	79.19
276.104	88.19
276.335	90.19
276.567	88.19
276.799	101.19
277.031	93.19
277.262	74.19
277.494	77.19
277.726	90.19
277.957	80.19
278.189	80.19
278.421	87.19
278.652	90.19
278.884	78.19
279.115	87.19
279.347	78.19
279.579	86.19
279.81	83.19
280.042	83.19
280.273	81.19
280.505	87.19
280.736	72.19
280.968	82.19
281.199	94.19
281.431	75.19
281.662	73.19
281.894	74.19
282.125	80.19
282.356	112.19
282.588	129.19
282.819	115.19
283.051	81.19
283.282	78.19
283.513	72.19
283.745	98.19
283.976	79.19
284.207	80.19
284.439	83.19
284.67	91.19
284.901	99.19
285.132	79.19
285.364	85.19
285.595	72.19
285.826	92.19
286.057	98.19
286.288	80.19
286.52	90.19
286.751	99.19
286.982	79.19
287.213	81.19
287.444	95.19
287.675	96.19
287.906	94.19
288.138	89.19
288.369	87.19
288.6	83.19
288.831	83.19
289.062	71.19
289.293	82.19
289.524	86.19
289.755	86.19
289.986	82.19
290.217	76.19
290.448	88.19
290.679	91.19
290.91	106.19
291.141	85.19
291.371	97.19
291.602	71.19
291.833	87.19
292.064	78.19
292.295	80.19
292.526	89.19
292.757	88.19
292.987	86.19
293.218	80.19
293.449	78.19
293.68	100.19
293.91	85.19
294.141	92.19
294.372	86.19
294.603	96.19
294.833	79.19
295.064	95.19
295.295	80.19
295.525	96.19
295.756	90.19
295.987	97.19
296.217	112.19
296.448	116.19
296.679	75.19
296.909	101.19
297.14	97.19
297.37	79.19
297.601	91.19
297.831	80.19
298.062	80.19
298.292	86.19
298.523	79.19
298.753	66.19
298.984	84.19
299.214	99.19
299.445	92.19
299.675	78.19
299.905	90.19
300.136	86.19
300.366	73.19
300.597	80.19
300.827	95.19
301.057	90.19
301.288	96.19
301.518	90.19
301.748	80.19
301.979	93.19
302.209	79.19
302.439	81.19
302.669	97.19
302.9	86.19
303.13	88.19
303.36	86.19
303.59	94.19
303.82	108.19
304.051	91.19
304.281	99.19
304.511	73.19
304.741	87.19
304.971	83.19
305.201	98.19
305.431	67.19
305.661	83.19
305.891	82.19
306.121	92.19
306.352	97.19
306.582	78.19
306.812	86.19
307.042	95.19
307.272	90.19
307.502	94.19
307.731	91.19
307.961	96.19
308.191	94.19
308.421	100.19
308.651	89.19
308.881	74.19
309.111	99.19
309.341	92.19
309.571	85.19
309.8	86.19
310.03	86.19
310.26	87.19
310.49	102.19
310.72	87.19
310.949	95.19
311.179	107.19
311.409	94.19
311.639	92.19
311.868	101.19
312.098	87.19
312.328	98.19
312.557	99.19
312.787	103.19
313.017	95.19
313.246	90.19
313.476	84.19
313.706	92.19
313.935	88.19
314.165	76.19
314.394	88.19
314.624	106.19
314.853	75.19
315.083	89.19
315.312	94.19
315.542	83.19
315.771	85.19
316.001	86.19
316.23	95.19
316.46	84.19
316.689	84.19
316.919	91.19
317.148	100.19
317.377	96.19
317.607	91.19
317.836	99.19
318.065	91.19
318.295	88.19
318.524	82.19
318.753	97.19
318.983	95.19
319.212	99.19
319.441	99.19
319.67	99.19
319.9	95.19
320.129	94.19
320.358	87.19
320.587	96.19
320.816	82.19
321.046	101.19
321.275	80.19
321.504	96.19
321.733	90.19
321.962	100.19
322.191	97.19
322.42	103.19
322.649	116.19
322.878	111.19
323.108	101.19
323.337	114.19
323.566	115.19
323.795	131.19
324.024	181.19
324.253	368.19
324.482	763.19
324.71	1591.19
324.939	2168.19
325.168	771.19
325.397	219.19
325.626	136.19
325.855	121.19
326.084	118.19
326.313	131.19
326.542	148.19
326.77	205.19
326.999	433.19
327.228	899.19
327.457	1718.19
327.686	1345.19
327.914	356.19
328.143	180.19
328.372	151.19
328.6	112.19
328.829	110.19
329.058	106.19
329.287	123.19
329.515	109.19
329.744	92.19
329.972	103.19
330.201	111.19
330.43	115.19
330.658	100.19
330.887	113.19
331.115	98.19
331.344	91.19
331.572	112.19
331.801	99.19
332.03	113.19
332.258	89.19
332.486	99.19
332.715	97.19
332.943	94.19
333.172	97.19
333.4	91.19
333.629	103.19
333.857	94.19
334.085	107.19
334.314	106.19
334.542	130.19
334.771	128.19
334.999	99.19
335.227	93.19
335.455	89.19
335.684	103.19
335.912	88.19
336.14	102.19
336.369	91.19
336.597	90.19
336.825	93.19
337.053	90.19
337.281	97.19
337.51	107.19
337.738	85.19
337.966	101.19
338.194	99.19
338.422	98.19
338.65	90.19
338.878	79.19
339.106	82.19
339.334	92.19
339.562	97.19
339.79	83.19
340.018	90.19
340.246	93.19
340.474	96.19
340.702	80.19
340.93	94.19
341.158	89.19
341.386	99.19
341.614	98.19
341.842	96.19
342.07	84.19
342.298	89.19
342.526	90.19
342.754	94.19
342.981	82.19
343.209	90.19
343.437	91.19
343.665	85.19
343.893	95.19
344.12	80.19
344.348	87.19
344.576	77.19
344.804	72.19
345.031	102.19
345.259	99.19
345.487	93.19
345.714	90.19
345.942	93.19
346.17	108.19
346.397	90.19
346.625	93.19
346.853	99.19
347.08	76.19
347.308	102.19
347.535	79.19
347.763	94.19
347.99	95.19
348.218	97.19
348.445	98.19
348.673	96.19
348.9	84.19
349.128	104.19
349.355	82.19
349.583	107.19
349.81	99.19
350.037	91.19
350.265	93.19
350.492	90.19
350.72	96.19
350.947	100.19
351.174	100.19
351.402	96.19
351.629	89.19
351.856	98.19
352.083	106.19
352.311	96.19
352.538	103.19
352.765	110.19
352.992	103.19
353.22	100.19
353.447	113.19
353.674	90.19
353.901	94.19
354.128	107.19
354.355	108.19
354.583	96.19
354.81	90.19
355.037	86.19
355.264	78.19
355.491	100.19
355.718	91.19
355.945	99.19
356.172	103.19
356.399	96.19
356.626	97.19
356.853	101.19
357.08	78.19
357.307	82.19
357.534	86.19
357.761	74.19
357.988	80.19
358.215	92.19
358.441	100.19
358.668	97.19
358.895	79.19
359.122	88.19
359.349	97.19
359.576	102.19
359.802	85.19
360.029	99.19
360.256	95.19
360.483	89.19
360.709	95.19
360.936	85.19
361.163	99.19
361.39	95.19
361.616	87.19
361.843	85.19
362.07	103.19
362.296	84.19
362.523	89.19
362.749	80.19
362.976	86.19
363.203	88.19
363.429	76.19
363.656	90.19
363.882	70.19
364.109	86.19
364.335	90.19
364.562	86.19
364.788	85.19
365.015	88.19
365.241	89.19
365.468	87.19
365.694	98.19
365.92	88.19
366.147	86.19
366.373	97.19
366.599	89.19
366.826	74.19
367.052	82.19
367.278	95.19
367.505	85.19
367.731	83.19
367.957	90.19
368.184	86.19
368.41	91.19
368.636	92.19
368.862	108.19
369.089	105.19
369.315	90.19
369.541	82.19
369.767	91.19
369.993	98.19
370.219	94.19
370.445	90.19
370.672	91.19
370.898	99.19
371.124	92.19
371.35	87.19
371.576	90.19
371.802	81.19
372.028	100.19
372.254	95.19
372.48	76.19
372.706	84.19
372.932	90.19
373.158	102.19
373.384	89.19
373.61	86.19
373.835	76.19
374.061	82.19
374.287	84.19
374.513	89.19
374.739	97.19
374.965	96.19
375.191	84.19
375.416	80.19
375.642	84.19
375.868	92.19
376.094	100.19
376.319	91.19
376.545	79.19
376.771	75.19
376.997	87.19
377.222	84.19
377.448	82.19
377.674	78.19
377.899	97.19
378.125	67.19
378.35	104.19
378.576	82.19
378.802	85.19
379.027	89.19
379.253	98.19
379.478	99.19
379.704	86.19
379.929	95.19
380.155	78.19
380.38	90.19
380.606	97.19
380.831	87.19
381.057	100.19
381.282	87.19
381.507	92.19
381.733	91.19
381.958	92.19
382.184	94.19
382.409	100.19
382.634	101.19
382.86	110.19
383.085	99.19
383.31	98.19
383.535	87.19
383.761	108.19
383.986	96.19
384.211	97.19
384.436	88.19
384.662	81.19
384.887	103.19
385.112	85.19
385.337	91.19
385.562	96.19
385.787	92.19
386.013	102.19
386.238	111.19
386.463	89.19
386.688	117.19
386.913	98.19
387.138	98.19
387.363	102.19
387.588	114.19
387.813	104.19
388.038	108.19
388.263	108.19
388.488	100.19
388.713	87.19
388.938	87.19
389.163	100.19
389.387	88.19
389.612	84.19
389.837	95.19
390.062	85.19
390.287	77.19
390.512	84.19
390.736	86.19
390.961	102.19
391.186	96.19
391.411	93.19
391.636	99.19
391.86	90.19
392.085	82.19
392.31	83.19
392.534	86.19
392.759	71.19
392.984	86.19
393.208	78.19
393.433	82.19
393.658	95.19
393.882	99.19
394.107	93.19
394.331	81.19
394.556	88.19
394.78	91.19
395.005	95.19
395.229	75.19
395.454	85.19
395.678	80.19
395.903	87.19
396.127	83.19
396.352	91.19
396.576	83.19
396.801	79.19
397.025	97.19
397.249	91.19
397.474	89.19
397.698	91.19
397.922	86.19
398.147	82.19
398.371	95.19
398.595	101.19
398.82	87.19
399.044	95.19
399.268	82.19
399.492	84.19
399.717	83.19
399.941	92.19
400.165	89.19
400.389	96.19
400.613	91.19
400.837	78.19
401.062	88.19
401.286	98.19
401.51	94.19
401.734	87.19
401.958	83.19
402.182	123.19
402.406	146.19
402.63	104.19
402.854	98.19
403.078	76.19
403.302	74.19
403.526	97.19
403.75	84.19
403.974	95.19
404.198	90.19
404.422	78.19
404.645	76.19
404.869	83.19
405.093	99.19
405.317	104.19
405.541	109.19
405.765	94.19
405.988	121.19
406.212	148.19
406.436	203.19
406.66	122.19
406.883	92.19
407.107	86.19
407.331	90.19
407.555	104.19
407.778	89.19
408.002	90.19
408.226	83.19
408.449	85.19
408.673	83.19
408.896	90.19
409.12	95.19
409.344	89.19
409.567	88.19
409.791	82.19
410.014	88.19
410.238	105.19
410.461	80.19
410.685	85.19
410.908	92.19
411.132	113.19
411.355	106.19
411.578	95.19
411.802	72.19
412.025	95.19
412.249	79.19
412.472	101.19
412.695	109.19
412.919	75.19
413.142	102.19
413.365	92.19
413.589	76.19
413.812	95.19
414.035	82.19
414.258	78.19
414.482	96.19
414.705	97.19
414.928	94.19
415.151	95.19
415.374	92.19
415.597	75.19
415.821	75.19
416.044	89.19
416.267	86.19
416.49	96.19
416.713	104.19
416.936	102.19
417.159	86.19
417.382	91.19
417.605	85.19
417.828	89.19
418.051	87.19
418.274	80.19
418.497	87.19
418.72	108.19
418.943	101.19
419.166	74.19
419.389	92.19
419.611	91.19
419.834	88.19
420.057	96.19
420.28	78.19
420.503	84.19
420.726	90.19
420.948	74.19
421.171	96.19
421.394	84.19
421.617	88.19
421.839	76.19
422.062	79.19
422.285	80.19
422.507	94.19
422.73	102.19
422.953	97.19
423.175	87.19
423.398	84.19
423.621	73.19
423.843	70.19
424.066	94.19
424.288	87.19
424.511	92.19
424.733	100.19
424.956	106.19
425.178	94.19
425.401	92.19
425.623	98.19
425.846	82.19
426.068	89.19
426.291	82.19
426.513	78.19
426.735	85.19
426.958	84.19
427.18	114.19
427.402	140.19
427.625	137.19
427.847	123.19
428.069	119.19
428.292	86.19
428.514	89.19
428.736	86.19
428.958	92.19
429.181	88.19
429.403	68.19
429.625	87.19
429.847	82.19
430.069	92.19
430.292	86.19
430.514	86.19
430.736	78.19
430.958	91.19
431.18	83.19
431.402	75.19
431.624	88.19
431.846	81.19
432.068	86.19
432.29	82.19
432.512	98.19
432.734	88.19
432.956	93.19
433.178	78.19
433.4	96.19
433.622	86.19
433.844	92.19
434.066	74.19
434.287	85.19
434.509	93.19
434.731	95.19
434.953	82.19
435.175	78.19
435.397	91.19
435.618	92.19
435.84	95.19
436.062	119.19
436.284	119.19
436.505	102.19
436.727	114.19
436.949	80.19
437.17	85.19
437.392	84.19
437.614	79.19
437.835	97.19
438.057	99.19
438.278	108.19
438.5	94.19
438.721	98.19
438.943	99.19
439.165	80.19
439.386	75.19
439.608	90.19
439.829	94.19
440.05	113.19
440.272	131.19
440.493	98.19
440.715	79.19
440.936	88.19
441.158	82.19
441.379	80.19
441.6	85.19
441.822	80.19
442.043	97.19
442.264	98.19
442.486	105.19
442.707	90.19
442.928	102.19
443.149	125.19
443.371	125.19
443.592	108.19
443.813	92.19
444.034	91.19
444.255	90.19
444.476	89.19
444.698	88.19
444.919	75.19
445.14	136.19
445.361	116.19
445.582	110.19
445.803	134.19
446.024	123.19
446.245	135.19
446.466	102.19
446.687	96.19
446.908	75.19
447.129	82.19
447.35	88.19
447.571	79.19
447.792	100.19
448.013	90.19
448.234	99.19
448.455	92.19
448.675	118.19
448.896	124.19
449.117	99.19
449.338	94.19
449.559	106.19
449.779	123.19
450	95.19
450.221	93.19
450.442	90.19
450.662	89.19
450.883	95.19
451.104	97.19
451.324	82.19
451.545	71.19
451.766	91.19
451.986	95.19
452.207	90.19
452.428	99.19
452.648	104.19
452.869	109.19
453.089	107.19
453.31	106.19
453.53	96.19
453.751	88.19
453.971	111.19
454.192	111.19
454.412	84.19
454.633	75.19
454.853	80.19
455.073	86.19
455.294	83.19
455.514	86.19
455.734	88.19
455.955	90.19
456.175	71.19
456.395	81.19
456.616	90.19
456.836	65.19
457.056	68.19
457.276	89.19
457.497	85.19
457.717	87.19
457.937	76.19
458.157	88.19
458.377	102.19
458.598	103.19
458.818	112.19
459.038	132.19
459.258	95.19
459.478	88.19
459.698	87.19
459.918	86.19
460.138	88.19
460.358	85.19
460.578	85.19
460.798	98.19
461.018	82.19
461.238	87.19
461.458	79.19
461.678	83.19
461.898	97.19
462.118	79.19
462.338	87.19
462.558	88.19
462.777	74.19
462.997	86.19
463.217	75.19
463.437	73.19
463.657	90.19
463.876	82.19
464.096	70.19
464.316	88.19
464.536	93.19
464.755	98.19
464.975	96.19
465.195	138.19
465.414	128.19
465.634	90.19
465.854	92.19
466.073	87.19
466.293	80.19
466.512	91.19
466.732	88.19
466.951	82.19
467.171	91.19
467.391	100.19
467.61	97.19
467.829	94.19
468.049	88.19
468.268	106.19
468.488	82.19
468.707	93.19
468.927	91.19
469.146	76.19
469.365	75.19
469.585	91.19
469.804	87.19
470.023	94.19
470.243	90.19
470.462	102.19
470.681	97.19
470.901	74.19
471.12	92.19
471.339	80.19
471.558	84.19
471.777	87.19
471.997	106.19
472.216	96.19
472.435	122.19
472.654	107.19
472.873	82.19
473.092	89.19
473.311	72.19
473.53	62.19
473.749	84.19
473.968	90.19
474.187	95.19
474.406	98.19
474.625	74.19
474.844	80.19
475.063	82.19
475.282	72.19
475.501	86.19
475.72	102.19
475.939	94.19
476.158	85.19
476.377	89.19
476.596	88.19
476.814	81.19
477.033	83.19
477.252	87.19
477.471	82.19
477.69	94.19
477.908	95.19
478.127	82.19
478.346	92.19
478.564	93.19
478.783	80.19
479.002	75.19
479.22	73.19
479.439	100.19
479.658	106.19
479.876	92.19
480.095	91.19
480.313	103.19
480.532	93.19
480.751	84.19
480.969	112.19
481.188	187.19
481.406	135.19
481.624	95.19
481.843	87.19
482.061	67.19
482.28	67.19
482.498	68.19
482.717	96.19
482.935	88.19
483.153	90.19
483.372	78.19
483.59	90.19
483.808	106.19
484.027	97.19
484.245	99.19
484.463	98.19
484.681	94.19
484.9	85.19
485.118	89.19
485.336	106.19
485.554	101.19
485.772	96.19
485.99	93.19
486.209	101.19
486.427	103.19
486.645	84.19
486.863	107.19
487.081	103.19
487.299	97.19
487.517	103.19
487.735	90.19
487.953	94.19
488.171	104.19
488.389	105.19
488.607	91.19
488.825	93.19
489.043	91.19
489.261	86.19
489.479	89.19
489.696	71.19
489.914	80.19
490.132	85.19
490.35	80.19
490.568	91.19
490.786	85.19
491.003	97.19
491.221	91.19
491.439	95.19
491.657	81.19
491.874	96.19
492.092	94.19
492.31	101.19
492.527	79.19
492.745	90.19
492.963	76.19
493.18	94.19
493.398	83.19
493.615	94.19
493.833	105.19
494.05	88.19
494.268	96.19
494.485	84.19
494.703	72.19
494.92	95.19
495.138	98.19
495.355	100.19
495.573	89.19
495.79	82.19
496.008	89.19
496.225	88.19
496.442	80.19
496.66	94.19
496.877	99.19
497.094	94.19
497.312	89.19
497.529	103.19
497.746	98.19
497.963	87.19
498.181	81.19
498.398	83.19
498.615	114.19
498.832	101.19
499.049	78.19
499.267	86.19
499.484	73.19
499.701	82.19
499.918	78.19
500.135	93.19
500.352	85.19
500.569	105.19
500.786	82.19
501.003	88.19
501.22	96.19
501.437	96.19
501.654	83.19
501.871	89.19
502.088	73.19
502.305	74.19
502.522	86.19
502.739	78.19
502.956	86.19
503.172	100.19
503.389	90.19
503.606	106.19
503.823	80.19
504.04	85.19
504.256	91.19
504.473	99.19
504.69	78.19
504.907	90.19
505.123	88.19
505.34	94.19
505.557	82.19
505.773	84.19
505.99	93.19
506.207	76.19
506.423	103.19
506.64	94.19
506.856	84.19
507.073	83.19
507.289	78.19
507.506	96.19
507.722	109.19
507.939	102.19
508.155	107.19
508.372	91.19
508.588	88.19
508.805	99.19
509.021	98.19
509.238	88.19
509.454	103.19
509.67	96.19
509.887	96.19
510.103	119.19
510.319	210.19
510.536	663.19
510.752	1968.19
510.968	552.19
511.184	129.19
511.401	110.19
511.617	100.19
511.833	90.19
512.049	97.19
512.265	86.19
512.481	86.19
512.698	94.19
512.914	94.19
513.13	94.19
513.346	89.19
513.562	87.19
513.778	93.19
513.994	91.19
514.21	90.19
514.426	98.19
514.642	124.19
514.858	118.19
515.074	136.19
515.29	370.19
515.506	1133.19
515.721	426.19
515.937	142.19
516.153	107.19
516.369	94.19
516.585	82.19
516.801	80.19
