Data from Uncirc_1982_H10_HRD10591_00061.txt Node
Date: Wed Jan 03 12:29:37 EST 2024
User: Yrep
Spectrometer: HR+D1059
Trigger mode: 1
Integration Time (sec): 1.000000E-1
Scans to average: 1
Electric dark correction enabled: true
Nonlinearity correction enabled: false
Boxcar width: 0
XAxis mode: Wavelengths
Number of Pixels in Spectrum: 2048
>>>>>Begin Spectral Data<<<<<
223.165	-19.19
223.4	-19.19
223.635	-19.19
223.869	-11.19
224.104	-7.19
224.338	-6.19
224.573	-6.19
224.808	-13.19
225.042	-8.19
225.277	-17.19
225.511	-10.19
225.746	-2.19
225.98	3.81
226.215	6.81
226.449	19.81
226.683	16.81
226.918	26.81
227.152	26.81
227.387	29.81
227.621	32.81
227.856	39.81
228.09	28.81
228.324	36.81
228.559	44.81
228.793	61.81
229.027	67.81
229.262	63.81
229.496	65.81
229.73	66.81
229.964	74.81
230.199	55.81
230.433	61.81
230.667	70.81
230.901	76.81
231.136	73.81
231.37	50.81
231.604	80.81
231.838	93.81
232.072	78.81
232.306	78.81
232.541	90.81
232.775	79.81
233.009	79.81
233.243	77.81
233.477	70.81
233.711	80.81
233.945	80.81
234.179	77.81
234.413	81.81
234.647	74.81
234.881	57.81
235.115	64.81
235.349	89.81
235.583	71.81
235.817	74.81
236.051	76.81
236.285	80.81
236.519	73.81
236.753	72.81
236.987	80.81
237.221	68.81
237.455	80.81
237.689	80.81
237.922	68.81
238.156	70.81
238.39	72.81
238.624	66.81
238.858	71.81
239.091	66.81
239.325	68.81
239.559	71.81
239.793	70.81
240.027	73.81
240.26	69.81
240.494	74.81
240.728	78.81
240.961	74.81
241.195	68.81
241.429	77.81
241.662	78.81
241.896	62.81
242.13	82.81
242.363	81.81
242.597	80.81
242.83	84.81
243.064	69.81
243.298	65.81
243.531	68.81
243.765	71.81
243.998	74.81
244.232	87.81
244.465	80.81
244.699	87.81
244.932	72.81
245.166	72.81
245.399	73.81
245.633	71.81
245.866	80.81
246.099	73.81
246.333	78.81
246.566	79.81
246.8	64.81
247.033	69.81
247.266	54.81
247.5	69.81
247.733	63.81
247.966	78.81
248.2	80.81
248.433	81.81
248.666	71.81
248.899	84.81
249.133	88.81
249.366	63.81
249.599	88.81
249.832	80.81
250.066	58.81
250.299	61.81
250.532	74.81
250.765	72.81
250.998	61.81
251.231	88.81
251.465	80.81
251.698	80.81
251.931	87.81
252.164	68.81
252.397	69.81
252.63	69.81
252.863	65.81
253.096	80.81
253.329	69.81
253.562	84.81
253.795	84.81
254.028	79.81
254.261	69.81
254.494	95.81
254.727	86.81
254.96	87.81
255.193	72.81
255.426	82.81
255.659	68.81
255.892	89.81
256.124	74.81
256.357	87.81
256.59	94.81
256.823	82.81
257.056	82.81
257.289	66.81
257.521	57.81
257.754	65.81
257.987	65.81
258.22	84.81
258.452	73.81
258.685	76.81
258.918	76.81
259.151	73.81
259.383	72.81
259.616	86.81
259.849	77.81
260.081	79.81
260.314	73.81
260.547	70.81
260.779	66.81
261.012	79.81
261.244	79.81
261.477	86.81
261.71	87.81
261.942	85.81
262.175	101.81
262.407	79.81
262.64	79.81
262.872	85.81
263.105	78.81
263.337	87.81
263.57	76.81
263.802	80.81
264.035	80.81
264.267	89.81
264.499	67.81
264.732	90.81
264.964	72.81
265.197	83.81
265.429	74.81
265.661	71.81
265.894	87.81
266.126	73.81
266.358	79.81
266.591	74.81
266.823	64.81
267.055	83.81
267.287	84.81
267.52	91.81
267.752	79.81
267.984	89.81
268.216	73.81
268.448	80.81
268.681	84.81
268.913	82.81
269.145	68.81
269.377	75.81
269.609	74.81
269.841	71.81
270.073	63.81
270.306	79.81
270.538	68.81
270.77	73.81
271.002	84.81
271.234	80.81
271.466	72.81
271.698	77.81
271.93	56.81
272.162	68.81
272.394	80.81
272.626	85.81
272.858	89.81
273.09	74.81
273.322	78.81
273.553	86.81
273.785	72.81
274.017	80.81
274.249	101.81
274.481	74.81
274.713	88.81
274.945	92.81
275.176	69.81
275.408	95.81
275.64	80.81
275.872	87.81
276.104	73.81
276.335	83.81
276.567	91.81
276.799	90.81
277.031	93.81
277.262	81.81
277.494	82.81
277.726	76.81
277.957	77.81
278.189	69.81
278.421	87.81
278.652	86.81
278.884	76.81
279.115	80.81
279.347	73.81
279.579	80.81
279.81	79.81
280.042	92.81
280.273	87.81
280.505	80.81
280.736	85.81
280.968	88.81
281.199	75.81
281.431	94.81
281.662	69.81
281.894	94.81
282.125	77.81
282.356	98.81
282.588	116.81
282.819	102.81
283.051	89.81
283.282	67.81
283.513	90.81
283.745	83.81
283.976	78.81
284.207	92.81
284.439	99.81
284.67	97.81
284.901	86.81
285.132	68.81
285.364	84.81
285.595	81.81
285.826	82.81
286.057	82.81
286.288	79.81
286.52	72.81
286.751	73.81
286.982	85.81
287.213	73.81
287.444	97.81
287.675	81.81
287.906	73.81
288.138	88.81
288.369	89.81
288.6	81.81
288.831	73.81
289.062	90.81
289.293	86.81
289.524	80.81
289.755	85.81
289.986	87.81
290.217	71.81
290.448	91.81
290.679	81.81
290.91	79.81
291.141	78.81
291.371	97.81
291.602	82.81
291.833	84.81
292.064	74.81
292.295	86.81
292.526	84.81
292.757	96.81
292.987	73.81
293.218	93.81
293.449	88.81
293.68	94.81
293.91	98.81
294.141	87.81
294.372	76.81
294.603	99.81
294.833	96.81
295.064	83.81
295.295	90.81
295.525	84.81
295.756	92.81
295.987	109.81
296.217	122.81
296.448	95.81
296.679	100.81
296.909	73.81
297.14	92.81
297.37	78.81
297.601	101.81
297.831	93.81
298.062	85.81
298.292	85.81
298.523	81.81
298.753	67.81
298.984	87.81
299.214	94.81
299.445	67.81
299.675	86.81
299.905	85.81
300.136	85.81
300.366	80.81
300.597	71.81
300.827	95.81
301.057	92.81
301.288	80.81
301.518	91.81
301.748	85.81
301.979	92.81
302.209	90.81
302.439	92.81
302.669	96.81
302.9	92.81
303.13	80.81
303.36	91.81
303.59	93.81
303.82	95.81
304.051	87.81
304.281	80.81
304.511	76.81
304.741	73.81
304.971	84.81
305.201	75.81
305.431	92.81
305.661	89.81
305.891	73.81
306.121	92.81
306.352	99.81
306.582	98.81
306.812	92.81
307.042	77.81
307.272	94.81
307.502	97.81
307.731	100.81
307.961	86.81
308.191	83.81
308.421	81.81
308.651	96.81
308.881	81.81
309.111	83.81
309.341	94.81
309.571	91.81
309.8	82.81
310.03	88.81
310.26	93.81
310.49	82.81
310.72	96.81
310.949	91.81
311.179	87.81
311.409	94.81
311.639	100.81
311.868	100.81
312.098	90.81
312.328	97.81
312.557	106.81
312.787	88.81
313.017	94.81
313.246	82.81
313.476	89.81
313.706	90.81
313.935	88.81
314.165	94.81
314.394	88.81
314.624	98.81
314.853	88.81
315.083	98.81
315.312	84.81
315.542	81.81
315.771	91.81
316.001	83.81
316.23	96.81
316.46	80.81
316.689	76.81
316.919	90.81
317.148	88.81
317.377	92.81
317.607	84.81
317.836	72.81
318.065	84.81
318.295	91.81
318.524	77.81
318.753	85.81
318.983	80.81
319.212	78.81
319.441	93.81
319.67	81.81
319.9	81.81
320.129	84.81
320.358	87.81
320.587	92.81
320.816	80.81
321.046	102.81
321.275	100.81
321.504	65.81
321.733	82.81
321.962	100.81
322.191	84.81
322.42	103.81
322.649	83.81
322.878	95.81
323.108	101.81
323.337	120.81
323.566	127.81
323.795	121.81
324.024	170.81
324.253	340.81
324.482	680.81
324.71	1360.81
324.939	1810.81
325.168	645.81
325.397	212.81
325.626	132.81
325.855	115.81
326.084	113.81
326.313	104.81
326.542	137.81
326.77	214.81
326.999	385.81
327.228	800.81
327.457	1415.81
327.686	1129.81
327.914	305.81
328.143	160.81
328.372	128.81
328.6	117.81
328.829	110.81
329.058	106.81
329.287	119.81
329.515	90.81
329.744	88.81
329.972	104.81
330.201	112.81
330.43	118.81
330.658	124.81
330.887	107.81
331.115	97.81
331.344	95.81
331.572	102.81
331.801	95.81
332.03	92.81
332.258	89.81
332.486	92.81
332.715	95.81
332.943	86.81
333.172	89.81
333.4	95.81
333.629	105.81
333.857	94.81
334.085	100.81
334.314	113.81
334.542	118.81
334.771	102.81
334.999	89.81
335.227	93.81
335.455	80.81
335.684	84.81
335.912	91.81
336.14	100.81
336.369	88.81
336.597	93.81
336.825	95.81
337.053	85.81
337.281	92.81
337.51	72.81
337.738	87.81
337.966	86.81
338.194	98.81
338.422	97.81
338.65	79.81
338.878	92.81
339.106	86.81
339.334	86.81
339.562	79.81
339.79	84.81
340.018	90.81
340.246	90.81
340.474	86.81
340.702	88.81
340.93	94.81
341.158	91.81
341.386	94.81
341.614	81.81
341.842	93.81
342.07	81.81
342.298	86.81
342.526	93.81
342.754	84.81
342.981	72.81
343.209	96.81
343.437	108.81
343.665	88.81
343.893	101.81
344.12	93.81
344.348	94.81
344.576	83.81
344.804	92.81
345.031	89.81
345.259	93.81
345.487	91.81
345.714	88.81
345.942	106.81
346.17	97.81
346.397	78.81
346.625	82.81
346.853	97.81
347.08	88.81
347.308	92.81
347.535	81.81
347.763	78.81
347.99	90.81
348.218	95.81
348.445	91.81
348.673	87.81
348.9	85.81
349.128	90.81
349.355	96.81
349.583	90.81
349.81	89.81
350.037	89.81
350.265	87.81
350.492	90.81
350.72	81.81
350.947	101.81
351.174	101.81
351.402	97.81
351.629	103.81
351.856	96.81
352.083	98.81
352.311	92.81
352.538	92.81
352.765	100.81
352.992	106.81
353.22	98.81
353.447	91.81
353.674	95.81
353.901	94.81
354.128	93.81
354.355	96.81
354.583	97.81
354.81	94.81
355.037	85.81
355.264	108.81
355.491	96.81
355.718	99.81
355.945	85.81
356.172	79.81
356.399	84.81
356.626	76.81
356.853	95.81
357.08	88.81
357.307	95.81
357.534	88.81
357.761	94.81
357.988	96.81
358.215	94.81
358.441	104.81
358.668	77.81
358.895	88.81
359.122	90.81
359.349	94.81
359.576	74.81
359.802	97.81
360.029	103.81
360.256	107.81
360.483	82.81
360.709	91.81
360.936	88.81
361.163	100.81
361.39	103.81
361.616	87.81
361.843	94.81
362.07	86.81
362.296	71.81
362.523	82.81
362.749	83.81
362.976	77.81
363.203	97.81
363.429	81.81
363.656	73.81
363.882	97.81
364.109	81.81
364.335	86.81
364.562	82.81
364.788	88.81
365.015	73.81
365.241	88.81
365.468	85.81
365.694	89.81
365.92	94.81
366.147	96.81
366.373	94.81
366.599	83.81
366.826	90.81
367.052	80.81
367.278	91.81
367.505	78.81
367.731	86.81
367.957	88.81
368.184	86.81
368.41	102.81
368.636	93.81
368.862	89.81
369.089	83.81
369.315	87.81
369.541	82.81
369.767	84.81
369.993	96.81
370.219	88.81
370.445	84.81
370.672	82.81
370.898	78.81
371.124	79.81
371.35	85.81
371.576	79.81
371.802	95.81
372.028	82.81
372.254	84.81
372.48	80.81
372.706	85.81
372.932	93.81
373.158	86.81
373.384	86.81
373.61	90.81
373.835	81.81
374.061	86.81
374.287	94.81
374.513	82.81
374.739	78.81
374.965	79.81
375.191	89.81
375.416	96.81
375.642	99.81
375.868	89.81
376.094	81.81
376.319	79.81
376.545	76.81
376.771	99.81
376.997	86.81
377.222	88.81
377.448	103.81
377.674	89.81
377.899	79.81
378.125	85.81
378.35	96.81
378.576	100.81
378.802	69.81
379.027	108.81
379.253	91.81
379.478	81.81
379.704	86.81
379.929	79.81
380.155	85.81
380.38	100.81
380.606	101.81
380.831	79.81
381.057	94.81
381.282	110.81
381.507	102.81
381.733	90.81
381.958	84.81
382.184	101.81
382.409	90.81
382.634	91.81
382.86	87.81
383.085	99.81
383.31	98.81
383.535	103.81
383.761	86.81
383.986	96.81
384.211	85.81
384.436	80.81
384.662	99.81
384.887	88.81
385.112	97.81
385.337	97.81
385.562	98.81
385.787	111.81
386.013	97.81
386.238	105.81
386.463	96.81
386.688	109.81
386.913	108.81
387.138	116.81
387.363	100.81
387.588	104.81
387.813	100.81
388.038	100.81
388.263	90.81
388.488	104.81
388.713	100.81
388.938	93.81
389.163	80.81
389.387	93.81
389.612	99.81
389.837	84.81
390.062	98.81
390.287	74.81
390.512	87.81
390.736	85.81
390.961	83.81
391.186	78.81
391.411	97.81
391.636	96.81
391.86	88.81
392.085	85.81
392.31	75.81
392.534	82.81
392.759	80.81
392.984	78.81
393.208	87.81
393.433	86.81
393.658	80.81
393.882	80.81
394.107	81.81
394.331	83.81
394.556	66.81
394.78	74.81
395.005	82.81
395.229	79.81
395.454	88.81
395.678	92.81
395.903	83.81
396.127	94.81
396.352	77.81
396.576	81.81
396.801	77.81
397.025	79.81
397.249	88.81
397.474	86.81
397.698	80.81
397.922	80.81
398.147	91.81
398.371	82.81
398.595	88.81
398.82	82.81
399.044	78.81
399.268	77.81
399.492	85.81
399.717	79.81
399.941	97.81
400.165	89.81
400.389	88.81
400.613	71.81
400.837	95.81
401.062	90.81
401.286	77.81
401.51	72.81
401.734	73.81
401.958	88.81
402.182	117.81
402.406	134.81
402.63	96.81
402.854	89.81
403.078	79.81
403.302	78.81
403.526	95.81
403.75	80.81
403.974	84.81
404.198	90.81
404.422	72.81
404.645	64.81
404.869	81.81
405.093	86.81
405.317	95.81
405.541	92.81
405.765	101.81
405.988	100.81
406.212	138.81
406.436	184.81
406.66	110.81
406.883	92.81
407.107	80.81
407.331	72.81
407.555	97.81
407.778	96.81
408.002	89.81
408.226	87.81
408.449	89.81
408.673	89.81
408.896	88.81
409.12	81.81
409.344	82.81
409.567	81.81
409.791	86.81
410.014	92.81
410.238	101.81
410.461	99.81
410.685	96.81
410.908	89.81
411.132	100.81
411.355	84.81
411.578	78.81
411.802	86.81
412.025	84.81
412.249	92.81
412.472	87.81
412.695	72.81
412.919	92.81
413.142	90.81
413.365	73.81
413.589	76.81
413.812	88.81
414.035	84.81
414.258	81.81
414.482	88.81
414.705	75.81
414.928	90.81
415.151	89.81
415.374	77.81
415.597	72.81
415.821	86.81
416.044	85.81
416.267	74.81
416.49	76.81
416.713	96.81
416.936	88.81
417.159	90.81
417.382	88.81
417.605	96.81
417.828	94.81
418.051	88.81
418.274	88.81
418.497	73.81
418.72	90.81
418.943	84.81
419.166	80.81
419.389	92.81
419.611	85.81
419.834	77.81
420.057	85.81
420.28	88.81
420.503	72.81
420.726	77.81
420.948	81.81
421.171	94.81
421.394	82.81
421.617	96.81
421.839	89.81
422.062	80.81
422.285	80.81
422.507	95.81
422.73	94.81
422.953	92.81
423.175	81.81
423.398	102.81
423.621	84.81
423.843	90.81
424.066	89.81
424.288	83.81
424.511	74.81
424.733	84.81
424.956	92.81
425.178	90.81
425.401	90.81
425.623	90.81
425.846	86.81
426.068	90.81
426.291	83.81
426.513	97.81
426.735	77.81
426.958	93.81
427.18	104.81
427.402	109.81
427.625	127.81
427.847	106.81
428.069	114.81
428.292	88.81
428.514	70.81
428.736	69.81
428.958	77.81
429.181	82.81
429.403	77.81
429.625	79.81
429.847	97.81
430.069	100.81
430.292	77.81
430.514	84.81
430.736	81.81
430.958	86.81
431.18	78.81
431.402	96.81
431.624	77.81
431.846	78.81
432.068	79.81
432.29	92.81
432.512	84.81
432.734	86.81
432.956	74.81
433.178	90.81
433.4	88.81
433.622	82.81
433.844	92.81
434.066	87.81
434.287	67.81
434.509	72.81
434.731	74.81
434.953	77.81
435.175	90.81
435.397	80.81
435.618	86.81
435.84	100.81
436.062	104.81
436.284	98.81
436.505	92.81
436.727	92.81
436.949	68.81
437.17	76.81
437.392	100.81
437.614	97.81
437.835	110.81
438.057	107.81
438.278	100.81
438.5	104.81
438.721	96.81
438.943	77.81
439.165	96.81
439.386	84.81
439.608	82.81
439.829	80.81
440.05	112.81
440.272	104.81
440.493	73.81
440.715	82.81
440.936	80.81
441.158	76.81
441.379	88.81
441.6	95.81
441.822	86.81
442.043	84.81
442.264	112.81
442.486	93.81
442.707	83.81
442.928	103.81
443.149	104.81
443.371	108.81
443.592	96.81
443.813	106.81
444.034	100.81
444.255	86.81
444.476	72.81
444.698	92.81
444.919	81.81
445.14	134.81
445.361	122.81
445.582	103.81
445.803	104.81
446.024	106.81
446.245	123.81
446.466	105.81
446.687	94.81
446.908	92.81
447.129	88.81
447.35	101.81
447.571	74.81
447.792	85.81
448.013	89.81
448.234	97.81
448.455	90.81
448.675	96.81
448.896	106.81
449.117	83.81
449.338	100.81
449.559	120.81
449.779	119.81
450	82.81
450.221	86.81
450.442	75.81
450.662	90.81
450.883	83.81
451.104	104.81
451.324	85.81
451.545	93.81
451.766	89.81
451.986	74.81
452.207	81.81
452.428	90.81
452.648	97.81
452.869	89.81
453.089	99.81
453.31	100.81
453.53	78.81
453.751	88.81
453.971	89.81
454.192	103.81
454.412	92.81
454.633	89.81
454.853	86.81
455.073	81.81
455.294	78.81
455.514	89.81
455.734	74.81
455.955	87.81
456.175	80.81
456.395	102.81
456.616	71.81
456.836	80.81
457.056	89.81
457.276	90.81
457.497	88.81
457.717	72.81
457.937	79.81
458.157	88.81
458.377	88.81
458.598	92.81
458.818	136.81
459.038	116.81
459.258	105.81
459.478	90.81
459.698	70.81
459.918	73.81
460.138	70.81
460.358	80.81
460.578	98.81
460.798	90.81
461.018	87.81
461.238	83.81
461.458	82.81
461.678	80.81
461.898	97.81
462.118	89.81
462.338	83.81
462.558	79.81
462.777	89.81
462.997	97.81
463.217	92.81
463.437	71.81
463.657	82.81
463.876	92.81
464.096	74.81
464.316	82.81
464.536	94.81
464.755	88.81
464.975	96.81
465.195	136.81
465.414	146.81
465.634	101.81
465.854	73.81
466.073	100.81
466.293	89.81
466.512	80.81
466.732	79.81
466.951	88.81
467.171	98.81
467.391	97.81
467.61	89.81
467.829	99.81
468.049	104.81
468.268	110.81
468.488	86.81
468.707	95.81
468.927	82.81
469.146	87.81
469.365	80.81
469.585	81.81
469.804	89.81
470.023	97.81
470.243	76.81
470.462	85.81
470.681	95.81
470.901	82.81
471.12	78.81
471.339	77.81
471.558	71.81
471.777	83.81
471.997	95.81
472.216	117.81
472.435	124.81
472.654	93.81
472.873	71.81
473.092	80.81
473.311	76.81
473.53	82.81
473.749	89.81
473.968	97.81
474.187	103.81
474.406	95.81
474.625	80.81
474.844	92.81
475.063	91.81
475.282	85.81
475.501	83.81
475.72	93.81
475.939	97.81
476.158	88.81
476.377	78.81
476.596	84.81
476.814	84.81
477.033	68.81
477.252	70.81
477.471	88.81
477.69	82.81
477.908	79.81
478.127	71.81
478.346	79.81
478.564	87.81
478.783	85.81
479.002	92.81
479.22	104.81
479.439	97.81
479.658	93.81
479.876	98.81
480.095	85.81
480.313	85.81
480.532	82.81
480.751	97.81
480.969	103.81
481.188	176.81
481.406	131.81
481.624	88.81
481.843	89.81
482.061	84.81
482.28	90.81
482.498	85.81
482.717	96.81
482.935	85.81
483.153	88.81
483.372	88.81
483.59	83.81
483.808	75.81
484.027	86.81
484.245	92.81
484.463	83.81
484.681	91.81
484.9	93.81
485.118	101.81
485.336	86.81
485.554	105.81
485.772	103.81
485.99	104.81
486.209	102.81
486.427	109.81
486.645	108.81
486.863	105.81
487.081	103.81
487.299	89.81
487.517	90.81
487.735	87.81
487.953	68.81
488.171	85.81
488.389	90.81
488.607	96.81
488.825	76.81
489.043	79.81
489.261	96.81
489.479	89.81
489.696	69.81
489.914	104.81
490.132	83.81
490.35	80.81
490.568	84.81
490.786	80.81
491.003	79.81
491.221	85.81
491.439	85.81
491.657	88.81
491.874	93.81
492.092	72.81
492.31	92.81
492.527	86.81
492.745	80.81
492.963	74.81
493.18	84.81
493.398	98.81
493.615	89.81
493.833	101.81
494.05	92.81
494.268	87.81
494.485	100.81
494.703	74.81
494.92	76.81
495.138	95.81
495.355	87.81
495.573	73.81
495.79	93.81
496.008	89.81
496.225	76.81
496.442	84.81
496.66	86.81
496.877	79.81
497.094	86.81
497.312	92.81
497.529	88.81
497.746	97.81
497.963	93.81
498.181	68.81
498.398	95.81
498.615	106.81
498.832	103.81
499.049	91.81
499.267	96.81
499.484	82.81
499.701	88.81
499.918	84.81
500.135	89.81
500.352	84.81
500.569	92.81
500.786	99.81
501.003	103.81
501.22	88.81
501.437	90.81
501.654	98.81
501.871	90.81
502.088	85.81
502.305	84.81
502.522	88.81
502.739	84.81
502.956	101.81
503.172	100.81
503.389	96.81
503.606	97.81
503.823	83.81
504.04	82.81
504.256	88.81
504.473	83.81
504.69	85.81
504.907	79.81
505.123	96.81
505.34	86.81
505.557	85.81
505.773	98.81
505.99	81.81
506.207	83.81
506.423	83.81
506.64	96.81
506.856	77.81
507.073	99.81
507.289	94.81
507.506	93.81
507.722	90.81
507.939	96.81
508.155	88.81
508.372	98.81
508.588	92.81
508.805	83.81
509.021	100.81
509.238	84.81
509.454	86.81
509.67	104.81
509.887	93.81
510.103	119.81
510.319	187.81
510.536	638.81
510.752	1899.81
510.968	538.81
511.184	136.81
511.401	96.81
511.617	96.81
511.833	82.81
512.049	87.81
512.265	79.81
512.481	89.81
512.698	89.81
512.914	88.81
513.13	89.81
513.346	90.81
513.562	82.81
513.778	89.81
513.994	86.81
514.21	87.81
514.426	99.81
514.642	113.81
514.858	110.81
515.074	133.81
515.29	352.81
515.506	1104.81
515.721	415.81
515.937	120.81
516.153	103.81
516.369	92.81
516.585	93.81
516.801	90.81
517.016	89.81
517.232	98.81
517.448	87.81
