Data from Uncirc_1982_H10_HRD10591_00088.txt Node
Date: Wed Jan 03 12:29:42 EST 2024
User: Yrep
Spectrometer: HR+D1059
Trigger mode: 1
Integration Time (sec): 1.000000E-1
Scans to average: 1
Electric dark correction enabled: true
Nonlinearity correction enabled: false
Boxcar width: 0
XAxis mode: Wavelengths
Number of Pixels in Spectrum: 2048
>>>>>Begin Spectral Data<<<<<
223.165	-17.5
223.4	-17.5
223.635	-17.5
223.869	-18.5
224.104	-7.5
224.338	-13.5
224.573	-10.5
224.808	-18.5
225.042	-5.5
225.277	-12.5
225.511	-0.5
225.746	8.5
225.98	2.5
226.215	1.5
226.449	21.5
226.683	19.5
226.918	19.5
227.152	31.5
227.387	39.5
227.621	51.5
227.856	49.5
228.09	59.5
228.324	55.5
228.559	70.5
228.793	50.5
229.027	64.5
229.262	64.5
229.496	72.5
229.73	88.5
229.964	80.5
230.199	90.5
230.433	86.5
230.667	91.5
230.901	83.5
231.136	85.5
231.37	85.5
231.604	77.5
231.838	74.5
232.072	81.5
232.306	84.5
232.541	79.5
232.775	82.5
233.009	78.5
233.243	80.5
233.477	91.5
233.711	71.5
233.945	69.5
234.179	67.5
234.413	85.5
234.647	93.5
234.881	92.5
235.115	90.5
235.349	77.5
235.583	89.5
235.817	70.5
236.051	89.5
236.285	94.5
236.519	89.5
236.753	83.5
236.987	83.5
237.221	87.5
237.455	88.5
237.689	86.5
237.922	84.5
238.156	74.5
238.39	83.5
238.624	79.5
238.858	86.5
239.091	75.5
239.325	89.5
239.559	73.5
239.793	83.5
240.027	76.5
240.26	73.5
240.494	71.5
240.728	84.5
240.961	83.5
241.195	87.5
241.429	72.5
241.662	71.5
241.896	78.5
242.13	78.5
242.363	75.5
242.597	91.5
242.83	72.5
243.064	71.5
243.298	80.5
243.531	76.5
243.765	87.5
243.998	74.5
244.232	80.5
244.465	80.5
244.699	78.5
244.932	66.5
245.166	85.5
245.399	84.5
245.633	84.5
245.866	69.5
246.099	76.5
246.333	93.5
246.566	92.5
246.8	79.5
247.033	88.5
247.266	68.5
247.5	85.5
247.733	80.5
247.966	67.5
248.2	83.5
248.433	73.5
248.666	78.5
248.899	81.5
249.133	90.5
249.366	80.5
249.599	91.5
249.832	69.5
250.066	91.5
250.299	92.5
250.532	91.5
250.765	89.5
250.998	85.5
251.231	73.5
251.465	79.5
251.698	81.5
251.931	90.5
252.164	70.5
252.397	83.5
252.63	77.5
252.863	72.5
253.096	76.5
253.329	75.5
253.562	85.5
253.795	85.5
254.028	86.5
254.261	87.5
254.494	76.5
254.727	97.5
254.96	78.5
255.193	76.5
255.426	83.5
255.659	94.5
255.892	79.5
256.124	93.5
256.357	77.5
256.59	90.5
256.823	96.5
257.056	93.5
257.289	79.5
257.521	87.5
257.754	108.5
257.987	89.5
258.22	75.5
258.452	85.5
258.685	78.5
258.918	85.5
259.151	97.5
259.383	93.5
259.616	97.5
259.849	86.5
260.081	90.5
260.314	87.5
260.547	63.5
260.779	75.5
261.012	83.5
261.244	78.5
261.477	87.5
261.71	114.5
261.942	103.5
262.175	112.5
262.407	102.5
262.64	83.5
262.872	79.5
263.105	93.5
263.337	96.5
263.57	89.5
263.802	89.5
264.035	83.5
264.267	75.5
264.499	89.5
264.732	81.5
264.964	84.5
265.197	85.5
265.429	85.5
265.661	84.5
265.894	83.5
266.126	93.5
266.358	84.5
266.591	83.5
266.823	76.5
267.055	93.5
267.287	73.5
267.52	83.5
267.752	83.5
267.984	91.5
268.216	92.5
268.448	89.5
268.681	86.5
268.913	89.5
269.145	85.5
269.377	96.5
269.609	94.5
269.841	84.5
270.073	87.5
270.306	95.5
270.538	84.5
270.77	89.5
271.002	85.5
271.234	81.5
271.466	79.5
271.698	89.5
271.93	95.5
272.162	73.5
272.394	85.5
272.626	79.5
272.858	87.5
273.09	99.5
273.322	82.5
273.553	85.5
273.785	72.5
274.017	89.5
274.249	92.5
274.481	83.5
274.713	90.5
274.945	92.5
275.176	96.5
275.408	95.5
275.64	94.5
275.872	80.5
276.104	96.5
276.335	100.5
276.567	91.5
276.799	107.5
277.031	108.5
277.262	84.5
277.494	83.5
277.726	78.5
277.957	99.5
278.189	93.5
278.421	96.5
278.652	89.5
278.884	101.5
279.115	83.5
279.347	93.5
279.579	87.5
279.81	73.5
280.042	93.5
280.273	85.5
280.505	79.5
280.736	94.5
280.968	84.5
281.199	106.5
281.431	87.5
281.662	92.5
281.894	96.5
282.125	94.5
282.356	107.5
282.588	109.5
282.819	106.5
283.051	92.5
283.282	89.5
283.513	90.5
283.745	95.5
283.976	93.5
284.207	96.5
284.439	88.5
284.67	93.5
284.901	102.5
285.132	92.5
285.364	75.5
285.595	87.5
285.826	91.5
286.057	88.5
286.288	94.5
286.52	87.5
286.751	72.5
286.982	76.5
287.213	83.5
287.444	107.5
287.675	99.5
287.906	101.5
288.138	85.5
288.369	97.5
288.6	101.5
288.831	81.5
289.062	90.5
289.293	79.5
289.524	100.5
289.755	83.5
289.986	91.5
290.217	95.5
290.448	81.5
290.679	81.5
290.91	73.5
291.141	93.5
291.371	87.5
291.602	87.5
291.833	94.5
292.064	74.5
292.295	103.5
292.526	99.5
292.757	95.5
292.987	97.5
293.218	73.5
293.449	111.5
293.68	107.5
293.91	99.5
294.141	104.5
294.372	105.5
294.603	91.5
294.833	101.5
295.064	81.5
295.295	79.5
295.525	84.5
295.756	101.5
295.987	107.5
296.217	128.5
296.448	107.5
296.679	71.5
296.909	86.5
297.14	83.5
297.37	100.5
297.601	96.5
297.831	78.5
298.062	93.5
298.292	95.5
298.523	95.5
298.753	67.5
298.984	99.5
299.214	74.5
299.445	100.5
299.675	92.5
299.905	90.5
300.136	99.5
300.366	101.5
300.597	102.5
300.827	84.5
301.057	100.5
301.288	102.5
301.518	98.5
301.748	80.5
301.979	117.5
302.209	99.5
302.439	98.5
302.669	101.5
302.9	86.5
303.13	92.5
303.36	89.5
303.59	92.5
303.82	97.5
304.051	98.5
304.281	95.5
304.511	95.5
304.741	99.5
304.971	101.5
305.201	90.5
305.431	88.5
305.661	94.5
305.891	94.5
306.121	79.5
306.352	107.5
306.582	107.5
306.812	87.5
307.042	106.5
307.272	104.5
307.502	95.5
307.731	79.5
307.961	94.5
308.191	95.5
308.421	100.5
308.651	80.5
308.881	103.5
309.111	87.5
309.341	94.5
309.571	96.5
309.8	91.5
310.03	96.5
310.26	88.5
310.49	98.5
310.72	104.5
310.949	96.5
311.179	99.5
311.409	111.5
311.639	107.5
311.868	92.5
312.098	107.5
312.328	103.5
312.557	103.5
312.787	104.5
313.017	113.5
313.246	83.5
313.476	105.5
313.706	91.5
313.935	105.5
314.165	97.5
314.394	83.5
314.624	88.5
314.853	94.5
315.083	90.5
315.312	89.5
315.542	90.5
315.771	84.5
316.001	87.5
316.23	95.5
316.46	85.5
316.689	88.5
316.919	99.5
317.148	101.5
317.377	70.5
317.607	92.5
317.836	103.5
318.065	92.5
318.295	85.5
318.524	94.5
318.753	105.5
318.983	87.5
319.212	98.5
319.441	104.5
319.67	111.5
319.9	94.5
320.129	101.5
320.358	92.5
320.587	95.5
320.816	108.5
321.046	111.5
321.275	89.5
321.504	96.5
321.733	109.5
321.962	103.5
322.191	97.5
322.42	101.5
322.649	102.5
322.878	124.5
323.108	115.5
323.337	111.5
323.566	138.5
323.795	148.5
324.024	192.5
324.253	360.5
324.482	736.5
324.71	1473.5
324.939	1930.5
325.168	711.5
325.397	227.5
325.626	155.5
325.855	132.5
326.084	111.5
326.313	119.5
326.542	148.5
326.77	219.5
326.999	412.5
327.228	830.5
327.457	1522.5
327.686	1212.5
327.914	347.5
328.143	200.5
328.372	148.5
328.6	125.5
328.829	124.5
329.058	111.5
329.287	111.5
329.515	120.5
329.744	108.5
329.972	106.5
330.201	120.5
330.43	126.5
330.658	125.5
330.887	140.5
331.115	124.5
331.344	110.5
331.572	115.5
331.801	95.5
332.03	104.5
332.258	102.5
332.486	95.5
332.715	90.5
332.943	75.5
333.172	94.5
333.4	111.5
333.629	99.5
333.857	111.5
334.085	121.5
334.314	135.5
334.542	133.5
334.771	137.5
334.999	106.5
335.227	101.5
335.455	101.5
335.684	100.5
335.912	97.5
336.14	89.5
336.369	89.5
336.597	101.5
336.825	101.5
337.053	109.5
337.281	105.5
337.51	104.5
337.738	95.5
337.966	101.5
338.194	104.5
338.422	102.5
338.65	95.5
338.878	95.5
339.106	92.5
339.334	106.5
339.562	88.5
339.79	105.5
340.018	101.5
340.246	93.5
340.474	95.5
340.702	83.5
340.93	97.5
341.158	105.5
341.386	92.5
341.614	83.5
341.842	79.5
342.07	107.5
342.298	98.5
342.526	88.5
342.754	78.5
342.981	101.5
343.209	97.5
343.437	88.5
343.665	86.5
343.893	105.5
344.12	91.5
344.348	89.5
344.576	86.5
344.804	96.5
345.031	99.5
345.259	95.5
345.487	98.5
345.714	100.5
345.942	84.5
346.17	81.5
346.397	91.5
346.625	102.5
346.853	95.5
347.08	93.5
347.308	99.5
347.535	93.5
347.763	96.5
347.99	100.5
348.218	108.5
348.445	100.5
348.673	101.5
348.9	104.5
349.128	90.5
349.355	85.5
349.583	98.5
349.81	106.5
350.037	104.5
350.265	116.5
350.492	86.5
350.72	88.5
350.947	108.5
351.174	103.5
351.402	107.5
351.629	98.5
351.856	108.5
352.083	102.5
352.311	94.5
352.538	116.5
352.765	97.5
352.992	113.5
353.22	107.5
353.447	80.5
353.674	101.5
353.901	95.5
354.128	100.5
354.355	91.5
354.583	105.5
354.81	102.5
355.037	104.5
355.264	92.5
355.491	110.5
355.718	101.5
355.945	100.5
356.172	94.5
356.399	99.5
356.626	108.5
356.853	96.5
357.08	93.5
357.307	87.5
357.534	101.5
357.761	111.5
357.988	101.5
358.215	101.5
358.441	100.5
358.668	87.5
358.895	102.5
359.122	90.5
359.349	93.5
359.576	98.5
359.802	95.5
360.029	126.5
360.256	92.5
360.483	92.5
360.709	105.5
360.936	96.5
361.163	112.5
361.39	89.5
361.616	101.5
361.843	93.5
362.07	93.5
362.296	102.5
362.523	88.5
362.749	85.5
362.976	89.5
363.203	101.5
363.429	81.5
363.656	88.5
363.882	96.5
364.109	98.5
364.335	91.5
364.562	98.5
364.788	87.5
365.015	100.5
365.241	107.5
365.468	102.5
365.694	108.5
365.92	89.5
366.147	95.5
366.373	87.5
366.599	87.5
366.826	90.5
367.052	78.5
367.278	97.5
367.505	90.5
367.731	100.5
367.957	82.5
368.184	107.5
368.41	95.5
368.636	116.5
368.862	128.5
369.089	96.5
369.315	92.5
369.541	97.5
369.767	97.5
369.993	116.5
370.219	98.5
370.445	89.5
370.672	94.5
370.898	100.5
371.124	96.5
371.35	99.5
371.576	87.5
371.802	80.5
372.028	98.5
372.254	96.5
372.48	97.5
372.706	78.5
372.932	86.5
373.158	91.5
373.384	95.5
373.61	87.5
373.835	87.5
374.061	89.5
374.287	88.5
374.513	93.5
374.739	97.5
374.965	106.5
375.191	93.5
375.416	97.5
375.642	106.5
375.868	96.5
376.094	88.5
376.319	97.5
376.545	79.5
376.771	94.5
376.997	101.5
377.222	86.5
377.448	93.5
377.674	81.5
377.899	91.5
378.125	82.5
378.35	90.5
378.576	87.5
378.802	99.5
379.027	97.5
379.253	92.5
379.478	100.5
379.704	96.5
379.929	93.5
380.155	92.5
380.38	95.5
380.606	87.5
380.831	100.5
381.057	102.5
381.282	87.5
381.507	89.5
381.733	93.5
381.958	106.5
382.184	95.5
382.409	101.5
382.634	95.5
382.86	99.5
383.085	105.5
383.31	104.5
383.535	88.5
383.761	95.5
383.986	101.5
384.211	108.5
384.436	95.5
384.662	96.5
384.887	101.5
385.112	110.5
385.337	103.5
385.562	107.5
385.787	97.5
386.013	100.5
386.238	113.5
386.463	105.5
386.688	116.5
386.913	111.5
387.138	91.5
387.363	93.5
387.588	88.5
387.813	98.5
388.038	102.5
388.263	88.5
388.488	112.5
388.713	105.5
388.938	101.5
389.163	105.5
389.387	83.5
389.612	102.5
389.837	85.5
390.062	105.5
390.287	103.5
390.512	97.5
390.736	90.5
390.961	92.5
391.186	103.5
391.411	81.5
391.636	86.5
391.86	97.5
392.085	104.5
392.31	104.5
392.534	86.5
392.759	84.5
392.984	102.5
393.208	89.5
393.433	94.5
393.658	85.5
393.882	88.5
394.107	78.5
394.331	77.5
394.556	81.5
394.78	86.5
395.005	85.5
395.229	91.5
395.454	78.5
395.678	90.5
395.903	97.5
396.127	102.5
396.352	94.5
396.576	78.5
396.801	80.5
397.025	100.5
397.249	87.5
397.474	95.5
397.698	94.5
397.922	100.5
398.147	89.5
398.371	80.5
398.595	87.5
398.82	79.5
399.044	93.5
399.268	83.5
399.492	83.5
399.717	87.5
399.941	99.5
400.165	91.5
400.389	100.5
400.613	87.5
400.837	83.5
401.062	93.5
401.286	79.5
401.51	96.5
401.734	92.5
401.958	114.5
402.182	114.5
402.406	132.5
402.63	107.5
402.854	101.5
403.078	95.5
403.302	96.5
403.526	99.5
403.75	107.5
403.974	95.5
404.198	76.5
404.422	72.5
404.645	90.5
404.869	112.5
405.093	97.5
405.317	93.5
405.541	103.5
405.765	105.5
405.988	114.5
406.212	153.5
406.436	199.5
406.66	120.5
406.883	95.5
407.107	97.5
407.331	99.5
407.555	94.5
407.778	83.5
408.002	104.5
408.226	90.5
408.449	98.5
408.673	93.5
408.896	99.5
409.12	94.5
409.344	94.5
409.567	87.5
409.791	91.5
410.014	103.5
410.238	99.5
410.461	85.5
410.685	94.5
410.908	116.5
411.132	126.5
411.355	103.5
411.578	95.5
411.802	94.5
412.025	88.5
412.249	77.5
412.472	90.5
412.695	99.5
412.919	97.5
413.142	101.5
413.365	89.5
413.589	90.5
413.812	83.5
414.035	91.5
414.258	86.5
414.482	92.5
414.705	93.5
414.928	101.5
415.151	80.5
415.374	91.5
415.597	95.5
415.821	105.5
416.044	74.5
416.267	89.5
416.49	106.5
416.713	87.5
416.936	77.5
417.159	73.5
417.382	90.5
417.605	75.5
417.828	96.5
418.051	85.5
418.274	87.5
418.497	85.5
418.72	93.5
418.943	85.5
419.166	90.5
419.389	81.5
419.611	80.5
419.834	85.5
420.057	91.5
420.28	89.5
420.503	98.5
420.726	96.5
420.948	93.5
421.171	103.5
421.394	91.5
421.617	102.5
421.839	95.5
422.062	99.5
422.285	104.5
422.507	97.5
422.73	94.5
422.953	90.5
423.175	86.5
423.398	95.5
423.621	93.5
423.843	95.5
424.066	94.5
424.288	97.5
424.511	96.5
424.733	91.5
424.956	107.5
425.178	108.5
425.401	108.5
425.623	97.5
425.846	92.5
426.068	88.5
426.291	89.5
426.513	87.5
426.735	93.5
426.958	94.5
427.18	100.5
427.402	124.5
427.625	146.5
427.847	115.5
428.069	120.5
428.292	93.5
428.514	88.5
428.736	94.5
428.958	81.5
429.181	96.5
429.403	85.5
429.625	86.5
429.847	79.5
430.069	97.5
430.292	95.5
430.514	79.5
430.736	83.5
430.958	95.5
431.18	86.5
431.402	90.5
431.624	93.5
431.846	78.5
432.068	91.5
432.29	77.5
432.512	92.5
432.734	94.5
432.956	101.5
433.178	103.5
433.4	95.5
433.622	84.5
433.844	77.5
434.066	97.5
434.287	86.5
434.509	84.5
434.731	92.5
434.953	99.5
435.175	98.5
435.397	107.5
435.618	98.5
435.84	117.5
436.062	128.5
436.284	116.5
436.505	96.5
436.727	102.5
436.949	85.5
437.17	91.5
437.392	91.5
437.614	97.5
437.835	90.5
438.057	109.5
438.278	94.5
438.5	101.5
438.721	96.5
438.943	101.5
439.165	78.5
439.386	91.5
439.608	103.5
439.829	89.5
440.05	102.5
440.272	133.5
440.493	116.5
440.715	93.5
440.936	75.5
441.158	90.5
441.379	90.5
441.6	101.5
441.822	108.5
442.043	93.5
442.264	96.5
442.486	90.5
442.707	80.5
442.928	94.5
443.149	113.5
443.371	120.5
443.592	113.5
443.813	106.5
444.034	112.5
444.255	92.5
444.476	84.5
444.698	101.5
444.919	93.5
445.14	144.5
445.361	123.5
445.582	112.5
445.803	112.5
446.024	138.5
446.245	133.5
446.466	110.5
446.687	99.5
446.908	91.5
447.129	92.5
447.35	99.5
447.571	89.5
447.792	87.5
448.013	95.5
448.234	109.5
448.455	103.5
448.675	109.5
448.896	111.5
449.117	102.5
449.338	93.5
449.559	118.5
449.779	123.5
450	98.5
450.221	85.5
450.442	89.5
450.662	87.5
450.883	102.5
451.104	106.5
451.324	92.5
451.545	87.5
451.766	101.5
451.986	99.5
452.207	83.5
452.428	73.5
452.648	94.5
452.869	105.5
453.089	100.5
453.31	110.5
453.53	98.5
453.751	88.5
453.971	108.5
454.192	99.5
454.412	101.5
454.633	101.5
454.853	88.5
455.073	79.5
455.294	85.5
455.514	85.5
455.734	102.5
455.955	90.5
456.175	93.5
456.395	75.5
456.616	70.5
456.836	80.5
457.056	80.5
457.276	94.5
457.497	90.5
457.717	74.5
457.937	76.5
458.157	91.5
458.377	89.5
458.598	104.5
458.818	133.5
459.038	149.5
459.258	98.5
459.478	96.5
459.698	89.5
459.918	83.5
460.138	102.5
460.358	81.5
460.578	85.5
460.798	95.5
461.018	106.5
461.238	93.5
461.458	90.5
461.678	88.5
461.898	89.5
462.118	96.5
462.338	101.5
462.558	98.5
462.777	107.5
462.997	65.5
463.217	88.5
463.437	91.5
463.657	79.5
463.876	89.5
464.096	101.5
464.316	84.5
464.536	70.5
464.755	89.5
464.975	103.5
465.195	157.5
465.414	133.5
465.634	98.5
465.854	97.5
466.073	88.5
466.293	96.5
466.512	101.5
466.732	90.5
466.951	89.5
467.171	78.5
467.391	92.5
467.61	105.5
467.829	97.5
468.049	103.5
468.268	101.5
468.488	89.5
468.707	86.5
468.927	88.5
469.146	95.5
469.365	83.5
469.585	100.5
469.804	96.5
470.023	113.5
470.243	99.5
470.462	88.5
470.681	110.5
470.901	96.5
471.12	83.5
471.339	81.5
471.558	87.5
471.777	87.5
471.997	87.5
472.216	101.5
472.435	143.5
472.654	105.5
472.873	102.5
473.092	98.5
473.311	93.5
473.53	91.5
473.749	71.5
473.968	87.5
474.187	87.5
474.406	87.5
474.625	87.5
474.844	96.5
475.063	98.5
475.282	96.5
475.501	84.5
475.72	73.5
475.939	85.5
476.158	83.5
476.377	82.5
476.596	91.5
476.814	99.5
477.033	75.5
477.252	80.5
477.471	91.5
477.69	82.5
477.908	91.5
478.127	97.5
478.346	79.5
478.564	76.5
478.783	75.5
479.002	87.5
479.22	83.5
479.439	105.5
479.658	101.5
479.876	90.5
480.095	74.5
480.313	89.5
480.532	87.5
480.751	100.5
480.969	116.5
481.188	188.5
481.406	145.5
481.624	100.5
481.843	102.5
482.061	100.5
482.28	81.5
482.498	97.5
482.717	102.5
482.935	87.5
483.153	92.5
483.372	104.5
483.59	76.5
483.808	95.5
484.027	99.5
484.245	94.5
484.463	93.5
484.681	97.5
484.9	105.5
485.118	93.5
485.336	94.5
485.554	87.5
485.772	93.5
485.99	115.5
486.209	98.5
486.427	103.5
486.645	106.5
486.863	107.5
487.081	83.5
487.299	76.5
487.517	92.5
487.735	94.5
487.953	95.5
488.171	93.5
488.389	80.5
488.607	94.5
488.825	92.5
489.043	109.5
489.261	99.5
489.479	100.5
489.696	84.5
489.914	87.5
490.132	96.5
490.35	104.5
490.568	86.5
490.786	96.5
491.003	83.5
491.221	91.5
491.439	85.5
491.657	91.5
491.874	95.5
492.092	81.5
492.31	93.5
492.527	93.5
492.745	103.5
492.963	98.5
493.18	105.5
493.398	87.5
493.615	96.5
493.833	101.5
494.05	91.5
494.268	100.5
494.485	96.5
494.703	87.5
494.92	100.5
495.138	85.5
495.355	93.5
495.573	95.5
495.79	97.5
496.008	94.5
496.225	99.5
496.442	89.5
496.66	94.5
496.877	98.5
497.094	89.5
497.312	102.5
497.529	107.5
497.746	95.5
497.963	98.5
498.181	104.5
498.398	81.5
498.615	113.5
498.832	94.5
499.049	90.5
499.267	94.5
499.484	86.5
499.701	105.5
499.918	99.5
500.135	92.5
500.352	90.5
500.569	95.5
500.786	95.5
501.003	88.5
501.22	97.5
501.437	95.5
501.654	100.5
501.871	103.5
502.088	97.5
502.305	103.5
502.522	86.5
502.739	89.5
502.956	85.5
503.172	84.5
503.389	97.5
503.606	107.5
503.823	88.5
504.04	101.5
504.256	100.5
504.473	83.5
504.69	94.5
504.907	100.5
505.123	95.5
505.34	112.5
505.557	85.5
505.773	80.5
505.99	92.5
506.207	93.5
506.423	91.5
506.64	95.5
506.856	94.5
507.073	92.5
507.289	90.5
507.506	94.5
507.722	111.5
507.939	109.5
508.155	84.5
508.372	101.5
508.588	89.5
508.805	105.5
509.021	91.5
509.238	103.5
509.454	92.5
509.67	108.5
509.887	108.5
510.103	137.5
510.319	206.5
510.536	679.5
510.752	2030.5
510.968	567.5
511.184	151.5
511.401	108.5
511.617	109.5
511.833	88.5
512.049	100.5
512.265	93.5
512.481	103.5
512.698	100.5
512.914	84.5
513.13	103.5
513.346	93.5
513.562	80.5
513.778	101.5
513.994	98.5
514.21	101.5
514.426	115.5
514.642	131.5
514.858	109.5
515.074	148.5
515.29	357.5
515.506	1177.5
515.721	425.5
515.937	132.5
516.153	113.5
516.369	92.5
516.585	91.5
516.801	105.5
517.016	93.5
517.232	94.5
517.448	106.5
517.664	99.5
517.879	83.5
518.095	89.5
518.311	94.5
518.527	98.5
518.742	107.5
518.958	107.5
519.173	99.5
519.389	109.5
519.605	93.5
519.82	97.5
520.036	113.5
520.251	121.5
520.467	104.5
520.682	103.5
520.898	102.5
521.113	102.5
521.329	126.5
521.544	181.5
521.76	448.5
521.975	1974.5
522.19	1141.5
522.406	267.5
522.621	112.5
522.836	108.5
523.052	95.5
523.267	88.5
523.482	106.5
523.698	98.5
523.913	114.5
524.128	98.5
524.343	107.5
524.559	101.5
524.774	94.5
524.989	88.5
525.204	92.5
525.419	106.5
525.634	74.5
525.849	96.5
526.064	97.5
526.28	96.5
526.495	94.5
526.71	98.5
526.925	96.5
527.14	95.5
527.355	79.5
527.57	95.5
527.785	87.5
527.999	89.5
528.214	102.5
528.429	97.5
528.644	99.5
528.859	94.5
529.074	85.5
529.289	127.5
529.503	149.5
529.718	87.5
529.933	94.5
530.148	109.5
530.363	93.5
530.577	92.5
530.792	90.5
531.007	93.5
531.221	90.5
531.436	79.5
531.651	81.5
531.865	107.5
532.08	90.5
532.295	77.5
532.509	98.5
532.724	107.5
532.938	107.5
533.153	94.5
533.367	86.5
533.582	93.5
533.796	91.5
534.011	104.5
