Data from Uncirc_1982_H10_HRD10591_00042.txt Node
Date: Wed Jan 03 12:29:33 EST 2024
User: Yrep
Spectrometer: HR+D1059
Trigger mode: 1
Integration Time (sec): 1.000000E-1
Scans to average: 1
Electric dark correction enabled: true
Nonlinearity correction enabled: false
Boxcar width: 0
XAxis mode: Wavelengths
Number of Pixels in Spectrum: 2048
>>>>>Begin Spectral Data<<<<<
223.165	-25.06
223.4	-25.06
223.635	-25.06
223.869	-31.06
224.104	-33.06
224.338	-14.06
224.573	-11.06
224.808	-21.06
225.042	-9.06
225.277	-0.06
225.511	-8.06
225.746	11.94
225.98	10.94
226.215	17.94
226.449	21.94
226.683	28.94
226.918	28.94
227.152	31.94
227.387	30.94
227.621	39.94
227.856	32.94
228.09	26.94
228.324	49.94
228.559	55.94
228.793	52.94
229.027	60.94
229.262	67.94
229.496	72.94
229.73	68.94
229.964	66.94
230.199	82.94
230.433	72.94
230.667	72.94
230.901	78.94
231.136	77.94
231.37	100.94
231.604	84.94
231.838	85.94
232.072	89.94
232.306	82.94
232.541	66.94
232.775	63.94
233.009	80.94
233.243	69.94
233.477	77.94
233.711	76.94
233.945	77.94
234.179	80.94
234.413	69.94
234.647	79.94
234.881	83.94
235.115	67.94
235.349	70.94
235.583	92.94
235.817	90.94
236.051	76.94
236.285	72.94
236.519	75.94
236.753	74.94
236.987	77.94
237.221	72.94
237.455	62.94
237.689	74.94
237.922	66.94
238.156	76.94
238.39	75.94
238.624	77.94
238.858	81.94
239.091	84.94
239.325	95.94
239.559	72.94
239.793	72.94
240.027	85.94
240.26	65.94
240.494	78.94
240.728	68.94
240.961	73.94
241.195	85.94
241.429	68.94
241.662	81.94
241.896	82.94
242.13	77.94
242.363	73.94
242.597	90.94
242.83	68.94
243.064	74.94
243.298	85.94
243.531	76.94
243.765	84.94
243.998	69.94
244.232	83.94
244.465	86.94
244.699	78.94
244.932	73.94
245.166	72.94
245.399	69.94
245.633	81.94
245.866	74.94
246.099	75.94
246.333	84.94
246.566	96.94
246.8	80.94
247.033	92.94
247.266	81.94
247.5	82.94
247.733	81.94
247.966	77.94
248.2	67.94
248.433	91.94
248.666	75.94
248.899	86.94
249.133	87.94
249.366	84.94
249.599	85.94
249.832	77.94
250.066	80.94
250.299	78.94
250.532	70.94
250.765	77.94
250.998	84.94
251.231	94.94
251.465	87.94
251.698	96.94
251.931	84.94
252.164	72.94
252.397	71.94
252.63	80.94
252.863	90.94
253.096	77.94
253.329	91.94
253.562	86.94
253.795	84.94
254.028	75.94
254.261	82.94
254.494	92.94
254.727	96.94
254.96	77.94
255.193	86.94
255.426	81.94
255.659	89.94
255.892	86.94
256.124	91.94
256.357	81.94
256.59	74.94
256.823	80.94
257.056	90.94
257.289	81.94
257.521	73.94
257.754	76.94
257.987	76.94
258.22	96.94
258.452	81.94
258.685	88.94
258.918	84.94
259.151	72.94
259.383	80.94
259.616	89.94
259.849	84.94
260.081	78.94
260.314	80.94
260.547	88.94
260.779	82.94
261.012	101.94
261.244	80.94
261.477	91.94
261.71	79.94
261.942	93.94
262.175	103.94
262.407	94.94
262.64	80.94
262.872	96.94
263.105	77.94
263.337	87.94
263.57	60.94
263.802	75.94
264.035	91.94
264.267	85.94
264.499	81.94
264.732	80.94
264.964	81.94
265.197	82.94
265.429	94.94
265.661	74.94
265.894	88.94
266.126	81.94
266.358	76.94
266.591	78.94
266.823	95.94
267.055	94.94
267.287	88.94
267.52	87.94
267.752	82.94
267.984	72.94
268.216	89.94
268.448	84.94
268.681	84.94
268.913	94.94
269.145	88.94
269.377	89.94
269.609	96.94
269.841	86.94
270.073	89.94
270.306	78.94
270.538	74.94
270.77	80.94
271.002	92.94
271.234	78.94
271.466	73.94
271.698	90.94
271.93	86.94
272.162	88.94
272.394	84.94
272.626	77.94
272.858	88.94
273.09	90.94
273.322	81.94
273.553	74.94
273.785	84.94
274.017	75.94
274.249	82.94
274.481	91.94
274.713	88.94
274.945	83.94
275.176	82.94
275.408	82.94
275.64	71.94
275.872	83.94
276.104	76.94
276.335	84.94
276.567	91.94
276.799	107.94
277.031	105.94
277.262	77.94
277.494	101.94
277.726	85.94
277.957	88.94
278.189	101.94
278.421	85.94
278.652	81.94
278.884	93.94
279.115	96.94
279.347	88.94
279.579	85.94
279.81	90.94
280.042	92.94
280.273	94.94
280.505	77.94
280.736	96.94
280.968	88.94
281.199	84.94
281.431	94.94
281.662	76.94
281.894	77.94
282.125	88.94
282.356	106.94
282.588	126.94
282.819	96.94
283.051	93.94
283.282	75.94
283.513	82.94
283.745	85.94
283.976	74.94
284.207	89.94
284.439	89.94
284.67	96.94
284.901	95.94
285.132	75.94
285.364	89.94
285.595	91.94
285.826	76.94
286.057	91.94
286.288	89.94
286.52	77.94
286.751	87.94
286.982	89.94
287.213	88.94
287.444	88.94
287.675	74.94
287.906	98.94
288.138	81.94
288.369	78.94
288.6	90.94
288.831	86.94
289.062	86.94
289.293	83.94
289.524	83.94
289.755	93.94
289.986	89.94
290.217	86.94
290.448	92.94
290.679	87.94
290.91	92.94
291.141	99.94
291.371	99.94
291.602	89.94
291.833	74.94
292.064	72.94
292.295	87.94
292.526	101.94
292.757	91.94
292.987	81.94
293.218	82.94
293.449	86.94
293.68	96.94
293.91	84.94
294.141	81.94
294.372	76.94
294.603	87.94
294.833	82.94
295.064	88.94
295.295	98.94
295.525	93.94
295.756	90.94
295.987	114.94
296.217	119.94
296.448	106.94
296.679	95.94
296.909	81.94
297.14	78.94
297.37	86.94
297.601	84.94
297.831	92.94
298.062	97.94
298.292	80.94
298.523	77.94
298.753	81.94
298.984	81.94
299.214	88.94
299.445	92.94
299.675	97.94
299.905	86.94
300.136	77.94
300.366	99.94
300.597	77.94
300.827	85.94
301.057	106.94
301.288	94.94
301.518	99.94
301.748	82.94
301.979	110.94
302.209	90.94
302.439	93.94
302.669	100.94
302.9	87.94
303.13	85.94
303.36	94.94
303.59	86.94
303.82	94.94
304.051	102.94
304.281	66.94
304.511	88.94
304.741	78.94
304.971	98.94
305.201	92.94
305.431	100.94
305.661	80.94
305.891	96.94
306.121	102.94
306.352	109.94
306.582	96.94
306.812	101.94
307.042	106.94
307.272	93.94
307.502	86.94
307.731	88.94
307.961	111.94
308.191	102.94
308.421	90.94
308.651	89.94
308.881	101.94
309.111	90.94
309.341	97.94
309.571	93.94
309.8	98.94
310.03	99.94
310.26	96.94
310.49	97.94
310.72	102.94
310.949	96.94
311.179	109.94
311.409	82.94
311.639	109.94
311.868	89.94
312.098	97.94
312.328	98.94
312.557	97.94
312.787	100.94
313.017	105.94
313.246	100.94
313.476	96.94
313.706	89.94
313.935	94.94
314.165	97.94
314.394	99.94
314.624	94.94
314.853	95.94
315.083	83.94
315.312	91.94
315.542	97.94
315.771	92.94
316.001	71.94
316.23	88.94
316.46	83.94
316.689	89.94
316.919	96.94
317.148	95.94
317.377	93.94
317.607	99.94
317.836	103.94
318.065	94.94
318.295	89.94
318.524	80.94
318.753	100.94
318.983	82.94
319.212	94.94
319.441	106.94
319.67	109.94
319.9	89.94
320.129	87.94
320.358	98.94
320.587	100.94
320.816	94.94
321.046	99.94
321.275	93.94
321.504	104.94
321.733	100.94
321.962	107.94
322.191	94.94
322.42	99.94
322.649	91.94
322.878	101.94
323.108	117.94
323.337	118.94
323.566	110.94
323.795	137.94
324.024	197.94
324.253	358.94
324.482	740.94
324.71	1499.94
324.939	1990.94
325.168	713.94
325.397	213.94
325.626	138.94
325.855	119.94
326.084	110.94
326.313	140.94
326.542	164.94
326.77	216.94
326.999	423.94
327.228	872.94
327.457	1586.94
327.686	1214.94
327.914	340.94
328.143	173.94
328.372	136.94
328.6	123.94
328.829	104.94
329.058	113.94
329.287	124.94
329.515	106.94
329.744	96.94
329.972	100.94
330.201	122.94
330.43	125.94
330.658	94.94
330.887	116.94
331.115	115.94
331.344	94.94
331.572	103.94
331.801	102.94
332.03	93.94
332.258	98.94
332.486	94.94
332.715	88.94
332.943	94.94
333.172	96.94
333.4	81.94
333.629	109.94
333.857	107.94
334.085	123.94
334.314	104.94
334.542	130.94
334.771	116.94
334.999	97.94
335.227	96.94
335.455	103.94
335.684	109.94
335.912	101.94
336.14	95.94
336.369	93.94
336.597	98.94
336.825	107.94
337.053	94.94
337.281	105.94
337.51	67.94
337.738	96.94
337.966	90.94
338.194	74.94
338.422	100.94
338.65	90.94
338.878	89.94
339.106	89.94
339.334	89.94
339.562	98.94
339.79	77.94
340.018	88.94
340.246	101.94
340.474	108.94
340.702	88.94
340.93	85.94
341.158	86.94
341.386	109.94
341.614	96.94
341.842	89.94
342.07	94.94
342.298	93.94
342.526	96.94
342.754	80.94
342.981	76.94
343.209	88.94
343.437	97.94
343.665	74.94
343.893	88.94
344.12	92.94
344.348	94.94
344.576	96.94
344.804	102.94
345.031	98.94
345.259	85.94
345.487	86.94
345.714	93.94
345.942	80.94
346.17	87.94
346.397	85.94
346.625	94.94
346.853	98.94
347.08	83.94
347.308	86.94
347.535	101.94
347.763	92.94
347.99	101.94
348.218	86.94
348.445	88.94
348.673	90.94
348.9	97.94
349.128	88.94
349.355	98.94
349.583	109.94
349.81	94.94
350.037	100.94
350.265	89.94
350.492	100.94
350.72	77.94
350.947	92.94
351.174	106.94
351.402	106.94
351.629	99.94
351.856	86.94
352.083	92.94
352.311	111.94
352.538	102.94
352.765	98.94
352.992	106.94
353.22	111.94
353.447	104.94
353.674	95.94
353.901	86.94
354.128	106.94
354.355	102.94
354.583	111.94
354.81	101.94
355.037	106.94
355.264	78.94
355.491	74.94
355.718	87.94
355.945	96.94
356.172	89.94
356.399	94.94
356.626	92.94
356.853	89.94
357.08	103.94
357.307	94.94
357.534	79.94
357.761	86.94
357.988	89.94
358.215	88.94
358.441	97.94
358.668	94.94
358.895	99.94
359.122	102.94
359.349	82.94
359.576	92.94
359.802	94.94
360.029	102.94
360.256	100.94
360.483	102.94
360.709	82.94
360.936	89.94
361.163	98.94
361.39	89.94
361.616	106.94
361.843	93.94
362.07	84.94
362.296	88.94
362.523	90.94
362.749	89.94
362.976	91.94
363.203	92.94
363.429	95.94
363.656	85.94
363.882	84.94
364.109	109.94
364.335	104.94
364.562	101.94
364.788	74.94
365.015	108.94
365.241	87.94
365.468	101.94
365.694	100.94
365.92	91.94
366.147	95.94
366.373	89.94
366.599	95.94
366.826	96.94
367.052	97.94
367.278	99.94
367.505	85.94
367.731	88.94
367.957	86.94
368.184	93.94
368.41	99.94
368.636	107.94
368.862	116.94
369.089	96.94
369.315	96.94
369.541	77.94
369.767	96.94
369.993	92.94
370.219	93.94
370.445	96.94
370.672	86.94
370.898	101.94
371.124	83.94
371.35	82.94
371.576	79.94
371.802	85.94
372.028	84.94
372.254	86.94
372.48	83.94
372.706	105.94
372.932	88.94
373.158	91.94
373.384	96.94
373.61	98.94
373.835	103.94
374.061	80.94
374.287	103.94
374.513	86.94
374.739	86.94
374.965	86.94
375.191	93.94
375.416	84.94
375.642	89.94
375.868	90.94
376.094	81.94
376.319	86.94
376.545	96.94
376.771	92.94
376.997	69.94
377.222	92.94
377.448	89.94
377.674	89.94
377.899	97.94
378.125	91.94
378.35	96.94
378.576	84.94
378.802	82.94
379.027	91.94
379.253	84.94
379.478	96.94
379.704	89.94
379.929	115.94
380.155	94.94
380.38	89.94
380.606	96.94
380.831	99.94
381.057	96.94
381.282	101.94
381.507	99.94
381.733	105.94
381.958	99.94
382.184	93.94
382.409	92.94
382.634	96.94
382.86	92.94
383.085	102.94
383.31	97.94
383.535	98.94
383.761	104.94
383.986	84.94
384.211	93.94
384.436	108.94
384.662	112.94
384.887	105.94
385.112	108.94
385.337	105.94
385.562	116.94
385.787	106.94
386.013	117.94
386.238	107.94
386.463	116.94
386.688	101.94
386.913	105.94
387.138	98.94
387.363	97.94
387.588	104.94
387.813	104.94
388.038	115.94
388.263	114.94
388.488	108.94
388.713	104.94
388.938	97.94
389.163	92.94
389.387	100.94
389.612	78.94
389.837	89.94
390.062	90.94
390.287	89.94
390.512	106.94
390.736	92.94
390.961	72.94
391.186	86.94
391.411	80.94
391.636	105.94
391.86	89.94
392.085	98.94
392.31	88.94
392.534	72.94
392.759	99.94
392.984	96.94
393.208	96.94
393.433	87.94
393.658	83.94
393.882	78.94
394.107	90.94
394.331	95.94
394.556	88.94
394.78	91.94
395.005	87.94
395.229	90.94
395.454	95.94
395.678	91.94
395.903	70.94
396.127	85.94
396.352	76.94
396.576	78.94
396.801	101.94
397.025	87.94
397.249	85.94
397.474	94.94
397.698	91.94
397.922	78.94
398.147	88.94
398.371	93.94
398.595	85.94
398.82	80.94
399.044	90.94
399.268	75.94
399.492	95.94
399.717	89.94
399.941	92.94
400.165	94.94
400.389	89.94
400.613	64.94
400.837	96.94
401.062	93.94
401.286	68.94
401.51	96.94
401.734	93.94
401.958	110.94
402.182	103.94
402.406	145.94
402.63	110.94
402.854	88.94
403.078	86.94
403.302	84.94
403.526	99.94
403.75	90.94
403.974	86.94
404.198	89.94
404.422	92.94
404.645	63.94
404.869	98.94
405.093	89.94
405.317	95.94
405.541	97.94
405.765	99.94
405.988	104.94
406.212	134.94
406.436	185.94
406.66	128.94
406.883	87.94
407.107	97.94
407.331	78.94
407.555	88.94
407.778	101.94
408.002	81.94
408.226	90.94
408.449	91.94
408.673	85.94
408.896	92.94
409.12	87.94
409.344	95.94
409.567	101.94
409.791	100.94
410.014	99.94
410.238	103.94
410.461	84.94
410.685	90.94
410.908	93.94
411.132	100.94
411.355	101.94
411.578	99.94
411.802	81.94
412.025	96.94
412.249	89.94
412.472	92.94
412.695	102.94
412.919	100.94
413.142	92.94
413.365	89.94
413.589	81.94
413.812	96.94
414.035	86.94
414.258	92.94
414.482	97.94
414.705	99.94
414.928	82.94
415.151	92.94
415.374	100.94
415.597	99.94
415.821	92.94
416.044	86.94
416.267	80.94
416.49	74.94
416.713	73.94
416.936	81.94
417.159	86.94
417.382	91.94
417.605	99.94
417.828	110.94
418.051	87.94
418.274	78.94
418.497	81.94
418.72	86.94
418.943	85.94
419.166	85.94
419.389	91.94
419.611	95.94
419.834	107.94
420.057	83.94
420.28	108.94
420.503	90.94
420.726	86.94
420.948	93.94
421.171	97.94
421.394	86.94
421.617	98.94
421.839	83.94
422.062	93.94
422.285	72.94
422.507	86.94
422.73	92.94
422.953	101.94
423.175	92.94
423.398	93.94
423.621	93.94
423.843	80.94
424.066	90.94
424.288	87.94
424.511	97.94
424.733	98.94
424.956	102.94
425.178	104.94
425.401	90.94
425.623	97.94
425.846	86.94
426.068	96.94
426.291	73.94
426.513	86.94
426.735	93.94
426.958	87.94
427.18	108.94
427.402	119.94
427.625	155.94
427.847	114.94
428.069	112.94
428.292	106.94
428.514	84.94
428.736	86.94
428.958	85.94
429.181	91.94
429.403	98.94
429.625	90.94
429.847	87.94
430.069	83.94
430.292	68.94
430.514	82.94
430.736	94.94
430.958	80.94
431.18	89.94
431.402	86.94
431.624	82.94
431.846	86.94
432.068	90.94
432.29	83.94
432.512	88.94
432.734	88.94
432.956	90.94
433.178	107.94
433.4	104.94
433.622	91.94
433.844	83.94
434.066	92.94
434.287	95.94
434.509	89.94
434.731	92.94
434.953	81.94
435.175	98.94
435.397	89.94
435.618	96.94
435.84	111.94
436.062	113.94
436.284	120.94
436.505	116.94
436.727	93.94
436.949	95.94
437.17	90.94
437.392	85.94
437.614	88.94
437.835	105.94
438.057	113.94
438.278	86.94
438.5	92.94
438.721	112.94
438.943	99.94
439.165	95.94
439.386	88.94
439.608	97.94
439.829	89.94
440.05	118.94
440.272	121.94
440.493	91.94
440.715	86.94
440.936	82.94
441.158	86.94
441.379	98.94
441.6	85.94
441.822	89.94
442.043	80.94
442.264	99.94
442.486	98.94
442.707	98.94
442.928	100.94
443.149	116.94
443.371	115.94
443.592	89.94
443.813	106.94
444.034	97.94
444.255	85.94
444.476	92.94
444.698	101.94
444.919	76.94
445.14	130.94
445.361	114.94
445.582	125.94
445.803	131.94
446.024	135.94
446.245	122.94
446.466	108.94
446.687	90.94
446.908	89.94
447.129	84.94
447.35	82.94
447.571	96.94
447.792	88.94
448.013	84.94
448.234	86.94
448.455	92.94
448.675	127.94
448.896	104.94
449.117	104.94
449.338	94.94
449.559	113.94
449.779	134.94
450	96.94
450.221	90.94
450.442	86.94
450.662	78.94
450.883	103.94
451.104	107.94
451.324	90.94
451.545	86.94
451.766	85.94
451.986	85.94
452.207	90.94
452.428	83.94
452.648	100.94
452.869	110.94
453.089	110.94
453.31	112.94
453.53	90.94
453.751	89.94
453.971	104.94
454.192	113.94
454.412	89.94
454.633	85.94
454.853	107.94
455.073	73.94
455.294	75.94
455.514	103.94
455.734	88.94
455.955	108.94
456.175	90.94
456.395	90.94
456.616	82.94
456.836	88.94
457.056	84.94
457.276	81.94
457.497	81.94
457.717	82.94
457.937	91.94
458.157	80.94
458.377	101.94
458.598	95.94
458.818	135.94
459.038	133.94
459.258	106.94
459.478	100.94
459.698	70.94
459.918	84.94
460.138	77.94
460.358	100.94
460.578	82.94
460.798	96.94
461.018	92.94
461.238	88.94
461.458	90.94
461.678	91.94
461.898	84.94
462.118	89.94
462.338	84.94
462.558	94.94
462.777	101.94
462.997	87.94
463.217	75.94
463.437	80.94
463.657	84.94
463.876	97.94
464.096	81.94
464.316	91.94
464.536	98.94
464.755	82.94
464.975	104.94
465.195	144.94
465.414	121.94
465.634	80.94
465.854	88.94
466.073	88.94
466.293	97.94
466.512	93.94
466.732	84.94
466.951	83.94
467.171	95.94
467.391	86.94
467.61	99.94
467.829	92.94
468.049	89.94
468.268	106.94
468.488	88.94
468.707	75.94
468.927	75.94
469.146	88.94
469.365	82.94
469.585	71.94
469.804	96.94
470.023	92.94
470.243	95.94
470.462	90.94
470.681	93.94
470.901	85.94
471.12	82.94
471.339	80.94
471.558	96.94
471.777	80.94
471.997	101.94
472.216	117.94
472.435	136.94
472.654	85.94
472.873	94.94
473.092	80.94
473.311	98.94
473.53	106.94
473.749	98.94
473.968	87.94
474.187	86.94
474.406	82.94
474.625	80.94
474.844	86.94
475.063	89.94
475.282	85.94
475.501	75.94
475.72	90.94
475.939	95.94
476.158	100.94
476.377	81.94
476.596	96.94
476.814	104.94
477.033	89.94
477.252	85.94
477.471	78.94
477.69	84.94
477.908	74.94
478.127	93.94
478.346	87.94
478.564	89.94
478.783	93.94
479.002	93.94
479.22	89.94
479.439	90.94
479.658	96.94
479.876	85.94
480.095	89.94
480.313	85.94
480.532	80.94
480.751	92.94
480.969	105.94
481.188	182.94
481.406	134.94
481.624	96.94
481.843	90.94
482.061	98.94
482.28	74.94
482.498	90.94
482.717	94.94
482.935	105.94
483.153	92.94
483.372	84.94
483.59	82.94
483.808	79.94
484.027	91.94
484.245	88.94
484.463	97.94
484.681	98.94
484.9	101.94
485.118	98.94
485.336	91.94
485.554	97.94
485.772	95.94
485.99	99.94
486.209	90.94
486.427	86.94
486.645	102.94
486.863	109.94
487.081	95.94
487.299	100.94
487.517	86.94
487.735	106.94
487.953	94.94
488.171	88.94
488.389	90.94
488.607	85.94
488.825	92.94
489.043	74.94
489.261	105.94
489.479	96.94
489.696	80.94
489.914	91.94
490.132	88.94
490.35	96.94
490.568	93.94
490.786	94.94
491.003	108.94
491.221	98.94
491.439	100.94
491.657	100.94
491.874	86.94
492.092	93.94
492.31	100.94
492.527	89.94
492.745	100.94
492.963	96.94
493.18	100.94
493.398	92.94
493.615	95.94
493.833	105.94
494.05	92.94
494.268	105.94
494.485	87.94
494.703	88.94
494.92	97.94
495.138	83.94
495.355	74.94
495.573	90.94
495.79	76.94
496.008	89.94
496.225	80.94
496.442	80.94
496.66	101.94
496.877	91.94
497.094	88.94
497.312	90.94
497.529	83.94
497.746	104.94
497.963	86.94
498.181	91.94
498.398	102.94
498.615	96.94
498.832	120.94
499.049	108.94
499.267	87.94
499.484	86.94
499.701	96.94
499.918	89.94
500.135	90.94
500.352	82.94
500.569	89.94
500.786	73.94
501.003	74.94
501.22	90.94
501.437	82.94
501.654	88.94
501.871	97.94
502.088	98.94
502.305	95.94
502.522	98.94
502.739	86.94
502.956	90.94
503.172	80.94
503.389	101.94
503.606	96.94
503.823	96.94
504.04	93.94
504.256	90.94
504.473	94.94
504.69	96.94
504.907	83.94
505.123	101.94
505.34	87.94
505.557	95.94
505.773	87.94
505.99	92.94
506.207	101.94
506.423	86.94
506.64	76.94
506.856	86.94
507.073	94.94
507.289	85.94
507.506	85.94
507.722	93.94
507.939	105.94
508.155	90.94
508.372	89.94
508.588	97.94
508.805	89.94
509.021	100.94
509.238	101.94
509.454	100.94
509.67	84.94
509.887	96.94
510.103	123.94
510.319	198.94
510.536	644.94
510.752	1963.94
510.968	568.94
511.184	137.94
511.401	110.94
511.617	101.94
511.833	95.94
512.049	89.94
512.265	96.94
512.481	86.94
512.698	103.94
512.914	96.94
513.13	96.94
513.346	97.94
513.562	85.94
513.778	92.94
513.994	92.94
514.21	111.94
514.426	108.94
514.642	120.94
514.858	119.94
515.074	136.94
515.29	373.94
515.506	1144.94
515.721	400.94
515.937	141.94
