Data from Uncirc_1982_H10_HRD10591_00076.txt Node
Date: Wed Jan 03 12:29:40 EST 2024
User: Yrep
Spectrometer: HR+D1059
Trigger mode: 1
Integration Time (sec): 1.000000E-1
Scans to average: 1
Electric dark correction enabled: true
Nonlinearity correction enabled: false
Boxcar width: 0
XAxis mode: Wavelengths
Number of Pixels in Spectrum: 2048
>>>>>Begin Spectral Data<<<<<
223.165	-9.94
223.4	-9.94
223.635	-9.94
223.869	-15.94
224.104	-30.94
224.338	-14.94
224.573	-4.94
224.808	-22.94
225.042	-17.94
225.277	-3.94
225.511	-5.94
225.746	7.06
225.98	6.06
226.215	5.06
226.449	19.06
226.683	30.06
226.918	32.06
227.152	28.06
227.387	29.06
227.621	32.06
227.856	54.06
228.09	51.06
228.324	48.06
228.559	61.06
228.793	58.06
229.027	54.06
229.262	70.06
229.496	71.06
229.73	88.06
229.964	80.06
230.199	64.06
230.433	61.06
230.667	70.06
230.901	86.06
231.136	70.06
231.37	73.06
231.604	68.06
231.838	65.06
232.072	80.06
232.306	85.06
232.541	72.06
232.775	62.06
233.009	74.06
233.243	72.06
233.477	69.06
233.711	67.06
233.945	82.06
234.179	84.06
234.413	70.06
234.647	71.06
234.881	89.06
235.115	88.06
235.349	59.06
235.583	76.06
235.817	92.06
236.051	72.06
236.285	80.06
236.519	70.06
236.753	67.06
236.987	75.06
237.221	96.06
237.455	78.06
237.689	73.06
237.922	80.06
238.156	70.06
238.39	79.06
238.624	78.06
238.858	79.06
239.091	83.06
239.325	72.06
239.559	83.06
239.793	75.06
240.027	72.06
240.26	74.06
240.494	72.06
240.728	74.06
240.961	70.06
241.195	78.06
241.429	85.06
241.662	68.06
241.896	78.06
242.13	90.06
242.363	62.06
242.597	62.06
242.83	79.06
243.064	79.06
243.298	89.06
243.531	85.06
243.765	84.06
243.998	79.06
244.232	100.06
244.465	78.06
244.699	78.06
244.932	71.06
245.166	67.06
245.399	64.06
245.633	86.06
245.866	75.06
246.099	69.06
246.333	82.06
246.566	69.06
246.8	82.06
247.033	69.06
247.266	73.06
247.5	86.06
247.733	87.06
247.966	74.06
248.2	70.06
248.433	75.06
248.666	93.06
248.899	58.06
249.133	69.06
249.366	80.06
249.599	90.06
249.832	70.06
250.066	73.06
250.299	75.06
250.532	81.06
250.765	88.06
250.998	79.06
251.231	83.06
251.465	75.06
251.698	69.06
251.931	91.06
252.164	80.06
252.397	66.06
252.63	86.06
252.863	89.06
253.096	84.06
253.329	98.06
253.562	84.06
253.795	70.06
254.028	78.06
254.261	75.06
254.494	66.06
254.727	84.06
254.96	81.06
255.193	80.06
255.426	95.06
255.659	86.06
255.892	91.06
256.124	74.06
256.357	78.06
256.59	82.06
256.823	66.06
257.056	83.06
257.289	66.06
257.521	74.06
257.754	80.06
257.987	80.06
258.22	76.06
258.452	86.06
258.685	76.06
258.918	74.06
259.151	76.06
259.383	76.06
259.616	82.06
259.849	80.06
260.081	63.06
260.314	83.06
260.547	82.06
260.779	89.06
261.012	88.06
261.244	79.06
261.477	84.06
261.71	83.06
261.942	88.06
262.175	98.06
262.407	84.06
262.64	79.06
262.872	78.06
263.105	80.06
263.337	78.06
263.57	73.06
263.802	78.06
264.035	74.06
264.267	77.06
264.499	76.06
264.732	73.06
264.964	82.06
265.197	80.06
265.429	74.06
265.661	83.06
265.894	75.06
266.126	92.06
266.358	87.06
266.591	91.06
266.823	92.06
267.055	83.06
267.287	86.06
267.52	64.06
267.752	64.06
267.984	94.06
268.216	80.06
268.448	72.06
268.681	67.06
268.913	86.06
269.145	89.06
269.377	76.06
269.609	69.06
269.841	80.06
270.073	78.06
270.306	101.06
270.538	95.06
270.77	95.06
271.002	92.06
271.234	79.06
271.466	83.06
271.698	62.06
271.93	84.06
272.162	70.06
272.394	79.06
272.626	80.06
272.858	79.06
273.09	77.06
273.322	99.06
273.553	86.06
273.785	91.06
274.017	82.06
274.249	87.06
274.481	72.06
274.713	90.06
274.945	86.06
275.176	81.06
275.408	83.06
275.64	84.06
275.872	88.06
276.104	74.06
276.335	91.06
276.567	96.06
276.799	107.06
277.031	92.06
277.262	86.06
277.494	81.06
277.726	68.06
277.957	86.06
278.189	68.06
278.421	71.06
278.652	80.06
278.884	86.06
279.115	95.06
279.347	78.06
279.579	85.06
279.81	71.06
280.042	93.06
280.273	69.06
280.505	89.06
280.736	94.06
280.968	75.06
281.199	83.06
281.431	82.06
281.662	90.06
281.894	106.06
282.125	95.06
282.356	112.06
282.588	108.06
282.819	106.06
283.051	80.06
283.282	90.06
283.513	88.06
283.745	89.06
283.976	84.06
284.207	98.06
284.439	98.06
284.67	91.06
284.901	81.06
285.132	87.06
285.364	87.06
285.595	91.06
285.826	84.06
286.057	84.06
286.288	87.06
286.52	95.06
286.751	87.06
286.982	81.06
287.213	86.06
287.444	71.06
287.675	81.06
287.906	97.06
288.138	84.06
288.369	70.06
288.6	94.06
288.831	83.06
289.062	71.06
289.293	81.06
289.524	84.06
289.755	81.06
289.986	90.06
290.217	90.06
290.448	76.06
290.679	84.06
290.91	73.06
291.141	82.06
291.371	86.06
291.602	84.06
291.833	80.06
292.064	96.06
292.295	76.06
292.526	82.06
292.757	86.06
292.987	77.06
293.218	80.06
293.449	81.06
293.68	75.06
293.91	81.06
294.141	86.06
294.372	76.06
294.603	86.06
294.833	95.06
295.064	86.06
295.295	85.06
295.525	84.06
295.756	110.06
295.987	103.06
296.217	118.06
296.448	116.06
296.679	100.06
296.909	95.06
297.14	76.06
297.37	86.06
297.601	89.06
297.831	71.06
298.062	88.06
298.292	80.06
298.523	84.06
298.753	83.06
298.984	79.06
299.214	75.06
299.445	85.06
299.675	101.06
299.905	97.06
300.136	72.06
300.366	84.06
300.597	81.06
300.827	85.06
301.057	102.06
301.288	101.06
301.518	92.06
301.748	78.06
301.979	87.06
302.209	76.06
302.439	92.06
302.669	94.06
302.9	87.06
303.13	95.06
303.36	72.06
303.59	70.06
303.82	95.06
304.051	84.06
304.281	84.06
304.511	104.06
304.741	84.06
304.971	82.06
305.201	88.06
305.431	94.06
305.661	91.06
305.891	82.06
306.121	91.06
306.352	89.06
306.582	99.06
306.812	86.06
307.042	91.06
307.272	101.06
307.502	86.06
307.731	78.06
307.961	95.06
308.191	91.06
308.421	76.06
308.651	80.06
308.881	91.06
309.111	92.06
309.341	98.06
309.571	88.06
309.8	84.06
310.03	92.06
310.26	89.06
310.49	88.06
310.72	102.06
310.949	90.06
311.179	82.06
311.409	102.06
311.639	90.06
311.868	97.06
312.098	90.06
312.328	109.06
312.557	97.06
312.787	100.06
313.017	96.06
313.246	83.06
313.476	96.06
313.706	99.06
313.935	98.06
314.165	102.06
314.394	94.06
314.624	93.06
314.853	88.06
315.083	78.06
315.312	87.06
315.542	91.06
315.771	92.06
316.001	84.06
316.23	84.06
316.46	84.06
316.689	78.06
316.919	88.06
317.148	82.06
317.377	88.06
317.607	92.06
317.836	88.06
318.065	69.06
318.295	84.06
318.524	92.06
318.753	85.06
318.983	87.06
319.212	101.06
319.441	97.06
319.67	88.06
319.9	97.06
320.129	86.06
320.358	82.06
320.587	99.06
320.816	92.06
321.046	103.06
321.275	102.06
321.504	82.06
321.733	86.06
321.962	101.06
322.191	87.06
322.42	113.06
322.649	116.06
322.878	105.06
323.108	117.06
323.337	113.06
323.566	123.06
323.795	143.06
324.024	178.06
324.253	334.06
324.482	699.06
324.71	1411.06
324.939	1866.06
325.168	670.06
325.397	215.06
325.626	126.06
325.855	109.06
326.084	118.06
326.313	126.06
326.542	130.06
326.77	209.06
326.999	408.06
327.228	795.06
327.457	1441.06
327.686	1154.06
327.914	321.06
328.143	156.06
328.372	149.06
328.6	111.06
328.829	100.06
329.058	114.06
329.287	122.06
329.515	101.06
329.744	113.06
329.972	99.06
330.201	101.06
330.43	116.06
330.658	112.06
330.887	126.06
331.115	93.06
331.344	82.06
331.572	89.06
331.801	83.06
332.03	79.06
332.258	89.06
332.486	76.06
332.715	86.06
332.943	84.06
333.172	85.06
333.4	94.06
333.629	97.06
333.857	99.06
334.085	92.06
334.314	97.06
334.542	118.06
334.771	128.06
334.999	100.06
335.227	91.06
335.455	97.06
335.684	97.06
335.912	95.06
336.14	90.06
336.369	105.06
336.597	108.06
336.825	104.06
337.053	83.06
337.281	97.06
337.51	91.06
337.738	95.06
337.966	98.06
338.194	90.06
338.422	100.06
338.65	86.06
338.878	95.06
339.106	97.06
339.334	99.06
339.562	75.06
339.79	90.06
340.018	84.06
340.246	100.06
340.474	97.06
340.702	91.06
340.93	86.06
341.158	89.06
341.386	88.06
341.614	107.06
341.842	86.06
342.07	83.06
342.298	74.06
342.526	90.06
342.754	95.06
342.981	92.06
343.209	86.06
343.437	79.06
343.665	106.06
343.893	82.06
344.12	82.06
344.348	91.06
344.576	97.06
344.804	100.06
345.031	88.06
345.259	84.06
345.487	95.06
345.714	91.06
345.942	88.06
346.17	84.06
346.397	86.06
346.625	96.06
346.853	100.06
347.08	105.06
347.308	94.06
347.535	76.06
347.763	98.06
347.99	77.06
348.218	101.06
348.445	92.06
348.673	84.06
348.9	100.06
349.128	85.06
349.355	86.06
349.583	97.06
349.81	109.06
350.037	92.06
350.265	96.06
350.492	88.06
350.72	82.06
350.947	99.06
351.174	101.06
351.402	113.06
351.629	102.06
351.856	88.06
352.083	98.06
352.311	88.06
352.538	89.06
352.765	107.06
352.992	102.06
353.22	97.06
353.447	97.06
353.674	94.06
353.901	80.06
354.128	89.06
354.355	97.06
354.583	88.06
354.81	89.06
355.037	88.06
355.264	81.06
355.491	83.06
355.718	104.06
355.945	92.06
356.172	91.06
356.399	91.06
356.626	85.06
356.853	111.06
357.08	99.06
357.307	80.06
357.534	75.06
357.761	99.06
357.988	90.06
358.215	88.06
358.441	87.06
358.668	95.06
358.895	75.06
359.122	81.06
359.349	94.06
359.576	83.06
359.802	105.06
360.029	96.06
360.256	101.06
360.483	87.06
360.709	91.06
360.936	98.06
361.163	81.06
361.39	93.06
361.616	89.06
361.843	75.06
362.07	87.06
362.296	87.06
362.523	88.06
362.749	86.06
362.976	83.06
363.203	85.06
363.429	91.06
363.656	78.06
363.882	82.06
364.109	91.06
364.335	82.06
364.562	92.06
364.788	86.06
365.015	89.06
365.241	98.06
365.468	91.06
365.694	87.06
365.92	83.06
366.147	85.06
366.373	86.06
366.599	91.06
366.826	84.06
367.052	85.06
367.278	88.06
367.505	92.06
367.731	96.06
367.957	87.06
368.184	103.06
368.41	109.06
368.636	91.06
368.862	113.06
369.089	97.06
369.315	99.06
369.541	90.06
369.767	89.06
369.993	91.06
370.219	85.06
370.445	91.06
370.672	75.06
370.898	89.06
371.124	92.06
371.35	100.06
371.576	94.06
371.802	92.06
372.028	76.06
372.254	104.06
372.48	93.06
372.706	70.06
372.932	80.06
373.158	79.06
373.384	67.06
373.61	75.06
373.835	99.06
374.061	73.06
374.287	79.06
374.513	86.06
374.739	86.06
374.965	78.06
375.191	81.06
375.416	101.06
375.642	90.06
375.868	96.06
376.094	97.06
376.319	89.06
376.545	95.06
376.771	75.06
376.997	93.06
377.222	90.06
377.448	87.06
377.674	81.06
377.899	82.06
378.125	92.06
378.35	98.06
378.576	80.06
378.802	95.06
379.027	74.06
379.253	94.06
379.478	80.06
379.704	92.06
379.929	90.06
380.155	90.06
380.38	87.06
380.606	86.06
380.831	88.06
381.057	80.06
381.282	80.06
381.507	92.06
381.733	86.06
381.958	86.06
382.184	89.06
382.409	95.06
382.634	106.06
382.86	91.06
383.085	94.06
383.31	104.06
383.535	91.06
383.761	100.06
383.986	79.06
384.211	98.06
384.436	97.06
384.662	95.06
384.887	95.06
385.112	104.06
385.337	97.06
385.562	97.06
385.787	99.06
386.013	84.06
386.238	114.06
386.463	85.06
386.688	100.06
386.913	101.06
387.138	96.06
387.363	108.06
387.588	85.06
387.813	111.06
388.038	97.06
388.263	104.06
388.488	115.06
388.713	92.06
388.938	107.06
389.163	81.06
389.387	98.06
389.612	80.06
389.837	74.06
390.062	88.06
390.287	96.06
390.512	80.06
390.736	81.06
390.961	72.06
391.186	83.06
391.411	109.06
391.636	73.06
391.86	80.06
392.085	72.06
392.31	96.06
392.534	80.06
392.759	79.06
392.984	92.06
393.208	91.06
393.433	100.06
393.658	71.06
393.882	72.06
394.107	71.06
394.331	78.06
394.556	84.06
394.78	94.06
395.005	88.06
395.229	93.06
395.454	85.06
395.678	92.06
395.903	79.06
396.127	86.06
396.352	72.06
396.576	80.06
396.801	96.06
397.025	84.06
397.249	93.06
397.474	90.06
397.698	78.06
397.922	99.06
398.147	83.06
398.371	80.06
398.595	73.06
398.82	100.06
399.044	75.06
399.268	81.06
399.492	73.06
399.717	87.06
399.941	81.06
400.165	93.06
400.389	87.06
400.613	94.06
400.837	86.06
401.062	95.06
401.286	83.06
401.51	82.06
401.734	78.06
401.958	98.06
402.182	109.06
402.406	137.06
402.63	108.06
402.854	92.06
403.078	88.06
403.302	79.06
403.526	81.06
403.75	76.06
403.974	64.06
404.198	87.06
404.422	85.06
404.645	71.06
404.869	88.06
405.093	96.06
405.317	92.06
405.541	80.06
405.765	97.06
405.988	99.06
406.212	127.06
406.436	172.06
406.66	102.06
406.883	91.06
407.107	98.06
407.331	106.06
407.555	98.06
407.778	93.06
408.002	82.06
408.226	95.06
408.449	84.06
408.673	73.06
408.896	89.06
409.12	89.06
409.344	97.06
409.567	95.06
409.791	86.06
410.014	99.06
410.238	96.06
410.461	83.06
410.685	99.06
410.908	102.06
411.132	100.06
411.355	93.06
411.578	97.06
411.802	105.06
412.025	87.06
412.249	82.06
412.472	95.06
412.695	88.06
412.919	87.06
413.142	71.06
413.365	91.06
413.589	89.06
413.812	87.06
414.035	71.06
414.258	88.06
414.482	92.06
414.705	82.06
414.928	85.06
415.151	94.06
415.374	98.06
415.597	85.06
415.821	103.06
416.044	73.06
416.267	59.06
416.49	72.06
416.713	100.06
416.936	100.06
417.159	95.06
417.382	71.06
417.605	78.06
417.828	98.06
418.051	92.06
418.274	86.06
418.497	79.06
418.72	88.06
418.943	83.06
419.166	98.06
419.389	84.06
419.611	93.06
419.834	82.06
420.057	86.06
420.28	76.06
420.503	75.06
420.726	91.06
420.948	75.06
421.171	106.06
421.394	89.06
421.617	101.06
421.839	86.06
422.062	86.06
422.285	90.06
422.507	86.06
422.73	91.06
422.953	89.06
423.175	101.06
423.398	94.06
423.621	85.06
423.843	99.06
424.066	85.06
424.288	78.06
424.511	83.06
424.733	91.06
424.956	103.06
425.178	86.06
425.401	99.06
425.623	89.06
425.846	96.06
426.068	92.06
426.291	94.06
426.513	87.06
426.735	102.06
426.958	76.06
427.18	100.06
427.402	129.06
427.625	135.06
427.847	130.06
428.069	104.06
428.292	91.06
428.514	80.06
428.736	75.06
428.958	97.06
429.181	82.06
429.403	87.06
429.625	81.06
429.847	91.06
430.069	83.06
430.292	80.06
430.514	87.06
430.736	90.06
430.958	84.06
431.18	83.06
431.402	92.06
431.624	80.06
431.846	67.06
432.068	87.06
432.29	90.06
432.512	91.06
432.734	94.06
432.956	75.06
433.178	91.06
433.4	101.06
433.622	96.06
433.844	94.06
434.066	75.06
434.287	83.06
434.509	83.06
434.731	84.06
434.953	85.06
435.175	87.06
435.397	86.06
435.618	83.06
435.84	97.06
436.062	104.06
436.284	106.06
436.505	95.06
436.727	101.06
436.949	91.06
437.17	80.06
437.392	81.06
437.614	85.06
437.835	95.06
438.057	108.06
438.278	96.06
438.5	104.06
438.721	110.06
438.943	95.06
439.165	74.06
439.386	91.06
439.608	88.06
439.829	100.06
440.05	111.06
440.272	124.06
440.493	100.06
440.715	94.06
440.936	86.06
441.158	80.06
441.379	72.06
441.6	84.06
441.822	86.06
442.043	99.06
442.264	87.06
442.486	90.06
442.707	86.06
442.928	101.06
443.149	117.06
443.371	103.06
443.592	100.06
443.813	110.06
444.034	110.06
444.255	76.06
444.476	90.06
444.698	83.06
444.919	83.06
445.14	111.06
445.361	107.06
445.582	93.06
445.803	107.06
446.024	108.06
446.245	115.06
446.466	99.06
446.687	81.06
446.908	103.06
447.129	79.06
447.35	93.06
447.571	92.06
447.792	89.06
448.013	94.06
448.234	85.06
448.455	87.06
448.675	89.06
448.896	117.06
449.117	84.06
449.338	95.06
449.559	111.06
449.779	112.06
450	87.06
450.221	85.06
450.442	86.06
450.662	107.06
450.883	92.06
451.104	92.06
451.324	85.06
451.545	87.06
451.766	75.06
451.986	84.06
452.207	72.06
452.428	84.06
452.648	87.06
452.869	88.06
453.089	95.06
453.31	93.06
453.53	80.06
453.751	78.06
453.971	97.06
454.192	97.06
454.412	79.06
454.633	76.06
454.853	76.06
455.073	86.06
455.294	82.06
455.514	90.06
455.734	80.06
455.955	79.06
456.175	77.06
456.395	73.06
456.616	90.06
456.836	93.06
457.056	86.06
457.276	86.06
457.497	72.06
457.717	83.06
457.937	84.06
458.157	89.06
458.377	85.06
458.598	106.06
458.818	116.06
459.038	122.06
459.258	106.06
459.478	88.06
459.698	80.06
459.918	88.06
460.138	83.06
460.358	80.06
460.578	74.06
460.798	86.06
461.018	90.06
461.238	87.06
461.458	95.06
461.678	82.06
461.898	90.06
462.118	79.06
462.338	89.06
462.558	87.06
462.777	78.06
462.997	82.06
463.217	76.06
463.437	66.06
463.657	85.06
463.876	72.06
464.096	84.06
464.316	90.06
464.536	72.06
464.755	99.06
464.975	102.06
465.195	135.06
465.414	129.06
465.634	83.06
465.854	84.06
466.073	104.06
466.293	92.06
466.512	96.06
466.732	67.06
466.951	89.06
467.171	84.06
467.391	89.06
467.61	91.06
467.829	86.06
468.049	106.06
468.268	88.06
468.488	96.06
468.707	88.06
468.927	94.06
469.146	83.06
469.365	77.06
469.585	89.06
469.804	67.06
470.023	95.06
470.243	80.06
470.462	99.06
470.681	104.06
470.901	75.06
471.12	79.06
471.339	69.06
471.558	69.06
471.777	90.06
471.997	90.06
472.216	96.06
472.435	139.06
472.654	98.06
472.873	75.06
473.092	95.06
473.311	74.06
473.53	73.06
473.749	80.06
473.968	72.06
474.187	98.06
474.406	105.06
474.625	94.06
474.844	84.06
475.063	93.06
475.282	103.06
475.501	78.06
475.72	77.06
475.939	83.06
476.158	80.06
476.377	70.06
476.596	91.06
476.814	81.06
477.033	91.06
477.252	86.06
477.471	99.06
477.69	80.06
477.908	86.06
478.127	98.06
478.346	99.06
478.564	91.06
478.783	98.06
479.002	80.06
479.22	96.06
479.439	97.06
479.658	87.06
479.876	88.06
480.095	88.06
480.313	101.06
480.532	86.06
480.751	90.06
480.969	102.06
481.188	181.06
481.406	135.06
481.624	89.06
481.843	76.06
482.061	85.06
482.28	93.06
482.498	74.06
482.717	82.06
482.935	77.06
483.153	80.06
483.372	94.06
483.59	100.06
483.808	88.06
484.027	83.06
484.245	94.06
484.463	104.06
484.681	90.06
484.9	83.06
485.118	96.06
485.336	95.06
485.554	97.06
485.772	99.06
485.99	98.06
486.209	76.06
486.427	98.06
486.645	100.06
486.863	112.06
487.081	101.06
487.299	88.06
487.517	99.06
487.735	88.06
487.953	84.06
488.171	93.06
488.389	92.06
488.607	97.06
488.825	91.06
489.043	80.06
489.261	94.06
489.479	79.06
489.696	86.06
489.914	101.06
490.132	80.06
490.35	66.06
490.568	86.06
490.786	93.06
491.003	78.06
491.221	83.06
491.439	89.06
491.657	96.06
491.874	92.06
492.092	85.06
492.31	95.06
492.527	98.06
492.745	86.06
492.963	88.06
493.18	102.06
493.398	96.06
493.615	98.06
493.833	90.06
494.05	102.06
494.268	94.06
494.485	82.06
494.703	73.06
494.92	87.06
495.138	67.06
495.355	91.06
495.573	81.06
495.79	88.06
496.008	99.06
496.225	87.06
496.442	80.06
496.66	87.06
496.877	89.06
497.094	94.06
497.312	91.06
497.529	74.06
497.746	94.06
497.963	79.06
498.181	92.06
498.398	91.06
498.615	107.06
498.832	88.06
499.049	95.06
499.267	80.06
499.484	108.06
499.701	85.06
499.918	102.06
500.135	95.06
500.352	94.06
500.569	92.06
500.786	90.06
501.003	97.06
501.22	83.06
501.437	97.06
501.654	93.06
501.871	101.06
502.088	87.06
502.305	90.06
502.522	87.06
502.739	79.06
502.956	98.06
503.172	88.06
503.389	89.06
503.606	103.06
503.823	94.06
504.04	82.06
504.256	93.06
504.473	87.06
504.69	84.06
504.907	90.06
505.123	86.06
505.34	94.06
505.557	91.06
505.773	82.06
505.99	77.06
506.207	86.06
506.423	87.06
506.64	101.06
506.856	73.06
507.073	86.06
507.289	86.06
507.506	82.06
507.722	103.06
507.939	94.06
508.155	82.06
508.372	101.06
508.588	82.06
508.805	96.06
509.021	106.06
509.238	102.06
509.454	83.06
509.67	82.06
509.887	90.06
510.103	119.06
510.319	192.06
510.536	613.06
510.752	1848.06
510.968	523.06
511.184	120.06
511.401	100.06
511.617	94.06
511.833	90.06
512.049	92.06
512.265	90.06
512.481	92.06
512.698	89.06
512.914	90.06
513.13	98.06
513.346	75.06
513.562	87.06
513.778	84.06
513.994	109.06
514.21	94.06
514.426	112.06
514.642	117.06
514.858	115.06
515.074	145.06
515.29	355.06
515.506	1060.06
515.721	398.06
515.937	128.06
516.153	87.06
516.369	71.06
516.585	78.06
516.801	83.06
517.016	105.06
