Data from Uncirc_1982_H10_HRD10591_00001.txt Node
Date: Wed Jan 03 12:29:25 EST 2024
User: Yrep
Spectrometer: HR+D1059
Trigger mode: 1
Integration Time (sec): 1.000000E-1
Scans to average: 1
Electric dark correction enabled: true
Nonlinearity correction enabled: false
Boxcar width: 0
XAxis mode: Wavelengths
Number of Pixels in Spectrum: 2048
>>>>>Begin Spectral Data<<<<<
223.165	-13.81
223.4	-13.81
223.635	-13.81
223.869	-22.81
224.104	-18.81
224.338	0.19
224.573	-14.81
224.808	-12.81
225.042	-12.81
225.277	-11.81
225.511	-10.81
225.746	-3.81
225.98	15.19
226.215	27.19
226.449	18.19
226.683	8.19
226.918	25.19
227.152	28.19
227.387	28.19
227.621	39.19
227.856	42.19
228.09	46.19
228.324	50.19
228.559	52.19
228.793	55.19
229.027	70.19
229.262	60.19
229.496	77.19
229.73	75.19
229.964	87.19
230.199	70.19
230.433	82.19
230.667	73.19
230.901	88.19
231.136	75.19
231.37	79.19
231.604	92.19
231.838	91.19
232.072	90.19
232.306	84.19
232.541	82.19
232.775	80.19
233.009	79.19
233.243	80.19
233.477	81.19
233.711	92.19
233.945	93.19
234.179	77.19
234.413	98.19
234.647	86.19
234.881	79.19
235.115	91.19
235.349	84.19
235.583	82.19
235.817	73.19
236.051	86.19
236.285	70.19
236.519	84.19
236.753	82.19
236.987	85.19
237.221	87.19
237.455	80.19
237.689	90.19
237.922	83.19
238.156	74.19
238.39	79.19
238.624	70.19
238.858	83.19
239.091	98.19
239.325	79.19
239.559	83.19
239.793	88.19
240.027	83.19
240.26	88.19
240.494	83.19
240.728	66.19
240.961	72.19
241.195	93.19
241.429	70.19
241.662	85.19
241.896	78.19
242.13	88.19
242.363	78.19
242.597	85.19
242.83	76.19
243.064	87.19
243.298	62.19
243.531	87.19
243.765	76.19
243.998	68.19
244.232	93.19
244.465	80.19
244.699	78.19
244.932	75.19
245.166	85.19
245.399	74.19
245.633	84.19
245.866	78.19
246.099	69.19
246.333	80.19
246.566	83.19
246.8	68.19
247.033	96.19
247.266	83.19
247.5	83.19
247.733	86.19
247.966	100.19
248.2	82.19
248.433	76.19
248.666	88.19
248.899	82.19
249.133	96.19
249.366	98.19
249.599	73.19
249.832	76.19
250.066	79.19
250.299	85.19
250.532	74.19
250.765	82.19
250.998	79.19
251.231	74.19
251.465	91.19
251.698	82.19
251.931	78.19
252.164	70.19
252.397	85.19
252.63	75.19
252.863	80.19
253.096	85.19
253.329	78.19
253.562	88.19
253.795	75.19
254.028	79.19
254.261	88.19
254.494	82.19
254.727	82.19
254.96	80.19
255.193	78.19
255.426	85.19
255.659	76.19
255.892	86.19
256.124	67.19
256.357	87.19
256.59	80.19
256.823	86.19
257.056	86.19
257.289	89.19
257.521	78.19
257.754	80.19
257.987	86.19
258.22	71.19
258.452	82.19
258.685	79.19
258.918	78.19
259.151	82.19
259.383	94.19
259.616	90.19
259.849	97.19
260.081	81.19
260.314	76.19
260.547	94.19
260.779	91.19
261.012	83.19
261.244	97.19
261.477	92.19
261.71	98.19
261.942	97.19
262.175	94.19
262.407	71.19
262.64	78.19
262.872	100.19
263.105	93.19
263.337	84.19
263.57	83.19
263.802	80.19
264.035	81.19
264.267	88.19
264.499	82.19
264.732	80.19
264.964	75.19
265.197	104.19
265.429	83.19
265.661	100.19
265.894	72.19
266.126	81.19
266.358	99.19
266.591	83.19
266.823	101.19
267.055	84.19
267.287	71.19
267.52	93.19
267.752	79.19
267.984	96.19
268.216	95.19
268.448	89.19
268.681	77.19
268.913	92.19
269.145	90.19
269.377	78.19
269.609	82.19
269.841	89.19
270.073	86.19
270.306	92.19
270.538	88.19
270.77	87.19
271.002	75.19
271.234	79.19
271.466	82.19
271.698	88.19
271.93	78.19
272.162	93.19
272.394	76.19
272.626	88.19
272.858	83.19
273.09	92.19
273.322	88.19
273.553	81.19
273.785	86.19
274.017	83.19
274.249	78.19
274.481	73.19
274.713	94.19
274.945	94.19
275.176	89.19
275.408	78.19
275.64	86.19
275.872	92.19
276.104	90.19
276.335	94.19
276.567	85.19
276.799	93.19
277.031	88.19
277.262	74.19
277.494	91.19
277.726	98.19
277.957	96.19
278.189	90.19
278.421	79.19
278.652	71.19
278.884	90.19
279.115	97.19
279.347	92.19
279.579	76.19
279.81	88.19
280.042	99.19
280.273	97.19
280.505	90.19
280.736	100.19
280.968	90.19
281.199	104.19
281.431	90.19
281.662	92.19
281.894	90.19
282.125	91.19
282.356	104.19
282.588	116.19
282.819	95.19
283.051	102.19
283.282	82.19
283.513	90.19
283.745	89.19
283.976	79.19
284.207	96.19
284.439	77.19
284.67	87.19
284.901	85.19
285.132	100.19
285.364	98.19
285.595	90.19
285.826	95.19
286.057	75.19
286.288	79.19
286.52	91.19
286.751	78.19
286.982	85.19
287.213	85.19
287.444	84.19
287.675	93.19
287.906	94.19
288.138	82.19
288.369	86.19
288.6	93.19
288.831	96.19
289.062	94.19
289.293	95.19
289.524	87.19
289.755	93.19
289.986	68.19
290.217	97.19
290.448	88.19
290.679	79.19
290.91	96.19
291.141	80.19
291.371	95.19
291.602	88.19
291.833	80.19
292.064	92.19
292.295	108.19
292.526	86.19
292.757	95.19
292.987	89.19
293.218	97.19
293.449	84.19
293.68	91.19
293.91	100.19
294.141	94.19
294.372	85.19
294.603	99.19
294.833	99.19
295.064	91.19
295.295	84.19
295.525	89.19
295.756	94.19
295.987	100.19
296.217	108.19
296.448	107.19
296.679	85.19
296.909	99.19
297.14	94.19
297.37	103.19
297.601	93.19
297.831	78.19
298.062	84.19
298.292	71.19
298.523	88.19
298.753	93.19
298.984	102.19
299.214	94.19
299.445	93.19
299.675	87.19
299.905	94.19
300.136	96.19
300.366	101.19
300.597	90.19
300.827	96.19
301.057	78.19
301.288	92.19
301.518	100.19
301.748	100.19
301.979	88.19
302.209	96.19
302.439	88.19
302.669	79.19
302.9	91.19
303.13	104.19
303.36	92.19
303.59	103.19
303.82	105.19
304.051	90.19
304.281	97.19
304.511	89.19
304.741	76.19
304.971	94.19
305.201	90.19
305.431	100.19
305.661	107.19
305.891	88.19
306.121	95.19
306.352	96.19
306.582	82.19
306.812	94.19
307.042	90.19
307.272	88.19
307.502	98.19
307.731	96.19
307.961	90.19
308.191	90.19
308.421	92.19
308.651	94.19
308.881	85.19
309.111	94.19
309.341	104.19
309.571	99.19
309.8	97.19
310.03	89.19
310.26	95.19
310.49	102.19
310.72	90.19
310.949	96.19
311.179	97.19
311.409	94.19
311.639	91.19
311.868	91.19
312.098	91.19
312.328	93.19
312.557	93.19
312.787	103.19
313.017	101.19
313.246	101.19
313.476	76.19
313.706	98.19
313.935	99.19
314.165	99.19
314.394	85.19
314.624	102.19
314.853	105.19
315.083	90.19
315.312	94.19
315.542	106.19
315.771	89.19
316.001	82.19
316.23	95.19
316.46	85.19
316.689	92.19
316.919	94.19
317.148	94.19
317.377	100.19
317.607	87.19
317.836	98.19
318.065	96.19
318.295	110.19
318.524	95.19
318.753	97.19
318.983	90.19
319.212	91.19
319.441	111.19
319.67	87.19
319.9	83.19
320.129	102.19
320.358	85.19
320.587	97.19
320.816	96.19
321.046	103.19
321.275	105.19
321.504	83.19
321.733	93.19
321.962	97.19
322.191	104.19
322.42	99.19
322.649	110.19
322.878	96.19
323.108	104.19
323.337	102.19
323.566	108.19
323.795	131.19
324.024	156.19
324.253	290.19
324.482	570.19
324.71	1160.19
324.939	1517.19
325.168	566.19
325.397	181.19
325.626	135.19
325.855	109.19
326.084	124.19
326.313	123.19
326.542	128.19
326.77	185.19
326.999	353.19
327.228	703.19
327.457	1237.19
327.686	1005.19
327.914	284.19
328.143	162.19
328.372	125.19
328.6	112.19
328.829	87.19
329.058	115.19
329.287	104.19
329.515	92.19
329.744	111.19
329.972	92.19
330.201	104.19
330.43	122.19
330.658	122.19
330.887	132.19
331.115	107.19
331.344	89.19
331.572	95.19
331.801	88.19
332.03	103.19
332.258	86.19
332.486	88.19
332.715	110.19
332.943	93.19
333.172	99.19
333.4	94.19
333.629	96.19
333.857	104.19
334.085	104.19
334.314	105.19
334.542	123.19
334.771	116.19
334.999	101.19
335.227	91.19
335.455	84.19
335.684	97.19
335.912	98.19
336.14	108.19
336.369	102.19
336.597	92.19
336.825	86.19
337.053	101.19
337.281	86.19
337.51	102.19
337.738	92.19
337.966	83.19
338.194	98.19
338.422	102.19
338.65	95.19
338.878	95.19
339.106	99.19
339.334	102.19
339.562	95.19
339.79	83.19
340.018	87.19
340.246	93.19
340.474	96.19
340.702	108.19
340.93	91.19
341.158	86.19
341.386	100.19
341.614	98.19
341.842	103.19
342.07	95.19
342.298	98.19
342.526	94.19
342.754	110.19
342.981	83.19
343.209	89.19
343.437	99.19
343.665	99.19
343.893	95.19
344.12	97.19
344.348	104.19
344.576	96.19
344.804	99.19
345.031	91.19
345.259	96.19
345.487	88.19
345.714	86.19
345.942	78.19
346.17	90.19
346.397	99.19
346.625	86.19
346.853	90.19
347.08	92.19
347.308	99.19
347.535	87.19
347.763	83.19
347.99	86.19
348.218	101.19
348.445	111.19
348.673	100.19
348.9	84.19
349.128	90.19
349.355	94.19
349.583	90.19
349.81	103.19
350.037	91.19
350.265	98.19
350.492	97.19
350.72	89.19
350.947	107.19
351.174	106.19
351.402	104.19
351.629	94.19
351.856	93.19
352.083	107.19
352.311	121.19
352.538	101.19
352.765	105.19
352.992	108.19
353.22	114.19
353.447	89.19
353.674	100.19
353.901	103.19
354.128	103.19
354.355	107.19
354.583	101.19
354.81	90.19
355.037	98.19
355.264	104.19
355.491	103.19
355.718	97.19
355.945	103.19
356.172	97.19
356.399	116.19
356.626	95.19
356.853	90.19
357.08	101.19
357.307	96.19
357.534	77.19
357.761	103.19
357.988	103.19
358.215	110.19
358.441	107.19
358.668	102.19
358.895	112.19
359.122	98.19
359.349	99.19
359.576	85.19
359.802	82.19
360.029	102.19
360.256	112.19
360.483	107.19
360.709	86.19
360.936	104.19
361.163	88.19
361.39	108.19
361.616	90.19
361.843	87.19
362.07	93.19
362.296	100.19
362.523	84.19
362.749	85.19
362.976	91.19
363.203	98.19
363.429	95.19
363.656	94.19
363.882	82.19
364.109	99.19
364.335	111.19
364.562	90.19
364.788	90.19
365.015	90.19
365.241	93.19
365.468	97.19
365.694	103.19
365.92	97.19
366.147	77.19
366.373	79.19
366.599	84.19
366.826	101.19
367.052	92.19
367.278	96.19
367.505	84.19
367.731	85.19
367.957	88.19
368.184	95.19
368.41	91.19
368.636	109.19
368.862	100.19
369.089	107.19
369.315	77.19
369.541	90.19
369.767	97.19
369.993	99.19
370.219	95.19
370.445	96.19
370.672	103.19
370.898	86.19
371.124	90.19
371.35	79.19
371.576	84.19
371.802	101.19
372.028	100.19
372.254	98.19
372.48	108.19
372.706	95.19
372.932	75.19
373.158	101.19
373.384	82.19
373.61	88.19
373.835	89.19
374.061	108.19
374.287	88.19
374.513	101.19
374.739	94.19
374.965	101.19
375.191	90.19
375.416	84.19
375.642	84.19
375.868	100.19
376.094	96.19
376.319	90.19
376.545	99.19
376.771	107.19
376.997	91.19
377.222	106.19
377.448	96.19
377.674	84.19
377.899	102.19
378.125	87.19
378.35	103.19
378.576	96.19
378.802	94.19
379.027	101.19
379.253	107.19
379.478	93.19
379.704	108.19
379.929	104.19
380.155	91.19
380.38	101.19
380.606	98.19
380.831	124.19
381.057	107.19
381.282	111.19
381.507	113.19
381.733	93.19
381.958	104.19
382.184	119.19
382.409	99.19
382.634	109.19
382.86	117.19
383.085	113.19
383.31	103.19
383.535	122.19
383.761	111.19
383.986	127.19
384.211	117.19
384.436	130.19
384.662	135.19
384.887	143.19
385.112	150.19
385.337	130.19
385.562	132.19
385.787	137.19
386.013	133.19
386.238	151.19
386.463	138.19
386.688	130.19
386.913	124.19
387.138	137.19
387.363	127.19
387.588	120.19
387.813	121.19
388.038	152.19
388.263	148.19
388.488	150.19
388.713	127.19
388.938	93.19
389.163	90.19
389.387	103.19
389.612	91.19
389.837	93.19
390.062	89.19
390.287	95.19
390.512	80.19
390.736	94.19
390.961	91.19
391.186	93.19
391.411	87.19
391.636	91.19
391.86	93.19
392.085	92.19
392.31	101.19
392.534	92.19
392.759	92.19
392.984	95.19
393.208	90.19
393.433	94.19
393.658	94.19
393.882	84.19
394.107	86.19
394.331	88.19
394.556	91.19
394.78	96.19
395.005	96.19
395.229	95.19
395.454	100.19
395.678	96.19
395.903	94.19
396.127	82.19
396.352	88.19
396.576	95.19
396.801	99.19
397.025	84.19
397.249	85.19
397.474	84.19
397.698	96.19
397.922	98.19
398.147	94.19
398.371	77.19
398.595	103.19
398.82	88.19
399.044	75.19
399.268	91.19
399.492	82.19
399.717	94.19
399.941	91.19
400.165	102.19
400.389	84.19
400.613	100.19
400.837	99.19
401.062	76.19
401.286	96.19
401.51	88.19
401.734	89.19
401.958	78.19
402.182	101.19
402.406	112.19
402.63	106.19
402.854	90.19
403.078	81.19
403.302	92.19
403.526	84.19
403.75	87.19
403.974	90.19
404.198	90.19
404.422	98.19
404.645	102.19
404.869	87.19
405.093	95.19
405.317	77.19
405.541	88.19
405.765	95.19
405.988	108.19
406.212	116.19
406.436	147.19
406.66	109.19
406.883	101.19
407.107	92.19
407.331	99.19
407.555	104.19
407.778	97.19
408.002	102.19
408.226	89.19
408.449	94.19
408.673	96.19
408.896	98.19
409.12	77.19
409.344	93.19
409.567	96.19
409.791	100.19
410.014	92.19
410.238	99.19
410.461	92.19
410.685	105.19
410.908	114.19
411.132	91.19
411.355	105.19
411.578	100.19
411.802	84.19
412.025	101.19
412.249	110.19
412.472	99.19
412.695	95.19
412.919	100.19
413.142	79.19
413.365	102.19
413.589	90.19
413.812	78.19
414.035	90.19
414.258	91.19
414.482	115.19
414.705	106.19
414.928	88.19
415.151	95.19
415.374	95.19
415.597	72.19
415.821	87.19
416.044	90.19
416.267	95.19
416.49	84.19
416.713	99.19
416.936	102.19
417.159	84.19
417.382	93.19
417.605	102.19
417.828	82.19
418.051	110.19
418.274	92.19
418.497	92.19
418.72	94.19
418.943	95.19
419.166	96.19
419.389	91.19
419.611	99.19
419.834	91.19
420.057	99.19
420.28	93.19
420.503	86.19
420.726	87.19
420.948	93.19
421.171	81.19
421.394	94.19
421.617	95.19
421.839	104.19
422.062	98.19
422.285	73.19
422.507	95.19
422.73	101.19
422.953	98.19
423.175	80.19
423.398	91.19
423.621	88.19
423.843	85.19
424.066	98.19
424.288	88.19
424.511	98.19
424.733	91.19
424.956	99.19
425.178	80.19
425.401	94.19
425.623	90.19
425.846	92.19
426.068	80.19
426.291	98.19
426.513	102.19
426.735	89.19
426.958	102.19
427.18	99.19
427.402	112.19
427.625	119.19
427.847	112.19
428.069	86.19
428.292	75.19
428.514	79.19
428.736	77.19
428.958	96.19
429.181	83.19
429.403	79.19
429.625	98.19
429.847	96.19
430.069	84.19
430.292	95.19
430.514	99.19
430.736	90.19
430.958	91.19
431.18	92.19
431.402	87.19
431.624	87.19
431.846	95.19
432.068	85.19
432.29	82.19
432.512	85.19
432.734	83.19
432.956	90.19
433.178	84.19
433.4	108.19
433.622	98.19
433.844	91.19
434.066	87.19
434.287	90.19
434.509	93.19
434.731	87.19
434.953	87.19
435.175	91.19
435.397	93.19
435.618	92.19
435.84	97.19
436.062	121.19
436.284	111.19
436.505	98.19
436.727	92.19
436.949	104.19
437.17	106.19
437.392	87.19
437.614	88.19
437.835	95.19
438.057	106.19
438.278	80.19
438.5	88.19
438.721	108.19
438.943	83.19
439.165	95.19
439.386	95.19
439.608	104.19
439.829	101.19
440.05	104.19
440.272	115.19
440.493	96.19
440.715	93.19
440.936	96.19
441.158	81.19
441.379	78.19
441.6	110.19
441.822	89.19
442.043	77.19
442.264	100.19
442.486	91.19
442.707	86.19
442.928	103.19
443.149	108.19
443.371	121.19
443.592	114.19
443.813	94.19
444.034	84.19
444.255	92.19
444.476	93.19
444.698	79.19
444.919	87.19
445.14	133.19
445.361	102.19
445.582	102.19
445.803	125.19
446.024	115.19
446.245	107.19
446.466	94.19
446.687	88.19
446.908	82.19
447.129	92.19
447.35	88.19
447.571	104.19
447.792	96.19
448.013	99.19
448.234	91.19
448.455	104.19
448.675	85.19
448.896	95.19
449.117	90.19
449.338	98.19
449.559	112.19
449.779	122.19
450	88.19
450.221	95.19
450.442	88.19
450.662	92.19
450.883	90.19
451.104	88.19
451.324	100.19
451.545	93.19
451.766	94.19
451.986	94.19
452.207	87.19
452.428	91.19
452.648	100.19
452.869	100.19
453.089	87.19
453.31	93.19
453.53	92.19
453.751	104.19
453.971	102.19
454.192	102.19
454.412	86.19
454.633	85.19
454.853	81.19
455.073	76.19
455.294	85.19
455.514	88.19
455.734	82.19
455.955	102.19
456.175	102.19
456.395	95.19
456.616	89.19
456.836	93.19
457.056	85.19
457.276	82.19
457.497	84.19
457.717	86.19
457.937	98.19
458.157	83.19
458.377	100.19
458.598	95.19
458.818	109.19
459.038	110.19
459.258	104.19
459.478	100.19
459.698	75.19
459.918	80.19
460.138	92.19
460.358	88.19
460.578	100.19
460.798	92.19
461.018	84.19
461.238	93.19
461.458	86.19
461.678	91.19
461.898	86.19
462.118	83.19
462.338	77.19
462.558	86.19
462.777	98.19
462.997	103.19
463.217	85.19
463.437	92.19
463.657	89.19
463.876	77.19
464.096	88.19
464.316	89.19
464.536	91.19
464.755	86.19
464.975	91.19
465.195	113.19
465.414	118.19
465.634	93.19
465.854	92.19
466.073	92.19
466.293	91.19
466.512	95.19
466.732	78.19
466.951	79.19
467.171	90.19
467.391	93.19
467.61	112.19
467.829	97.19
468.049	100.19
468.268	100.19
468.488	86.19
468.707	92.19
468.927	94.19
469.146	92.19
469.365	98.19
469.585	70.19
469.804	85.19
470.023	70.19
470.243	82.19
470.462	89.19
470.681	106.19
470.901	93.19
471.12	100.19
471.339	94.19
471.558	84.19
471.777	111.19
471.997	104.19
472.216	96.19
472.435	130.19
472.654	97.19
472.873	104.19
473.092	98.19
473.311	83.19
473.53	83.19
473.749	71.19
473.968	96.19
474.187	102.19
474.406	97.19
474.625	91.19
474.844	92.19
475.063	72.19
475.282	84.19
475.501	78.19
475.72	88.19
475.939	73.19
476.158	93.19
476.377	104.19
476.596	79.19
476.814	114.19
477.033	109.19
477.252	100.19
477.471	78.19
477.69	86.19
477.908	86.19
478.127	83.19
478.346	68.19
478.564	95.19
478.783	102.19
479.002	80.19
479.22	91.19
479.439	105.19
479.658	93.19
479.876	93.19
480.095	84.19
480.313	94.19
480.532	102.19
480.751	77.19
480.969	113.19
481.188	154.19
481.406	120.19
481.624	102.19
481.843	82.19
482.061	87.19
482.28	93.19
482.498	94.19
482.717	106.19
482.935	98.19
483.153	104.19
483.372	93.19
483.59	89.19
483.808	91.19
484.027	96.19
484.245	86.19
484.463	94.19
484.681	98.19
484.9	112.19
485.118	105.19
485.336	87.19
485.554	105.19
485.772	109.19
485.99	106.19
486.209	119.19
486.427	108.19
486.645	114.19
486.863	104.19
487.081	101.19
487.299	86.19
487.517	108.19
487.735	95.19
487.953	90.19
488.171	86.19
488.389	105.19
488.607	87.19
488.825	85.19
489.043	94.19
489.261	98.19
489.479	90.19
489.696	94.19
489.914	88.19
490.132	98.19
490.35	90.19
490.568	80.19
490.786	88.19
491.003	98.19
491.221	86.19
491.439	109.19
491.657	99.19
491.874	92.19
492.092	106.19
492.31	92.19
492.527	95.19
492.745	88.19
492.963	89.19
493.18	95.19
493.398	91.19
493.615	94.19
493.833	95.19
494.05	92.19
494.268	103.19
494.485	87.19
494.703	86.19
494.92	79.19
495.138	84.19
495.355	109.19
495.573	88.19
495.79	107.19
496.008	110.19
496.225	101.19
496.442	95.19
496.66	88.19
496.877	88.19
497.094	84.19
497.312	88.19
497.529	87.19
497.746	90.19
497.963	82.19
498.181	92.19
498.398	94.19
498.615	91.19
498.832	103.19
499.049	95.19
499.267	98.19
499.484	85.19
499.701	102.19
499.918	88.19
500.135	92.19
500.352	109.19
500.569	92.19
500.786	104.19
501.003	86.19
501.22	96.19
501.437	94.19
501.654	95.19
501.871	105.19
502.088	90.19
502.305	93.19
502.522	93.19
502.739	90.19
502.956	87.19
503.172	92.19
503.389	94.19
503.606	111.19
503.823	95.19
504.04	99.19
504.256	89.19
504.473	106.19
504.69	90.19
504.907	91.19
505.123	90.19
505.34	85.19
505.557	91.19
505.773	83.19
505.99	96.19
506.207	91.19
506.423	99.19
506.64	102.19
506.856	93.19
507.073	97.19
507.289	99.19
507.506	100.19
507.722	109.19
507.939	114.19
508.155	88.19
508.372	95.19
508.588	74.19
508.805	100.19
509.021	114.19
509.238	111.19
509.454	97.19
509.67	89.19
509.887	105.19
510.103	107.19
510.319	163.19
510.536	471.19
510.752	1356.19
510.968	416.19
511.184	120.19
511.401	96.19
511.617	98.19
511.833	97.19
512.049	104.19
512.265	90.19
512.481	86.19
512.698	86.19
512.914	95.19
513.13	89.19
513.346	95.19
513.562	85.19
513.778	95.19
513.994	94.19
514.21	91.19
514.426	100.19
514.642	110.19
514.858	118.19
515.074	132.19
515.29	252.19
