Data from Uncirc_1982_H10_HRD10591_00023.txt Node
Date: Wed Jan 03 12:29:29 EST 2024
User: Yrep
Spectrometer: HR+D1059
Trigger mode: 1
Integration Time (sec): 1.000000E-1
Scans to average: 1
Electric dark correction enabled: true
Nonlinearity correction enabled: false
Boxcar width: 0
XAxis mode: Wavelengths
Number of Pixels in Spectrum: 2048
>>>>>Begin Spectral Data<<<<<
223.165	-12.56
223.4	-12.56
223.635	-12.56
223.869	-18.56
224.104	-22.56
224.338	-9.56
224.573	-12.56
224.808	-17.56
225.042	8.44
225.277	3.44
225.511	-3.56
225.746	0.44
225.98	-3.56
226.215	13.44
226.449	23.44
226.683	18.44
226.918	13.44
227.152	19.44
227.387	29.44
227.621	40.44
227.856	45.44
228.09	53.44
228.324	45.44
228.559	58.44
228.793	59.44
229.027	64.44
229.262	53.44
229.496	69.44
229.73	78.44
229.964	74.44
230.199	68.44
230.433	78.44
230.667	81.44
230.901	79.44
231.136	83.44
231.37	68.44
231.604	81.44
231.838	89.44
232.072	92.44
232.306	85.44
232.541	85.44
232.775	76.44
233.009	75.44
233.243	67.44
233.477	78.44
233.711	85.44
233.945	87.44
234.179	78.44
234.413	88.44
234.647	78.44
234.881	79.44
235.115	78.44
235.349	77.44
235.583	93.44
235.817	76.44
236.051	85.44
236.285	86.44
236.519	88.44
236.753	85.44
236.987	66.44
237.221	59.44
237.455	81.44
237.689	89.44
237.922	84.44
238.156	76.44
238.39	87.44
238.624	65.44
238.858	75.44
239.091	66.44
239.325	74.44
239.559	82.44
239.793	74.44
240.027	69.44
240.26	74.44
240.494	71.44
240.728	74.44
240.961	67.44
241.195	67.44
241.429	77.44
241.662	74.44
241.896	72.44
242.13	69.44
242.363	76.44
242.597	75.44
242.83	76.44
243.064	78.44
243.298	79.44
243.531	71.44
243.765	75.44
243.998	76.44
244.232	78.44
244.465	87.44
244.699	77.44
244.932	90.44
245.166	68.44
245.399	83.44
245.633	93.44
245.866	99.44
246.099	77.44
246.333	82.44
246.566	87.44
246.8	74.44
247.033	81.44
247.266	82.44
247.5	77.44
247.733	85.44
247.966	70.44
248.2	86.44
248.433	87.44
248.666	78.44
248.899	71.44
249.133	89.44
249.366	92.44
249.599	88.44
249.832	77.44
250.066	91.44
250.299	76.44
250.532	69.44
250.765	75.44
250.998	95.44
251.231	76.44
251.465	71.44
251.698	77.44
251.931	63.44
252.164	86.44
252.397	81.44
252.63	77.44
252.863	74.44
253.096	86.44
253.329	95.44
253.562	81.44
253.795	82.44
254.028	77.44
254.261	75.44
254.494	82.44
254.727	83.44
254.96	78.44
255.193	85.44
255.426	79.44
255.659	81.44
255.892	86.44
256.124	101.44
256.357	78.44
256.59	74.44
256.823	70.44
257.056	75.44
257.289	93.44
257.521	79.44
257.754	86.44
257.987	90.44
258.22	86.44
258.452	86.44
258.685	88.44
258.918	83.44
259.151	78.44
259.383	89.44
259.616	88.44
259.849	80.44
260.081	77.44
260.314	91.44
260.547	78.44
260.779	89.44
261.012	81.44
261.244	86.44
261.477	84.44
261.71	78.44
261.942	98.44
262.175	105.44
262.407	89.44
262.64	89.44
262.872	92.44
263.105	75.44
263.337	87.44
263.57	74.44
263.802	81.44
264.035	90.44
264.267	83.44
264.499	91.44
264.732	93.44
264.964	88.44
265.197	83.44
265.429	78.44
265.661	89.44
265.894	77.44
266.126	98.44
266.358	74.44
266.591	87.44
266.823	90.44
267.055	87.44
267.287	79.44
267.52	67.44
267.752	70.44
267.984	94.44
268.216	73.44
268.448	83.44
268.681	77.44
268.913	81.44
269.145	85.44
269.377	83.44
269.609	76.44
269.841	92.44
270.073	93.44
270.306	79.44
270.538	68.44
270.77	94.44
271.002	84.44
271.234	87.44
271.466	95.44
271.698	84.44
271.93	99.44
272.162	77.44
272.394	94.44
272.626	77.44
272.858	82.44
273.09	80.44
273.322	81.44
273.553	79.44
273.785	91.44
274.017	91.44
274.249	72.44
274.481	86.44
274.713	80.44
274.945	81.44
275.176	76.44
275.408	79.44
275.64	91.44
275.872	86.44
276.104	99.44
276.335	92.44
276.567	96.44
276.799	94.44
277.031	104.44
277.262	78.44
277.494	86.44
277.726	83.44
277.957	87.44
278.189	79.44
278.421	81.44
278.652	95.44
278.884	91.44
279.115	94.44
279.347	89.44
279.579	67.44
279.81	82.44
280.042	93.44
280.273	101.44
280.505	92.44
280.736	85.44
280.968	87.44
281.199	92.44
281.431	75.44
281.662	95.44
281.894	94.44
282.125	90.44
282.356	105.44
282.588	122.44
282.819	93.44
283.051	94.44
283.282	87.44
283.513	88.44
283.745	86.44
283.976	95.44
284.207	92.44
284.439	81.44
284.67	83.44
284.901	101.44
285.132	85.44
285.364	68.44
285.595	82.44
285.826	74.44
286.057	97.44
286.288	74.44
286.52	83.44
286.751	87.44
286.982	90.44
287.213	101.44
287.444	99.44
287.675	73.44
287.906	79.44
288.138	90.44
288.369	89.44
288.6	95.44
288.831	94.44
289.062	91.44
289.293	89.44
289.524	98.44
289.755	94.44
289.986	85.44
290.217	77.44
290.448	97.44
290.679	78.44
290.91	99.44
291.141	98.44
291.371	86.44
291.602	92.44
291.833	92.44
292.064	93.44
292.295	96.44
292.526	103.44
292.757	89.44
292.987	74.44
293.218	85.44
293.449	94.44
293.68	75.44
293.91	85.44
294.141	91.44
294.372	101.44
294.603	86.44
294.833	106.44
295.064	91.44
295.295	90.44
295.525	85.44
295.756	92.44
295.987	100.44
296.217	117.44
296.448	105.44
296.679	91.44
296.909	86.44
297.14	95.44
297.37	84.44
297.601	93.44
297.831	87.44
298.062	91.44
298.292	101.44
298.523	93.44
298.753	92.44
298.984	89.44
299.214	82.44
299.445	92.44
299.675	93.44
299.905	99.44
300.136	73.44
300.366	78.44
300.597	89.44
300.827	83.44
301.057	92.44
301.288	95.44
301.518	93.44
301.748	91.44
301.979	83.44
302.209	98.44
302.439	91.44
302.669	86.44
302.9	94.44
303.13	82.44
303.36	81.44
303.59	105.44
303.82	107.44
304.051	111.44
304.281	102.44
304.511	87.44
304.741	81.44
304.971	93.44
305.201	91.44
305.431	90.44
305.661	99.44
305.891	92.44
306.121	98.44
306.352	93.44
306.582	97.44
306.812	94.44
307.042	102.44
307.272	82.44
307.502	92.44
307.731	97.44
307.961	81.44
308.191	102.44
308.421	80.44
308.651	72.44
308.881	81.44
309.111	100.44
309.341	99.44
309.571	101.44
309.8	83.44
310.03	100.44
310.26	85.44
310.49	102.44
310.72	95.44
310.949	99.44
311.179	75.44
311.409	75.44
311.639	79.44
311.868	73.44
312.098	91.44
312.328	84.44
312.557	85.44
312.787	111.44
313.017	92.44
313.246	95.44
313.476	93.44
313.706	95.44
313.935	101.44
314.165	106.44
314.394	90.44
314.624	84.44
314.853	106.44
315.083	88.44
315.312	94.44
315.542	90.44
315.771	88.44
316.001	102.44
316.23	85.44
316.46	102.44
316.689	95.44
316.919	94.44
317.148	87.44
317.377	100.44
317.607	84.44
317.836	92.44
318.065	85.44
318.295	84.44
318.524	98.44
318.753	87.44
318.983	97.44
319.212	107.44
319.441	103.44
319.67	94.44
319.9	92.44
320.129	95.44
320.358	103.44
320.587	84.44
320.816	97.44
321.046	108.44
321.275	95.44
321.504	85.44
321.733	83.44
321.962	94.44
322.191	82.44
322.42	106.44
322.649	95.44
322.878	108.44
323.108	115.44
323.337	117.44
323.566	123.44
323.795	139.44
324.024	181.44
324.253	320.44
324.482	663.44
324.71	1342.44
324.939	1715.44
325.168	657.44
325.397	221.44
325.626	143.44
325.855	122.44
326.084	122.44
326.313	119.44
326.542	132.44
326.77	197.44
326.999	392.44
327.228	762.44
327.457	1394.44
327.686	1083.44
327.914	305.44
328.143	174.44
328.372	138.44
328.6	132.44
328.829	118.44
329.058	124.44
329.287	98.44
329.515	110.44
329.744	104.44
329.972	115.44
330.201	111.44
330.43	126.44
330.658	115.44
330.887	119.44
331.115	111.44
331.344	88.44
331.572	93.44
331.801	85.44
332.03	104.44
332.258	101.44
332.486	83.44
332.715	102.44
332.943	105.44
333.172	94.44
333.4	101.44
333.629	115.44
333.857	111.44
334.085	97.44
334.314	111.44
334.542	117.44
334.771	115.44
334.999	94.44
335.227	93.44
335.455	88.44
335.684	105.44
335.912	108.44
336.14	100.44
336.369	103.44
336.597	106.44
336.825	97.44
337.053	105.44
337.281	83.44
337.51	81.44
337.738	91.44
337.966	86.44
338.194	78.44
338.422	97.44
338.65	99.44
338.878	93.44
339.106	74.44
339.334	100.44
339.562	96.44
339.79	87.44
340.018	84.44
340.246	90.44
340.474	100.44
340.702	89.44
340.93	102.44
341.158	87.44
341.386	85.44
341.614	87.44
341.842	85.44
342.07	94.44
342.298	94.44
342.526	93.44
342.754	94.44
342.981	87.44
343.209	106.44
343.437	103.44
343.665	96.44
343.893	102.44
344.12	103.44
344.348	88.44
344.576	91.44
344.804	79.44
345.031	96.44
345.259	86.44
345.487	94.44
345.714	106.44
345.942	100.44
346.17	86.44
346.397	95.44
346.625	91.44
346.853	99.44
347.08	85.44
347.308	105.44
347.535	90.44
347.763	94.44
347.99	104.44
348.218	96.44
348.445	98.44
348.673	96.44
348.9	99.44
349.128	93.44
349.355	95.44
349.583	79.44
349.81	97.44
350.037	102.44
350.265	92.44
350.492	101.44
350.72	88.44
350.947	95.44
351.174	101.44
351.402	98.44
351.629	100.44
351.856	103.44
352.083	97.44
352.311	106.44
352.538	89.44
352.765	102.44
352.992	112.44
353.22	113.44
353.447	109.44
353.674	107.44
353.901	106.44
354.128	103.44
354.355	107.44
354.583	94.44
354.81	107.44
355.037	89.44
355.264	89.44
355.491	100.44
355.718	93.44
355.945	91.44
356.172	97.44
356.399	98.44
356.626	106.44
356.853	107.44
357.08	107.44
357.307	95.44
357.534	91.44
357.761	98.44
357.988	83.44
358.215	98.44
358.441	105.44
358.668	97.44
358.895	92.44
359.122	95.44
359.349	99.44
359.576	108.44
359.802	109.44
360.029	109.44
360.256	103.44
360.483	93.44
360.709	77.44
360.936	85.44
361.163	99.44
361.39	90.44
361.616	85.44
361.843	100.44
362.07	93.44
362.296	84.44
362.523	88.44
362.749	85.44
362.976	91.44
363.203	92.44
363.429	87.44
363.656	84.44
363.882	75.44
364.109	81.44
364.335	92.44
364.562	99.44
364.788	90.44
365.015	79.44
365.241	92.44
365.468	99.44
365.694	73.44
365.92	87.44
366.147	86.44
366.373	90.44
366.599	89.44
366.826	75.44
367.052	84.44
367.278	92.44
367.505	101.44
367.731	95.44
367.957	90.44
368.184	102.44
368.41	108.44
368.636	97.44
368.862	119.44
369.089	102.44
369.315	96.44
369.541	90.44
369.767	88.44
369.993	94.44
370.219	87.44
370.445	87.44
370.672	85.44
370.898	79.44
371.124	91.44
371.35	109.44
371.576	80.44
371.802	85.44
372.028	103.44
372.254	89.44
372.48	93.44
372.706	85.44
372.932	89.44
373.158	82.44
373.384	86.44
373.61	99.44
373.835	98.44
374.061	94.44
374.287	97.44
374.513	94.44
374.739	98.44
374.965	92.44
375.191	86.44
375.416	101.44
375.642	85.44
375.868	100.44
376.094	96.44
376.319	79.44
376.545	97.44
376.771	98.44
376.997	71.44
377.222	87.44
377.448	89.44
377.674	86.44
377.899	91.44
378.125	86.44
378.35	77.44
378.576	95.44
378.802	99.44
379.027	93.44
379.253	91.44
379.478	101.44
379.704	90.44
379.929	107.44
380.155	98.44
380.38	103.44
380.606	100.44
380.831	102.44
381.057	94.44
381.282	94.44
381.507	103.44
381.733	112.44
381.958	94.44
382.184	107.44
382.409	102.44
382.634	101.44
382.86	97.44
383.085	107.44
383.31	83.44
383.535	119.44
383.761	102.44
383.986	120.44
384.211	108.44
384.436	97.44
384.662	121.44
384.887	103.44
385.112	109.44
385.337	97.44
385.562	108.44
385.787	101.44
386.013	101.44
386.238	104.44
386.463	115.44
386.688	113.44
386.913	110.44
387.138	123.44
387.363	110.44
387.588	114.44
387.813	100.44
388.038	107.44
388.263	123.44
388.488	117.44
388.713	101.44
388.938	108.44
389.163	96.44
389.387	102.44
389.612	92.44
389.837	107.44
390.062	92.44
390.287	85.44
390.512	91.44
390.736	100.44
390.961	87.44
391.186	97.44
391.411	75.44
391.636	91.44
391.86	93.44
392.085	97.44
392.31	87.44
392.534	84.44
392.759	80.44
392.984	90.44
393.208	88.44
393.433	95.44
393.658	89.44
393.882	106.44
394.107	88.44
394.331	77.44
394.556	100.44
394.78	104.44
395.005	98.44
395.229	95.44
395.454	78.44
395.678	83.44
395.903	88.44
396.127	100.44
396.352	86.44
396.576	92.44
396.801	85.44
397.025	97.44
397.249	98.44
397.474	89.44
397.698	88.44
397.922	101.44
398.147	90.44
398.371	86.44
398.595	83.44
398.82	86.44
399.044	91.44
399.268	94.44
399.492	97.44
399.717	90.44
399.941	92.44
400.165	89.44
400.389	93.44
400.613	98.44
400.837	87.44
401.062	103.44
401.286	79.44
401.51	89.44
401.734	83.44
401.958	106.44
402.182	112.44
402.406	126.44
402.63	96.44
402.854	95.44
403.078	74.44
403.302	102.44
403.526	90.44
403.75	84.44
403.974	94.44
404.198	102.44
404.422	92.44
404.645	108.44
404.869	91.44
405.093	92.44
405.317	93.44
405.541	101.44
405.765	100.44
405.988	97.44
406.212	133.44
406.436	189.44
406.66	120.44
406.883	95.44
407.107	100.44
407.331	101.44
407.555	100.44
407.778	91.44
408.002	103.44
408.226	77.44
408.449	92.44
408.673	104.44
408.896	103.44
409.12	99.44
409.344	81.44
409.567	81.44
409.791	85.44
410.014	106.44
410.238	99.44
410.461	97.44
410.685	89.44
410.908	110.44
411.132	110.44
411.355	88.44
411.578	104.44
411.802	94.44
412.025	93.44
412.249	77.44
412.472	94.44
412.695	103.44
412.919	105.44
413.142	87.44
413.365	90.44
413.589	102.44
413.812	84.44
414.035	89.44
414.258	84.44
414.482	85.44
414.705	87.44
414.928	90.44
415.151	87.44
415.374	99.44
415.597	100.44
415.821	89.44
416.044	103.44
416.267	97.44
416.49	91.44
416.713	102.44
416.936	89.44
417.159	86.44
417.382	86.44
417.605	104.44
417.828	88.44
418.051	85.44
418.274	83.44
418.497	89.44
418.72	82.44
418.943	90.44
419.166	100.44
419.389	88.44
419.611	89.44
419.834	78.44
420.057	87.44
420.28	98.44
420.503	91.44
420.726	104.44
420.948	86.44
421.171	87.44
421.394	89.44
421.617	81.44
421.839	87.44
422.062	81.44
422.285	85.44
422.507	105.44
422.73	111.44
422.953	89.44
423.175	78.44
423.398	91.44
423.621	98.44
423.843	86.44
424.066	81.44
424.288	102.44
424.511	85.44
424.733	92.44
424.956	104.44
425.178	85.44
425.401	99.44
425.623	107.44
425.846	93.44
426.068	95.44
426.291	89.44
426.513	83.44
426.735	93.44
426.958	104.44
427.18	98.44
427.402	126.44
427.625	134.44
427.847	112.44
428.069	91.44
428.292	94.44
428.514	84.44
428.736	73.44
428.958	87.44
429.181	88.44
429.403	86.44
429.625	79.44
429.847	95.44
430.069	104.44
430.292	88.44
430.514	87.44
430.736	76.44
430.958	81.44
431.18	76.44
431.402	83.44
431.624	78.44
431.846	93.44
432.068	92.44
432.29	96.44
432.512	94.44
432.734	96.44
432.956	99.44
433.178	101.44
433.4	79.44
433.622	88.44
433.844	89.44
434.066	89.44
434.287	81.44
434.509	85.44
434.731	85.44
434.953	87.44
435.175	98.44
435.397	91.44
435.618	86.44
435.84	103.44
436.062	129.44
436.284	99.44
436.505	95.44
436.727	97.44
436.949	89.44
437.17	90.44
437.392	86.44
437.614	99.44
437.835	96.44
438.057	104.44
438.278	99.44
438.5	81.44
438.721	94.44
438.943	77.44
439.165	98.44
439.386	78.44
439.608	90.44
439.829	95.44
440.05	97.44
440.272	123.44
440.493	92.44
440.715	79.44
440.936	73.44
441.158	77.44
441.379	67.44
441.6	85.44
441.822	100.44
442.043	93.44
442.264	109.44
442.486	87.44
442.707	91.44
442.928	91.44
443.149	116.44
443.371	104.44
443.592	112.44
443.813	107.44
444.034	100.44
444.255	77.44
444.476	90.44
444.698	89.44
444.919	97.44
445.14	128.44
445.361	114.44
445.582	94.44
445.803	121.44
446.024	110.44
446.245	106.44
446.466	102.44
446.687	83.44
446.908	83.44
447.129	98.44
447.35	87.44
447.571	88.44
447.792	94.44
448.013	93.44
448.234	95.44
448.455	92.44
448.675	103.44
448.896	112.44
449.117	93.44
449.338	117.44
449.559	121.44
449.779	117.44
450	95.44
450.221	99.44
450.442	93.44
450.662	103.44
450.883	101.44
451.104	106.44
451.324	94.44
451.545	98.44
451.766	93.44
451.986	85.44
452.207	90.44
452.428	93.44
452.648	98.44
452.869	91.44
453.089	102.44
453.31	99.44
453.53	92.44
453.751	89.44
453.971	85.44
454.192	104.44
454.412	106.44
454.633	91.44
454.853	89.44
455.073	99.44
455.294	94.44
455.514	103.44
455.734	95.44
455.955	87.44
456.175	73.44
456.395	84.44
456.616	86.44
456.836	85.44
457.056	90.44
457.276	90.44
457.497	90.44
457.717	87.44
457.937	88.44
458.157	91.44
458.377	93.44
458.598	95.44
458.818	127.44
459.038	117.44
459.258	92.44
459.478	94.44
459.698	103.44
459.918	89.44
460.138	72.44
460.358	78.44
460.578	87.44
460.798	90.44
461.018	92.44
461.238	87.44
461.458	83.44
461.678	94.44
461.898	102.44
462.118	92.44
462.338	77.44
462.558	85.44
462.777	88.44
462.997	90.44
463.217	83.44
463.437	83.44
463.657	103.44
463.876	91.44
464.096	81.44
464.316	89.44
464.536	99.44
464.755	91.44
464.975	101.44
465.195	122.44
465.414	108.44
465.634	106.44
465.854	87.44
466.073	86.44
466.293	87.44
466.512	93.44
466.732	86.44
466.951	93.44
467.171	91.44
467.391	100.44
467.61	99.44
467.829	93.44
468.049	102.44
468.268	96.44
468.488	81.44
468.707	84.44
468.927	85.44
469.146	84.44
469.365	91.44
469.585	93.44
469.804	91.44
470.023	95.44
470.243	96.44
470.462	88.44
470.681	104.44
470.901	92.44
471.12	99.44
471.339	84.44
471.558	85.44
471.777	103.44
471.997	83.44
472.216	107.44
472.435	129.44
472.654	81.44
472.873	93.44
473.092	85.44
473.311	92.44
473.53	82.44
473.749	99.44
473.968	92.44
474.187	101.44
474.406	104.44
474.625	89.44
474.844	82.44
475.063	79.44
475.282	76.44
475.501	77.44
475.72	93.44
475.939	95.44
476.158	101.44
476.377	76.44
476.596	95.44
476.814	77.44
477.033	95.44
477.252	89.44
477.471	83.44
477.69	90.44
477.908	78.44
478.127	91.44
478.346	102.44
478.564	93.44
478.783	98.44
479.002	100.44
479.22	85.44
479.439	97.44
479.658	98.44
479.876	91.44
480.095	84.44
480.313	89.44
480.532	97.44
480.751	105.44
480.969	116.44
481.188	169.44
481.406	138.44
481.624	83.44
481.843	86.44
482.061	85.44
482.28	76.44
482.498	87.44
482.717	84.44
482.935	89.44
483.153	83.44
483.372	94.44
483.59	90.44
483.808	82.44
484.027	102.44
484.245	94.44
484.463	87.44
484.681	101.44
484.9	82.44
485.118	99.44
485.336	96.44
485.554	100.44
485.772	106.44
485.99	113.44
486.209	112.44
486.427	92.44
486.645	94.44
486.863	114.44
487.081	101.44
487.299	92.44
487.517	99.44
487.735	103.44
487.953	93.44
488.171	87.44
488.389	100.44
488.607	95.44
488.825	90.44
489.043	98.44
489.261	94.44
489.479	77.44
489.696	95.44
489.914	91.44
490.132	92.44
490.35	87.44
490.568	71.44
490.786	86.44
491.003	101.44
491.221	87.44
491.439	85.44
491.657	88.44
491.874	91.44
492.092	87.44
492.31	100.44
492.527	94.44
492.745	97.44
492.963	86.44
493.18	97.44
493.398	94.44
493.615	97.44
493.833	86.44
494.05	101.44
494.268	81.44
494.485	97.44
494.703	71.44
494.92	83.44
495.138	81.44
495.355	106.44
495.573	97.44
495.79	96.44
496.008	100.44
496.225	107.44
496.442	93.44
496.66	81.44
496.877	96.44
497.094	105.44
497.312	94.44
497.529	89.44
497.746	102.44
497.963	79.44
498.181	94.44
498.398	96.44
498.615	94.44
498.832	97.44
499.049	87.44
499.267	98.44
499.484	89.44
499.701	90.44
499.918	89.44
500.135	84.44
500.352	90.44
500.569	105.44
500.786	90.44
501.003	91.44
501.22	88.44
501.437	93.44
501.654	91.44
501.871	91.44
502.088	91.44
502.305	78.44
502.522	95.44
502.739	101.44
502.956	90.44
503.172	93.44
503.389	98.44
503.606	101.44
503.823	87.44
504.04	105.44
504.256	94.44
504.473	78.44
504.69	102.44
504.907	93.44
505.123	89.44
505.34	98.44
505.557	101.44
505.773	89.44
505.99	93.44
506.207	91.44
506.423	79.44
506.64	85.44
506.856	76.44
507.073	83.44
507.289	92.44
507.506	110.44
507.722	93.44
507.939	114.44
508.155	102.44
508.372	91.44
508.588	89.44
508.805	84.44
509.021	95.44
509.238	97.44
509.454	97.44
509.67	92.44
509.887	110.44
510.103	123.44
510.319	182.44
510.536	596.44
510.752	1650.44
510.968	487.44
511.184	138.44
511.401	112.44
511.617	105.44
511.833	91.44
512.049	110.44
512.265	105.44
512.481	107.44
512.698	98.44
512.914	88.44
513.13	96.44
513.346	95.44
513.562	86.44
513.778	95.44
513.994	92.44
514.21	104.44
514.426	95.44
514.642	113.44
514.858	120.44
515.074	145.44
515.29	325.44
515.506	958.44
