Data from Uncirc_1982_H10_HRD10591_00053.txt Node
Date: Wed Jan 03 12:29:35 EST 2024
User: Yrep
Spectrometer: HR+D1059
Trigger mode: 1
Integration Time (sec): 1.000000E-1
Scans to average: 1
Electric dark correction enabled: true
Nonlinearity correction enabled: false
Boxcar width: 0
XAxis mode: Wavelengths
Number of Pixels in Spectrum: 2048
>>>>>Begin Spectral Data<<<<<
223.165	-17
223.4	-17
223.635	-17
223.869	-5
224.104	-9
224.338	-19
224.573	-18
224.808	-18
225.042	4
225.277	-2
225.511	-2
225.746	14
225.98	1
226.215	9
226.449	6
226.683	17
226.918	17
227.152	22
227.387	29
227.621	38
227.856	47
228.09	54
228.324	55
228.559	53
228.793	51
229.027	56
229.262	53
229.496	81
229.73	66
229.964	70
230.199	77
230.433	76
230.667	73
230.901	72
231.136	81
231.37	86
231.604	76
231.838	80
232.072	64
232.306	74
232.541	70
232.775	76
233.009	76
233.243	73
233.477	76
233.711	81
233.945	80
234.179	63
234.413	89
234.647	85
234.881	77
235.115	78
235.349	74
235.583	66
235.817	70
236.051	80
236.285	75
236.519	73
236.753	69
236.987	76
237.221	78
237.455	77
237.689	73
237.922	67
238.156	62
238.39	68
238.624	72
238.858	74
239.091	77
239.325	71
239.559	70
239.793	80
240.027	84
240.26	63
240.494	68
240.728	77
240.961	74
241.195	91
241.429	70
241.662	73
241.896	88
242.13	78
242.363	84
242.597	65
242.83	79
243.064	80
243.298	80
243.531	71
243.765	76
243.998	76
244.232	87
244.465	82
244.699	65
244.932	65
245.166	71
245.399	87
245.633	65
245.866	71
246.099	76
246.333	80
246.566	71
246.8	75
247.033	63
247.266	69
247.5	73
247.733	84
247.966	65
248.2	77
248.433	79
248.666	80
248.899	71
249.133	86
249.366	80
249.599	86
249.832	81
250.066	69
250.299	84
250.532	59
250.765	78
250.998	76
251.231	72
251.465	60
251.698	81
251.931	81
252.164	72
252.397	95
252.63	82
252.863	74
253.096	78
253.329	66
253.562	73
253.795	76
254.028	89
254.261	86
254.494	84
254.727	71
254.96	92
255.193	81
255.426	65
255.659	70
255.892	80
256.124	91
256.357	84
256.59	73
256.823	76
257.056	76
257.289	87
257.521	91
257.754	69
257.987	69
258.22	93
258.452	81
258.685	80
258.918	88
259.151	61
259.383	64
259.616	73
259.849	70
260.081	72
260.314	76
260.547	69
260.779	86
261.012	78
261.244	91
261.477	88
261.71	94
261.942	105
262.175	95
262.407	79
262.64	80
262.872	79
263.105	67
263.337	82
263.57	88
263.802	89
264.035	76
264.267	78
264.499	64
264.732	85
264.964	88
265.197	88
265.429	80
265.661	81
265.894	86
266.126	90
266.358	87
266.591	83
266.823	85
267.055	82
267.287	76
267.52	70
267.752	82
267.984	73
268.216	67
268.448	87
268.681	72
268.913	80
269.145	92
269.377	84
269.609	88
269.841	93
270.073	78
270.306	82
270.538	73
270.77	87
271.002	81
271.234	82
271.466	86
271.698	67
271.93	84
272.162	73
272.394	89
272.626	78
272.858	94
273.09	76
273.322	81
273.553	82
273.785	67
274.017	85
274.249	81
274.481	81
274.713	87
274.945	88
275.176	86
275.408	77
275.64	88
275.872	69
276.104	84
276.335	86
276.567	81
276.799	99
277.031	82
277.262	83
277.494	89
277.726	82
277.957	84
278.189	76
278.421	75
278.652	85
278.884	79
279.115	78
279.347	72
279.579	92
279.81	80
280.042	89
280.273	80
280.505	89
280.736	84
280.968	86
281.199	88
281.431	80
281.662	80
281.894	72
282.125	94
282.356	95
282.588	118
282.819	96
283.051	78
283.282	80
283.513	89
283.745	87
283.976	86
284.207	78
284.439	84
284.67	81
284.901	93
285.132	92
285.364	80
285.595	104
285.826	96
286.057	86
286.288	87
286.52	87
286.751	79
286.982	97
287.213	84
287.444	88
287.675	73
287.906	83
288.138	89
288.369	82
288.6	91
288.831	80
289.062	83
289.293	80
289.524	86
289.755	80
289.986	71
290.217	88
290.448	78
290.679	78
290.91	85
291.141	92
291.371	72
291.602	76
291.833	80
292.064	88
292.295	78
292.526	83
292.757	89
292.987	102
293.218	84
293.449	90
293.68	81
293.91	79
294.141	82
294.372	80
294.603	88
294.833	75
295.064	106
295.295	85
295.525	81
295.756	93
295.987	94
296.217	113
296.448	89
296.679	87
296.909	98
297.14	88
297.37	83
297.601	88
297.831	71
298.062	85
298.292	63
298.523	92
298.753	89
298.984	86
299.214	85
299.445	96
299.675	86
299.905	87
300.136	77
300.366	73
300.597	84
300.827	101
301.057	95
301.288	92
301.518	83
301.748	94
301.979	96
302.209	85
302.439	73
302.669	81
302.9	89
303.13	80
303.36	93
303.59	93
303.82	83
304.051	100
304.281	95
304.511	87
304.741	88
304.971	88
305.201	86
305.431	87
305.661	84
305.891	79
306.121	97
306.352	105
306.582	89
306.812	94
307.042	94
307.272	82
307.502	98
307.731	92
307.961	100
308.191	76
308.421	90
308.651	96
308.881	98
309.111	97
309.341	87
309.571	96
309.8	88
310.03	99
310.26	101
310.49	95
310.72	89
310.949	90
311.179	85
311.409	97
311.639	98
311.868	96
312.098	80
312.328	95
312.557	104
312.787	82
313.017	83
313.246	67
313.476	85
313.706	92
313.935	99
314.165	92
314.394	98
314.624	81
314.853	87
315.083	78
315.312	84
315.542	86
315.771	92
316.001	96
316.23	90
316.46	76
316.689	77
316.919	89
317.148	89
317.377	87
317.607	92
317.836	85
318.065	85
318.295	86
318.524	85
318.753	89
318.983	83
319.212	89
319.441	85
319.67	98
319.9	98
320.129	90
320.358	81
320.587	82
320.816	100
321.046	96
321.275	94
321.504	79
321.733	99
321.962	90
322.191	86
322.42	89
322.649	105
322.878	110
323.108	113
323.337	102
323.566	106
323.795	131
324.024	191
324.253	308
324.482	640
324.71	1323
324.939	1717
325.168	621
325.397	190
325.626	123
325.855	117
326.084	102
326.313	112
326.542	127
326.77	188
326.999	385
327.228	756
327.457	1369
327.686	1100
327.914	312
328.143	159
328.372	126
328.6	119
328.829	111
329.058	104
329.287	108
329.515	102
329.744	100
329.972	104
330.201	98
330.43	114
330.658	119
330.887	118
331.115	86
331.344	100
331.572	99
331.801	97
332.03	88
332.258	89
332.486	88
332.715	94
332.943	85
333.172	87
333.4	88
333.629	104
333.857	116
334.085	105
334.314	104
334.542	110
334.771	110
334.999	86
335.227	96
335.455	96
335.684	87
335.912	98
336.14	97
336.369	90
336.597	105
336.825	101
337.053	81
337.281	91
337.51	78
337.738	94
337.966	85
338.194	97
338.422	85
338.65	74
338.878	86
339.106	78
339.334	93
339.562	87
339.79	95
340.018	93
340.246	94
340.474	89
340.702	82
340.93	93
341.158	84
341.386	74
341.614	98
341.842	90
342.07	86
342.298	98
342.526	88
342.754	82
342.981	92
343.209	80
343.437	72
343.665	90
343.893	89
344.12	85
344.348	77
344.576	99
344.804	106
345.031	102
345.259	93
345.487	84
345.714	100
345.942	110
346.17	89
346.397	94
346.625	90
346.853	82
347.08	89
347.308	88
347.535	100
347.763	90
347.99	90
348.218	85
348.445	81
348.673	88
348.9	85
349.128	89
349.355	83
349.583	82
349.81	91
350.037	93
350.265	96
350.492	99
350.72	90
350.947	100
351.174	102
351.402	96
351.629	98
351.856	97
352.083	102
352.311	93
352.538	100
352.765	90
352.992	109
353.22	97
353.447	84
353.674	81
353.901	86
354.128	99
354.355	90
354.583	107
354.81	91
355.037	84
355.264	100
355.491	89
355.718	92
355.945	97
356.172	99
356.399	95
356.626	105
356.853	93
357.08	97
357.307	72
357.534	93
357.761	105
357.988	86
358.215	93
358.441	96
358.668	90
358.895	84
359.122	72
359.349	70
359.576	75
359.802	93
360.029	90
360.256	94
360.483	97
360.709	73
360.936	106
361.163	72
361.39	94
361.616	86
361.843	81
362.07	86
362.296	96
362.523	77
362.749	87
362.976	96
363.203	89
363.429	94
363.656	96
363.882	86
364.109	103
364.335	97
364.562	90
364.788	85
365.015	85
365.241	90
365.468	99
365.694	90
365.92	104
366.147	89
366.373	76
366.599	90
366.826	86
367.052	85
367.278	86
367.505	91
367.731	87
367.957	86
368.184	89
368.41	89
368.636	91
368.862	91
369.089	101
369.315	97
369.541	80
369.767	84
369.993	89
370.219	96
370.445	75
370.672	81
370.898	87
371.124	88
371.35	96
371.576	91
371.802	77
372.028	76
372.254	90
372.48	87
372.706	93
372.932	69
373.158	78
373.384	92
373.61	95
373.835	90
374.061	99
374.287	88
374.513	78
374.739	81
374.965	77
375.191	90
375.416	83
375.642	83
375.868	97
376.094	84
376.319	81
376.545	88
376.771	96
376.997	107
377.222	92
377.448	83
377.674	73
377.899	93
378.125	84
378.35	76
378.576	95
378.802	81
379.027	88
379.253	81
379.478	100
379.704	87
379.929	96
380.155	95
380.38	85
380.606	90
380.831	84
381.057	92
381.282	86
381.507	91
381.733	85
381.958	85
382.184	95
382.409	89
382.634	93
382.86	92
383.085	105
383.31	96
383.535	108
383.761	94
383.986	90
384.211	90
384.436	97
384.662	103
384.887	110
385.112	99
385.337	92
385.562	109
385.787	93
386.013	96
386.238	127
386.463	96
386.688	109
386.913	107
387.138	102
387.363	87
387.588	87
387.813	109
388.038	101
388.263	108
388.488	98
388.713	89
388.938	98
389.163	76
389.387	82
389.612	94
389.837	103
390.062	92
390.287	88
390.512	97
390.736	97
390.961	82
391.186	100
391.411	88
391.636	92
391.86	80
392.085	78
392.31	81
392.534	92
392.759	90
392.984	90
393.208	90
393.433	86
393.658	82
393.882	86
394.107	63
394.331	73
394.556	84
394.78	92
395.005	93
395.229	76
395.454	98
395.678	84
395.903	79
396.127	90
396.352	81
396.576	72
396.801	92
397.025	87
397.249	77
397.474	83
397.698	64
397.922	91
398.147	84
398.371	79
398.595	86
398.82	74
399.044	78
399.268	85
399.492	87
399.717	81
399.941	86
400.165	89
400.389	86
400.613	80
400.837	79
401.062	86
401.286	91
401.51	90
401.734	85
401.958	96
402.182	109
402.406	121
402.63	105
402.854	94
403.078	79
403.302	76
403.526	81
403.75	100
403.974	98
404.198	77
404.422	65
404.645	85
404.869	78
405.093	96
405.317	89
405.541	83
405.765	84
405.988	97
406.212	137
406.436	184
406.66	110
406.883	81
407.107	100
407.331	86
407.555	83
407.778	99
408.002	86
408.226	81
408.449	82
408.673	87
408.896	89
409.12	80
409.344	78
409.567	83
409.791	83
410.014	88
410.238	73
410.461	75
410.685	81
410.908	93
411.132	81
411.355	96
411.578	101
411.802	92
412.025	80
412.249	93
412.472	84
412.695	86
412.919	86
413.142	90
413.365	84
413.589	90
413.812	76
414.035	86
414.258	79
414.482	83
414.705	84
414.928	94
415.151	96
415.374	85
415.597	92
415.821	94
416.044	70
416.267	98
416.49	62
416.713	78
416.936	81
417.159	89
417.382	93
417.605	85
417.828	83
418.051	85
418.274	83
418.497	73
418.72	85
418.943	87
419.166	86
419.389	92
419.611	76
419.834	79
420.057	87
420.28	90
420.503	73
420.726	94
420.948	72
421.171	96
421.394	81
421.617	101
421.839	88
422.062	86
422.285	88
422.507	86
422.73	88
422.953	93
423.175	80
423.398	88
423.621	85
423.843	82
424.066	73
424.288	83
424.511	88
424.733	89
424.956	79
425.178	81
425.401	92
425.623	89
425.846	84
426.068	81
426.291	74
426.513	71
426.735	87
426.958	78
427.18	96
427.402	132
427.625	144
427.847	113
428.069	90
428.292	94
428.514	72
428.736	82
428.958	63
429.181	83
429.403	81
429.625	74
429.847	86
430.069	93
430.292	91
430.514	81
430.736	92
430.958	89
431.18	90
431.402	85
431.624	69
431.846	89
432.068	76
432.29	78
432.512	82
432.734	82
432.956	78
433.178	88
433.4	96
433.622	70
433.844	86
434.066	73
434.287	89
434.509	84
434.731	84
434.953	86
435.175	85
435.397	94
435.618	90
435.84	89
436.062	105
436.284	117
436.505	108
436.727	110
436.949	87
437.17	92
437.392	89
437.614	85
437.835	85
438.057	105
438.278	85
438.5	80
438.721	103
438.943	94
439.165	87
439.386	88
439.608	91
439.829	95
440.05	98
440.272	108
440.493	90
440.715	90
440.936	81
441.158	70
441.379	84
441.6	112
441.822	87
442.043	91
442.264	86
442.486	80
442.707	94
442.928	81
443.149	114
443.371	107
443.592	102
443.813	108
444.034	98
444.255	82
444.476	74
444.698	73
444.919	83
445.14	134
445.361	101
445.582	107
445.803	117
446.024	118
446.245	109
446.466	95
446.687	95
446.908	76
447.129	96
447.35	85
447.571	84
447.792	77
448.013	86
448.234	89
448.455	89
448.675	94
448.896	90
449.117	90
449.338	94
449.559	122
449.779	116
450	82
450.221	88
450.442	88
450.662	88
450.883	104
451.104	92
451.324	80
451.545	84
451.766	68
451.986	86
452.207	98
452.428	85
452.648	96
452.869	103
453.089	102
453.31	101
453.53	93
453.751	90
453.971	101
454.192	76
454.412	101
454.633	92
454.853	90
455.073	80
455.294	89
455.514	72
455.734	82
455.955	78
456.175	74
456.395	82
456.616	90
456.836	82
457.056	84
457.276	86
457.497	73
457.717	78
457.937	78
458.157	71
458.377	92
458.598	96
458.818	113
459.038	130
459.258	103
459.478	80
459.698	74
459.918	89
460.138	80
460.358	78
460.578	92
460.798	93
461.018	79
461.238	89
461.458	85
461.678	81
461.898	86
462.118	85
462.338	70
462.558	90
462.777	89
462.997	89
463.217	77
463.437	91
463.657	70
463.876	90
464.096	88
464.316	96
464.536	84
464.755	81
464.975	85
465.195	148
465.414	137
465.634	100
465.854	78
466.073	77
466.293	81
466.512	85
466.732	73
466.951	99
467.171	87
467.391	90
467.61	92
467.829	94
468.049	94
468.268	103
468.488	82
468.707	103
468.927	87
469.146	72
469.365	87
469.585	80
469.804	94
470.023	97
470.243	85
470.462	79
470.681	104
470.901	73
471.12	94
471.339	85
471.558	82
471.777	91
471.997	100
472.216	116
472.435	131
472.654	85
472.873	78
473.092	78
473.311	84
473.53	83
473.749	94
473.968	78
474.187	93
474.406	78
474.625	86
474.844	84
475.063	77
475.282	90
475.501	78
475.72	87
475.939	80
476.158	82
476.377	87
476.596	80
476.814	75
477.033	95
477.252	72
477.471	82
477.69	90
477.908	83
478.127	82
478.346	75
478.564	94
478.783	82
479.002	94
479.22	76
479.439	95
479.658	100
479.876	86
480.095	86
480.313	73
480.532	74
480.751	99
480.969	100
481.188	176
481.406	128
481.624	98
481.843	94
482.061	97
482.28	84
482.498	84
482.717	90
482.935	83
483.153	69
483.372	89
483.59	68
483.808	95
484.027	81
484.245	83
484.463	91
484.681	81
484.9	79
485.118	106
485.336	88
485.554	109
485.772	86
485.99	104
486.209	103
486.427	89
486.645	106
486.863	101
487.081	94
487.299	92
487.517	101
487.735	80
487.953	84
488.171	101
488.389	98
488.607	81
488.825	78
489.043	88
489.261	92
489.479	96
489.696	79
489.914	90
490.132	84
490.35	77
490.568	84
490.786	85
491.003	90
491.221	85
491.439	85
491.657	82
491.874	86
492.092	81
492.31	84
492.527	84
492.745	76
492.963	88
493.18	92
493.398	76
493.615	93
493.833	93
494.05	87
494.268	90
494.485	80
494.703	72
494.92	80
495.138	84
495.355	81
495.573	99
495.79	93
496.008	75
496.225	81
496.442	72
496.66	87
496.877	85
497.094	103
497.312	90
497.529	91
497.746	81
497.963	81
498.181	109
498.398	87
498.615	96
498.832	84
499.049	88
499.267	84
499.484	94
499.701	72
499.918	84
500.135	87
500.352	91
500.569	87
500.786	93
501.003	84
501.22	83
501.437	80
501.654	83
501.871	109
502.088	82
502.305	84
502.522	93
502.739	82
502.956	88
503.172	85
503.389	82
503.606	89
503.823	87
504.04	83
504.256	84
504.473	74
504.69	89
504.907	80
505.123	78
505.34	84
505.557	84
505.773	69
505.99	77
506.207	78
506.423	73
506.64	80
506.856	82
507.073	81
507.289	71
507.506	82
507.722	92
507.939	100
508.155	95
508.372	97
508.588	78
508.805	92
509.021	88
509.238	89
509.454	101
509.67	97
509.887	82
510.103	124
510.319	168
510.536	630
510.752	1797
510.968	500
511.184	133
511.401	104
511.617	78
511.833	76
512.049	94
512.265	94
512.481	88
512.698	100
512.914	85
513.13	102
513.346	93
513.562	82
513.778	84
513.994	92
514.21	89
514.426	105
514.642	105
514.858	111
515.074	140
515.29	340
515.506	1045
515.721	361
515.937	121
516.153	93
516.369	84
516.585	90
516.801	81
517.016	87
517.232	80
517.448	80
517.664	98
517.879	95
518.095	106
518.311	91
518.527	96
518.742	81
518.958	102
519.173	80
519.389	86
519.605	100
519.82	92
520.036	111
520.251	109
520.467	98
520.682	107
520.898	103
521.113	111
521.329	120
521.544	152
521.76	412
521.975	1669
522.19	996
522.406	235
522.621	106
522.836	99
523.052	92
523.267	94
523.482	79
523.698	94
523.913	100
524.128	94
524.343	87
524.559	88
524.774	91
524.989	84
525.204	94
525.419	95
525.634	88
525.849	94
526.064	81
526.28	100
526.495	89
526.71	85
526.925	85
527.14	81
527.355	83
527.57	80
527.785	94
527.999	83
528.214	86
528.429	87
528.644	102
528.859	117
529.074	96
529.289	100
529.503	150
529.718	94
529.933	92
530.148	96
530.363	97
530.577	82
530.792	84
531.007	88
531.221	92
531.436	83
531.651	91
531.865	98
532.08	89
532.295	94
532.509	73
532.724	86
532.938	89
533.153	82
533.367	94
533.582	97
533.796	86
534.011	77
534.225	85
534.44	91
534.654	73
534.868	88
535.083	87
535.297	97
535.511	104
535.726	97
535.94	94
536.154	88
536.369	78
536.583	102
536.797	86
537.011	84
537.225	83
537.44	109
537.654	87
537.868	92
538.082	88
538.296	93
538.51	103
538.724	93
538.938	78
539.153	98
539.367	97
539.581	101
539.795	84
540.009	88
540.222	89
540.436	93
540.65	85
540.864	97
541.078	96
541.292	98
541.506	76
541.72	94
541.934	95
542.147	85
542.361	87
542.575	93
542.789	93
543.002	95
543.216	87
543.43	90
543.644	103
543.857	93
544.071	79
544.285	92
544.498	87
544.712	99
544.925	85
545.139	81
545.352	87
545.566	96
545.779	79
545.993	95
546.206	97
546.42	92
546.633	89
546.847	87
547.06	86
547.274	70
547.487	76
547.7	92
547.914	78
548.127	88
548.34	70
548.554	80
548.767	88
548.98	91
549.193	73
549.407	80
549.62	87
549.833	73
550.046	95
550.259	86
550.473	92
550.686	85
550.899	80
551.112	90
551.325	67
551.538	81
551.751	92
551.964	65
552.177	88
552.39	92
552.603	76
552.816	96
553.029	88
553.242	104
553.455	102
553.667	102
553.88	83
554.093	86
554.306	88
554.519	83
554.732	87
554.944	78
555.157	88
555.37	76
555.583	83
555.795	100
556.008	96
556.221	84
556.433	92
556.646	82
556.859	102
557.071	93
557.284	91
557.496	75
557.709	81
557.921	84
558.134	96
558.346	83
558.559	78
558.771	91
558.984	84
559.196	90
559.409	80
559.621	86
559.833	83
560.046	73
560.258	93
560.47	82
560.683	86
560.895	80
561.107	87
561.32	92
561.532	73
561.744	88
561.956	84
562.168	80
562.381	77
562.593	86
562.805	92
563.017	83
563.229	92
563.441	99
563.653	85
563.865	90
564.077	83
564.289	85
564.501	82
564.713	84
564.925	83
565.137	87
565.349	86
565.561	83
565.773	99
565.985	77
566.197	82
566.408	80
566.62	87
566.832	80
567.044	83
567.255	81
567.467	84
567.679	88
567.891	81
568.102	73
568.314	75
568.526	73
568.737	73
568.949	90
569.161	70
569.372	83
569.584	81
569.795	89
570.007	93
570.218	204
570.43	114
570.641	89
570.853	94
571.064	92
571.276	96
571.487	82
571.698	72
571.91	66
572.121	96
572.333	90
572.544	76
572.755	92
572.966	86
573.178	91
573.389	93
573.6	84
573.811	95
574.023	90
574.234	85
574.445	86
574.656	84
574.867	88
575.078	84
575.289	71
575.501	86
575.712	92
575.923	97
576.134	96
576.345	95
576.556	96
576.767	85
576.978	77
577.188	85
577.399	87
577.61	86
577.821	97
578.032	102
578.243	234
578.454	589
578.665	169
578.875	100
579.086	106
579.297	85
579.508	77
579.718	92
579.929	87
580.14	82
580.35	88
580.561	91
580.772	86
580.982	85
581.193	72
581.403	88
581.614	97
581.825	88
582.035	87
582.246	92
582.456	91
582.667	82
582.877	79
583.087	73
583.298	89
583.508	92
583.719	99
583.929	88
584.139	81
584.35	86
584.56	92
584.77	73
584.981	76
585.191	89
585.401	77
585.611	76
585.821	66
586.032	88
586.242	88
586.452	83
586.662	83
586.872	81
587.082	91
