Data from Uncirc_1982_H10_HRD10591_00050.txt Node
Date: Wed Jan 03 12:29:35 EST 2024
User: Yrep
Spectrometer: HR+D1059
Trigger mode: 1
Integration Time (sec): 1.000000E-1
Scans to average: 1
Electric dark correction enabled: true
Nonlinearity correction enabled: false
Boxcar width: 0
XAxis mode: Wavelengths
Number of Pixels in Spectrum: 2048
>>>>>Begin Spectral Data<<<<<
223.165	-32.12
223.4	-32.12
223.635	-32.12
223.869	-27.12
224.104	-18.12
224.338	-11.12
224.573	-1.12
224.808	-8.12
225.042	-11.12
225.277	-13.12
225.511	1.88
225.746	1.88
225.98	3.88
226.215	19.88
226.449	11.88
226.683	19.88
226.918	26.88
227.152	35.88
227.387	34.88
227.621	45.88
227.856	38.88
228.09	44.88
228.324	46.88
228.559	55.88
228.793	149.88
229.027	460.88
229.262	511.88
229.496	587.88
229.73	774.88
229.964	827.88
230.199	544.88
230.433	497.88
230.667	486.88
230.901	476.88
231.136	454.88
231.37	450.88
231.604	451.88
231.838	488.88
232.072	463.88
232.306	464.88
232.541	471.88
232.775	495.88
233.009	472.88
233.243	482.88
233.477	486.88
233.711	506.88
233.945	504.88
234.179	535.88
234.413	510.88
234.647	521.88
234.881	540.88
235.115	556.88
235.349	551.88
235.583	554.88
235.817	607.88
236.051	649.88
236.285	635.88
236.519	629.88
236.753	685.88
236.987	897.88
237.221	1354.88
237.455	1440.88
237.689	887.88
237.922	756.88
238.156	735.88
238.39	712.88
238.624	654.88
238.858	683.88
239.091	674.88
239.325	673.88
239.559	685.88
239.793	730.88
240.027	798.88
240.26	925.88
240.494	991.88
240.728	973.88
240.961	920.88
241.195	870.88
241.429	813.88
241.662	789.88
241.896	793.88
242.13	806.88
242.363	808.88
242.597	823.88
242.83	852.88
243.064	844.88
243.298	839.88
243.531	850.88
243.765	852.88
243.998	870.88
244.232	904.88
244.465	942.88
244.699	922.88
244.932	949.88
245.166	943.88
245.399	962.88
245.633	934.88
245.866	965.88
246.099	994.88
246.333	982.88
246.566	1016.88
246.8	1003.88
247.033	1039.88
247.266	1099.88
247.5	1132.88
247.733	1185.88
247.966	1206.88
248.2	1167.88
248.433	1186.88
248.666	1257.88
248.899	1383.88
249.133	1504.88
249.366	1451.88
249.599	1349.88
249.832	1264.88
250.066	1300.88
250.299	1318.88
250.532	1429.88
250.765	1630.88
250.998	1823.88
251.231	1730.88
251.465	1534.88
251.698	1498.88
251.931	1455.88
252.164	1458.88
252.397	1452.88
252.63	1522.88
252.863	1655.88
253.096	1709.88
253.329	1818.88
253.562	1689.88
253.795	1608.88
254.028	1571.88
254.261	1690.88
254.494	1850.88
254.727	2197.88
254.96	2295.88
255.193	1999.88
255.426	1822.88
255.659	1734.88
255.892	1799.88
256.124	1782.88
256.357	1776.88
256.59	1660.88
256.823	1629.88
257.056	1575.88
257.289	1607.88
257.521	1612.88
257.754	1595.88
257.987	1623.88
258.22	1584.88
258.452	1590.88
258.685	1569.88
258.918	1618.88
259.151	1660.88
259.383	1751.88
259.616	1754.88
259.849	1822.88
260.081	1982.88
260.314	2136.88
260.547	2117.88
260.779	1878.88
261.012	1820.88
261.244	1810.88
261.477	1751.88
261.71	1672.88
261.942	1775.88
262.175	1770.88
262.407	1720.88
262.64	1667.88
262.872	1688.88
263.105	1682.88
263.337	1675.88
263.57	1711.88
263.802	1741.88
264.035	1727.88
264.267	1704.88
264.499	1723.88
264.732	1757.88
264.964	1748.88
265.197	1703.88
265.429	1780.88
265.661	1765.88
265.894	1743.88
266.126	1793.88
266.358	1806.88
266.591	1808.88
266.823	1916.88
267.055	1916.88
267.287	1872.88
267.52	1859.88
267.752	1860.88
267.984	1864.88
268.216	1959.88
268.448	1940.88
268.681	2025.88
268.913	2172.88
269.145	2375.88
269.377	2430.88
269.609	2354.88
269.841	2248.88
270.073	2423.88
270.306	2676.88
270.538	2856.88
270.77	2686.88
271.002	2567.88
271.234	2506.88
271.466	2602.88
271.698	2765.88
271.93	2749.88
272.162	2763.88
272.394	2737.88
272.626	2506.88
272.858	2379.88
273.09	2292.88
273.322	2326.88
273.553	2280.88
273.785	2243.88
274.017	2316.88
274.249	2248.88
274.481	2299.88
274.713	2297.88
274.945	2367.88
275.176	2324.88
275.408	2291.88
275.64	2326.88
275.872	2280.88
276.104	2346.88
276.335	2347.88
276.567	2428.88
276.799	2589.88
277.031	2818.88
277.262	2913.88
277.494	2878.88
277.726	2630.88
277.957	2532.88
278.189	2502.88
278.421	2412.88
278.652	2381.88
278.884	2456.88
279.115	2392.88
279.347	2436.88
279.579	2397.88
279.81	2380.88
280.042	2438.88
280.273	2446.88
280.505	2424.88
280.736	2418.88
280.968	2451.88
281.199	2439.88
281.431	2513.88
281.662	2481.88
281.894	2524.88
282.125	2566.88
282.356	2734.88
282.588	2779.88
282.819	2654.88
283.051	2599.88
283.282	2592.88
283.513	2605.88
283.745	2650.88
283.976	2696.88
284.207	2658.88
284.439	2668.88
284.67	2678.88
284.901	2687.88
285.132	2701.88
285.364	2650.88
285.595	2684.88
285.826	2683.88
286.057	2671.88
286.288	2676.88
286.52	2684.88
286.751	2727.88
286.982	2732.88
287.213	2736.88
287.444	2726.88
287.675	2866.88
287.906	2888.88
288.138	2999.88
288.369	2937.88
288.6	3000.88
288.831	2886.88
289.062	2915.88
289.293	2831.88
289.524	2869.88
289.755	2916.88
289.986	2838.88
290.217	2832.88
290.448	2853.88
290.679	2850.88
290.91	2850.88
291.141	2812.88
291.371	2868.88
291.602	2876.88
291.833	2845.88
292.064	2867.88
292.295	2872.88
292.526	2875.88
292.757	2859.88
292.987	2819.88
293.218	2880.88
293.449	2886.88
293.68	2878.88
293.91	2914.88
294.141	2877.88
294.372	2851.88
294.603	2931.88
294.833	2940.88
295.064	2967.88
295.295	2936.88
295.525	2946.88
295.756	3013.88
295.987	3033.88
296.217	3237.88
296.448	3127.88
296.679	2991.88
296.909	2963.88
297.14	2938.88
297.37	3032.88
297.601	3136.88
297.831	3118.88
298.062	3040.88
298.292	3157.88
298.523	3176.88
298.753	3128.88
298.984	3182.88
299.214	3182.88
299.445	3162.88
299.675	3115.88
299.905	3190.88
300.136	3141.88
300.366	3147.88
300.597	3178.88
300.827	3252.88
301.057	3373.88
301.288	3439.88
301.518	3393.88
301.748	3411.88
301.979	3470.88
302.209	3433.88
302.439	3397.88
302.669	3372.88
302.9	3370.88
303.13	3310.88
303.36	3441.88
303.59	3368.88
303.82	3441.88
304.051	3389.88
304.281	3410.88
304.511	3344.88
304.741	3342.88
304.971	3354.88
305.201	3343.88
305.431	3314.88
305.661	3328.88
305.891	3324.88
306.121	3319.88
306.352	3335.88
306.582	3276.88
306.812	3259.88
307.042	3322.88
307.272	3312.88
307.502	3269.88
307.731	3378.88
307.961	3314.88
308.191	3263.88
308.421	3327.88
308.651	3341.88
308.881	3340.88
309.111	3368.88
309.341	3430.88
309.571	3450.88
309.8	3498.88
310.03	3607.88
310.26	3564.88
310.49	3516.88
310.72	3663.88
310.949	3715.88
311.179	3735.88
311.409	3647.88
311.639	3646.88
311.868	3632.88
312.098	3679.88
312.328	3770.88
312.557	3894.88
312.787	3959.88
313.017	3864.88
313.246	3804.88
313.476	3725.88
313.706	3762.88
313.935	3870.88
314.165	3910.88
314.394	3968.88
314.624	3853.88
314.853	3818.88
315.083	3797.88
315.312	3785.88
315.542	3736.88
315.771	3704.88
316.001	3695.88
316.23	3682.88
316.46	3672.88
316.689	3651.88
316.919	3773.88
317.148	3810.88
317.377	3744.88
317.607	3837.88
317.836	3740.88
318.065	3708.88
318.295	3716.88
318.524	3699.88
318.753	3632.88
318.983	3722.88
319.212	3685.88
319.441	3738.88
319.67	3735.88
319.9	3624.88
320.129	3717.88
320.358	3726.88
320.587	3755.88
320.816	3826.88
321.046	3794.88
321.275	3746.88
321.504	3872.88
321.733	3782.88
321.962	3858.88
322.191	3991.88
322.42	4036.88
322.649	4108.88
322.878	4107.88
323.108	4221.88
323.337	4357.88
323.566	4572.88
323.795	4787.88
324.024	5232.88
324.253	6630.88
324.482	9922.88
324.71	14419.88
324.939	15632.88
325.168	11542.88
325.397	6109.88
325.626	5019.88
325.855	4630.88
326.084	4589.88
326.313	4653.88
326.542	4807.88
326.77	5308.88
326.999	6466.88
327.228	9405.88
327.457	13613.88
327.686	12917.88
327.914	6953.88
328.143	5588.88
328.372	5306.88
328.6	5147.88
328.829	5051.88
329.058	5202.88
329.287	5254.88
329.515	4919.88
329.744	4735.88
329.972	4843.88
330.201	5041.88
330.43	5414.88
330.658	5490.88
330.887	5668.88
331.115	5284.88
331.344	4948.88
331.572	4873.88
331.801	4964.88
332.03	4950.88
332.258	4962.88
332.486	4939.88
332.715	5095.88
332.943	5250.88
333.172	5367.88
333.4	5539.88
333.629	5595.88
333.857	5772.88
334.085	5714.88
334.314	5843.88
334.542	6086.88
334.771	5875.88
334.999	5490.88
335.227	5374.88
335.455	5271.88
335.684	5121.88
335.912	5035.88
336.14	4972.88
336.369	4975.88
336.597	4998.88
336.825	4996.88
337.053	4879.88
337.281	4778.88
337.51	4779.88
337.738	4816.88
337.966	4694.88
338.194	4708.88
338.422	4606.88
338.65	4599.88
338.878	4588.88
339.106	4543.88
339.334	4568.88
339.562	4444.88
339.79	4434.88
340.018	4375.88
340.246	4387.88
340.474	4477.88
340.702	4405.88
340.93	4383.88
341.158	4459.88
341.386	4472.88
341.614	4408.88
341.842	4372.88
342.07	4373.88
342.298	4334.88
342.526	4271.88
342.754	4372.88
342.981	4388.88
343.209	4461.88
343.437	4646.88
343.665	4924.88
343.893	5150.88
344.12	5193.88
344.348	4951.88
344.576	4762.88
344.804	4711.88
345.031	4671.88
345.259	4592.88
345.487	4453.88
345.714	4413.88
345.942	4225.88
346.17	4284.88
346.397	4251.88
346.625	4165.88
346.853	4130.88
347.08	4167.88
347.308	4226.88
347.535	4278.88
347.763	4328.88
347.99	4226.88
348.218	4274.88
348.445	4316.88
348.673	4227.88
348.9	4115.88
349.128	4054.88
349.355	4128.88
349.583	4046.88
349.81	4075.88
350.037	4046.88
350.265	4028.88
350.492	4010.88
350.72	4148.88
350.947	4098.88
351.174	4199.88
351.402	4166.88
351.629	4108.88
351.856	4191.88
352.083	4214.88
352.311	4227.88
352.538	4239.88
352.765	4204.88
352.992	4186.88
353.22	4037.88
353.447	4106.88
353.674	4097.88
353.901	4008.88
354.128	3942.88
354.355	4004.88
354.583	3979.88
354.81	3979.88
355.037	4009.88
355.264	3914.88
355.491	3948.88
355.718	3906.88
355.945	4027.88
356.172	4002.88
356.399	4008.88
356.626	3964.88
356.853	3977.88
357.08	3950.88
357.307	3990.88
357.534	3961.88
357.761	3958.88
357.988	3963.88
358.215	4012.88
358.441	4022.88
358.668	4031.88
358.895	4051.88
359.122	4084.88
359.349	4111.88
359.576	4291.88
359.802	4414.88
360.029	4588.88
360.256	4572.88
360.483	4390.88
360.709	4264.88
360.936	4205.88
361.163	4219.88
361.39	4203.88
361.616	4192.88
361.843	4181.88
362.07	4191.88
362.296	4278.88
362.523	4189.88
362.749	4157.88
362.976	4163.88
363.203	4080.88
363.429	4104.88
363.656	4104.88
363.882	4093.88
364.109	4001.88
364.335	4071.88
364.562	4068.88
364.788	4103.88
365.015	4065.88
365.241	4054.88
365.468	4106.88
365.694	4138.88
365.92	4151.88
366.147	4080.88
366.373	4095.88
366.599	4013.88
366.826	4017.88
367.052	4028.88
367.278	4124.88
367.505	4057.88
367.731	4038.88
367.957	4096.88
368.184	4085.88
368.41	4176.88
368.636	4261.88
368.862	4300.88
369.089	4184.88
369.315	4120.88
369.541	4136.88
369.767	4156.88
369.993	4198.88
370.219	4262.88
370.445	4208.88
370.672	4277.88
370.898	4239.88
371.124	4328.88
371.35	4312.88
371.576	4332.88
371.802	4293.88
372.028	4310.88
372.254	4365.88
372.48	4323.88
372.706	4464.88
372.932	4461.88
373.158	4480.88
373.384	4434.88
373.61	4310.88
373.835	4368.88
374.061	4331.88
374.287	4459.88
374.513	4546.88
374.739	4706.88
374.965	4831.88
375.191	4784.88
375.416	4731.88
375.642	4556.88
375.868	4524.88
376.094	4494.88
376.319	4474.88
376.545	4366.88
376.771	4394.88
376.997	4326.88
377.222	4324.88
377.448	4352.88
377.674	4310.88
377.899	4279.88
378.125	4302.88
378.35	4297.88
378.576	4340.88
378.802	4308.88
379.027	4327.88
379.253	4348.88
379.478	4254.88
379.704	4325.88
379.929	4364.88
380.155	4355.88
380.38	4336.88
380.606	4387.88
380.831	4320.88
381.057	4398.88
381.282	4402.88
381.507	4364.88
381.733	4447.88
381.958	4487.88
382.184	4513.88
382.409	4573.88
382.634	4587.88
382.86	4613.88
383.085	4694.88
383.31	4678.88
383.535	4800.88
383.761	4827.88
383.986	4917.88
384.211	5049.88
384.436	5104.88
384.662	5133.88
384.887	5237.88
385.112	5210.88
385.337	5303.88
385.562	5292.88
385.787	5290.88
386.013	5318.88
386.238	5428.88
386.463	5416.88
386.688	5332.88
386.913	5246.88
387.138	5176.88
387.363	5194.88
387.588	5111.88
387.813	5214.88
388.038	5190.88
388.263	5214.88
388.488	5176.88
388.713	5250.88
388.938	5156.88
389.163	5116.88
389.387	5149.88
389.612	5072.88
389.837	5101.88
390.062	5090.88
390.287	5108.88
390.512	5157.88
390.736	5103.88
390.961	5325.88
391.186	5395.88
391.411	5592.88
391.636	5645.88
391.86	5853.88
392.085	5874.88
392.31	5765.88
392.534	5631.88
392.759	5616.88
392.984	5448.88
393.208	5418.88
393.433	5487.88
393.658	5398.88
393.882	5354.88
394.107	5474.88
394.331	5524.88
394.556	5458.88
394.78	5562.88
395.005	5614.88
395.229	5574.88
395.454	5711.88
395.678	5862.88
395.903	5935.88
396.127	5939.88
396.352	5731.88
396.576	5511.88
396.801	5466.88
397.025	5591.88
397.249	5727.88
397.474	5882.88
397.698	5810.88
397.922	6018.88
398.147	6106.88
398.371	6143.88
398.595	6369.88
398.82	6738.88
399.044	7294.88
399.268	7941.88
399.492	8965.88
399.717	9695.88
399.941	9468.88
400.165	8838.88
400.389	8122.88
400.613	7344.88
400.837	6920.88
401.062	6751.88
401.286	6623.88
401.51	6619.88
401.734	6547.88
401.958	6643.88
402.182	6757.88
402.406	6907.88
402.63	6945.88
402.854	7082.88
403.078	7137.88
403.302	7319.88
403.526	7417.88
403.75	7533.88
403.974	7526.88
404.198	7452.88
404.422	7638.88
404.645	7502.88
404.869	7430.88
405.093	7727.88
405.317	8004.88
405.541	7966.88
405.765	7465.88
405.988	7334.88
406.212	7483.88
406.436	7656.88
406.66	7748.88
406.883	7840.88
407.107	8368.88
407.331	8958.88
407.555	9462.88
407.778	9088.88
408.002	8403.88
408.226	7970.88
408.449	7892.88
408.673	7667.88
408.896	7868.88
409.12	8013.88
409.344	7615.88
409.567	7209.88
409.791	7202.88
410.014	7071.88
410.238	6994.88
410.461	7107.88
410.685	7067.88
410.908	7174.88
411.132	7427.88
411.355	7371.88
411.578	7037.88
411.802	6867.88
412.025	6868.88
412.249	7056.88
412.472	7190.88
412.695	7363.88
412.919	6935.88
413.142	6735.88
413.365	6522.88
413.589	6600.88
413.812	6454.88
414.035	6384.88
414.258	6482.88
414.482	6440.88
414.705	6551.88
414.928	6493.88
415.151	6514.88
415.374	6500.88
415.597	6445.88
415.821	6339.88
416.044	6330.88
416.267	6406.88
416.49	6316.88
416.713	6298.88
416.936	6371.88
417.159	6296.88
417.382	6472.88
417.605	6404.88
417.828	6588.88
418.051	6751.88
418.274	6580.88
418.497	6422.88
418.72	6634.88
418.943	6530.88
419.166	6957.88
419.389	7452.88
419.611	7190.88
419.834	7000.88
420.057	6967.88
420.28	6848.88
420.503	6587.88
420.726	6585.88
420.948	6755.88
421.171	7199.88
421.394	7118.88
421.617	6619.88
421.839	6584.88
422.062	6614.88
422.285	6894.88
422.507	7482.88
422.73	7980.88
422.953	7410.88
423.175	7055.88
423.398	7040.88
423.621	7043.88
423.843	7371.88
424.066	7238.88
424.288	7178.88
424.511	7415.88
424.733	7914.88
424.956	8236.88
425.178	7777.88
425.401	7971.88
425.623	7793.88
425.846	6895.88
426.068	6768.88
426.291	6676.88
426.513	6551.88
426.735	6605.88
426.958	7112.88
427.18	7795.88
427.402	9039.88
427.625	8973.88
427.847	7707.88
428.069	7070.88
428.292	6498.88
428.514	6100.88
428.736	5982.88
428.958	6042.88
429.181	5840.88
429.403	5873.88
429.625	6101.88
429.847	6367.88
430.069	6935.88
430.292	6366.88
430.514	5866.88
430.736	5911.88
430.958	5810.88
431.18	5723.88
431.402	5733.88
431.624	5690.88
431.846	5860.88
432.068	5716.88
432.29	5859.88
432.512	5695.88
432.734	5935.88
432.956	5754.88
433.178	5943.88
433.4	5911.88
433.622	5733.88
433.844	5776.88
434.066	5872.88
434.287	5894.88
434.509	6215.88
434.731	6357.88
434.953	6570.88
435.175	6674.88
435.397	6803.88
435.618	6640.88
435.84	6984.88
436.062	7912.88
436.284	7775.88
436.505	6615.88
436.727	6197.88
436.949	6007.88
437.17	5882.88
437.392	5835.88
437.614	5961.88
437.835	6326.88
438.057	7318.88
438.278	7886.88
438.5	7831.88
438.721	8636.88
438.943	7623.88
439.165	6423.88
439.386	6289.88
439.608	6330.88
439.829	6418.88
440.05	6696.88
440.272	7036.88
440.493	6504.88
440.715	6246.88
440.936	6151.88
441.158	6249.88
441.379	6272.88
441.6	6638.88
441.822	6920.88
442.043	7191.88
442.264	8122.88
442.486	7770.88
442.707	6947.88
442.928	6767.88
443.149	6958.88
443.371	7168.88
443.592	7710.88
443.813	8716.88
444.034	8619.88
444.255	7528.88
444.476	7371.88
444.698	7634.88
444.919	7654.88
445.14	7476.88
445.361	7326.88
445.582	7390.88
445.803	7997.88
446.024	8680.88
446.245	8148.88
446.466	7364.88
446.687	6493.88
446.908	6224.88
447.129	5870.88
447.35	5698.88
447.571	5677.88
447.792	5602.88
448.013	5609.88
448.234	5894.88
448.455	6558.88
448.675	7720.88
448.896	8089.88
449.117	6665.88
449.338	6900.88
449.559	8231.88
449.779	8408.88
450	6488.88
450.221	5845.88
450.442	5573.88
450.662	5474.88
450.883	5585.88
451.104	5689.88
451.324	5464.88
451.545	5293.88
451.766	5214.88
451.986	5182.88
452.207	5138.88
452.428	5103.88
452.648	5115.88
452.869	5123.88
453.089	5249.88
453.31	5277.88
453.53	5102.88
453.751	5087.88
453.971	5188.88
454.192	5156.88
454.412	4979.88
454.633	4930.88
454.853	4997.88
455.073	4997.88
455.294	5323.88
455.514	5966.88
455.734	5398.88
455.955	4830.88
456.175	4827.88
456.395	4678.88
456.616	4730.88
456.836	4713.88
457.056	4716.88
457.276	4599.88
457.497	4757.88
457.717	4802.88
457.937	4864.88
458.157	4894.88
458.377	4980.88
458.598	5304.88
458.818	5963.88
459.038	6748.88
459.258	6648.88
459.478	5955.88
459.698	5851.88
459.918	5954.88
460.138	6123.88
460.358	6359.88
460.578	6336.88
460.798	6453.88
461.018	6378.88
461.238	6302.88
461.458	6268.88
461.678	6245.88
461.898	6396.88
462.118	6446.88
462.338	6719.88
462.558	6916.88
462.777	7247.88
462.997	7750.88
463.217	8238.88
463.437	8002.88
463.657	7383.88
463.876	7204.88
464.096	7330.88
464.316	7241.88
464.536	7309.88
464.755	6989.88
464.975	6884.88
465.195	6997.88
465.414	6999.88
465.634	6202.88
465.854	5903.88
466.073	5765.88
466.293	5583.88
466.512	5386.88
466.732	5282.88
466.951	5271.88
467.171	5270.88
467.391	5312.88
467.61	5392.88
467.829	5450.88
468.049	5324.88
468.268	5150.88
468.488	5061.88
468.707	4969.88
468.927	5090.88
469.146	4976.88
469.365	5095.88
469.585	5138.88
469.804	5344.88
470.023	5543.88
470.243	5431.88
470.462	5557.88
470.681	5704.88
470.901	5641.88
471.12	5494.88
471.339	5422.88
471.558	5410.88
471.777	5280.88
471.997	5184.88
472.216	5232.88
472.435	5437.88
472.654	5196.88
472.873	5034.88
473.092	5054.88
473.311	5044.88
473.53	5048.88
473.749	5177.88
473.968	5655.88
474.187	6659.88
474.406	6219.88
474.625	5320.88
474.844	5151.88
475.063	5013.88
475.282	5113.88
475.501	5154.88
475.72	5188.88
475.939	5208.88
476.158	5255.88
476.377	5264.88
476.596	5263.88
476.814	5428.88
477.033	5465.88
477.252	5522.88
477.471	5660.88
477.69	5819.88
477.908	5796.88
478.127	5924.88
478.346	6032.88
478.564	6144.88
478.783	6292.88
479.002	6335.88
479.22	6494.88
479.439	6411.88
479.658	6508.88
479.876	6642.88
480.095	6849.88
480.313	7254.88
480.532	7212.88
480.751	7049.88
480.969	7006.88
481.188	7394.88
481.406	7275.88
481.624	6572.88
481.843	6314.88
482.061	6172.88
482.28	6068.88
482.498	5995.88
482.717	6003.88
482.935	6002.88
483.153	5932.88
483.372	5897.88
483.59	5969.88
483.808	5934.88
484.027	6007.88
484.245	6029.88
484.463	6022.88
484.681	6138.88
484.9	6136.88
485.118	6199.88
485.336	6249.88
485.554	6338.88
485.772	6271.88
485.99	6260.88
486.209	6441.88
486.427	6413.88
486.645	6364.88
486.863	6543.88
487.081	6531.88
487.299	6399.88
487.517	6520.88
487.735	6347.88
487.953	6390.88
