Data from Uncirc_1982_H10_HRD10591_00070.txt Node
Date: Wed Jan 03 12:29:39 EST 2024
User: Yrep
Spectrometer: HR+D1059
Trigger mode: 1
Integration Time (sec): 1.000000E-1
Scans to average: 1
Electric dark correction enabled: true
Nonlinearity correction enabled: false
Boxcar width: 0
XAxis mode: Wavelengths
Number of Pixels in Spectrum: 2048
>>>>>Begin Spectral Data<<<<<
223.165	-24.38
223.4	-24.38
223.635	-24.38
223.869	-20.38
224.104	-30.38
224.338	-15.38
224.573	-4.38
224.808	-30.38
225.042	-9.38
225.277	-16.38
225.511	2.62
225.746	11.62
225.98	11.62
226.215	17.62
226.449	20.62
226.683	29.62
226.918	34.62
227.152	22.62
227.387	32.62
227.621	34.62
227.856	47.62
228.09	52.62
228.324	45.62
228.559	54.62
228.793	50.62
229.027	60.62
229.262	72.62
229.496	78.62
229.73	78.62
229.964	53.62
230.199	69.62
230.433	72.62
230.667	73.62
230.901	71.62
231.136	89.62
231.37	80.62
231.604	88.62
231.838	68.62
232.072	85.62
232.306	73.62
232.541	82.62
232.775	80.62
233.009	75.62
233.243	85.62
233.477	87.62
233.711	68.62
233.945	74.62
234.179	85.62
234.413	86.62
234.647	76.62
234.881	75.62
235.115	80.62
235.349	75.62
235.583	75.62
235.817	72.62
236.051	65.62
236.285	67.62
236.519	83.62
236.753	78.62
236.987	78.62
237.221	91.62
237.455	101.62
237.689	86.62
237.922	86.62
238.156	65.62
238.39	77.62
238.624	86.62
238.858	59.62
239.091	73.62
239.325	81.62
239.559	79.62
239.793	86.62
240.027	72.62
240.26	66.62
240.494	82.62
240.728	68.62
240.961	92.62
241.195	82.62
241.429	80.62
241.662	83.62
241.896	65.62
242.13	80.62
242.363	82.62
242.597	60.62
242.83	69.62
243.064	63.62
243.298	89.62
243.531	64.62
243.765	73.62
243.998	89.62
244.232	80.62
244.465	84.62
244.699	76.62
244.932	105.62
245.166	72.62
245.399	75.62
245.633	83.62
245.866	74.62
246.099	89.62
246.333	81.62
246.566	84.62
246.8	82.62
247.033	89.62
247.266	76.62
247.5	75.62
247.733	77.62
247.966	81.62
248.2	80.62
248.433	74.62
248.666	82.62
248.899	84.62
249.133	89.62
249.366	107.62
249.599	97.62
249.832	77.62
250.066	64.62
250.299	69.62
250.532	83.62
250.765	76.62
250.998	76.62
251.231	85.62
251.465	80.62
251.698	76.62
251.931	87.62
252.164	80.62
252.397	87.62
252.63	80.62
252.863	69.62
253.096	75.62
253.329	77.62
253.562	79.62
253.795	80.62
254.028	97.62
254.261	76.62
254.494	87.62
254.727	64.62
254.96	85.62
255.193	84.62
255.426	77.62
255.659	77.62
255.892	91.62
256.124	88.62
256.357	87.62
256.59	85.62
256.823	75.62
257.056	69.62
257.289	90.62
257.521	80.62
257.754	79.62
257.987	72.62
258.22	83.62
258.452	83.62
258.685	68.62
258.918	80.62
259.151	89.62
259.383	90.62
259.616	71.62
259.849	84.62
260.081	80.62
260.314	83.62
260.547	76.62
260.779	75.62
261.012	84.62
261.244	80.62
261.477	81.62
261.71	91.62
261.942	98.62
262.175	98.62
262.407	82.62
262.64	83.62
262.872	72.62
263.105	84.62
263.337	81.62
263.57	78.62
263.802	76.62
264.035	82.62
264.267	71.62
264.499	84.62
264.732	100.62
264.964	98.62
265.197	86.62
265.429	96.62
265.661	65.62
265.894	96.62
266.126	79.62
266.358	90.62
266.591	74.62
266.823	88.62
267.055	72.62
267.287	94.62
267.52	98.62
267.752	89.62
267.984	87.62
268.216	83.62
268.448	85.62
268.681	85.62
268.913	94.62
269.145	82.62
269.377	89.62
269.609	85.62
269.841	88.62
270.073	89.62
270.306	104.62
270.538	92.62
270.77	75.62
271.002	83.62
271.234	84.62
271.466	76.62
271.698	93.62
271.93	75.62
272.162	78.62
272.394	76.62
272.626	70.62
272.858	88.62
273.09	88.62
273.322	84.62
273.553	84.62
273.785	84.62
274.017	95.62
274.249	86.62
274.481	87.62
274.713	88.62
274.945	81.62
275.176	97.62
275.408	81.62
275.64	77.62
275.872	92.62
276.104	91.62
276.335	78.62
276.567	90.62
276.799	81.62
277.031	94.62
277.262	104.62
277.494	81.62
277.726	84.62
277.957	84.62
278.189	81.62
278.421	82.62
278.652	87.62
278.884	88.62
279.115	86.62
279.347	97.62
279.579	77.62
279.81	89.62
280.042	80.62
280.273	82.62
280.505	81.62
280.736	89.62
280.968	86.62
281.199	100.62
281.431	88.62
281.662	94.62
281.894	85.62
282.125	100.62
282.356	108.62
282.588	114.62
282.819	102.62
283.051	75.62
283.282	108.62
283.513	97.62
283.745	82.62
283.976	92.62
284.207	101.62
284.439	70.62
284.67	87.62
284.901	76.62
285.132	77.62
285.364	87.62
285.595	78.62
285.826	93.62
286.057	84.62
286.288	85.62
286.52	92.62
286.751	91.62
286.982	96.62
287.213	89.62
287.444	101.62
287.675	94.62
287.906	106.62
288.138	82.62
288.369	99.62
288.6	86.62
288.831	99.62
289.062	90.62
289.293	87.62
289.524	85.62
289.755	81.62
289.986	75.62
290.217	89.62
290.448	96.62
290.679	94.62
290.91	78.62
291.141	91.62
291.371	98.62
291.602	82.62
291.833	85.62
292.064	88.62
292.295	80.62
292.526	72.62
292.757	91.62
292.987	84.62
293.218	81.62
293.449	81.62
293.68	89.62
293.91	74.62
294.141	88.62
294.372	92.62
294.603	85.62
294.833	92.62
295.064	82.62
295.295	92.62
295.525	89.62
295.756	106.62
295.987	101.62
296.217	145.62
296.448	114.62
296.679	84.62
296.909	91.62
297.14	83.62
297.37	92.62
297.601	97.62
297.831	80.62
298.062	92.62
298.292	84.62
298.523	100.62
298.753	86.62
298.984	95.62
299.214	93.62
299.445	81.62
299.675	98.62
299.905	84.62
300.136	96.62
300.366	95.62
300.597	88.62
300.827	86.62
301.057	101.62
301.288	98.62
301.518	91.62
301.748	82.62
301.979	100.62
302.209	82.62
302.439	93.62
302.669	84.62
302.9	85.62
303.13	80.62
303.36	84.62
303.59	88.62
303.82	104.62
304.051	83.62
304.281	84.62
304.511	75.62
304.741	76.62
304.971	92.62
305.201	86.62
305.431	90.62
305.661	100.62
305.891	96.62
306.121	109.62
306.352	105.62
306.582	87.62
306.812	93.62
307.042	84.62
307.272	97.62
307.502	92.62
307.731	96.62
307.961	89.62
308.191	96.62
308.421	90.62
308.651	91.62
308.881	88.62
309.111	99.62
309.341	99.62
309.571	111.62
309.8	97.62
310.03	96.62
310.26	85.62
310.49	90.62
310.72	86.62
310.949	96.62
311.179	100.62
311.409	89.62
311.639	92.62
311.868	91.62
312.098	92.62
312.328	87.62
312.557	105.62
312.787	87.62
313.017	96.62
313.246	89.62
313.476	88.62
313.706	109.62
313.935	89.62
314.165	94.62
314.394	96.62
314.624	75.62
314.853	93.62
315.083	82.62
315.312	96.62
315.542	98.62
315.771	84.62
316.001	75.62
316.23	90.62
316.46	92.62
316.689	94.62
316.919	90.62
317.148	96.62
317.377	104.62
317.607	91.62
317.836	100.62
318.065	89.62
318.295	97.62
318.524	85.62
318.753	93.62
318.983	100.62
319.212	96.62
319.441	99.62
319.67	113.62
319.9	94.62
320.129	85.62
320.358	99.62
320.587	89.62
320.816	91.62
321.046	92.62
321.275	107.62
321.504	92.62
321.733	95.62
321.962	91.62
322.191	98.62
322.42	89.62
322.649	121.62
322.878	103.62
323.108	114.62
323.337	107.62
323.566	132.62
323.795	140.62
324.024	190.62
324.253	351.62
324.482	762.62
324.71	1563.62
324.939	2006.62
325.168	720.62
325.397	222.62
325.626	146.62
325.855	127.62
326.084	127.62
326.313	136.62
326.542	158.62
326.77	211.62
326.999	407.62
327.228	849.62
327.457	1556.62
327.686	1236.62
327.914	361.62
328.143	178.62
328.372	133.62
328.6	115.62
328.829	110.62
329.058	125.62
329.287	99.62
329.515	111.62
329.744	104.62
329.972	110.62
330.201	123.62
330.43	137.62
330.658	118.62
330.887	130.62
331.115	101.62
331.344	93.62
331.572	110.62
331.801	106.62
332.03	105.62
332.258	109.62
332.486	87.62
332.715	87.62
332.943	95.62
333.172	100.62
333.4	93.62
333.629	96.62
333.857	106.62
334.085	109.62
334.314	99.62
334.542	120.62
334.771	127.62
334.999	105.62
335.227	88.62
335.455	94.62
335.684	95.62
335.912	101.62
336.14	94.62
336.369	74.62
336.597	99.62
336.825	84.62
337.053	92.62
337.281	75.62
337.51	92.62
337.738	94.62
337.966	99.62
338.194	94.62
338.422	106.62
338.65	89.62
338.878	86.62
339.106	85.62
339.334	91.62
339.562	83.62
339.79	86.62
340.018	76.62
340.246	94.62
340.474	78.62
340.702	104.62
340.93	84.62
341.158	87.62
341.386	96.62
341.614	96.62
341.842	89.62
342.07	102.62
342.298	100.62
342.526	96.62
342.754	86.62
342.981	93.62
343.209	88.62
343.437	93.62
343.665	84.62
343.893	104.62
344.12	93.62
344.348	95.62
344.576	87.62
344.804	70.62
345.031	94.62
345.259	89.62
345.487	96.62
345.714	101.62
345.942	80.62
346.17	94.62
346.397	105.62
346.625	90.62
346.853	99.62
347.08	81.62
347.308	104.62
347.535	87.62
347.763	93.62
347.99	82.62
348.218	107.62
348.445	88.62
348.673	84.62
348.9	90.62
349.128	73.62
349.355	99.62
349.583	81.62
349.81	77.62
350.037	92.62
350.265	100.62
350.492	104.62
350.72	99.62
350.947	109.62
351.174	118.62
351.402	103.62
351.629	98.62
351.856	99.62
352.083	99.62
352.311	108.62
352.538	124.62
352.765	110.62
352.992	98.62
353.22	105.62
353.447	112.62
353.674	89.62
353.901	107.62
354.128	107.62
354.355	106.62
354.583	84.62
354.81	94.62
355.037	101.62
355.264	98.62
355.491	83.62
355.718	85.62
355.945	86.62
356.172	98.62
356.399	89.62
356.626	100.62
356.853	88.62
357.08	88.62
357.307	98.62
357.534	81.62
357.761	101.62
357.988	96.62
358.215	100.62
358.441	93.62
358.668	95.62
358.895	81.62
359.122	101.62
359.349	93.62
359.576	92.62
359.802	93.62
360.029	103.62
360.256	103.62
360.483	98.62
360.709	80.62
360.936	99.62
361.163	85.62
361.39	98.62
361.616	84.62
361.843	101.62
362.07	88.62
362.296	100.62
362.523	111.62
362.749	82.62
362.976	89.62
363.203	101.62
363.429	78.62
363.656	90.62
363.882	91.62
364.109	90.62
364.335	88.62
364.562	81.62
364.788	84.62
365.015	97.62
365.241	104.62
365.468	109.62
365.694	107.62
365.92	86.62
366.147	93.62
366.373	101.62
366.599	92.62
366.826	89.62
367.052	69.62
367.278	94.62
367.505	92.62
367.731	79.62
367.957	85.62
368.184	82.62
368.41	108.62
368.636	89.62
368.862	103.62
369.089	90.62
369.315	93.62
369.541	97.62
369.767	80.62
369.993	84.62
370.219	90.62
370.445	83.62
370.672	95.62
370.898	75.62
371.124	86.62
371.35	88.62
371.576	82.62
371.802	90.62
372.028	98.62
372.254	98.62
372.48	84.62
372.706	86.62
372.932	96.62
373.158	83.62
373.384	88.62
373.61	77.62
373.835	68.62
374.061	101.62
374.287	91.62
374.513	82.62
374.739	93.62
374.965	88.62
375.191	83.62
375.416	90.62
375.642	94.62
375.868	93.62
376.094	84.62
376.319	76.62
376.545	86.62
376.771	96.62
376.997	94.62
377.222	82.62
377.448	91.62
377.674	95.62
377.899	78.62
378.125	78.62
378.35	97.62
378.576	84.62
378.802	78.62
379.027	82.62
379.253	80.62
379.478	86.62
379.704	90.62
379.929	95.62
380.155	77.62
380.38	108.62
380.606	88.62
380.831	90.62
381.057	103.62
381.282	88.62
381.507	78.62
381.733	95.62
381.958	88.62
382.184	95.62
382.409	105.62
382.634	102.62
382.86	89.62
383.085	96.62
383.31	113.62
383.535	76.62
383.761	102.62
383.986	102.62
384.211	101.62
384.436	99.62
384.662	101.62
384.887	107.62
385.112	99.62
385.337	100.62
385.562	120.62
385.787	100.62
386.013	94.62
386.238	86.62
386.463	107.62
386.688	109.62
386.913	103.62
387.138	102.62
387.363	104.62
387.588	105.62
387.813	102.62
388.038	105.62
388.263	106.62
388.488	103.62
388.713	105.62
388.938	102.62
389.163	99.62
389.387	99.62
389.612	90.62
389.837	97.62
390.062	96.62
390.287	75.62
390.512	106.62
390.736	100.62
390.961	93.62
391.186	76.62
391.411	101.62
391.636	84.62
391.86	78.62
392.085	103.62
392.31	84.62
392.534	83.62
392.759	93.62
392.984	75.62
393.208	73.62
393.433	87.62
393.658	97.62
393.882	95.62
394.107	88.62
394.331	89.62
394.556	68.62
394.78	88.62
395.005	90.62
395.229	88.62
395.454	83.62
395.678	94.62
395.903	88.62
396.127	97.62
396.352	94.62
396.576	74.62
396.801	69.62
397.025	70.62
397.249	86.62
397.474	91.62
397.698	85.62
397.922	89.62
398.147	90.62
398.371	73.62
398.595	78.62
398.82	69.62
399.044	81.62
399.268	94.62
399.492	83.62
399.717	91.62
399.941	93.62
400.165	92.62
400.389	82.62
400.613	101.62
400.837	95.62
401.062	87.62
401.286	88.62
401.51	90.62
401.734	89.62
401.958	90.62
402.182	127.62
402.406	146.62
402.63	104.62
402.854	84.62
403.078	85.62
403.302	83.62
403.526	96.62
403.75	96.62
403.974	98.62
404.198	88.62
404.422	84.62
404.645	93.62
404.869	85.62
405.093	91.62
405.317	88.62
405.541	102.62
405.765	88.62
405.988	118.62
406.212	155.62
406.436	200.62
406.66	113.62
406.883	102.62
407.107	98.62
407.331	91.62
407.555	112.62
407.778	94.62
408.002	73.62
408.226	86.62
408.449	91.62
408.673	82.62
408.896	100.62
409.12	95.62
409.344	91.62
409.567	94.62
409.791	106.62
410.014	99.62
410.238	91.62
410.461	93.62
410.685	59.62
410.908	88.62
411.132	102.62
411.355	87.62
411.578	90.62
411.802	84.62
412.025	96.62
412.249	83.62
412.472	94.62
412.695	91.62
412.919	81.62
413.142	94.62
413.365	80.62
413.589	90.62
413.812	97.62
414.035	92.62
414.258	93.62
414.482	83.62
414.705	93.62
414.928	78.62
415.151	93.62
415.374	97.62
415.597	92.62
415.821	96.62
416.044	88.62
416.267	83.62
416.49	89.62
416.713	83.62
416.936	94.62
417.159	97.62
417.382	78.62
417.605	81.62
417.828	96.62
418.051	89.62
418.274	112.62
418.497	84.62
418.72	101.62
418.943	84.62
419.166	105.62
419.389	92.62
419.611	101.62
419.834	80.62
420.057	96.62
420.28	82.62
420.503	83.62
420.726	91.62
420.948	78.62
421.171	87.62
421.394	106.62
421.617	72.62
421.839	89.62
422.062	96.62
422.285	97.62
422.507	85.62
422.73	84.62
422.953	82.62
423.175	80.62
423.398	94.62
423.621	92.62
423.843	100.62
424.066	81.62
424.288	86.62
424.511	98.62
424.733	116.62
424.956	107.62
425.178	96.62
425.401	87.62
425.623	98.62
425.846	88.62
426.068	102.62
426.291	91.62
426.513	87.62
426.735	100.62
426.958	94.62
427.18	93.62
427.402	125.62
427.625	163.62
427.847	126.62
428.069	100.62
428.292	87.62
428.514	80.62
428.736	81.62
428.958	107.62
429.181	90.62
429.403	82.62
429.625	78.62
429.847	96.62
430.069	100.62
430.292	92.62
430.514	102.62
430.736	85.62
430.958	86.62
431.18	76.62
431.402	87.62
431.624	78.62
431.846	101.62
432.068	99.62
432.29	89.62
432.512	74.62
432.734	71.62
432.956	82.62
433.178	104.62
433.4	77.62
433.622	81.62
433.844	80.62
434.066	80.62
434.287	89.62
434.509	88.62
434.731	87.62
434.953	82.62
435.175	87.62
435.397	84.62
435.618	88.62
435.84	95.62
436.062	117.62
436.284	114.62
436.505	104.62
436.727	97.62
436.949	98.62
437.17	84.62
437.392	91.62
437.614	100.62
437.835	115.62
438.057	104.62
438.278	106.62
438.5	110.62
438.721	121.62
438.943	101.62
439.165	89.62
439.386	92.62
439.608	90.62
439.829	92.62
440.05	103.62
440.272	123.62
440.493	92.62
440.715	84.62
440.936	93.62
441.158	86.62
441.379	91.62
441.6	88.62
441.822	88.62
442.043	107.62
442.264	104.62
442.486	93.62
442.707	108.62
442.928	99.62
443.149	126.62
443.371	123.62
443.592	112.62
443.813	110.62
444.034	101.62
444.255	88.62
444.476	94.62
444.698	75.62
444.919	93.62
445.14	145.62
445.361	120.62
445.582	116.62
445.803	124.62
446.024	126.62
446.245	105.62
446.466	96.62
446.687	87.62
446.908	88.62
447.129	100.62
447.35	97.62
447.571	96.62
447.792	77.62
448.013	99.62
448.234	107.62
448.455	117.62
448.675	110.62
448.896	85.62
449.117	88.62
449.338	102.62
449.559	134.62
449.779	109.62
450	100.62
450.221	102.62
450.442	111.62
450.662	84.62
450.883	92.62
451.104	108.62
451.324	83.62
451.545	85.62
451.766	77.62
451.986	69.62
452.207	82.62
452.428	92.62
452.648	96.62
452.869	108.62
453.089	103.62
453.31	97.62
453.53	97.62
453.751	95.62
453.971	85.62
454.192	91.62
454.412	84.62
454.633	91.62
454.853	99.62
455.073	77.62
455.294	87.62
455.514	84.62
455.734	95.62
455.955	98.62
456.175	87.62
456.395	84.62
456.616	86.62
456.836	85.62
457.056	90.62
457.276	91.62
457.497	96.62
457.717	70.62
457.937	98.62
458.157	82.62
458.377	86.62
458.598	108.62
458.818	129.62
459.038	140.62
459.258	113.62
459.478	88.62
459.698	84.62
459.918	85.62
460.138	104.62
460.358	78.62
460.578	83.62
460.798	94.62
461.018	83.62
461.238	90.62
461.458	91.62
461.678	92.62
461.898	80.62
462.118	77.62
462.338	89.62
462.558	89.62
462.777	100.62
462.997	82.62
463.217	88.62
463.437	72.62
463.657	80.62
463.876	98.62
464.096	92.62
464.316	103.62
464.536	89.62
464.755	91.62
464.975	98.62
465.195	153.62
465.414	133.62
465.634	101.62
465.854	75.62
466.073	94.62
466.293	92.62
466.512	86.62
466.732	84.62
466.951	91.62
467.171	98.62
467.391	87.62
467.61	96.62
467.829	86.62
468.049	94.62
468.268	90.62
468.488	100.62
468.707	89.62
468.927	93.62
469.146	91.62
469.365	81.62
469.585	84.62
469.804	80.62
470.023	81.62
470.243	88.62
470.462	93.62
470.681	103.62
470.901	72.62
471.12	95.62
471.339	85.62
471.558	82.62
471.777	80.62
471.997	105.62
472.216	101.62
472.435	137.62
472.654	93.62
472.873	77.62
473.092	91.62
473.311	90.62
473.53	72.62
473.749	91.62
473.968	84.62
474.187	101.62
474.406	84.62
474.625	80.62
474.844	99.62
475.063	77.62
475.282	78.62
475.501	79.62
475.72	91.62
475.939	105.62
476.158	106.62
476.377	86.62
476.596	88.62
476.814	80.62
477.033	104.62
477.252	83.62
477.471	100.62
477.69	81.62
477.908	88.62
478.127	84.62
478.346	82.62
478.564	104.62
478.783	86.62
479.002	89.62
479.22	97.62
479.439	95.62
479.658	86.62
479.876	95.62
480.095	80.62
480.313	85.62
480.532	93.62
480.751	86.62
480.969	109.62
481.188	206.62
481.406	128.62
481.624	78.62
481.843	86.62
482.061	88.62
482.28	88.62
482.498	86.62
482.717	97.62
482.935	91.62
483.153	88.62
483.372	88.62
483.59	83.62
483.808	89.62
484.027	91.62
484.245	88.62
484.463	97.62
484.681	102.62
484.9	100.62
485.118	82.62
485.336	94.62
485.554	98.62
485.772	104.62
485.99	104.62
486.209	112.62
486.427	101.62
486.645	114.62
486.863	100.62
487.081	108.62
487.299	107.62
487.517	90.62
487.735	82.62
487.953	99.62
488.171	100.62
488.389	94.62
488.607	108.62
488.825	88.62
489.043	93.62
489.261	74.62
489.479	93.62
489.696	84.62
489.914	81.62
490.132	101.62
490.35	105.62
490.568	92.62
490.786	91.62
491.003	81.62
491.221	76.62
491.439	77.62
491.657	101.62
491.874	86.62
492.092	101.62
492.31	80.62
492.527	85.62
492.745	91.62
492.963	86.62
493.18	94.62
493.398	91.62
493.615	101.62
493.833	108.62
494.05	91.62
494.268	89.62
494.485	80.62
494.703	90.62
494.92	82.62
495.138	88.62
495.355	96.62
495.573	84.62
495.79	76.62
496.008	101.62
496.225	93.62
496.442	87.62
496.66	101.62
496.877	95.62
497.094	88.62
497.312	78.62
497.529	90.62
497.746	101.62
497.963	72.62
498.181	94.62
498.398	87.62
498.615	116.62
498.832	96.62
499.049	100.62
499.267	108.62
499.484	92.62
499.701	102.62
499.918	94.62
500.135	84.62
500.352	96.62
500.569	89.62
500.786	103.62
501.003	86.62
501.22	85.62
501.437	93.62
501.654	98.62
501.871	99.62
502.088	80.62
502.305	93.62
502.522	92.62
502.739	89.62
502.956	94.62
503.172	84.62
503.389	104.62
503.606	100.62
503.823	101.62
504.04	101.62
504.256	95.62
504.473	87.62
504.69	79.62
504.907	100.62
505.123	89.62
505.34	85.62
505.557	92.62
505.773	84.62
505.99	96.62
506.207	86.62
506.423	101.62
506.64	87.62
506.856	99.62
507.073	80.62
507.289	101.62
507.506	113.62
507.722	109.62
507.939	93.62
508.155	91.62
508.372	105.62
508.588	101.62
508.805	107.62
509.021	96.62
509.238	103.62
509.454	102.62
509.67	97.62
509.887	104.62
510.103	129.62
510.319	203.62
510.536	724.62
510.752	2162.62
510.968	592.62
511.184	145.62
511.401	102.62
511.617	87.62
511.833	94.62
512.049	97.62
512.265	75.62
512.481	91.62
512.698	96.62
512.914	99.62
513.13	84.62
513.346	83.62
513.562	87.62
513.778	92.62
513.994	95.62
514.21	104.62
514.426	113.62
514.642	109.62
514.858	112.62
515.074	161.62
515.29	411.62
515.506	1266.62
515.721	458.62
