Data from Uncirc_1982_H10_HRD10591_00086.txt Node
Date: Wed Jan 03 12:29:42 EST 2024
User: Yrep
Spectrometer: HR+D1059
Trigger mode: 1
Integration Time (sec): 1.000000E-1
Scans to average: 1
Electric dark correction enabled: true
Nonlinearity correction enabled: false
Boxcar width: 0
XAxis mode: Wavelengths
Number of Pixels in Spectrum: 2048
>>>>>Begin Spectral Data<<<<<
223.165	-9.5
223.4	-9.5
223.635	-9.5
223.869	-11.5
224.104	-18.5
224.338	-15.5
224.573	-16.5
224.808	-18.5
225.042	-6.5
225.277	-7.5
225.511	-7.5
225.746	7.5
225.98	5.5
226.215	15.5
226.449	20.5
226.683	13.5
226.918	23.5
227.152	25.5
227.387	35.5
227.621	33.5
227.856	52.5
228.09	37.5
228.324	59.5
228.559	58.5
228.793	71.5
229.027	63.5
229.262	59.5
229.496	69.5
229.73	88.5
229.964	69.5
230.199	81.5
230.433	71.5
230.667	68.5
230.901	72.5
231.136	86.5
231.37	82.5
231.604	77.5
231.838	71.5
232.072	87.5
232.306	95.5
232.541	81.5
232.775	74.5
233.009	85.5
233.243	71.5
233.477	83.5
233.711	71.5
233.945	84.5
234.179	65.5
234.413	78.5
234.647	74.5
234.881	87.5
235.115	70.5
235.349	76.5
235.583	72.5
235.817	79.5
236.051	63.5
236.285	75.5
236.519	65.5
236.753	73.5
236.987	63.5
237.221	74.5
237.455	67.5
237.689	71.5
237.922	69.5
238.156	75.5
238.39	65.5
238.624	82.5
238.858	79.5
239.091	69.5
239.325	83.5
239.559	72.5
239.793	71.5
240.027	81.5
240.26	81.5
240.494	70.5
240.728	67.5
240.961	67.5
241.195	61.5
241.429	72.5
241.662	68.5
241.896	73.5
242.13	86.5
242.363	86.5
242.597	88.5
242.83	87.5
243.064	80.5
243.298	77.5
243.531	72.5
243.765	81.5
243.998	86.5
244.232	85.5
244.465	70.5
244.699	84.5
244.932	76.5
245.166	66.5
245.399	65.5
245.633	74.5
245.866	63.5
246.099	74.5
246.333	73.5
246.566	92.5
246.8	74.5
247.033	68.5
247.266	69.5
247.5	61.5
247.733	60.5
247.966	82.5
248.2	75.5
248.433	63.5
248.666	68.5
248.899	83.5
249.133	82.5
249.366	86.5
249.599	88.5
249.832	74.5
250.066	77.5
250.299	91.5
250.532	76.5
250.765	79.5
250.998	83.5
251.231	71.5
251.465	72.5
251.698	75.5
251.931	77.5
252.164	81.5
252.397	93.5
252.63	79.5
252.863	79.5
253.096	82.5
253.329	76.5
253.562	80.5
253.795	90.5
254.028	75.5
254.261	75.5
254.494	94.5
254.727	89.5
254.96	75.5
255.193	72.5
255.426	66.5
255.659	85.5
255.892	65.5
256.124	66.5
256.357	76.5
256.59	66.5
256.823	73.5
257.056	81.5
257.289	74.5
257.521	72.5
257.754	81.5
257.987	81.5
258.22	96.5
258.452	71.5
258.685	81.5
258.918	81.5
259.151	95.5
259.383	87.5
259.616	81.5
259.849	75.5
260.081	83.5
260.314	76.5
260.547	67.5
260.779	74.5
261.012	83.5
261.244	81.5
261.477	81.5
261.71	82.5
261.942	98.5
262.175	106.5
262.407	101.5
262.64	75.5
262.872	69.5
263.105	78.5
263.337	83.5
263.57	84.5
263.802	69.5
264.035	84.5
264.267	79.5
264.499	87.5
264.732	84.5
264.964	72.5
265.197	76.5
265.429	56.5
265.661	74.5
265.894	87.5
266.126	81.5
266.358	94.5
266.591	85.5
266.823	67.5
267.055	87.5
267.287	75.5
267.52	74.5
267.752	71.5
267.984	85.5
268.216	80.5
268.448	87.5
268.681	80.5
268.913	74.5
269.145	89.5
269.377	69.5
269.609	90.5
269.841	85.5
270.073	93.5
270.306	84.5
270.538	88.5
270.77	64.5
271.002	89.5
271.234	91.5
271.466	93.5
271.698	89.5
271.93	75.5
272.162	79.5
272.394	66.5
272.626	72.5
272.858	87.5
273.09	91.5
273.322	93.5
273.553	66.5
273.785	69.5
274.017	76.5
274.249	90.5
274.481	82.5
274.713	85.5
274.945	89.5
275.176	84.5
275.408	89.5
275.64	85.5
275.872	82.5
276.104	80.5
276.335	90.5
276.567	92.5
276.799	107.5
277.031	98.5
277.262	97.5
277.494	86.5
277.726	78.5
277.957	69.5
278.189	74.5
278.421	91.5
278.652	81.5
278.884	87.5
279.115	86.5
279.347	84.5
279.579	78.5
279.81	80.5
280.042	84.5
280.273	84.5
280.505	92.5
280.736	80.5
280.968	95.5
281.199	91.5
281.431	83.5
281.662	89.5
281.894	71.5
282.125	87.5
282.356	89.5
282.588	123.5
282.819	124.5
283.051	81.5
283.282	99.5
283.513	79.5
283.745	83.5
283.976	90.5
284.207	69.5
284.439	86.5
284.67	84.5
284.901	92.5
285.132	88.5
285.364	81.5
285.595	94.5
285.826	88.5
286.057	93.5
286.288	102.5
286.52	67.5
286.751	87.5
286.982	83.5
287.213	77.5
287.444	85.5
287.675	74.5
287.906	93.5
288.138	91.5
288.369	77.5
288.6	91.5
288.831	71.5
289.062	89.5
289.293	89.5
289.524	90.5
289.755	95.5
289.986	92.5
290.217	96.5
290.448	77.5
290.679	87.5
290.91	85.5
291.141	87.5
291.371	83.5
291.602	83.5
291.833	92.5
292.064	91.5
292.295	81.5
292.526	72.5
292.757	68.5
292.987	85.5
293.218	79.5
293.449	97.5
293.68	75.5
293.91	95.5
294.141	91.5
294.372	90.5
294.603	85.5
294.833	98.5
295.064	96.5
295.295	88.5
295.525	87.5
295.756	94.5
295.987	108.5
296.217	123.5
296.448	104.5
296.679	80.5
296.909	81.5
297.14	82.5
297.37	76.5
297.601	87.5
297.831	79.5
298.062	90.5
298.292	98.5
298.523	97.5
298.753	70.5
298.984	76.5
299.214	81.5
299.445	94.5
299.675	98.5
299.905	113.5
300.136	100.5
300.366	82.5
300.597	81.5
300.827	104.5
301.057	106.5
301.288	102.5
301.518	104.5
301.748	83.5
301.979	99.5
302.209	91.5
302.439	103.5
302.669	77.5
302.9	95.5
303.13	80.5
303.36	89.5
303.59	117.5
303.82	99.5
304.051	98.5
304.281	76.5
304.511	89.5
304.741	76.5
304.971	79.5
305.201	81.5
305.431	86.5
305.661	91.5
305.891	93.5
306.121	91.5
306.352	105.5
306.582	100.5
306.812	104.5
307.042	77.5
307.272	106.5
307.502	88.5
307.731	92.5
307.961	88.5
308.191	95.5
308.421	89.5
308.651	81.5
308.881	97.5
309.111	85.5
309.341	100.5
309.571	103.5
309.8	92.5
310.03	93.5
310.26	94.5
310.49	93.5
310.72	92.5
310.949	102.5
311.179	90.5
311.409	106.5
311.639	90.5
311.868	74.5
312.098	84.5
312.328	97.5
312.557	88.5
312.787	105.5
313.017	84.5
313.246	75.5
313.476	93.5
313.706	79.5
313.935	102.5
314.165	91.5
314.394	85.5
314.624	92.5
314.853	87.5
315.083	93.5
315.312	79.5
315.542	89.5
315.771	98.5
316.001	77.5
316.23	88.5
316.46	83.5
316.689	82.5
316.919	88.5
317.148	83.5
317.377	103.5
317.607	84.5
317.836	98.5
318.065	90.5
318.295	70.5
318.524	79.5
318.753	91.5
318.983	102.5
319.212	93.5
319.441	108.5
319.67	113.5
319.9	93.5
320.129	92.5
320.358	96.5
320.587	95.5
320.816	87.5
321.046	96.5
321.275	95.5
321.504	85.5
321.733	90.5
321.962	96.5
322.191	75.5
322.42	91.5
322.649	104.5
322.878	104.5
323.108	108.5
323.337	109.5
323.566	117.5
323.795	128.5
324.024	183.5
324.253	339.5
324.482	705.5
324.71	1501.5
324.939	1885.5
325.168	687.5
325.397	210.5
325.626	123.5
325.855	111.5
326.084	119.5
326.313	107.5
326.542	125.5
326.77	220.5
326.999	389.5
327.228	809.5
327.457	1483.5
327.686	1200.5
327.914	335.5
328.143	177.5
328.372	137.5
328.6	119.5
328.829	101.5
329.058	109.5
329.287	119.5
329.515	110.5
329.744	99.5
329.972	104.5
330.201	128.5
330.43	148.5
330.658	122.5
330.887	124.5
331.115	102.5
331.344	94.5
331.572	105.5
331.801	100.5
332.03	92.5
332.258	102.5
332.486	83.5
332.715	91.5
332.943	85.5
333.172	82.5
333.4	93.5
333.629	97.5
333.857	100.5
334.085	109.5
334.314	116.5
334.542	127.5
334.771	131.5
334.999	104.5
335.227	92.5
335.455	87.5
335.684	97.5
335.912	91.5
336.14	88.5
336.369	103.5
336.597	83.5
336.825	88.5
337.053	98.5
337.281	90.5
337.51	100.5
337.738	80.5
337.966	83.5
338.194	98.5
338.422	95.5
338.65	94.5
338.878	97.5
339.106	91.5
339.334	96.5
339.562	91.5
339.79	77.5
340.018	97.5
340.246	91.5
340.474	93.5
340.702	98.5
340.93	92.5
341.158	90.5
341.386	86.5
341.614	90.5
341.842	91.5
342.07	99.5
342.298	85.5
342.526	89.5
342.754	83.5
342.981	89.5
343.209	86.5
343.437	105.5
343.665	107.5
343.893	87.5
344.12	104.5
344.348	93.5
344.576	92.5
344.804	76.5
345.031	85.5
345.259	100.5
345.487	86.5
345.714	96.5
345.942	96.5
346.17	94.5
346.397	106.5
346.625	75.5
346.853	85.5
347.08	88.5
347.308	86.5
347.535	93.5
347.763	91.5
347.99	102.5
348.218	115.5
348.445	96.5
348.673	105.5
348.9	94.5
349.128	82.5
349.355	95.5
349.583	90.5
349.81	86.5
350.037	109.5
350.265	97.5
350.492	86.5
350.72	95.5
350.947	114.5
351.174	96.5
351.402	113.5
351.629	102.5
351.856	100.5
352.083	103.5
352.311	94.5
352.538	100.5
352.765	110.5
352.992	104.5
353.22	89.5
353.447	91.5
353.674	90.5
353.901	106.5
354.128	106.5
354.355	85.5
354.583	97.5
354.81	92.5
355.037	76.5
355.264	96.5
355.491	97.5
355.718	92.5
355.945	92.5
356.172	107.5
356.399	98.5
356.626	96.5
356.853	77.5
357.08	92.5
357.307	87.5
357.534	86.5
357.761	81.5
357.988	89.5
358.215	102.5
358.441	101.5
358.668	103.5
358.895	88.5
359.122	91.5
359.349	89.5
359.576	77.5
359.802	96.5
360.029	100.5
360.256	104.5
360.483	96.5
360.709	89.5
360.936	87.5
361.163	89.5
361.39	77.5
361.616	90.5
361.843	95.5
362.07	79.5
362.296	88.5
362.523	96.5
362.749	90.5
362.976	90.5
363.203	84.5
363.429	90.5
363.656	82.5
363.882	85.5
364.109	108.5
364.335	89.5
364.562	95.5
364.788	85.5
365.015	86.5
365.241	111.5
365.468	103.5
365.694	91.5
365.92	83.5
366.147	85.5
366.373	81.5
366.599	84.5
366.826	85.5
367.052	79.5
367.278	74.5
367.505	77.5
367.731	91.5
367.957	86.5
368.184	88.5
368.41	91.5
368.636	113.5
368.862	96.5
369.089	93.5
369.315	93.5
369.541	97.5
369.767	103.5
369.993	102.5
370.219	106.5
370.445	103.5
370.672	96.5
370.898	84.5
371.124	85.5
371.35	86.5
371.576	89.5
371.802	86.5
372.028	81.5
372.254	84.5
372.48	73.5
372.706	78.5
372.932	87.5
373.158	81.5
373.384	75.5
373.61	101.5
373.835	102.5
374.061	94.5
374.287	101.5
374.513	85.5
374.739	104.5
374.965	93.5
375.191	86.5
375.416	90.5
375.642	82.5
375.868	87.5
376.094	100.5
376.319	95.5
376.545	86.5
376.771	92.5
376.997	88.5
377.222	90.5
377.448	92.5
377.674	81.5
377.899	91.5
378.125	95.5
378.35	83.5
378.576	88.5
378.802	94.5
379.027	99.5
379.253	79.5
379.478	92.5
379.704	96.5
379.929	94.5
380.155	88.5
380.38	108.5
380.606	99.5
380.831	98.5
381.057	104.5
381.282	83.5
381.507	93.5
381.733	96.5
381.958	84.5
382.184	104.5
382.409	90.5
382.634	98.5
382.86	96.5
383.085	105.5
383.31	103.5
383.535	91.5
383.761	103.5
383.986	99.5
384.211	98.5
384.436	94.5
384.662	92.5
384.887	98.5
385.112	90.5
385.337	91.5
385.562	106.5
385.787	105.5
386.013	110.5
386.238	114.5
386.463	97.5
386.688	111.5
386.913	105.5
387.138	99.5
387.363	94.5
387.588	100.5
387.813	94.5
388.038	81.5
388.263	109.5
388.488	101.5
388.713	102.5
388.938	103.5
389.163	104.5
389.387	91.5
389.612	101.5
389.837	87.5
390.062	94.5
390.287	83.5
390.512	96.5
390.736	100.5
390.961	91.5
391.186	90.5
391.411	96.5
391.636	96.5
391.86	89.5
392.085	90.5
392.31	90.5
392.534	80.5
392.759	89.5
392.984	100.5
393.208	83.5
393.433	103.5
393.658	91.5
393.882	75.5
394.107	76.5
394.331	91.5
394.556	92.5
394.78	87.5
395.005	83.5
395.229	93.5
395.454	88.5
395.678	93.5
395.903	95.5
396.127	90.5
396.352	81.5
396.576	84.5
396.801	88.5
397.025	82.5
397.249	87.5
397.474	94.5
397.698	89.5
397.922	102.5
398.147	93.5
398.371	85.5
398.595	96.5
398.82	80.5
399.044	97.5
399.268	84.5
399.492	83.5
399.717	80.5
399.941	84.5
400.165	98.5
400.389	86.5
400.613	94.5
400.837	100.5
401.062	77.5
401.286	79.5
401.51	88.5
401.734	92.5
401.958	100.5
402.182	115.5
402.406	136.5
402.63	106.5
402.854	84.5
403.078	87.5
403.302	87.5
403.526	90.5
403.75	98.5
403.974	73.5
404.198	91.5
404.422	99.5
404.645	91.5
404.869	83.5
405.093	87.5
405.317	96.5
405.541	104.5
405.765	99.5
405.988	100.5
406.212	149.5
406.436	171.5
406.66	120.5
406.883	92.5
407.107	78.5
407.331	89.5
407.555	98.5
407.778	97.5
408.002	88.5
408.226	72.5
408.449	83.5
408.673	92.5
408.896	92.5
409.12	98.5
409.344	107.5
409.567	92.5
409.791	91.5
410.014	107.5
410.238	102.5
410.461	93.5
410.685	94.5
410.908	100.5
411.132	99.5
411.355	91.5
411.578	95.5
411.802	92.5
412.025	92.5
412.249	92.5
412.472	88.5
412.695	89.5
412.919	88.5
413.142	96.5
413.365	89.5
413.589	80.5
413.812	80.5
414.035	87.5
414.258	76.5
414.482	103.5
414.705	99.5
414.928	82.5
415.151	99.5
415.374	90.5
415.597	95.5
415.821	95.5
416.044	83.5
416.267	95.5
416.49	105.5
416.713	88.5
416.936	81.5
417.159	78.5
417.382	89.5
417.605	86.5
417.828	81.5
418.051	91.5
418.274	81.5
418.497	84.5
418.72	75.5
418.943	92.5
419.166	84.5
419.389	98.5
419.611	84.5
419.834	86.5
420.057	96.5
420.28	86.5
420.503	98.5
420.726	84.5
420.948	76.5
421.171	99.5
421.394	96.5
421.617	90.5
421.839	86.5
422.062	82.5
422.285	84.5
422.507	108.5
422.73	84.5
422.953	104.5
423.175	89.5
423.398	97.5
423.621	92.5
423.843	91.5
424.066	83.5
424.288	91.5
424.511	78.5
424.733	101.5
424.956	102.5
425.178	103.5
425.401	90.5
425.623	107.5
425.846	79.5
426.068	92.5
426.291	90.5
426.513	96.5
426.735	84.5
426.958	89.5
427.18	91.5
427.402	138.5
427.625	145.5
427.847	125.5
428.069	98.5
428.292	91.5
428.514	84.5
428.736	79.5
428.958	85.5
429.181	101.5
429.403	80.5
429.625	79.5
429.847	98.5
430.069	103.5
430.292	101.5
430.514	95.5
430.736	80.5
430.958	75.5
431.18	77.5
431.402	79.5
431.624	91.5
431.846	84.5
432.068	88.5
432.29	87.5
432.512	79.5
432.734	80.5
432.956	70.5
433.178	99.5
433.4	97.5
433.622	86.5
433.844	92.5
434.066	89.5
434.287	83.5
434.509	88.5
434.731	93.5
434.953	89.5
435.175	85.5
435.397	91.5
435.618	99.5
435.84	97.5
436.062	101.5
436.284	106.5
436.505	92.5
436.727	99.5
436.949	107.5
437.17	83.5
437.392	101.5
437.614	93.5
437.835	116.5
438.057	113.5
438.278	109.5
438.5	113.5
438.721	113.5
438.943	98.5
439.165	94.5
439.386	91.5
439.608	88.5
439.829	104.5
440.05	108.5
440.272	117.5
440.493	104.5
440.715	79.5
440.936	88.5
441.158	84.5
441.379	97.5
441.6	80.5
441.822	86.5
442.043	90.5
442.264	102.5
442.486	90.5
442.707	99.5
442.928	96.5
443.149	108.5
443.371	127.5
443.592	105.5
443.813	109.5
444.034	100.5
444.255	86.5
444.476	86.5
444.698	91.5
444.919	78.5
445.14	130.5
445.361	128.5
445.582	119.5
445.803	131.5
446.024	114.5
446.245	115.5
446.466	111.5
446.687	75.5
446.908	92.5
447.129	77.5
447.35	90.5
447.571	87.5
447.792	98.5
448.013	71.5
448.234	103.5
448.455	93.5
448.675	119.5
448.896	129.5
449.117	112.5
449.338	113.5
449.559	109.5
449.779	121.5
450	88.5
450.221	95.5
450.442	81.5
450.662	93.5
450.883	108.5
451.104	97.5
451.324	89.5
451.545	84.5
451.766	77.5
451.986	87.5
452.207	93.5
452.428	82.5
452.648	97.5
452.869	116.5
453.089	103.5
453.31	106.5
453.53	91.5
453.751	79.5
453.971	91.5
454.192	99.5
454.412	93.5
454.633	84.5
454.853	87.5
455.073	95.5
455.294	92.5
455.514	104.5
455.734	85.5
455.955	80.5
456.175	80.5
456.395	95.5
456.616	90.5
456.836	83.5
457.056	94.5
457.276	95.5
457.497	77.5
457.717	91.5
457.937	86.5
458.157	84.5
458.377	89.5
458.598	104.5
458.818	130.5
459.038	145.5
459.258	110.5
459.478	98.5
459.698	85.5
459.918	82.5
460.138	87.5
460.358	93.5
460.578	95.5
460.798	85.5
461.018	116.5
461.238	97.5
461.458	91.5
461.678	101.5
461.898	97.5
462.118	91.5
462.338	84.5
462.558	89.5
462.777	77.5
462.997	84.5
463.217	92.5
463.437	84.5
463.657	86.5
463.876	75.5
464.096	103.5
464.316	97.5
464.536	80.5
464.755	94.5
464.975	95.5
465.195	152.5
465.414	143.5
465.634	104.5
465.854	87.5
466.073	109.5
466.293	91.5
466.512	87.5
466.732	88.5
466.951	90.5
467.171	94.5
467.391	87.5
467.61	93.5
467.829	100.5
468.049	101.5
468.268	97.5
468.488	84.5
468.707	82.5
468.927	93.5
469.146	83.5
469.365	95.5
469.585	85.5
469.804	87.5
470.023	91.5
470.243	90.5
470.462	83.5
470.681	101.5
470.901	86.5
471.12	82.5
471.339	69.5
471.558	83.5
471.777	91.5
471.997	102.5
472.216	105.5
472.435	138.5
472.654	110.5
472.873	88.5
473.092	91.5
473.311	63.5
473.53	75.5
473.749	90.5
473.968	96.5
474.187	94.5
474.406	84.5
474.625	80.5
474.844	92.5
475.063	81.5
475.282	95.5
475.501	71.5
475.72	94.5
475.939	95.5
476.158	75.5
476.377	86.5
476.596	99.5
476.814	95.5
477.033	87.5
477.252	82.5
477.471	82.5
477.69	103.5
477.908	96.5
478.127	84.5
478.346	85.5
478.564	76.5
478.783	75.5
479.002	80.5
479.22	83.5
479.439	86.5
479.658	99.5
479.876	101.5
480.095	89.5
480.313	94.5
480.532	86.5
480.751	100.5
480.969	117.5
481.188	191.5
481.406	150.5
481.624	91.5
481.843	98.5
482.061	91.5
482.28	87.5
482.498	73.5
482.717	97.5
482.935	93.5
483.153	97.5
483.372	83.5
483.59	88.5
483.808	85.5
484.027	87.5
484.245	91.5
484.463	90.5
484.681	100.5
484.9	90.5
485.118	96.5
485.336	104.5
485.554	96.5
485.772	84.5
485.99	111.5
486.209	106.5
486.427	87.5
486.645	91.5
486.863	103.5
487.081	117.5
487.299	97.5
487.517	76.5
487.735	95.5
487.953	89.5
488.171	105.5
488.389	89.5
488.607	99.5
488.825	91.5
489.043	82.5
489.261	80.5
489.479	87.5
489.696	89.5
489.914	88.5
490.132	83.5
490.35	98.5
490.568	91.5
490.786	75.5
491.003	98.5
491.221	84.5
491.439	93.5
491.657	92.5
491.874	96.5
492.092	111.5
492.31	93.5
492.527	99.5
492.745	83.5
492.963	85.5
493.18	87.5
493.398	97.5
493.615	83.5
493.833	89.5
494.05	96.5
494.268	91.5
494.485	88.5
494.703	89.5
494.92	92.5
495.138	73.5
495.355	86.5
495.573	91.5
495.79	99.5
496.008	86.5
496.225	89.5
496.442	78.5
496.66	92.5
496.877	91.5
497.094	103.5
497.312	89.5
497.529	81.5
497.746	91.5
497.963	81.5
498.181	82.5
498.398	92.5
498.615	101.5
498.832	100.5
499.049	91.5
499.267	93.5
499.484	91.5
499.701	90.5
499.918	87.5
500.135	92.5
500.352	84.5
500.569	78.5
500.786	93.5
501.003	95.5
501.22	98.5
501.437	87.5
501.654	94.5
501.871	92.5
502.088	97.5
502.305	91.5
502.522	87.5
502.739	82.5
502.956	88.5
503.172	87.5
503.389	93.5
503.606	97.5
503.823	89.5
504.04	90.5
504.256	70.5
504.473	85.5
504.69	84.5
504.907	97.5
505.123	85.5
505.34	90.5
505.557	90.5
505.773	108.5
505.99	79.5
506.207	77.5
506.423	91.5
506.64	74.5
506.856	94.5
507.073	100.5
507.289	93.5
507.506	97.5
507.722	102.5
507.939	100.5
508.155	91.5
508.372	82.5
508.588	87.5
508.805	83.5
509.021	83.5
509.238	92.5
509.454	98.5
509.67	98.5
509.887	103.5
510.103	113.5
510.319	188.5
510.536	631.5
510.752	1901.5
510.968	553.5
511.184	149.5
511.401	101.5
511.617	95.5
511.833	68.5
512.049	85.5
512.265	83.5
512.481	89.5
512.698	96.5
512.914	116.5
513.13	87.5
513.346	100.5
513.562	89.5
513.778	82.5
513.994	82.5
514.21	109.5
514.426	118.5
514.642	105.5
514.858	107.5
515.074	151.5
515.29	357.5
515.506	1120.5
515.721	425.5
515.937	144.5
516.153	92.5
516.369	76.5
516.585	85.5
516.801	98.5
517.016	81.5
517.232	89.5
517.448	95.5
517.664	94.5
517.879	91.5
518.095	100.5
518.311	99.5
518.527	96.5
518.742	98.5
518.958	84.5
519.173	87.5
519.389	101.5
519.605	84.5
519.82	85.5
520.036	91.5
520.251	113.5
520.467	95.5
520.682	103.5
520.898	108.5
521.113	101.5
521.329	119.5
521.544	161.5
521.76	455.5
521.975	1867.5
522.19	1096.5
522.406	239.5
522.621	116.5
522.836	85.5
523.052	103.5
523.267	89.5
523.482	100.5
523.698	99.5
523.913	112.5
524.128	89.5
524.343	97.5
524.559	92.5
524.774	91.5
524.989	112.5
525.204	101.5
525.419	103.5
525.634	95.5
525.849	84.5
526.064	95.5
526.28	95.5
526.495	85.5
526.71	87.5
526.925	84.5
527.14	91.5
527.355	85.5
527.57	88.5
527.785	75.5
527.999	91.5
528.214	90.5
528.429	98.5
528.644	77.5
528.859	82.5
529.074	85.5
529.289	116.5
529.503	151.5
529.718	103.5
529.933	97.5
530.148	84.5
530.363	104.5
530.577	91.5
530.792	85.5
531.007	90.5
531.221	94.5
531.436	88.5
531.651	101.5
531.865	106.5
532.08	90.5
532.295	86.5
532.509	98.5
532.724	96.5
532.938	76.5
533.153	101.5
533.367	93.5
533.582	86.5
533.796	87.5
534.011	93.5
534.225	101.5
534.44	103.5
534.654	84.5
534.868	97.5
535.083	97.5
535.297	89.5
535.511	93.5
535.726	92.5
535.94	91.5
