Data from Uncirc_1982_H10_HRD10591_00044.txt Node
Date: Wed Jan 03 12:29:33 EST 2024
User: Yrep
Spectrometer: HR+D1059
Trigger mode: 1
Integration Time (sec): 1.000000E-1
Scans to average: 1
Electric dark correction enabled: true
Nonlinearity correction enabled: false
Boxcar width: 0
XAxis mode: Wavelengths
Number of Pixels in Spectrum: 2048
>>>>>Begin Spectral Data<<<<<
223.165	-23.19
223.4	-23.19
223.635	-23.19
223.869	-29.19
224.104	-16.19
224.338	2.81
224.573	-18.19
224.808	-21.19
225.042	-10.19
225.277	-6.19
225.511	-4.19
225.746	-7.19
225.98	16.81
226.215	13.81
226.449	13.81
226.683	28.81
226.918	27.81
227.152	31.81
227.387	44.81
227.621	45.81
227.856	30.81
228.09	49.81
228.324	51.81
228.559	67.81
228.793	69.81
229.027	62.81
229.262	68.81
229.496	83.81
229.73	79.81
229.964	77.81
230.199	75.81
230.433	73.81
230.667	82.81
230.901	76.81
231.136	88.81
231.37	97.81
231.604	92.81
231.838	80.81
232.072	101.81
232.306	75.81
232.541	93.81
232.775	72.81
233.009	94.81
233.243	85.81
233.477	87.81
233.711	84.81
233.945	87.81
234.179	74.81
234.413	87.81
234.647	84.81
234.881	103.81
235.115	67.81
235.349	98.81
235.583	81.81
235.817	79.81
236.051	63.81
236.285	74.81
236.519	75.81
236.753	68.81
236.987	74.81
237.221	67.81
237.455	70.81
237.689	83.81
237.922	90.81
238.156	76.81
238.39	78.81
238.624	89.81
238.858	84.81
239.091	73.81
239.325	79.81
239.559	78.81
239.793	83.81
240.027	72.81
240.26	74.81
240.494	77.81
240.728	64.81
240.961	77.81
241.195	75.81
241.429	78.81
241.662	70.81
241.896	72.81
242.13	84.81
242.363	85.81
242.597	80.81
242.83	78.81
243.064	71.81
243.298	75.81
243.531	79.81
243.765	80.81
243.998	55.81
244.232	75.81
244.465	81.81
244.699	77.81
244.932	70.81
245.166	71.81
245.399	81.81
245.633	85.81
245.866	78.81
246.099	81.81
246.333	79.81
246.566	73.81
246.8	88.81
247.033	74.81
247.266	77.81
247.5	80.81
247.733	83.81
247.966	87.81
248.2	67.81
248.433	73.81
248.666	89.81
248.899	86.81
249.133	82.81
249.366	77.81
249.599	84.81
249.832	78.81
250.066	85.81
250.299	85.81
250.532	77.81
250.765	75.81
250.998	65.81
251.231	88.81
251.465	94.81
251.698	79.81
251.931	99.81
252.164	70.81
252.397	97.81
252.63	91.81
252.863	68.81
253.096	91.81
253.329	78.81
253.562	85.81
253.795	95.81
254.028	97.81
254.261	88.81
254.494	75.81
254.727	78.81
254.96	80.81
255.193	77.81
255.426	79.81
255.659	86.81
255.892	76.81
256.124	80.81
256.357	74.81
256.59	99.81
256.823	105.81
257.056	79.81
257.289	94.81
257.521	72.81
257.754	93.81
257.987	90.81
258.22	91.81
258.452	91.81
258.685	83.81
258.918	94.81
259.151	81.81
259.383	87.81
259.616	78.81
259.849	78.81
260.081	93.81
260.314	89.81
260.547	93.81
260.779	75.81
261.012	75.81
261.244	71.81
261.477	89.81
261.71	105.81
261.942	96.81
262.175	96.81
262.407	77.81
262.64	82.81
262.872	92.81
263.105	93.81
263.337	93.81
263.57	75.81
263.802	80.81
264.035	83.81
264.267	75.81
264.499	87.81
264.732	89.81
264.964	94.81
265.197	74.81
265.429	85.81
265.661	75.81
265.894	92.81
266.126	89.81
266.358	77.81
266.591	74.81
266.823	98.81
267.055	66.81
267.287	91.81
267.52	94.81
267.752	93.81
267.984	87.81
268.216	95.81
268.448	89.81
268.681	87.81
268.913	85.81
269.145	83.81
269.377	89.81
269.609	87.81
269.841	79.81
270.073	87.81
270.306	78.81
270.538	70.81
270.77	77.81
271.002	93.81
271.234	99.81
271.466	86.81
271.698	96.81
271.93	84.81
272.162	88.81
272.394	91.81
272.626	91.81
272.858	79.81
273.09	85.81
273.322	96.81
273.553	91.81
273.785	90.81
274.017	78.81
274.249	92.81
274.481	78.81
274.713	95.81
274.945	85.81
275.176	93.81
275.408	72.81
275.64	91.81
275.872	91.81
276.104	88.81
276.335	83.81
276.567	86.81
276.799	107.81
277.031	112.81
277.262	93.81
277.494	76.81
277.726	87.81
277.957	90.81
278.189	93.81
278.421	81.81
278.652	87.81
278.884	89.81
279.115	79.81
279.347	91.81
279.579	91.81
279.81	79.81
280.042	99.81
280.273	102.81
280.505	89.81
280.736	88.81
280.968	95.81
281.199	87.81
281.431	85.81
281.662	101.81
281.894	110.81
282.125	106.81
282.356	110.81
282.588	123.81
282.819	101.81
283.051	83.81
283.282	75.81
283.513	91.81
283.745	93.81
283.976	100.81
284.207	79.81
284.439	98.81
284.67	96.81
284.901	85.81
285.132	89.81
285.364	78.81
285.595	89.81
285.826	88.81
286.057	89.81
286.288	99.81
286.52	76.81
286.751	92.81
286.982	95.81
287.213	89.81
287.444	97.81
287.675	99.81
287.906	80.81
288.138	87.81
288.369	89.81
288.6	92.81
288.831	88.81
289.062	79.81
289.293	85.81
289.524	87.81
289.755	102.81
289.986	91.81
290.217	93.81
290.448	88.81
290.679	90.81
290.91	91.81
291.141	99.81
291.371	86.81
291.602	86.81
291.833	91.81
292.064	80.81
292.295	93.81
292.526	88.81
292.757	99.81
292.987	106.81
293.218	89.81
293.449	85.81
293.68	92.81
293.91	83.81
294.141	83.81
294.372	92.81
294.603	93.81
294.833	88.81
295.064	96.81
295.295	85.81
295.525	96.81
295.756	91.81
295.987	101.81
296.217	121.81
296.448	127.81
296.679	97.81
296.909	87.81
297.14	95.81
297.37	98.81
297.601	100.81
297.831	105.81
298.062	101.81
298.292	92.81
298.523	86.81
298.753	90.81
298.984	93.81
299.214	96.81
299.445	95.81
299.675	94.81
299.905	87.81
300.136	96.81
300.366	93.81
300.597	92.81
300.827	97.81
301.057	96.81
301.288	99.81
301.518	95.81
301.748	92.81
301.979	95.81
302.209	93.81
302.439	84.81
302.669	78.81
302.9	94.81
303.13	87.81
303.36	107.81
303.59	92.81
303.82	101.81
304.051	106.81
304.281	92.81
304.511	103.81
304.741	95.81
304.971	96.81
305.201	105.81
305.431	87.81
305.661	85.81
305.891	102.81
306.121	87.81
306.352	102.81
306.582	106.81
306.812	92.81
307.042	88.81
307.272	100.81
307.502	79.81
307.731	91.81
307.961	95.81
308.191	86.81
308.421	97.81
308.651	96.81
308.881	96.81
309.111	88.81
309.341	83.81
309.571	104.81
309.8	87.81
310.03	95.81
310.26	102.81
310.49	102.81
310.72	110.81
310.949	96.81
311.179	98.81
311.409	92.81
311.639	99.81
311.868	80.81
312.098	98.81
312.328	95.81
312.557	94.81
312.787	94.81
313.017	117.81
313.246	105.81
313.476	98.81
313.706	89.81
313.935	97.81
314.165	95.81
314.394	101.81
314.624	93.81
314.853	93.81
315.083	101.81
315.312	88.81
315.542	87.81
315.771	83.81
316.001	93.81
316.23	95.81
316.46	100.81
316.689	80.81
316.919	103.81
317.148	98.81
317.377	103.81
317.607	117.81
317.836	101.81
318.065	95.81
318.295	99.81
318.524	75.81
318.753	78.81
318.983	86.81
319.212	101.81
319.441	106.81
319.67	97.81
319.9	104.81
320.129	85.81
320.358	108.81
320.587	91.81
320.816	93.81
321.046	99.81
321.275	106.81
321.504	103.81
321.733	105.81
321.962	89.81
322.191	91.81
322.42	113.81
322.649	123.81
322.878	109.81
323.108	114.81
323.337	114.81
323.566	120.81
323.795	128.81
324.024	184.81
324.253	347.81
324.482	720.81
324.71	1432.81
324.939	1858.81
325.168	691.81
325.397	228.81
325.626	150.81
325.855	129.81
326.084	120.81
326.313	121.81
326.542	132.81
326.77	216.81
326.999	401.81
327.228	813.81
327.457	1518.81
327.686	1145.81
327.914	326.81
328.143	163.81
328.372	127.81
328.6	108.81
328.829	108.81
329.058	114.81
329.287	110.81
329.515	97.81
329.744	117.81
329.972	98.81
330.201	102.81
330.43	116.81
330.658	121.81
330.887	123.81
331.115	112.81
331.344	78.81
331.572	102.81
331.801	101.81
332.03	99.81
332.258	109.81
332.486	93.81
332.715	102.81
332.943	90.81
333.172	93.81
333.4	103.81
333.629	106.81
333.857	110.81
334.085	95.81
334.314	112.81
334.542	124.81
334.771	126.81
334.999	104.81
335.227	104.81
335.455	91.81
335.684	107.81
335.912	105.81
336.14	97.81
336.369	110.81
336.597	112.81
336.825	100.81
337.053	91.81
337.281	89.81
337.51	91.81
337.738	97.81
337.966	90.81
338.194	92.81
338.422	95.81
338.65	91.81
338.878	78.81
339.106	110.81
339.334	105.81
339.562	86.81
339.79	89.81
340.018	84.81
340.246	112.81
340.474	107.81
340.702	103.81
340.93	87.81
341.158	92.81
341.386	101.81
341.614	96.81
341.842	93.81
342.07	104.81
342.298	100.81
342.526	89.81
342.754	90.81
342.981	92.81
343.209	107.81
343.437	111.81
343.665	86.81
343.893	103.81
344.12	99.81
344.348	102.81
344.576	94.81
344.804	86.81
345.031	87.81
345.259	83.81
345.487	104.81
345.714	85.81
345.942	97.81
346.17	100.81
346.397	75.81
346.625	97.81
346.853	100.81
347.08	101.81
347.308	102.81
347.535	94.81
347.763	96.81
347.99	102.81
348.218	88.81
348.445	110.81
348.673	91.81
348.9	96.81
349.128	106.81
349.355	100.81
349.583	104.81
349.81	106.81
350.037	109.81
350.265	117.81
350.492	110.81
350.72	101.81
350.947	91.81
351.174	110.81
351.402	97.81
351.629	96.81
351.856	106.81
352.083	96.81
352.311	87.81
352.538	97.81
352.765	102.81
352.992	116.81
353.22	118.81
353.447	98.81
353.674	100.81
353.901	117.81
354.128	116.81
354.355	102.81
354.583	91.81
354.81	97.81
355.037	108.81
355.264	88.81
355.491	101.81
355.718	88.81
355.945	93.81
356.172	91.81
356.399	106.81
356.626	95.81
356.853	94.81
357.08	103.81
357.307	100.81
357.534	94.81
357.761	99.81
357.988	100.81
358.215	92.81
358.441	97.81
358.668	86.81
358.895	87.81
359.122	88.81
359.349	85.81
359.576	92.81
359.802	110.81
360.029	105.81
360.256	89.81
360.483	100.81
360.709	97.81
360.936	93.81
361.163	102.81
361.39	86.81
361.616	84.81
361.843	99.81
362.07	86.81
362.296	88.81
362.523	92.81
362.749	108.81
362.976	97.81
363.203	92.81
363.429	89.81
363.656	95.81
363.882	93.81
364.109	96.81
364.335	88.81
364.562	87.81
364.788	91.81
365.015	102.81
365.241	89.81
365.468	88.81
365.694	89.81
365.92	91.81
366.147	84.81
366.373	92.81
366.599	80.81
366.826	99.81
367.052	89.81
367.278	95.81
367.505	96.81
367.731	84.81
367.957	92.81
368.184	103.81
368.41	99.81
368.636	108.81
368.862	113.81
369.089	108.81
369.315	95.81
369.541	95.81
369.767	95.81
369.993	103.81
370.219	95.81
370.445	96.81
370.672	78.81
370.898	96.81
371.124	88.81
371.35	69.81
371.576	99.81
371.802	90.81
372.028	102.81
372.254	89.81
372.48	94.81
372.706	93.81
372.932	79.81
373.158	91.81
373.384	90.81
373.61	102.81
373.835	107.81
374.061	91.81
374.287	97.81
374.513	92.81
374.739	102.81
374.965	90.81
375.191	94.81
375.416	94.81
375.642	93.81
375.868	93.81
376.094	93.81
376.319	85.81
376.545	86.81
376.771	74.81
376.997	103.81
377.222	116.81
377.448	103.81
377.674	102.81
377.899	94.81
378.125	103.81
378.35	85.81
378.576	95.81
378.802	89.81
379.027	100.81
379.253	107.81
379.478	91.81
379.704	89.81
379.929	95.81
380.155	103.81
380.38	103.81
380.606	109.81
380.831	99.81
381.057	97.81
381.282	102.81
381.507	96.81
381.733	99.81
381.958	101.81
382.184	88.81
382.409	103.81
382.634	110.81
382.86	111.81
383.085	120.81
383.31	113.81
383.535	99.81
383.761	105.81
383.986	97.81
384.211	109.81
384.436	96.81
384.662	87.81
384.887	94.81
385.112	95.81
385.337	116.81
385.562	106.81
385.787	103.81
386.013	120.81
386.238	102.81
386.463	116.81
386.688	117.81
386.913	106.81
387.138	110.81
387.363	119.81
387.588	97.81
387.813	104.81
388.038	108.81
388.263	116.81
388.488	117.81
388.713	103.81
388.938	110.81
389.163	103.81
389.387	116.81
389.612	108.81
389.837	93.81
390.062	105.81
390.287	102.81
390.512	108.81
390.736	97.81
390.961	107.81
391.186	90.81
391.411	94.81
391.636	93.81
391.86	85.81
392.085	89.81
392.31	87.81
392.534	95.81
392.759	101.81
392.984	105.81
393.208	77.81
393.433	96.81
393.658	103.81
393.882	94.81
394.107	86.81
394.331	101.81
394.556	83.81
394.78	102.81
395.005	76.81
395.229	99.81
395.454	87.81
395.678	80.81
395.903	96.81
396.127	84.81
396.352	85.81
396.576	97.81
396.801	100.81
397.025	87.81
397.249	87.81
397.474	120.81
397.698	85.81
397.922	95.81
398.147	87.81
398.371	105.81
398.595	92.81
398.82	92.81
399.044	87.81
399.268	89.81
399.492	121.81
399.717	89.81
399.941	99.81
400.165	86.81
400.389	96.81
400.613	91.81
400.837	101.81
401.062	103.81
401.286	86.81
401.51	108.81
401.734	94.81
401.958	107.81
402.182	117.81
402.406	159.81
402.63	113.81
402.854	86.81
403.078	103.81
403.302	84.81
403.526	99.81
403.75	101.81
403.974	79.81
404.198	93.81
404.422	92.81
404.645	102.81
404.869	104.81
405.093	96.81
405.317	102.81
405.541	85.81
405.765	97.81
405.988	103.81
406.212	152.81
406.436	173.81
406.66	107.81
406.883	93.81
407.107	96.81
407.331	99.81
407.555	99.81
407.778	99.81
408.002	98.81
408.226	95.81
408.449	93.81
408.673	91.81
408.896	101.81
409.12	96.81
409.344	90.81
409.567	90.81
409.791	104.81
410.014	83.81
410.238	107.81
410.461	93.81
410.685	90.81
410.908	96.81
411.132	107.81
411.355	93.81
411.578	103.81
411.802	113.81
412.025	93.81
412.249	86.81
412.472	103.81
412.695	111.81
412.919	96.81
413.142	88.81
413.365	85.81
413.589	72.81
413.812	97.81
414.035	95.81
414.258	101.81
414.482	87.81
414.705	89.81
414.928	105.81
415.151	94.81
415.374	94.81
415.597	84.81
415.821	75.81
416.044	87.81
416.267	82.81
416.49	92.81
416.713	94.81
416.936	94.81
417.159	86.81
417.382	92.81
417.605	95.81
417.828	96.81
418.051	92.81
418.274	105.81
418.497	71.81
418.72	93.81
418.943	85.81
419.166	92.81
419.389	96.81
419.611	100.81
419.834	101.81
420.057	94.81
420.28	96.81
420.503	108.81
420.726	110.81
420.948	96.81
421.171	93.81
421.394	86.81
421.617	96.81
421.839	95.81
422.062	102.81
422.285	88.81
422.507	101.81
422.73	94.81
422.953	102.81
423.175	90.81
423.398	92.81
423.621	91.81
423.843	87.81
424.066	102.81
424.288	102.81
424.511	94.81
424.733	98.81
424.956	101.81
425.178	100.81
425.401	95.81
425.623	90.81
425.846	101.81
426.068	106.81
426.291	94.81
426.513	98.81
426.735	91.81
426.958	82.81
427.18	95.81
427.402	124.81
427.625	140.81
427.847	108.81
428.069	107.81
428.292	86.81
428.514	88.81
428.736	80.81
428.958	78.81
429.181	97.81
429.403	85.81
429.625	94.81
429.847	102.81
430.069	92.81
430.292	91.81
430.514	77.81
430.736	93.81
430.958	81.81
431.18	103.81
431.402	93.81
431.624	86.81
431.846	89.81
432.068	96.81
432.29	86.81
432.512	94.81
432.734	115.81
432.956	108.81
433.178	95.81
433.4	95.81
433.622	112.81
433.844	95.81
434.066	85.81
434.287	78.81
434.509	88.81
434.731	85.81
434.953	87.81
435.175	80.81
435.397	92.81
435.618	78.81
435.84	101.81
436.062	115.81
436.284	110.81
436.505	104.81
436.727	107.81
436.949	103.81
437.17	88.81
437.392	85.81
437.614	100.81
437.835	105.81
438.057	111.81
438.278	117.81
438.5	117.81
438.721	122.81
438.943	96.81
439.165	92.81
439.386	82.81
439.608	93.81
439.829	104.81
440.05	98.81
440.272	133.81
440.493	81.81
440.715	91.81
440.936	93.81
441.158	92.81
441.379	67.81
441.6	92.81
441.822	93.81
442.043	102.81
442.264	96.81
442.486	97.81
442.707	109.81
442.928	99.81
443.149	118.81
443.371	122.81
443.592	105.81
443.813	103.81
444.034	110.81
444.255	95.81
444.476	87.81
444.698	96.81
444.919	85.81
445.14	131.81
445.361	111.81
445.582	115.81
445.803	115.81
446.024	116.81
446.245	121.81
446.466	87.81
446.687	89.81
446.908	68.81
447.129	89.81
447.35	96.81
447.571	96.81
447.792	92.81
448.013	104.81
448.234	101.81
448.455	93.81
448.675	104.81
448.896	99.81
449.117	107.81
449.338	109.81
449.559	122.81
449.779	115.81
450	103.81
450.221	94.81
450.442	106.81
450.662	89.81
450.883	95.81
451.104	103.81
451.324	100.81
451.545	87.81
451.766	94.81
451.986	92.81
452.207	104.81
452.428	99.81
452.648	91.81
452.869	113.81
453.089	91.81
453.31	120.81
453.53	95.81
453.751	78.81
453.971	100.81
454.192	105.81
454.412	101.81
454.633	89.81
454.853	76.81
455.073	87.81
455.294	90.81
455.514	106.81
455.734	92.81
455.955	88.81
456.175	100.81
456.395	93.81
456.616	83.81
456.836	96.81
457.056	87.81
457.276	84.81
457.497	95.81
457.717	84.81
457.937	87.81
458.157	88.81
458.377	93.81
458.598	105.81
458.818	129.81
459.038	117.81
459.258	97.81
459.478	87.81
459.698	92.81
459.918	94.81
460.138	88.81
460.358	83.81
460.578	85.81
460.798	88.81
461.018	79.81
461.238	103.81
461.458	102.81
461.678	101.81
461.898	93.81
462.118	97.81
462.338	71.81
462.558	92.81
462.777	88.81
462.997	86.81
463.217	78.81
463.437	101.81
463.657	81.81
463.876	80.81
464.096	97.81
464.316	99.81
464.536	99.81
464.755	93.81
464.975	107.81
465.195	118.81
465.414	133.81
465.634	96.81
465.854	92.81
466.073	91.81
466.293	92.81
466.512	91.81
466.732	100.81
466.951	89.81
467.171	95.81
467.391	104.81
467.61	101.81
467.829	94.81
468.049	89.81
468.268	92.81
468.488	93.81
468.707	78.81
468.927	73.81
469.146	88.81
469.365	103.81
469.585	99.81
469.804	94.81
470.023	77.81
470.243	98.81
470.462	102.81
470.681	93.81
470.901	75.81
471.12	94.81
471.339	89.81
471.558	103.81
471.777	100.81
471.997	107.81
472.216	109.81
472.435	131.81
472.654	116.81
472.873	97.81
473.092	89.81
473.311	93.81
473.53	91.81
473.749	89.81
473.968	79.81
474.187	105.81
474.406	91.81
474.625	95.81
474.844	88.81
475.063	76.81
475.282	85.81
475.501	80.81
475.72	95.81
475.939	85.81
476.158	92.81
476.377	88.81
476.596	97.81
476.814	80.81
477.033	85.81
477.252	91.81
477.471	94.81
477.69	96.81
477.908	87.81
478.127	81.81
478.346	81.81
478.564	96.81
478.783	100.81
479.002	105.81
479.22	84.81
479.439	113.81
479.658	79.81
479.876	87.81
480.095	95.81
480.313	84.81
480.532	94.81
480.751	104.81
480.969	124.81
481.188	179.81
481.406	136.81
481.624	105.81
481.843	94.81
482.061	87.81
482.28	104.81
482.498	98.81
482.717	85.81
482.935	96.81
483.153	84.81
483.372	88.81
483.59	86.81
483.808	78.81
484.027	91.81
484.245	104.81
484.463	93.81
484.681	113.81
484.9	101.81
485.118	94.81
485.336	99.81
485.554	97.81
485.772	93.81
485.99	107.81
486.209	108.81
486.427	93.81
486.645	106.81
486.863	113.81
487.081	88.81
487.299	93.81
487.517	94.81
487.735	97.81
487.953	95.81
488.171	96.81
488.389	100.81
488.607	103.81
488.825	92.81
489.043	87.81
489.261	96.81
489.479	106.81
489.696	91.81
489.914	100.81
490.132	95.81
490.35	86.81
490.568	88.81
490.786	78.81
491.003	84.81
491.221	88.81
491.439	90.81
491.657	88.81
491.874	102.81
492.092	118.81
492.31	97.81
492.527	87.81
492.745	91.81
492.963	97.81
493.18	97.81
493.398	77.81
493.615	103.81
493.833	101.81
494.05	94.81
494.268	94.81
494.485	97.81
494.703	93.81
494.92	88.81
495.138	96.81
495.355	94.81
495.573	95.81
495.79	102.81
496.008	81.81
496.225	88.81
496.442	98.81
496.66	90.81
496.877	91.81
497.094	98.81
497.312	94.81
497.529	92.81
497.746	93.81
497.963	88.81
498.181	101.81
498.398	98.81
498.615	113.81
498.832	88.81
499.049	100.81
499.267	92.81
499.484	88.81
499.701	89.81
499.918	106.81
500.135	95.81
500.352	83.81
500.569	91.81
500.786	96.81
501.003	92.81
501.22	94.81
501.437	88.81
501.654	95.81
501.871	94.81
502.088	102.81
502.305	86.81
502.522	91.81
502.739	89.81
502.956	84.81
503.172	94.81
503.389	94.81
503.606	102.81
503.823	93.81
504.04	96.81
504.256	92.81
504.473	89.81
504.69	101.81
504.907	95.81
505.123	88.81
505.34	91.81
505.557	88.81
505.773	87.81
505.99	95.81
506.207	92.81
506.423	108.81
506.64	83.81
506.856	92.81
507.073	91.81
507.289	101.81
507.506	112.81
507.722	100.81
507.939	98.81
508.155	95.81
508.372	92.81
508.588	89.81
508.805	92.81
509.021	90.81
509.238	103.81
509.454	91.81
509.67	101.81
509.887	109.81
510.103	140.81
510.319	177.81
510.536	626.81
510.752	1780.81
510.968	517.81
511.184	147.81
511.401	101.81
511.617	93.81
511.833	88.81
512.049	93.81
512.265	105.81
512.481	99.81
512.698	86.81
512.914	92.81
513.13	104.81
513.346	99.81
513.562	101.81
513.778	105.81
513.994	98.81
514.21	101.81
514.426	121.81
514.642	110.81
