Data from Uncirc_1982_H10_HRD10591_00043.txt Node
Date: Wed Jan 03 12:29:33 EST 2024
User: Yrep
Spectrometer: HR+D1059
Trigger mode: 1
Integration Time (sec): 1.000000E-1
Scans to average: 1
Electric dark correction enabled: true
Nonlinearity correction enabled: false
Boxcar width: 0
XAxis mode: Wavelengths
Number of Pixels in Spectrum: 2048
>>>>>Begin Spectral Data<<<<<
223.165	-9
223.4	-9
223.635	-9
223.869	-17
224.104	-22
224.338	-22
224.573	-17
224.808	-26
225.042	-13
225.277	2
225.511	0
225.746	-3
225.98	10
226.215	24
226.449	12
226.683	27
226.918	26
227.152	28
227.387	29
227.621	42
227.856	41
228.09	57
228.324	48
228.559	59
228.793	49
229.027	65
229.262	73
229.496	74
229.73	92
229.964	85
230.199	87
230.433	75
230.667	78
230.901	87
231.136	74
231.37	76
231.604	62
231.838	85
232.072	80
232.306	85
232.541	91
232.775	81
233.009	78
233.243	83
233.477	81
233.711	77
233.945	70
234.179	73
234.413	77
234.647	74
234.881	77
235.115	72
235.349	67
235.583	83
235.817	62
236.051	83
236.285	61
236.519	67
236.753	85
236.987	93
237.221	94
237.455	92
237.689	57
237.922	65
238.156	69
238.39	77
238.624	66
238.858	72
239.091	82
239.325	77
239.559	67
239.793	78
240.027	80
240.26	81
240.494	77
240.728	86
240.961	65
241.195	75
241.429	70
241.662	77
241.896	84
242.13	79
242.363	87
242.597	76
242.83	83
243.064	91
243.298	87
243.531	78
243.765	85
243.998	97
244.232	72
244.465	77
244.699	83
244.932	84
245.166	78
245.399	77
245.633	83
245.866	81
246.099	88
246.333	86
246.566	72
246.8	79
247.033	90
247.266	57
247.5	77
247.733	85
247.966	76
248.2	81
248.433	80
248.666	78
248.899	76
249.133	86
249.366	73
249.599	102
249.832	89
250.066	79
250.299	81
250.532	83
250.765	85
250.998	71
251.231	81
251.465	63
251.698	83
251.931	81
252.164	79
252.397	97
252.63	78
252.863	83
253.096	91
253.329	85
253.562	76
253.795	99
254.028	78
254.261	75
254.494	84
254.727	81
254.96	74
255.193	85
255.426	85
255.659	73
255.892	82
256.124	83
256.357	79
256.59	91
256.823	88
257.056	73
257.289	79
257.521	89
257.754	81
257.987	86
258.22	87
258.452	81
258.685	89
258.918	74
259.151	83
259.383	91
259.616	86
259.849	97
260.081	68
260.314	87
260.547	83
260.779	73
261.012	87
261.244	72
261.477	85
261.71	83
261.942	106
262.175	118
262.407	97
262.64	81
262.872	84
263.105	86
263.337	86
263.57	91
263.802	85
264.035	81
264.267	82
264.499	85
264.732	79
264.964	87
265.197	83
265.429	76
265.661	95
265.894	81
266.126	77
266.358	88
266.591	84
266.823	87
267.055	72
267.287	99
267.52	92
267.752	89
267.984	96
268.216	105
268.448	85
268.681	93
268.913	90
269.145	79
269.377	83
269.609	84
269.841	86
270.073	76
270.306	73
270.538	76
270.77	85
271.002	81
271.234	85
271.466	85
271.698	84
271.93	85
272.162	92
272.394	93
272.626	82
272.858	97
273.09	87
273.322	79
273.553	88
273.785	73
274.017	98
274.249	81
274.481	67
274.713	84
274.945	81
275.176	94
275.408	85
275.64	94
275.872	94
276.104	98
276.335	98
276.567	97
276.799	84
277.031	97
277.262	83
277.494	81
277.726	88
277.957	92
278.189	76
278.421	95
278.652	95
278.884	78
279.115	93
279.347	85
279.579	94
279.81	103
280.042	89
280.273	88
280.505	87
280.736	82
280.968	77
281.199	88
281.431	93
281.662	90
281.894	82
282.125	91
282.356	94
282.588	109
282.819	104
283.051	76
283.282	93
283.513	89
283.745	90
283.976	84
284.207	92
284.439	84
284.67	91
284.901	101
285.132	79
285.364	82
285.595	98
285.826	89
286.057	82
286.288	77
286.52	85
286.751	68
286.982	87
287.213	73
287.444	76
287.675	91
287.906	89
288.138	83
288.369	96
288.6	86
288.831	75
289.062	85
289.293	78
289.524	81
289.755	83
289.986	85
290.217	92
290.448	99
290.679	82
290.91	78
291.141	94
291.371	85
291.602	74
291.833	100
292.064	94
292.295	93
292.526	84
292.757	90
292.987	87
293.218	94
293.449	97
293.68	78
293.91	98
294.141	93
294.372	78
294.603	90
294.833	77
295.064	81
295.295	91
295.525	84
295.756	87
295.987	114
296.217	109
296.448	117
296.679	105
296.909	112
297.14	93
297.37	76
297.601	89
297.831	83
298.062	104
298.292	64
298.523	91
298.753	92
298.984	93
299.214	79
299.445	88
299.675	87
299.905	102
300.136	83
300.366	77
300.597	89
300.827	81
301.057	86
301.288	84
301.518	98
301.748	73
301.979	94
302.209	85
302.439	101
302.669	93
302.9	86
303.13	85
303.36	83
303.59	93
303.82	93
304.051	93
304.281	96
304.511	92
304.741	91
304.971	92
305.201	94
305.431	95
305.661	94
305.891	79
306.121	91
306.352	89
306.582	107
306.812	101
307.042	82
307.272	85
307.502	89
307.731	90
307.961	96
308.191	93
308.421	89
308.651	99
308.881	100
309.111	94
309.341	94
309.571	99
309.8	95
310.03	104
310.26	96
310.49	93
310.72	86
310.949	93
311.179	101
311.409	91
311.639	97
311.868	97
312.098	97
312.328	101
312.557	111
312.787	94
313.017	92
313.246	92
313.476	89
313.706	85
313.935	101
314.165	106
314.394	85
314.624	95
314.853	101
315.083	86
315.312	86
315.542	97
315.771	92
316.001	95
316.23	86
316.46	87
316.689	109
316.919	93
317.148	86
317.377	97
317.607	94
317.836	99
318.065	111
318.295	92
318.524	98
318.753	89
318.983	100
319.212	102
319.441	93
319.67	90
319.9	86
320.129	94
320.358	92
320.587	87
320.816	100
321.046	98
321.275	94
321.504	91
321.733	85
321.962	93
322.191	95
322.42	96
322.649	87
322.878	98
323.108	128
323.337	114
323.566	114
323.795	118
324.024	188
324.253	364
324.482	737
324.71	1511
324.939	1900
325.168	722
325.397	213
325.626	125
325.855	103
326.084	132
326.313	109
326.542	141
326.77	218
326.999	421
327.228	869
327.457	1549
327.686	1237
327.914	323
328.143	183
328.372	152
328.6	115
328.829	119
329.058	136
329.287	113
329.515	105
329.744	106
329.972	90
330.201	121
330.43	131
330.658	113
330.887	132
331.115	126
331.344	98
331.572	98
331.801	99
332.03	88
332.258	97
332.486	89
332.715	85
332.943	97
333.172	97
333.4	95
333.629	106
333.857	97
334.085	90
334.314	117
334.542	124
334.771	122
334.999	104
335.227	110
335.455	82
335.684	97
335.912	93
336.14	87
336.369	89
336.597	106
336.825	110
337.053	90
337.281	98
337.51	77
337.738	95
337.966	91
338.194	100
338.422	99
338.65	89
338.878	103
339.106	105
339.334	92
339.562	90
339.79	100
340.018	97
340.246	88
340.474	98
340.702	93
340.93	90
341.158	100
341.386	87
341.614	97
341.842	87
342.07	89
342.298	101
342.526	101
342.754	99
342.981	102
343.209	87
343.437	101
343.665	92
343.893	92
344.12	95
344.348	98
344.576	93
344.804	94
345.031	98
345.259	105
345.487	85
345.714	108
345.942	105
346.17	96
346.397	89
346.625	104
346.853	86
347.08	86
347.308	81
347.535	91
347.763	110
347.99	100
348.218	110
348.445	93
348.673	97
348.9	104
349.128	74
349.355	82
349.583	85
349.81	99
350.037	96
350.265	87
350.492	91
350.72	94
350.947	106
351.174	106
351.402	106
351.629	94
351.856	99
352.083	100
352.311	92
352.538	102
352.765	113
352.992	112
353.22	111
353.447	99
353.674	94
353.901	109
354.128	79
354.355	92
354.583	106
354.81	86
355.037	98
355.264	97
355.491	100
355.718	87
355.945	97
356.172	101
356.399	100
356.626	91
356.853	107
357.08	99
357.307	106
357.534	98
357.761	97
357.988	89
358.215	83
358.441	93
358.668	100
358.895	96
359.122	90
359.349	90
359.576	102
359.802	94
360.029	101
360.256	109
360.483	105
360.709	91
360.936	91
361.163	97
361.39	96
361.616	89
361.843	95
362.07	87
362.296	91
362.523	87
362.749	93
362.976	93
363.203	92
363.429	97
363.656	83
363.882	92
364.109	93
364.335	99
364.562	103
364.788	90
365.015	86
365.241	94
365.468	101
365.694	111
365.92	89
366.147	83
366.373	81
366.599	78
366.826	86
367.052	86
367.278	92
367.505	99
367.731	92
367.957	99
368.184	92
368.41	77
368.636	112
368.862	123
369.089	105
369.315	78
369.541	84
369.767	81
369.993	91
370.219	86
370.445	99
370.672	90
370.898	82
371.124	79
371.35	85
371.576	104
371.802	99
372.028	103
372.254	84
372.48	86
372.706	90
372.932	85
373.158	86
373.384	86
373.61	89
373.835	86
374.061	97
374.287	97
374.513	84
374.739	101
374.965	106
375.191	94
375.416	91
375.642	105
375.868	97
376.094	87
376.319	85
376.545	78
376.771	94
376.997	97
377.222	107
377.448	84
377.674	76
377.899	83
378.125	95
378.35	111
378.576	87
378.802	95
379.027	108
379.253	100
379.478	100
379.704	106
379.929	102
380.155	86
380.38	103
380.606	101
380.831	94
381.057	98
381.282	95
381.507	98
381.733	115
381.958	92
382.184	94
382.409	109
382.634	98
382.86	88
383.085	102
383.31	101
383.535	98
383.761	92
383.986	97
384.211	105
384.436	95
384.662	93
384.887	102
385.112	105
385.337	105
385.562	118
385.787	119
386.013	113
386.238	111
386.463	105
386.688	119
386.913	102
387.138	115
387.363	119
387.588	110
387.813	109
388.038	107
388.263	121
388.488	125
388.713	105
388.938	99
389.163	90
389.387	97
389.612	106
389.837	96
390.062	104
390.287	102
390.512	87
390.736	99
390.961	87
391.186	107
391.411	108
391.636	95
391.86	85
392.085	78
392.31	100
392.534	104
392.759	93
392.984	99
393.208	88
393.433	87
393.658	99
393.882	88
394.107	101
394.331	98
394.556	104
394.78	103
395.005	87
395.229	77
395.454	67
395.678	87
395.903	94
396.127	86
396.352	97
396.576	89
396.801	85
397.025	79
397.249	90
397.474	93
397.698	78
397.922	85
398.147	78
398.371	83
398.595	97
398.82	81
399.044	89
399.268	79
399.492	74
399.717	78
399.941	90
400.165	83
400.389	92
400.613	89
400.837	80
401.062	92
401.286	99
401.51	98
401.734	83
401.958	78
402.182	122
402.406	142
402.63	103
402.854	104
403.078	92
403.302	85
403.526	81
403.75	89
403.974	75
404.198	84
404.422	85
404.645	90
404.869	97
405.093	99
405.317	95
405.541	90
405.765	92
405.988	99
406.212	160
406.436	180
406.66	124
406.883	103
407.107	102
407.331	94
407.555	99
407.778	94
408.002	98
408.226	89
408.449	91
408.673	87
408.896	109
409.12	81
409.344	82
409.567	75
409.791	90
410.014	94
410.238	102
410.461	100
410.685	87
410.908	104
411.132	92
411.355	112
411.578	105
411.802	94
412.025	91
412.249	84
412.472	109
412.695	103
412.919	90
413.142	89
413.365	101
413.589	99
413.812	99
414.035	89
414.258	91
414.482	95
414.705	85
414.928	95
415.151	95
415.374	94
415.597	84
415.821	92
416.044	97
416.267	93
416.49	74
416.713	74
416.936	98
417.159	94
417.382	84
417.605	102
417.828	90
418.051	86
418.274	109
418.497	102
418.72	89
418.943	94
419.166	91
419.389	91
419.611	93
419.834	87
420.057	103
420.28	93
420.503	86
420.726	86
420.948	98
421.171	109
421.394	83
421.617	88
421.839	85
422.062	92
422.285	94
422.507	94
422.73	97
422.953	93
423.175	101
423.398	94
423.621	87
423.843	102
424.066	79
424.288	86
424.511	82
424.733	96
424.956	104
425.178	104
425.401	94
425.623	74
425.846	82
426.068	104
426.291	95
426.513	105
426.735	91
426.958	84
427.18	106
427.402	124
427.625	139
427.847	124
428.069	100
428.292	100
428.514	98
428.736	78
428.958	89
429.181	97
429.403	76
429.625	87
429.847	85
430.069	99
430.292	91
430.514	91
430.736	93
430.958	93
431.18	98
431.402	95
431.624	88
431.846	87
432.068	89
432.29	87
432.512	99
432.734	86
432.956	97
433.178	101
433.4	90
433.622	83
433.844	87
434.066	98
434.287	109
434.509	92
434.731	91
434.953	85
435.175	103
435.397	101
435.618	87
435.84	97
436.062	104
436.284	104
436.505	105
436.727	101
436.949	98
437.17	88
437.392	90
437.614	91
437.835	107
438.057	103
438.278	103
438.5	116
438.721	105
438.943	85
439.165	91
439.386	81
439.608	108
439.829	98
440.05	124
440.272	123
440.493	99
440.715	84
440.936	91
441.158	85
441.379	86
441.6	100
441.822	100
442.043	96
442.264	95
442.486	105
442.707	93
442.928	99
443.149	118
443.371	117
443.592	100
443.813	105
444.034	110
444.255	99
444.476	91
444.698	85
444.919	83
445.14	125
445.361	121
445.582	108
445.803	126
446.024	117
446.245	122
446.466	105
446.687	89
446.908	79
447.129	91
447.35	86
447.571	101
447.792	89
448.013	97
448.234	111
448.455	105
448.675	115
448.896	118
449.117	101
449.338	115
449.559	108
449.779	114
450	102
450.221	92
450.442	95
450.662	79
450.883	98
451.104	112
451.324	76
451.545	88
451.766	94
451.986	86
452.207	78
452.428	86
452.648	91
452.869	98
453.089	99
453.31	87
453.53	101
453.751	95
453.971	100
454.192	110
454.412	106
454.633	105
454.853	75
455.073	80
455.294	86
455.514	96
455.734	98
455.955	88
456.175	85
456.395	86
456.616	109
456.836	91
457.056	90
457.276	96
457.497	99
457.717	88
457.937	90
458.157	90
458.377	98
458.598	101
458.818	122
459.038	126
459.258	95
459.478	95
459.698	87
459.918	89
460.138	85
460.358	87
460.578	91
460.798	74
461.018	86
461.238	85
461.458	87
461.678	88
461.898	95
462.118	97
462.338	85
462.558	88
462.777	94
462.997	81
463.217	95
463.437	87
463.657	106
463.876	89
464.096	100
464.316	83
464.536	97
464.755	88
464.975	97
465.195	131
465.414	125
465.634	103
465.854	74
466.073	85
466.293	79
466.512	93
466.732	81
466.951	84
467.171	95
467.391	85
467.61	101
467.829	96
468.049	87
468.268	83
468.488	97
468.707	82
468.927	84
469.146	97
469.365	93
469.585	83
469.804	87
470.023	97
470.243	91
470.462	98
470.681	110
470.901	89
471.12	89
471.339	90
471.558	92
471.777	95
471.997	101
472.216	95
472.435	111
472.654	105
472.873	91
473.092	82
473.311	83
473.53	84
473.749	92
473.968	83
474.187	88
474.406	85
474.625	94
474.844	90
475.063	81
475.282	94
475.501	74
475.72	77
475.939	89
476.158	86
476.377	97
476.596	96
476.814	87
477.033	100
477.252	98
477.471	83
477.69	94
477.908	76
478.127	83
478.346	85
478.564	87
478.783	95
479.002	84
479.22	110
479.439	103
479.658	97
479.876	92
480.095	100
480.313	88
480.532	85
480.751	96
480.969	125
481.188	179
481.406	161
481.624	96
481.843	89
482.061	88
482.28	90
482.498	100
482.717	87
482.935	89
483.153	87
483.372	83
483.59	86
483.808	86
484.027	70
484.245	89
484.463	91
484.681	101
484.9	104
485.118	101
485.336	105
485.554	104
485.772	107
485.99	104
486.209	108
486.427	101
486.645	107
486.863	105
487.081	120
487.299	112
487.517	93
487.735	94
487.953	96
488.171	84
488.389	101
488.607	92
488.825	106
489.043	107
489.261	105
489.479	92
489.696	87
489.914	103
490.132	95
490.35	95
490.568	95
490.786	89
491.003	94
491.221	94
491.439	98
491.657	92
491.874	98
492.092	79
492.31	85
492.527	90
492.745	94
492.963	92
493.18	98
493.398	90
493.615	101
493.833	101
494.05	96
494.268	91
494.485	97
494.703	95
494.92	79
495.138	96
495.355	90
495.573	86
495.79	94
496.008	94
496.225	102
496.442	95
496.66	90
496.877	86
497.094	102
497.312	71
497.529	76
497.746	93
497.963	95
498.181	99
498.398	103
498.615	105
498.832	104
499.049	98
499.267	100
499.484	91
499.701	97
499.918	78
500.135	94
500.352	88
500.569	112
500.786	100
501.003	89
501.22	102
501.437	79
501.654	83
501.871	106
502.088	90
502.305	76
502.522	93
502.739	89
502.956	97
503.172	97
503.389	109
503.606	102
503.823	90
504.04	92
504.256	93
504.473	91
504.69	97
504.907	100
505.123	89
505.34	93
505.557	86
505.773	77
505.99	93
506.207	85
506.423	81
506.64	87
506.856	93
507.073	108
507.289	95
507.506	98
507.722	116
507.939	94
508.155	87
508.372	102
508.588	90
508.805	98
509.021	88
509.238	90
509.454	105
509.67	89
509.887	118
510.103	131
510.319	202
510.536	637
510.752	1847
510.968	514
511.184	143
511.401	105
511.617	107
511.833	92
512.049	85
512.265	85
512.481	77
512.698	103
512.914	111
513.13	97
513.346	108
513.562	104
513.778	92
513.994	107
514.21	96
514.426	108
514.642	114
514.858	107
515.074	134
515.29	360
515.506	1098
515.721	412
515.937	137
516.153	81
516.369	95
516.585	98
516.801	96
517.016	94
517.232	87
517.448	98
517.664	97
517.879	98
518.095	103
518.311	75
518.527	97
518.742	91
518.958	83
519.173	98
519.389	97
519.605	88
519.82	85
520.036	106
520.251	122
520.467	100
520.682	99
520.898	92
521.113	119
521.329	131
521.544	160
521.76	446
521.975	1791
522.19	1049
522.406	246
522.621	114
522.836	97
523.052	96
523.267	100
523.482	94
523.698	96
523.913	95
524.128	91
524.343	82
524.559	93
524.774	96
524.989	92
525.204	98
525.419	96
525.634	86
525.849	88
526.064	85
526.28	89
526.495	85
526.71	95
526.925	99
527.14	99
527.355	85
527.57	96
527.785	89
527.999	95
528.214	98
528.429	94
528.644	94
528.859	91
529.074	101
529.289	114
529.503	151
529.718	113
529.933	99
530.148	89
530.363	94
530.577	100
530.792	99
531.007	88
531.221	84
531.436	89
531.651	94
531.865	82
532.08	106
532.295	101
532.509	89
532.724	99
532.938	93
533.153	103
533.367	102
533.582	89
533.796	108
534.011	97
534.225	81
534.44	90
534.654	97
534.868	99
535.083	85
535.297	98
535.511	99
535.726	93
535.94	91
536.154	90
536.369	90
536.583	90
536.797	92
537.011	95
537.225	85
537.44	97
537.654	90
537.868	95
538.082	96
538.296	103
538.51	101
538.724	94
538.938	79
539.153	91
539.367	96
539.581	103
539.795	92
540.009	100
540.222	88
540.436	104
540.65	102
540.864	93
541.078	99
541.292	94
541.506	91
541.72	89
541.934	93
542.147	85
542.361	91
542.575	101
542.789	101
543.002	89
543.216	81
543.43	94
543.644	95
543.857	101
544.071	95
544.285	82
544.498	93
544.712	89
544.925	83
545.139	94
545.352	91
545.566	93
545.779	87
545.993	102
546.206	92
546.42	93
546.633	102
546.847	99
547.06	91
547.274	73
547.487	74
547.7	86
547.914	85
548.127	78
548.34	77
548.554	85
548.767	86
548.98	92
549.193	98
549.407	82
549.62	97
549.833	93
550.046	82
550.259	94
550.473	90
550.686	105
550.899	98
551.112	94
551.325	89
551.538	90
551.751	87
551.964	83
552.177	96
552.39	92
552.603	89
552.816	76
553.029	109
553.242	84
553.455	98
553.667	88
553.88	113
554.093	97
554.306	88
554.519	88
554.732	107
554.944	91
555.157	94
555.37	95
555.583	100
555.795	105
556.008	89
556.221	75
556.433	94
556.646	95
556.859	104
557.071	93
557.284	98
557.496	80
557.709	101
557.921	89
558.134	81
558.346	82
558.559	92
558.771	81
558.984	94
559.196	85
559.409	88
559.621	106
559.833	74
560.046	92
560.258	103
560.47	96
560.683	102
560.895	90
561.107	83
561.32	85
561.532	76
561.744	79
561.956	93
562.168	87
562.381	88
562.593	99
562.805	93
563.017	94
563.229	97
563.441	74
563.653	76
563.865	91
564.077	92
564.289	86
564.501	100
564.713	99
564.925	89
565.137	96
565.349	90
565.561	81
565.773	99
565.985	82
566.197	103
566.408	105
566.62	81
566.832	86
567.044	77
567.255	82
567.467	80
567.679	97
567.891	89
568.102	89
568.314	91
568.526	89
568.737	105
568.949	89
569.161	101
569.372	83
569.584	111
569.795	96
570.007	102
570.218	197
570.43	138
570.641	89
570.853	89
571.064	87
571.276	81
571.487	90
571.698	102
571.91	87
572.121	92
572.333	100
572.544	85
572.755	84
572.966	89
573.178	87
573.389	95
573.6	77
573.811	73
574.023	81
574.234	79
574.445	96
574.656	71
574.867	85
575.078	87
575.289	75
575.501	82
575.712	97
575.923	78
576.134	85
576.345	101
576.556	68
576.767	79
576.978	89
577.188	100
577.399	103
577.61	105
577.821	96
578.032	119
578.243	258
578.454	610
578.665	198
578.875	98
579.086	90
579.297	96
579.508	82
579.718	85
579.929	88
580.14	81
580.35	82
580.561	81
580.772	93
580.982	94
581.193	88
581.403	89
581.614	94
581.825	99
582.035	81
582.246	100
582.456	98
582.667	89
582.877	88
583.087	88
583.298	101
583.508	88
583.719	89
583.929	102
