Data from Uncirc_1982_H10_HRD10591_00064.txt Node
Date: Wed Jan 03 12:29:37 EST 2024
User: Yrep
Spectrometer: HR+D1059
Trigger mode: 1
Integration Time (sec): 1.000000E-1
Scans to average: 1
Electric dark correction enabled: true
Nonlinearity correction enabled: false
Boxcar width: 0
XAxis mode: Wavelengths
Number of Pixels in Spectrum: 2048
>>>>>Begin Spectral Data<<<<<
223.165	-13.75
223.4	-13.75
223.635	-13.75
223.869	-21.75
224.104	-15.75
224.338	-22.75
224.573	-13.75
224.808	-18.75
225.042	-14.75
225.277	-1.75
225.511	-5.75
225.746	12.25
225.98	8.25
226.215	1.25
226.449	20.25
226.683	25.25
226.918	36.25
227.152	25.25
227.387	39.25
227.621	32.25
227.856	57.25
228.09	55.25
228.324	68.25
228.559	59.25
228.793	58.25
229.027	52.25
229.262	59.25
229.496	69.25
229.73	65.25
229.964	93.25
230.199	71.25
230.433	69.25
230.667	91.25
230.901	79.25
231.136	79.25
231.37	75.25
231.604	84.25
231.838	86.25
232.072	70.25
232.306	85.25
232.541	96.25
232.775	86.25
233.009	71.25
233.243	99.25
233.477	77.25
233.711	87.25
233.945	78.25
234.179	84.25
234.413	85.25
234.647	97.25
234.881	78.25
235.115	70.25
235.349	88.25
235.583	74.25
235.817	87.25
236.051	78.25
236.285	79.25
236.519	87.25
236.753	73.25
236.987	72.25
237.221	73.25
237.455	68.25
237.689	92.25
237.922	79.25
238.156	83.25
238.39	76.25
238.624	95.25
238.858	85.25
239.091	88.25
239.325	65.25
239.559	89.25
239.793	79.25
240.027	75.25
240.26	76.25
240.494	85.25
240.728	65.25
240.961	80.25
241.195	74.25
241.429	75.25
241.662	89.25
241.896	79.25
242.13	95.25
242.363	79.25
242.597	75.25
242.83	88.25
243.064	83.25
243.298	91.25
243.531	79.25
243.765	74.25
243.998	79.25
244.232	94.25
244.465	84.25
244.699	92.25
244.932	90.25
245.166	78.25
245.399	78.25
245.633	76.25
245.866	85.25
246.099	71.25
246.333	73.25
246.566	94.25
246.8	83.25
247.033	93.25
247.266	87.25
247.5	79.25
247.733	83.25
247.966	80.25
248.2	88.25
248.433	76.25
248.666	84.25
248.899	95.25
249.133	90.25
249.366	99.25
249.599	93.25
249.832	85.25
250.066	91.25
250.299	87.25
250.532	87.25
250.765	84.25
250.998	79.25
251.231	91.25
251.465	87.25
251.698	84.25
251.931	79.25
252.164	90.25
252.397	81.25
252.63	77.25
252.863	92.25
253.096	80.25
253.329	78.25
253.562	71.25
253.795	87.25
254.028	79.25
254.261	67.25
254.494	78.25
254.727	89.25
254.96	79.25
255.193	87.25
255.426	83.25
255.659	89.25
255.892	78.25
256.124	73.25
256.357	79.25
256.59	97.25
256.823	94.25
257.056	93.25
257.289	70.25
257.521	99.25
257.754	74.25
257.987	75.25
258.22	85.25
258.452	101.25
258.685	85.25
258.918	84.25
259.151	97.25
259.383	79.25
259.616	81.25
259.849	68.25
260.081	96.25
260.314	80.25
260.547	81.25
260.779	88.25
261.012	94.25
261.244	78.25
261.477	78.25
261.71	91.25
261.942	104.25
262.175	125.25
262.407	85.25
262.64	94.25
262.872	78.25
263.105	79.25
263.337	99.25
263.57	84.25
263.802	81.25
264.035	75.25
264.267	96.25
264.499	86.25
264.732	96.25
264.964	100.25
265.197	93.25
265.429	73.25
265.661	89.25
265.894	91.25
266.126	80.25
266.358	78.25
266.591	100.25
266.823	83.25
267.055	86.25
267.287	95.25
267.52	103.25
267.752	85.25
267.984	86.25
268.216	80.25
268.448	95.25
268.681	94.25
268.913	92.25
269.145	85.25
269.377	86.25
269.609	91.25
269.841	87.25
270.073	72.25
270.306	91.25
270.538	80.25
270.77	90.25
271.002	105.25
271.234	89.25
271.466	92.25
271.698	92.25
271.93	80.25
272.162	79.25
272.394	84.25
272.626	77.25
272.858	94.25
273.09	102.25
273.322	90.25
273.553	99.25
273.785	85.25
274.017	77.25
274.249	92.25
274.481	79.25
274.713	95.25
274.945	85.25
275.176	72.25
275.408	79.25
275.64	88.25
275.872	91.25
276.104	95.25
276.335	86.25
276.567	86.25
276.799	104.25
277.031	110.25
277.262	95.25
277.494	84.25
277.726	78.25
277.957	83.25
278.189	73.25
278.421	102.25
278.652	71.25
278.884	92.25
279.115	78.25
279.347	84.25
279.579	78.25
279.81	87.25
280.042	78.25
280.273	89.25
280.505	82.25
280.736	92.25
280.968	96.25
281.199	89.25
281.431	90.25
281.662	96.25
281.894	100.25
282.125	103.25
282.356	93.25
282.588	126.25
282.819	95.25
283.051	92.25
283.282	94.25
283.513	97.25
283.745	83.25
283.976	79.25
284.207	103.25
284.439	89.25
284.67	99.25
284.901	85.25
285.132	95.25
285.364	94.25
285.595	87.25
285.826	98.25
286.057	85.25
286.288	66.25
286.52	85.25
286.751	74.25
286.982	83.25
287.213	95.25
287.444	81.25
287.675	89.25
287.906	90.25
288.138	91.25
288.369	100.25
288.6	90.25
288.831	102.25
289.062	88.25
289.293	91.25
289.524	97.25
289.755	84.25
289.986	95.25
290.217	97.25
290.448	105.25
290.679	100.25
290.91	90.25
291.141	86.25
291.371	86.25
291.602	92.25
291.833	93.25
292.064	90.25
292.295	93.25
292.526	88.25
292.757	102.25
292.987	103.25
293.218	95.25
293.449	95.25
293.68	76.25
293.91	81.25
294.141	93.25
294.372	106.25
294.603	84.25
294.833	98.25
295.064	103.25
295.295	105.25
295.525	85.25
295.756	104.25
295.987	110.25
296.217	127.25
296.448	104.25
296.679	99.25
296.909	92.25
297.14	87.25
297.37	91.25
297.601	82.25
297.831	93.25
298.062	102.25
298.292	106.25
298.523	103.25
298.753	85.25
298.984	91.25
299.214	78.25
299.445	97.25
299.675	97.25
299.905	105.25
300.136	108.25
300.366	106.25
300.597	80.25
300.827	91.25
301.057	103.25
301.288	104.25
301.518	109.25
301.748	99.25
301.979	104.25
302.209	84.25
302.439	87.25
302.669	96.25
302.9	94.25
303.13	91.25
303.36	96.25
303.59	98.25
303.82	107.25
304.051	102.25
304.281	86.25
304.511	96.25
304.741	84.25
304.971	101.25
305.201	100.25
305.431	77.25
305.661	84.25
305.891	95.25
306.121	83.25
306.352	101.25
306.582	113.25
306.812	78.25
307.042	100.25
307.272	89.25
307.502	92.25
307.731	83.25
307.961	91.25
308.191	95.25
308.421	104.25
308.651	95.25
308.881	97.25
309.111	89.25
309.341	86.25
309.571	101.25
309.8	90.25
310.03	106.25
310.26	97.25
310.49	94.25
310.72	90.25
310.949	101.25
311.179	101.25
311.409	80.25
311.639	97.25
311.868	92.25
312.098	94.25
312.328	90.25
312.557	87.25
312.787	96.25
313.017	101.25
313.246	87.25
313.476	85.25
313.706	92.25
313.935	94.25
314.165	103.25
314.394	95.25
314.624	92.25
314.853	95.25
315.083	91.25
315.312	110.25
315.542	87.25
315.771	98.25
316.001	87.25
316.23	89.25
316.46	101.25
316.689	85.25
316.919	84.25
317.148	90.25
317.377	88.25
317.607	88.25
317.836	110.25
318.065	86.25
318.295	99.25
318.524	93.25
318.753	81.25
318.983	94.25
319.212	99.25
319.441	105.25
319.67	106.25
319.9	98.25
320.129	103.25
320.358	103.25
320.587	91.25
320.816	104.25
321.046	107.25
321.275	99.25
321.504	92.25
321.733	106.25
321.962	115.25
322.191	104.25
322.42	101.25
322.649	119.25
322.878	117.25
323.108	118.25
323.337	118.25
323.566	142.25
323.795	136.25
324.024	193.25
324.253	386.25
324.482	830.25
324.71	1632.25
324.939	2188.25
325.168	787.25
325.397	247.25
325.626	149.25
325.855	130.25
326.084	131.25
326.313	135.25
326.542	164.25
326.77	220.25
326.999	430.25
327.228	935.25
327.457	1669.25
327.686	1339.25
327.914	362.25
328.143	183.25
328.372	143.25
328.6	121.25
328.829	118.25
329.058	105.25
329.287	125.25
329.515	99.25
329.744	105.25
329.972	108.25
330.201	127.25
330.43	125.25
330.658	125.25
330.887	135.25
331.115	119.25
331.344	95.25
331.572	100.25
331.801	114.25
332.03	100.25
332.258	90.25
332.486	94.25
332.715	95.25
332.943	88.25
333.172	99.25
333.4	94.25
333.629	108.25
333.857	118.25
334.085	118.25
334.314	129.25
334.542	117.25
334.771	119.25
334.999	98.25
335.227	98.25
335.455	78.25
335.684	92.25
335.912	105.25
336.14	96.25
336.369	102.25
336.597	98.25
336.825	91.25
337.053	94.25
337.281	92.25
337.51	92.25
337.738	92.25
337.966	106.25
338.194	102.25
338.422	106.25
338.65	99.25
338.878	102.25
339.106	87.25
339.334	86.25
339.562	101.25
339.79	91.25
340.018	93.25
340.246	103.25
340.474	85.25
340.702	105.25
340.93	93.25
341.158	90.25
341.386	104.25
341.614	88.25
341.842	108.25
342.07	71.25
342.298	77.25
342.526	88.25
342.754	99.25
342.981	94.25
343.209	96.25
343.437	93.25
343.665	95.25
343.893	87.25
344.12	96.25
344.348	83.25
344.576	84.25
344.804	95.25
345.031	86.25
345.259	102.25
345.487	95.25
345.714	96.25
345.942	105.25
346.17	97.25
346.397	104.25
346.625	101.25
346.853	91.25
347.08	111.25
347.308	87.25
347.535	100.25
347.763	89.25
347.99	96.25
348.218	104.25
348.445	98.25
348.673	112.25
348.9	99.25
349.128	96.25
349.355	96.25
349.583	92.25
349.81	81.25
350.037	104.25
350.265	97.25
350.492	86.25
350.72	100.25
350.947	100.25
351.174	107.25
351.402	101.25
351.629	108.25
351.856	94.25
352.083	102.25
352.311	93.25
352.538	112.25
352.765	102.25
352.992	118.25
353.22	102.25
353.447	104.25
353.674	100.25
353.901	104.25
354.128	101.25
354.355	98.25
354.583	109.25
354.81	112.25
355.037	106.25
355.264	86.25
355.491	107.25
355.718	95.25
355.945	98.25
356.172	97.25
356.399	106.25
356.626	91.25
356.853	102.25
357.08	95.25
357.307	89.25
357.534	93.25
357.761	85.25
357.988	97.25
358.215	96.25
358.441	108.25
358.668	101.25
358.895	97.25
359.122	100.25
359.349	87.25
359.576	86.25
359.802	109.25
360.029	110.25
360.256	105.25
360.483	86.25
360.709	87.25
360.936	92.25
361.163	102.25
361.39	91.25
361.616	89.25
361.843	103.25
362.07	104.25
362.296	98.25
362.523	71.25
362.749	86.25
362.976	106.25
363.203	82.25
363.429	76.25
363.656	93.25
363.882	92.25
364.109	95.25
364.335	97.25
364.562	99.25
364.788	93.25
365.015	87.25
365.241	101.25
365.468	94.25
365.694	85.25
365.92	89.25
366.147	83.25
366.373	88.25
366.599	94.25
366.826	99.25
367.052	91.25
367.278	101.25
367.505	86.25
367.731	101.25
367.957	83.25
368.184	93.25
368.41	95.25
368.636	109.25
368.862	108.25
369.089	93.25
369.315	90.25
369.541	109.25
369.767	97.25
369.993	103.25
370.219	97.25
370.445	93.25
370.672	85.25
370.898	95.25
371.124	83.25
371.35	87.25
371.576	72.25
371.802	98.25
372.028	98.25
372.254	90.25
372.48	70.25
372.706	91.25
372.932	89.25
373.158	88.25
373.384	93.25
373.61	93.25
373.835	89.25
374.061	89.25
374.287	84.25
374.513	98.25
374.739	72.25
374.965	76.25
375.191	73.25
375.416	95.25
375.642	91.25
375.868	99.25
376.094	102.25
376.319	87.25
376.545	86.25
376.771	92.25
376.997	99.25
377.222	86.25
377.448	102.25
377.674	97.25
377.899	90.25
378.125	87.25
378.35	98.25
378.576	92.25
378.802	104.25
379.027	87.25
379.253	91.25
379.478	91.25
379.704	88.25
379.929	87.25
380.155	95.25
380.38	108.25
380.606	98.25
380.831	95.25
381.057	103.25
381.282	101.25
381.507	91.25
381.733	100.25
381.958	91.25
382.184	91.25
382.409	106.25
382.634	126.25
382.86	97.25
383.085	114.25
383.31	95.25
383.535	108.25
383.761	92.25
383.986	97.25
384.211	86.25
384.436	95.25
384.662	99.25
384.887	101.25
385.112	107.25
385.337	104.25
385.562	111.25
385.787	104.25
386.013	116.25
386.238	115.25
386.463	117.25
386.688	125.25
386.913	118.25
387.138	118.25
387.363	93.25
387.588	108.25
387.813	107.25
388.038	104.25
388.263	105.25
388.488	102.25
388.713	92.25
388.938	109.25
389.163	88.25
389.387	91.25
389.612	89.25
389.837	103.25
390.062	94.25
390.287	100.25
390.512	108.25
390.736	96.25
390.961	94.25
391.186	100.25
391.411	93.25
391.636	94.25
391.86	90.25
392.085	87.25
392.31	89.25
392.534	92.25
392.759	80.25
392.984	103.25
393.208	93.25
393.433	87.25
393.658	93.25
393.882	91.25
394.107	94.25
394.331	100.25
394.556	95.25
394.78	78.25
395.005	87.25
395.229	93.25
395.454	79.25
395.678	81.25
395.903	83.25
396.127	84.25
396.352	84.25
396.576	96.25
396.801	85.25
397.025	92.25
397.249	101.25
397.474	96.25
397.698	91.25
397.922	95.25
398.147	92.25
398.371	79.25
398.595	96.25
398.82	88.25
399.044	99.25
399.268	86.25
399.492	93.25
399.717	88.25
399.941	85.25
400.165	91.25
400.389	101.25
400.613	75.25
400.837	90.25
401.062	93.25
401.286	98.25
401.51	93.25
401.734	100.25
401.958	95.25
402.182	119.25
402.406	140.25
402.63	111.25
402.854	95.25
403.078	84.25
403.302	78.25
403.526	91.25
403.75	88.25
403.974	83.25
404.198	95.25
404.422	92.25
404.645	89.25
404.869	92.25
405.093	95.25
405.317	113.25
405.541	101.25
405.765	84.25
405.988	109.25
406.212	157.25
406.436	197.25
406.66	127.25
406.883	101.25
407.107	101.25
407.331	95.25
407.555	95.25
407.778	94.25
408.002	103.25
408.226	85.25
408.449	92.25
408.673	84.25
408.896	103.25
409.12	108.25
409.344	108.25
409.567	90.25
409.791	103.25
410.014	106.25
410.238	95.25
410.461	88.25
410.685	91.25
410.908	96.25
411.132	105.25
411.355	92.25
411.578	95.25
411.802	90.25
412.025	81.25
412.249	102.25
412.472	106.25
412.695	91.25
412.919	97.25
413.142	101.25
413.365	99.25
413.589	105.25
413.812	111.25
414.035	92.25
414.258	80.25
414.482	90.25
414.705	102.25
414.928	83.25
415.151	105.25
415.374	90.25
415.597	89.25
415.821	97.25
416.044	84.25
416.267	94.25
416.49	81.25
416.713	98.25
416.936	87.25
417.159	88.25
417.382	75.25
417.605	93.25
417.828	96.25
418.051	98.25
418.274	92.25
418.497	86.25
418.72	87.25
418.943	88.25
419.166	89.25
419.389	81.25
419.611	85.25
419.834	83.25
420.057	89.25
420.28	79.25
420.503	77.25
420.726	93.25
420.948	93.25
421.171	89.25
421.394	94.25
421.617	85.25
421.839	89.25
422.062	96.25
422.285	99.25
422.507	109.25
422.73	97.25
422.953	87.25
423.175	100.25
423.398	96.25
423.621	101.25
423.843	86.25
424.066	103.25
424.288	99.25
424.511	92.25
424.733	103.25
424.956	112.25
425.178	111.25
425.401	115.25
425.623	88.25
425.846	90.25
426.068	83.25
426.291	86.25
426.513	87.25
426.735	94.25
426.958	89.25
427.18	115.25
427.402	133.25
427.625	171.25
427.847	127.25
428.069	113.25
428.292	87.25
428.514	88.25
428.736	96.25
428.958	89.25
429.181	85.25
429.403	94.25
429.625	94.25
429.847	101.25
430.069	106.25
430.292	95.25
430.514	88.25
430.736	91.25
430.958	81.25
431.18	85.25
431.402	89.25
431.624	87.25
431.846	83.25
432.068	81.25
432.29	82.25
432.512	86.25
432.734	79.25
432.956	99.25
433.178	108.25
433.4	85.25
433.622	99.25
433.844	103.25
434.066	82.25
434.287	92.25
434.509	85.25
434.731	96.25
434.953	95.25
435.175	104.25
435.397	84.25
435.618	93.25
435.84	100.25
436.062	120.25
436.284	99.25
436.505	107.25
436.727	105.25
436.949	94.25
437.17	102.25
437.392	88.25
437.614	88.25
437.835	95.25
438.057	118.25
438.278	102.25
438.5	102.25
438.721	129.25
438.943	105.25
439.165	91.25
439.386	83.25
439.608	94.25
439.829	117.25
440.05	111.25
440.272	118.25
440.493	95.25
440.715	91.25
440.936	87.25
441.158	76.25
441.379	79.25
441.6	76.25
441.822	99.25
442.043	107.25
442.264	100.25
442.486	93.25
442.707	91.25
442.928	105.25
443.149	124.25
443.371	102.25
443.592	109.25
443.813	117.25
444.034	120.25
444.255	94.25
444.476	78.25
444.698	99.25
444.919	79.25
445.14	142.25
445.361	136.25
445.582	104.25
445.803	137.25
446.024	127.25
446.245	135.25
446.466	100.25
446.687	89.25
446.908	90.25
447.129	97.25
447.35	84.25
447.571	88.25
447.792	97.25
448.013	100.25
448.234	94.25
448.455	90.25
448.675	106.25
448.896	114.25
449.117	108.25
449.338	107.25
449.559	110.25
449.779	125.25
450	102.25
450.221	92.25
450.442	101.25
450.662	110.25
450.883	109.25
451.104	111.25
451.324	104.25
451.545	100.25
451.766	93.25
451.986	80.25
452.207	91.25
452.428	81.25
452.648	93.25
452.869	113.25
453.089	106.25
453.31	100.25
453.53	84.25
453.751	89.25
453.971	96.25
454.192	99.25
454.412	101.25
454.633	90.25
454.853	86.25
455.073	95.25
455.294	85.25
455.514	85.25
455.734	85.25
455.955	97.25
456.175	92.25
456.395	79.25
456.616	97.25
456.836	97.25
457.056	83.25
457.276	70.25
457.497	89.25
457.717	84.25
457.937	84.25
458.157	89.25
458.377	92.25
458.598	119.25
458.818	125.25
459.038	143.25
459.258	104.25
459.478	93.25
459.698	92.25
459.918	83.25
460.138	91.25
460.358	92.25
460.578	75.25
460.798	94.25
461.018	91.25
461.238	82.25
461.458	88.25
461.678	85.25
461.898	87.25
462.118	97.25
462.338	89.25
462.558	93.25
462.777	105.25
462.997	96.25
463.217	93.25
463.437	93.25
463.657	95.25
463.876	93.25
464.096	103.25
464.316	94.25
464.536	103.25
464.755	96.25
464.975	104.25
465.195	144.25
465.414	142.25
465.634	106.25
465.854	89.25
466.073	80.25
466.293	91.25
466.512	89.25
466.732	95.25
466.951	81.25
467.171	93.25
467.391	113.25
467.61	97.25
467.829	102.25
468.049	106.25
468.268	112.25
468.488	85.25
468.707	76.25
468.927	85.25
469.146	93.25
469.365	89.25
469.585	90.25
469.804	92.25
470.023	90.25
470.243	108.25
470.462	117.25
470.681	118.25
470.901	87.25
471.12	87.25
471.339	83.25
471.558	92.25
471.777	92.25
471.997	96.25
472.216	108.25
472.435	142.25
472.654	105.25
472.873	97.25
473.092	89.25
473.311	85.25
473.53	95.25
473.749	94.25
473.968	96.25
474.187	102.25
474.406	97.25
474.625	95.25
474.844	95.25
475.063	95.25
475.282	78.25
475.501	83.25
475.72	87.25
475.939	95.25
476.158	83.25
476.377	87.25
476.596	102.25
476.814	81.25
477.033	84.25
477.252	86.25
477.471	67.25
477.69	93.25
477.908	102.25
478.127	103.25
478.346	95.25
478.564	104.25
478.783	100.25
479.002	92.25
479.22	94.25
479.439	108.25
479.658	105.25
479.876	79.25
480.095	83.25
480.313	91.25
480.532	86.25
480.751	85.25
480.969	111.25
481.188	200.25
481.406	142.25
481.624	97.25
481.843	89.25
482.061	107.25
482.28	98.25
482.498	95.25
482.717	75.25
482.935	80.25
483.153	100.25
483.372	85.25
483.59	87.25
483.808	103.25
484.027	85.25
484.245	91.25
484.463	100.25
484.681	113.25
484.9	95.25
485.118	90.25
485.336	103.25
485.554	101.25
485.772	107.25
485.99	110.25
486.209	107.25
486.427	90.25
486.645	116.25
486.863	108.25
487.081	104.25
487.299	98.25
487.517	101.25
487.735	90.25
487.953	99.25
488.171	97.25
488.389	109.25
488.607	91.25
488.825	93.25
489.043	101.25
489.261	103.25
489.479	88.25
489.696	93.25
489.914	112.25
490.132	97.25
490.35	101.25
490.568	96.25
490.786	91.25
491.003	83.25
491.221	83.25
491.439	91.25
491.657	101.25
491.874	108.25
492.092	102.25
492.31	91.25
492.527	85.25
492.745	96.25
492.963	98.25
493.18	91.25
493.398	108.25
493.615	116.25
493.833	97.25
494.05	90.25
494.268	84.25
494.485	91.25
494.703	101.25
494.92	90.25
495.138	96.25
495.355	99.25
495.573	93.25
495.79	101.25
496.008	86.25
496.225	79.25
496.442	92.25
496.66	89.25
496.877	103.25
497.094	101.25
497.312	94.25
497.529	83.25
497.746	85.25
497.963	89.25
498.181	90.25
498.398	97.25
498.615	95.25
498.832	100.25
499.049	90.25
499.267	94.25
499.484	117.25
499.701	105.25
499.918	112.25
500.135	93.25
500.352	99.25
500.569	90.25
500.786	89.25
501.003	86.25
501.22	100.25
501.437	99.25
501.654	96.25
501.871	114.25
502.088	105.25
502.305	89.25
502.522	95.25
502.739	83.25
502.956	87.25
503.172	111.25
503.389	85.25
503.606	94.25
503.823	98.25
504.04	94.25
504.256	91.25
504.473	99.25
504.69	82.25
504.907	111.25
505.123	97.25
505.34	97.25
505.557	104.25
505.773	90.25
505.99	79.25
506.207	97.25
506.423	94.25
506.64	100.25
506.856	98.25
507.073	81.25
507.289	104.25
507.506	96.25
507.722	116.25
507.939	106.25
508.155	110.25
508.372	104.25
508.588	99.25
508.805	99.25
509.021	110.25
509.238	96.25
509.454	96.25
509.67	92.25
509.887	102.25
510.103	134.25
510.319	215.25
510.536	679.25
510.752	1969.25
510.968	545.25
511.184	146.25
511.401	104.25
511.617	99.25
511.833	107.25
512.049	89.25
512.265	100.25
512.481	102.25
512.698	94.25
512.914	93.25
513.13	81.25
513.346	97.25
513.562	96.25
513.778	107.25
513.994	102.25
514.21	97.25
514.426	120.25
