Data from Uncirc_1982_H10_HRD10591_00007.txt Node
Date: Wed Jan 03 12:29:26 EST 2024
User: Yrep
Spectrometer: HR+D1059
Trigger mode: 1
Integration Time (sec): 1.000000E-1
Scans to average: 1
Electric dark correction enabled: true
Nonlinearity correction enabled: false
Boxcar width: 0
XAxis mode: Wavelengths
Number of Pixels in Spectrum: 2048
>>>>>Begin Spectral Data<<<<<
223.165	-27.81
223.4	-27.81
223.635	-27.81
223.869	-15.81
224.104	-13.81
224.338	-14.81
224.573	-20.81
224.808	-5.81
225.042	-14.81
225.277	-2.81
225.511	-0.81
225.746	-0.81
225.98	8.19
226.215	7.19
226.449	22.19
226.683	29.19
226.918	26.19
227.152	25.19
227.387	33.19
227.621	34.19
227.856	42.19
228.09	42.19
228.324	58.19
228.559	42.19
228.793	48.19
229.027	52.19
229.262	57.19
229.496	70.19
229.73	79.19
229.964	64.19
230.199	69.19
230.433	61.19
230.667	75.19
230.901	81.19
231.136	75.19
231.37	75.19
231.604	78.19
231.838	68.19
232.072	74.19
232.306	69.19
232.541	79.19
232.775	83.19
233.009	86.19
233.243	80.19
233.477	79.19
233.711	85.19
233.945	82.19
234.179	71.19
234.413	99.19
234.647	73.19
234.881	83.19
235.115	86.19
235.349	79.19
235.583	73.19
235.817	77.19
236.051	80.19
236.285	77.19
236.519	75.19
236.753	77.19
236.987	71.19
237.221	80.19
237.455	70.19
237.689	81.19
237.922	68.19
238.156	89.19
238.39	69.19
238.624	68.19
238.858	81.19
239.091	75.19
239.325	65.19
239.559	62.19
239.793	59.19
240.027	73.19
240.26	89.19
240.494	86.19
240.728	59.19
240.961	81.19
241.195	81.19
241.429	81.19
241.662	70.19
241.896	68.19
242.13	77.19
242.363	68.19
242.597	71.19
242.83	83.19
243.064	66.19
243.298	83.19
243.531	72.19
243.765	85.19
243.998	71.19
244.232	75.19
244.465	84.19
244.699	75.19
244.932	71.19
245.166	68.19
245.399	76.19
245.633	78.19
245.866	94.19
246.099	70.19
246.333	85.19
246.566	81.19
246.8	86.19
247.033	82.19
247.266	71.19
247.5	70.19
247.733	73.19
247.966	77.19
248.2	83.19
248.433	65.19
248.666	70.19
248.899	71.19
249.133	79.19
249.366	97.19
249.599	86.19
249.832	79.19
250.066	70.19
250.299	65.19
250.532	79.19
250.765	89.19
250.998	72.19
251.231	77.19
251.465	81.19
251.698	72.19
251.931	73.19
252.164	74.19
252.397	70.19
252.63	82.19
252.863	66.19
253.096	77.19
253.329	73.19
253.562	84.19
253.795	75.19
254.028	63.19
254.261	79.19
254.494	77.19
254.727	78.19
254.96	82.19
255.193	68.19
255.426	103.19
255.659	83.19
255.892	89.19
256.124	58.19
256.357	81.19
256.59	59.19
256.823	69.19
257.056	75.19
257.289	69.19
257.521	71.19
257.754	71.19
257.987	79.19
258.22	96.19
258.452	76.19
258.685	68.19
258.918	77.19
259.151	71.19
259.383	79.19
259.616	86.19
259.849	85.19
260.081	83.19
260.314	75.19
260.547	58.19
260.779	72.19
261.012	70.19
261.244	86.19
261.477	83.19
261.71	105.19
261.942	81.19
262.175	110.19
262.407	73.19
262.64	88.19
262.872	79.19
263.105	87.19
263.337	74.19
263.57	85.19
263.802	78.19
264.035	92.19
264.267	93.19
264.499	80.19
264.732	84.19
264.964	86.19
265.197	89.19
265.429	85.19
265.661	75.19
265.894	80.19
266.126	86.19
266.358	81.19
266.591	78.19
266.823	72.19
267.055	90.19
267.287	90.19
267.52	75.19
267.752	77.19
267.984	77.19
268.216	76.19
268.448	86.19
268.681	87.19
268.913	81.19
269.145	83.19
269.377	80.19
269.609	79.19
269.841	93.19
270.073	91.19
270.306	68.19
270.538	82.19
270.77	71.19
271.002	84.19
271.234	86.19
271.466	86.19
271.698	80.19
271.93	77.19
272.162	90.19
272.394	85.19
272.626	77.19
272.858	80.19
273.09	85.19
273.322	78.19
273.553	79.19
273.785	77.19
274.017	89.19
274.249	79.19
274.481	75.19
274.713	68.19
274.945	80.19
275.176	78.19
275.408	83.19
275.64	94.19
275.872	87.19
276.104	94.19
276.335	77.19
276.567	74.19
276.799	88.19
277.031	80.19
277.262	83.19
277.494	90.19
277.726	93.19
277.957	69.19
278.189	96.19
278.421	85.19
278.652	85.19
278.884	84.19
279.115	77.19
279.347	87.19
279.579	93.19
279.81	97.19
280.042	87.19
280.273	90.19
280.505	93.19
280.736	81.19
280.968	85.19
281.199	89.19
281.431	72.19
281.662	87.19
281.894	79.19
282.125	81.19
282.356	93.19
282.588	106.19
282.819	101.19
283.051	86.19
283.282	89.19
283.513	91.19
283.745	88.19
283.976	71.19
284.207	71.19
284.439	65.19
284.67	94.19
284.901	78.19
285.132	97.19
285.364	81.19
285.595	81.19
285.826	80.19
286.057	79.19
286.288	95.19
286.52	80.19
286.751	71.19
286.982	77.19
287.213	77.19
287.444	78.19
287.675	89.19
287.906	84.19
288.138	88.19
288.369	88.19
288.6	75.19
288.831	81.19
289.062	91.19
289.293	88.19
289.524	82.19
289.755	87.19
289.986	85.19
290.217	82.19
290.448	77.19
290.679	91.19
290.91	82.19
291.141	86.19
291.371	89.19
291.602	92.19
291.833	74.19
292.064	103.19
292.295	82.19
292.526	82.19
292.757	88.19
292.987	85.19
293.218	86.19
293.449	73.19
293.68	76.19
293.91	82.19
294.141	96.19
294.372	79.19
294.603	104.19
294.833	81.19
295.064	77.19
295.295	85.19
295.525	77.19
295.756	83.19
295.987	95.19
296.217	112.19
296.448	104.19
296.679	91.19
296.909	93.19
297.14	74.19
297.37	88.19
297.601	100.19
297.831	86.19
298.062	69.19
298.292	83.19
298.523	93.19
298.753	83.19
298.984	77.19
299.214	84.19
299.445	84.19
299.675	83.19
299.905	81.19
300.136	71.19
300.366	77.19
300.597	89.19
300.827	89.19
301.057	84.19
301.288	93.19
301.518	91.19
301.748	81.19
301.979	118.19
302.209	86.19
302.439	68.19
302.669	79.19
302.9	81.19
303.13	96.19
303.36	70.19
303.59	86.19
303.82	89.19
304.051	94.19
304.281	91.19
304.511	84.19
304.741	69.19
304.971	80.19
305.201	92.19
305.431	92.19
305.661	77.19
305.891	81.19
306.121	87.19
306.352	88.19
306.582	93.19
306.812	87.19
307.042	87.19
307.272	81.19
307.502	89.19
307.731	89.19
307.961	87.19
308.191	97.19
308.421	85.19
308.651	100.19
308.881	91.19
309.111	64.19
309.341	81.19
309.571	82.19
309.8	93.19
310.03	95.19
310.26	80.19
310.49	98.19
310.72	79.19
310.949	91.19
311.179	90.19
311.409	77.19
311.639	83.19
311.868	91.19
312.098	93.19
312.328	96.19
312.557	92.19
312.787	86.19
313.017	97.19
313.246	74.19
313.476	85.19
313.706	97.19
313.935	83.19
314.165	101.19
314.394	92.19
314.624	81.19
314.853	84.19
315.083	97.19
315.312	98.19
315.542	91.19
315.771	94.19
316.001	81.19
316.23	75.19
316.46	93.19
316.689	91.19
316.919	69.19
317.148	81.19
317.377	93.19
317.607	83.19
317.836	94.19
318.065	89.19
318.295	95.19
318.524	94.19
318.753	90.19
318.983	87.19
319.212	97.19
319.441	100.19
319.67	98.19
319.9	85.19
320.129	87.19
320.358	85.19
320.587	95.19
320.816	91.19
321.046	95.19
321.275	78.19
321.504	88.19
321.733	93.19
321.962	83.19
322.191	96.19
322.42	93.19
322.649	94.19
322.878	101.19
323.108	102.19
323.337	107.19
323.566	119.19
323.795	126.19
324.024	171.19
324.253	298.19
324.482	595.19
324.71	1225.19
324.939	1551.19
325.168	602.19
325.397	194.19
325.626	121.19
325.855	111.19
326.084	108.19
326.313	127.19
326.542	118.19
326.77	196.19
326.999	351.19
327.228	728.19
327.457	1286.19
327.686	1019.19
327.914	282.19
328.143	155.19
328.372	118.19
328.6	115.19
328.829	110.19
329.058	114.19
329.287	103.19
329.515	94.19
329.744	86.19
329.972	84.19
330.201	91.19
330.43	112.19
330.658	111.19
330.887	103.19
331.115	103.19
331.344	94.19
331.572	93.19
331.801	97.19
332.03	93.19
332.258	89.19
332.486	95.19
332.715	97.19
332.943	89.19
333.172	97.19
333.4	99.19
333.629	90.19
333.857	99.19
334.085	96.19
334.314	106.19
334.542	112.19
334.771	110.19
334.999	104.19
335.227	93.19
335.455	82.19
335.684	91.19
335.912	89.19
336.14	110.19
336.369	93.19
336.597	91.19
336.825	88.19
337.053	86.19
337.281	83.19
337.51	89.19
337.738	96.19
337.966	89.19
338.194	80.19
338.422	94.19
338.65	87.19
338.878	78.19
339.106	92.19
339.334	86.19
339.562	89.19
339.79	78.19
340.018	86.19
340.246	101.19
340.474	104.19
340.702	74.19
340.93	80.19
341.158	79.19
341.386	87.19
341.614	89.19
341.842	88.19
342.07	101.19
342.298	81.19
342.526	93.19
342.754	88.19
342.981	86.19
343.209	75.19
343.437	92.19
343.665	85.19
343.893	97.19
344.12	92.19
344.348	86.19
344.576	81.19
344.804	90.19
345.031	87.19
345.259	104.19
345.487	104.19
345.714	77.19
345.942	82.19
346.17	85.19
346.397	89.19
346.625	92.19
346.853	99.19
347.08	87.19
347.308	105.19
347.535	94.19
347.763	90.19
347.99	88.19
348.218	97.19
348.445	108.19
348.673	81.19
348.9	83.19
349.128	88.19
349.355	98.19
349.583	91.19
349.81	103.19
350.037	96.19
350.265	89.19
350.492	98.19
350.72	104.19
350.947	102.19
351.174	111.19
351.402	84.19
351.629	92.19
351.856	93.19
352.083	89.19
352.311	101.19
352.538	92.19
352.765	108.19
352.992	103.19
353.22	122.19
353.447	97.19
353.674	78.19
353.901	96.19
354.128	88.19
354.355	81.19
354.583	101.19
354.81	77.19
355.037	105.19
355.264	105.19
355.491	94.19
355.718	83.19
355.945	87.19
356.172	80.19
356.399	95.19
356.626	101.19
356.853	105.19
357.08	98.19
357.307	87.19
357.534	88.19
357.761	86.19
357.988	106.19
358.215	102.19
358.441	105.19
358.668	80.19
358.895	93.19
359.122	97.19
359.349	85.19
359.576	97.19
359.802	85.19
360.029	92.19
360.256	107.19
360.483	92.19
360.709	74.19
360.936	96.19
361.163	89.19
361.39	72.19
361.616	94.19
361.843	95.19
362.07	86.19
362.296	90.19
362.523	82.19
362.749	84.19
362.976	86.19
363.203	89.19
363.429	89.19
363.656	98.19
363.882	81.19
364.109	75.19
364.335	90.19
364.562	94.19
364.788	97.19
365.015	88.19
365.241	86.19
365.468	100.19
365.694	84.19
365.92	78.19
366.147	97.19
366.373	91.19
366.599	75.19
366.826	91.19
367.052	91.19
367.278	81.19
367.505	81.19
367.731	89.19
367.957	62.19
368.184	85.19
368.41	86.19
368.636	90.19
368.862	105.19
369.089	97.19
369.315	81.19
369.541	83.19
369.767	93.19
369.993	74.19
370.219	87.19
370.445	85.19
370.672	92.19
370.898	83.19
371.124	85.19
371.35	90.19
371.576	92.19
371.802	97.19
372.028	92.19
372.254	95.19
372.48	94.19
372.706	74.19
372.932	96.19
373.158	102.19
373.384	90.19
373.61	84.19
373.835	85.19
374.061	79.19
374.287	85.19
374.513	99.19
374.739	88.19
374.965	95.19
375.191	87.19
375.416	99.19
375.642	103.19
375.868	91.19
376.094	90.19
376.319	85.19
376.545	83.19
376.771	98.19
376.997	90.19
377.222	88.19
377.448	88.19
377.674	89.19
377.899	104.19
378.125	86.19
378.35	78.19
378.576	109.19
378.802	95.19
379.027	87.19
379.253	89.19
379.478	80.19
379.704	97.19
379.929	86.19
380.155	85.19
380.38	83.19
380.606	98.19
380.831	104.19
381.057	107.19
381.282	94.19
381.507	89.19
381.733	111.19
381.958	106.19
382.184	109.19
382.409	115.19
382.634	115.19
382.86	112.19
383.085	105.19
383.31	109.19
383.535	127.19
383.761	98.19
383.986	101.19
384.211	95.19
384.436	89.19
384.662	112.19
384.887	121.19
385.112	125.19
385.337	110.19
385.562	105.19
385.787	125.19
386.013	125.19
386.238	132.19
386.463	118.19
386.688	122.19
386.913	129.19
387.138	112.19
387.363	127.19
387.588	119.19
387.813	115.19
388.038	104.19
388.263	143.19
388.488	129.19
388.713	97.19
388.938	98.19
389.163	94.19
389.387	93.19
389.612	89.19
389.837	97.19
390.062	85.19
390.287	85.19
390.512	84.19
390.736	81.19
390.961	87.19
391.186	92.19
391.411	67.19
391.636	82.19
391.86	85.19
392.085	80.19
392.31	84.19
392.534	86.19
392.759	90.19
392.984	85.19
393.208	84.19
393.433	88.19
393.658	81.19
393.882	91.19
394.107	83.19
394.331	89.19
394.556	74.19
394.78	84.19
395.005	86.19
395.229	79.19
395.454	67.19
395.678	87.19
395.903	85.19
396.127	93.19
396.352	83.19
396.576	88.19
396.801	73.19
397.025	94.19
397.249	82.19
397.474	84.19
397.698	93.19
397.922	86.19
398.147	83.19
398.371	95.19
398.595	87.19
398.82	78.19
399.044	78.19
399.268	101.19
399.492	83.19
399.717	86.19
399.941	92.19
400.165	95.19
400.389	78.19
400.613	83.19
400.837	84.19
401.062	82.19
401.286	86.19
401.51	84.19
401.734	87.19
401.958	99.19
402.182	93.19
402.406	102.19
402.63	102.19
402.854	87.19
403.078	91.19
403.302	90.19
403.526	72.19
403.75	81.19
403.974	97.19
404.198	84.19
404.422	82.19
404.645	91.19
404.869	83.19
405.093	87.19
405.317	88.19
405.541	83.19
405.765	106.19
405.988	82.19
406.212	133.19
406.436	152.19
406.66	115.19
406.883	90.19
407.107	74.19
407.331	80.19
407.555	96.19
407.778	95.19
408.002	92.19
408.226	95.19
408.449	84.19
408.673	86.19
408.896	81.19
409.12	89.19
409.344	87.19
409.567	86.19
409.791	90.19
410.014	89.19
410.238	99.19
410.461	90.19
410.685	120.19
410.908	89.19
411.132	95.19
411.355	88.19
411.578	91.19
411.802	83.19
412.025	87.19
412.249	83.19
412.472	97.19
412.695	105.19
412.919	92.19
413.142	91.19
413.365	101.19
413.589	86.19
413.812	94.19
414.035	93.19
414.258	93.19
414.482	82.19
414.705	98.19
414.928	95.19
415.151	93.19
415.374	83.19
415.597	94.19
415.821	86.19
416.044	81.19
416.267	89.19
416.49	98.19
416.713	101.19
416.936	100.19
417.159	94.19
417.382	79.19
417.605	84.19
417.828	84.19
418.051	96.19
418.274	106.19
418.497	102.19
418.72	93.19
418.943	91.19
419.166	87.19
419.389	81.19
419.611	83.19
419.834	94.19
420.057	93.19
420.28	86.19
420.503	93.19
420.726	93.19
420.948	97.19
421.171	91.19
421.394	90.19
421.617	78.19
421.839	82.19
422.062	93.19
422.285	89.19
422.507	85.19
422.73	95.19
422.953	98.19
423.175	79.19
423.398	95.19
423.621	95.19
423.843	91.19
424.066	84.19
424.288	78.19
424.511	93.19
424.733	87.19
424.956	88.19
425.178	90.19
425.401	89.19
425.623	89.19
425.846	88.19
426.068	85.19
426.291	94.19
426.513	85.19
426.735	75.19
426.958	82.19
427.18	96.19
427.402	107.19
427.625	124.19
427.847	119.19
428.069	96.19
428.292	87.19
428.514	93.19
428.736	81.19
428.958	77.19
429.181	57.19
429.403	89.19
429.625	89.19
429.847	96.19
430.069	75.19
430.292	99.19
430.514	75.19
430.736	91.19
430.958	74.19
431.18	87.19
431.402	94.19
431.624	81.19
431.846	85.19
432.068	75.19
432.29	82.19
432.512	81.19
432.734	79.19
432.956	86.19
433.178	74.19
433.4	93.19
433.622	74.19
433.844	92.19
434.066	97.19
434.287	81.19
434.509	102.19
434.731	89.19
434.953	87.19
435.175	81.19
435.397	89.19
435.618	96.19
435.84	96.19
436.062	114.19
436.284	120.19
436.505	91.19
436.727	90.19
436.949	90.19
437.17	69.19
437.392	86.19
437.614	77.19
437.835	87.19
438.057	99.19
438.278	94.19
438.5	86.19
438.721	107.19
438.943	97.19
439.165	85.19
439.386	94.19
439.608	87.19
439.829	90.19
440.05	103.19
440.272	108.19
440.493	94.19
440.715	82.19
440.936	87.19
441.158	87.19
441.379	93.19
441.6	96.19
441.822	89.19
442.043	82.19
442.264	76.19
442.486	89.19
442.707	77.19
442.928	101.19
443.149	105.19
443.371	104.19
443.592	98.19
443.813	96.19
444.034	88.19
444.255	95.19
444.476	87.19
444.698	81.19
444.919	96.19
445.14	117.19
445.361	115.19
445.582	113.19
445.803	105.19
446.024	118.19
446.245	134.19
446.466	90.19
446.687	91.19
446.908	85.19
447.129	79.19
447.35	88.19
447.571	90.19
447.792	99.19
448.013	104.19
448.234	84.19
448.455	88.19
448.675	93.19
448.896	103.19
449.117	91.19
449.338	88.19
449.559	113.19
449.779	110.19
450	91.19
450.221	87.19
450.442	88.19
450.662	81.19
450.883	86.19
451.104	97.19
451.324	83.19
451.545	80.19
451.766	89.19
451.986	81.19
452.207	91.19
452.428	79.19
452.648	87.19
452.869	105.19
453.089	99.19
453.31	88.19
453.53	93.19
453.751	86.19
453.971	87.19
454.192	99.19
454.412	82.19
454.633	87.19
454.853	82.19
455.073	81.19
455.294	66.19
455.514	88.19
455.734	88.19
455.955	92.19
456.175	93.19
456.395	93.19
456.616	90.19
456.836	84.19
457.056	82.19
457.276	86.19
457.497	86.19
457.717	75.19
457.937	85.19
458.157	73.19
458.377	81.19
458.598	69.19
458.818	112.19
459.038	126.19
459.258	99.19
459.478	98.19
459.698	88.19
459.918	75.19
460.138	91.19
460.358	88.19
460.578	88.19
460.798	83.19
461.018	67.19
461.238	67.19
461.458	89.19
461.678	77.19
461.898	91.19
462.118	89.19
462.338	86.19
462.558	83.19
462.777	91.19
462.997	88.19
463.217	91.19
463.437	82.19
463.657	83.19
463.876	79.19
464.096	78.19
464.316	84.19
464.536	79.19
464.755	82.19
464.975	95.19
465.195	122.19
465.414	115.19
465.634	83.19
465.854	92.19
466.073	84.19
466.293	85.19
466.512	90.19
466.732	88.19
466.951	87.19
467.171	81.19
467.391	89.19
467.61	95.19
467.829	88.19
468.049	85.19
468.268	82.19
468.488	79.19
468.707	85.19
468.927	68.19
469.146	81.19
469.365	67.19
469.585	81.19
469.804	91.19
470.023	91.19
470.243	81.19
470.462	92.19
470.681	107.19
470.901	85.19
471.12	72.19
471.339	81.19
471.558	81.19
471.777	73.19
471.997	79.19
472.216	121.19
472.435	107.19
472.654	89.19
472.873	89.19
473.092	82.19
473.311	83.19
473.53	101.19
473.749	85.19
473.968	73.19
474.187	97.19
474.406	81.19
474.625	82.19
474.844	90.19
475.063	92.19
475.282	95.19
475.501	62.19
475.72	79.19
475.939	79.19
476.158	97.19
476.377	85.19
476.596	98.19
476.814	93.19
477.033	91.19
477.252	92.19
477.471	81.19
477.69	98.19
477.908	88.19
478.127	89.19
478.346	71.19
478.564	101.19
478.783	87.19
479.002	81.19
479.22	95.19
479.439	81.19
479.658	97.19
479.876	89.19
480.095	85.19
480.313	74.19
480.532	90.19
480.751	96.19
480.969	97.19
481.188	148.19
481.406	121.19
481.624	93.19
481.843	74.19
482.061	73.19
482.28	99.19
482.498	83.19
482.717	90.19
482.935	96.19
483.153	91.19
483.372	80.19
483.59	93.19
483.808	81.19
484.027	84.19
484.245	95.19
484.463	84.19
484.681	102.19
484.9	97.19
485.118	91.19
485.336	89.19
485.554	90.19
485.772	97.19
485.99	108.19
486.209	98.19
486.427	107.19
486.645	112.19
486.863	111.19
487.081	101.19
487.299	99.19
487.517	95.19
487.735	82.19
487.953	84.19
488.171	97.19
488.389	99.19
488.607	99.19
488.825	94.19
489.043	98.19
489.261	98.19
489.479	87.19
489.696	94.19
489.914	66.19
490.132	87.19
490.35	89.19
490.568	82.19
490.786	110.19
491.003	87.19
491.221	82.19
491.439	82.19
491.657	90.19
491.874	82.19
492.092	100.19
492.31	89.19
492.527	74.19
492.745	93.19
492.963	87.19
493.18	79.19
493.398	86.19
493.615	102.19
493.833	81.19
494.05	77.19
494.268	75.19
494.485	95.19
494.703	74.19
494.92	84.19
495.138	87.19
495.355	91.19
495.573	97.19
495.79	96.19
496.008	81.19
496.225	103.19
496.442	80.19
496.66	82.19
496.877	95.19
497.094	79.19
497.312	94.19
497.529	105.19
497.746	86.19
497.963	73.19
498.181	85.19
498.398	85.19
498.615	82.19
498.832	99.19
499.049	87.19
499.267	91.19
499.484	85.19
499.701	84.19
499.918	88.19
500.135	87.19
500.352	89.19
500.569	81.19
500.786	90.19
501.003	87.19
501.22	90.19
501.437	83.19
501.654	82.19
501.871	94.19
502.088	83.19
502.305	88.19
502.522	81.19
502.739	91.19
502.956	80.19
503.172	85.19
503.389	69.19
503.606	90.19
503.823	77.19
504.04	88.19
504.256	96.19
504.473	89.19
504.69	83.19
504.907	81.19
505.123	91.19
505.34	79.19
505.557	71.19
505.773	96.19
505.99	87.19
506.207	86.19
506.423	94.19
506.64	82.19
506.856	83.19
507.073	83.19
507.289	78.19
507.506	83.19
507.722	98.19
507.939	86.19
508.155	91.19
508.372	88.19
508.588	79.19
508.805	95.19
509.021	88.19
509.238	103.19
509.454	85.19
509.67	95.19
509.887	93.19
510.103	117.19
510.319	151.19
510.536	465.19
510.752	1325.19
510.968	371.19
511.184	113.19
511.401	95.19
511.617	96.19
511.833	90.19
512.049	87.19
512.265	78.19
512.481	70.19
512.698	79.19
512.914	93.19
513.13	85.19
513.346	79.19
513.562	92.19
513.778	84.19
513.994	83.19
514.21	93.19
514.426	105.19
514.642	102.19
514.858	103.19
515.074	116.19
515.29	264.19
515.506	801.19
515.721	306.19
515.937	111.19
516.153	82.19
516.369	89.19
516.585	77.19
516.801	93.19
517.016	95.19
517.232	89.19
517.448	81.19
