Data from Uncirc_1982_H10_HRD10591_00067.txt Node
Date: Wed Jan 03 12:29:38 EST 2024
User: Yrep
Spectrometer: HR+D1059
Trigger mode: 1
Integration Time (sec): 1.000000E-1
Scans to average: 1
Electric dark correction enabled: true
Nonlinearity correction enabled: false
Boxcar width: 0
XAxis mode: Wavelengths
Number of Pixels in Spectrum: 2048
>>>>>Begin Spectral Data<<<<<
223.165	-10.38
223.4	-10.38
223.635	-10.38
223.869	-23.38
224.104	-18.38
224.338	2.62
224.573	-12.38
224.808	-5.38
225.042	0.62
225.277	-14.38
225.511	-20.38
225.746	-5.38
225.98	4.62
226.215	12.62
226.449	10.62
226.683	15.62
226.918	28.62
227.152	34.62
227.387	29.62
227.621	40.62
227.856	44.62
228.09	44.62
228.324	54.62
228.559	42.62
228.793	65.62
229.027	61.62
229.262	72.62
229.496	71.62
229.73	70.62
229.964	72.62
230.199	69.62
230.433	76.62
230.667	70.62
230.901	75.62
231.136	89.62
231.37	74.62
231.604	85.62
231.838	95.62
232.072	80.62
232.306	84.62
232.541	80.62
232.775	88.62
233.009	77.62
233.243	59.62
233.477	70.62
233.711	77.62
233.945	87.62
234.179	87.62
234.413	84.62
234.647	71.62
234.881	83.62
235.115	70.62
235.349	83.62
235.583	93.62
235.817	77.62
236.051	72.62
236.285	75.62
236.519	71.62
236.753	80.62
236.987	72.62
237.221	76.62
237.455	81.62
237.689	85.62
237.922	77.62
238.156	70.62
238.39	81.62
238.624	82.62
238.858	81.62
239.091	71.62
239.325	75.62
239.559	73.62
239.793	85.62
240.027	85.62
240.26	70.62
240.494	73.62
240.728	75.62
240.961	57.62
241.195	81.62
241.429	76.62
241.662	83.62
241.896	61.62
242.13	63.62
242.363	81.62
242.597	79.62
242.83	77.62
243.064	61.62
243.298	63.62
243.531	80.62
243.765	64.62
243.998	61.62
244.232	88.62
244.465	48.62
244.699	83.62
244.932	76.62
245.166	67.62
245.399	66.62
245.633	80.62
245.866	71.62
246.099	67.62
246.333	88.62
246.566	93.62
246.8	83.62
247.033	79.62
247.266	79.62
247.5	87.62
247.733	87.62
247.966	64.62
248.2	72.62
248.433	72.62
248.666	87.62
248.899	81.62
249.133	95.62
249.366	86.62
249.599	89.62
249.832	79.62
250.066	88.62
250.299	75.62
250.532	74.62
250.765	75.62
250.998	74.62
251.231	80.62
251.465	86.62
251.698	76.62
251.931	76.62
252.164	72.62
252.397	66.62
252.63	76.62
252.863	76.62
253.096	76.62
253.329	84.62
253.562	76.62
253.795	68.62
254.028	79.62
254.261	89.62
254.494	77.62
254.727	74.62
254.96	80.62
255.193	87.62
255.426	88.62
255.659	69.62
255.892	85.62
256.124	88.62
256.357	89.62
256.59	67.62
256.823	78.62
257.056	81.62
257.289	85.62
257.521	88.62
257.754	69.62
257.987	73.62
258.22	83.62
258.452	74.62
258.685	69.62
258.918	58.62
259.151	82.62
259.383	95.62
259.616	82.62
259.849	87.62
260.081	85.62
260.314	75.62
260.547	81.62
260.779	72.62
261.012	71.62
261.244	90.62
261.477	89.62
261.71	80.62
261.942	97.62
262.175	98.62
262.407	69.62
262.64	75.62
262.872	72.62
263.105	83.62
263.337	83.62
263.57	56.62
263.802	59.62
264.035	83.62
264.267	81.62
264.499	90.62
264.732	83.62
264.964	69.62
265.197	85.62
265.429	85.62
265.661	80.62
265.894	88.62
266.126	85.62
266.358	72.62
266.591	76.62
266.823	86.62
267.055	89.62
267.287	84.62
267.52	84.62
267.752	83.62
267.984	62.62
268.216	89.62
268.448	85.62
268.681	83.62
268.913	74.62
269.145	85.62
269.377	87.62
269.609	99.62
269.841	87.62
270.073	82.62
270.306	73.62
270.538	87.62
270.77	87.62
271.002	86.62
271.234	96.62
271.466	96.62
271.698	97.62
271.93	101.62
272.162	96.62
272.394	98.62
272.626	80.62
272.858	83.62
273.09	87.62
273.322	92.62
273.553	65.62
273.785	87.62
274.017	85.62
274.249	100.62
274.481	88.62
274.713	90.62
274.945	73.62
275.176	83.62
275.408	91.62
275.64	92.62
275.872	105.62
276.104	91.62
276.335	84.62
276.567	100.62
276.799	94.62
277.031	79.62
277.262	83.62
277.494	91.62
277.726	93.62
277.957	89.62
278.189	79.62
278.421	81.62
278.652	87.62
278.884	91.62
279.115	81.62
279.347	84.62
279.579	93.62
279.81	77.62
280.042	84.62
280.273	85.62
280.505	95.62
280.736	91.62
280.968	82.62
281.199	90.62
281.431	98.62
281.662	77.62
281.894	83.62
282.125	85.62
282.356	101.62
282.588	129.62
282.819	97.62
283.051	96.62
283.282	78.62
283.513	82.62
283.745	71.62
283.976	86.62
284.207	91.62
284.439	86.62
284.67	80.62
284.901	84.62
285.132	84.62
285.364	68.62
285.595	81.62
285.826	73.62
286.057	87.62
286.288	73.62
286.52	98.62
286.751	92.62
286.982	91.62
287.213	90.62
287.444	77.62
287.675	86.62
287.906	79.62
288.138	92.62
288.369	107.62
288.6	78.62
288.831	79.62
289.062	84.62
289.293	80.62
289.524	75.62
289.755	97.62
289.986	100.62
290.217	90.62
290.448	86.62
290.679	81.62
290.91	79.62
291.141	85.62
291.371	91.62
291.602	78.62
291.833	86.62
292.064	106.62
292.295	91.62
292.526	89.62
292.757	76.62
292.987	87.62
293.218	91.62
293.449	95.62
293.68	88.62
293.91	86.62
294.141	78.62
294.372	80.62
294.603	87.62
294.833	85.62
295.064	98.62
295.295	94.62
295.525	85.62
295.756	96.62
295.987	104.62
296.217	133.62
296.448	108.62
296.679	83.62
296.909	88.62
297.14	87.62
297.37	87.62
297.601	91.62
297.831	92.62
298.062	89.62
298.292	90.62
298.523	83.62
298.753	75.62
298.984	67.62
299.214	86.62
299.445	87.62
299.675	92.62
299.905	95.62
300.136	90.62
300.366	75.62
300.597	83.62
300.827	96.62
301.057	95.62
301.288	92.62
301.518	87.62
301.748	71.62
301.979	98.62
302.209	81.62
302.439	81.62
302.669	87.62
302.9	86.62
303.13	95.62
303.36	80.62
303.59	85.62
303.82	116.62
304.051	83.62
304.281	94.62
304.511	97.62
304.741	105.62
304.971	74.62
305.201	90.62
305.431	87.62
305.661	87.62
305.891	82.62
306.121	97.62
306.352	111.62
306.582	98.62
306.812	94.62
307.042	75.62
307.272	113.62
307.502	97.62
307.731	82.62
307.961	95.62
308.191	93.62
308.421	85.62
308.651	101.62
308.881	98.62
309.111	90.62
309.341	92.62
309.571	99.62
309.8	95.62
310.03	102.62
310.26	81.62
310.49	89.62
310.72	90.62
310.949	104.62
311.179	91.62
311.409	90.62
311.639	82.62
311.868	75.62
312.098	88.62
312.328	87.62
312.557	85.62
312.787	91.62
313.017	93.62
313.246	98.62
313.476	99.62
313.706	97.62
313.935	106.62
314.165	97.62
314.394	93.62
314.624	89.62
314.853	85.62
315.083	104.62
315.312	95.62
315.542	95.62
315.771	99.62
316.001	79.62
316.23	94.62
316.46	91.62
316.689	81.62
316.919	78.62
317.148	88.62
317.377	107.62
317.607	91.62
317.836	83.62
318.065	79.62
318.295	95.62
318.524	79.62
318.753	91.62
318.983	86.62
319.212	91.62
319.441	102.62
319.67	95.62
319.9	94.62
320.129	93.62
320.358	97.62
320.587	102.62
320.816	89.62
321.046	94.62
321.275	87.62
321.504	96.62
321.733	73.62
321.962	89.62
322.191	116.62
322.42	104.62
322.649	108.62
322.878	105.62
323.108	129.62
323.337	114.62
323.566	128.62
323.795	136.62
324.024	194.62
324.253	352.62
324.482	722.62
324.71	1445.62
324.939	1880.62
325.168	678.62
325.397	231.62
325.626	140.62
325.855	124.62
326.084	116.62
326.313	116.62
326.542	122.62
326.77	186.62
326.999	397.62
327.228	831.62
327.457	1472.62
327.686	1191.62
327.914	332.62
328.143	173.62
328.372	146.62
328.6	112.62
328.829	109.62
329.058	125.62
329.287	110.62
329.515	107.62
329.744	101.62
329.972	96.62
330.201	118.62
330.43	120.62
330.658	104.62
330.887	107.62
331.115	114.62
331.344	106.62
331.572	101.62
331.801	95.62
332.03	82.62
332.258	87.62
332.486	91.62
332.715	106.62
332.943	96.62
333.172	105.62
333.4	97.62
333.629	108.62
333.857	87.62
334.085	108.62
334.314	107.62
334.542	133.62
334.771	126.62
334.999	99.62
335.227	88.62
335.455	106.62
335.684	85.62
335.912	93.62
336.14	94.62
336.369	92.62
336.597	93.62
336.825	101.62
337.053	92.62
337.281	91.62
337.51	82.62
337.738	88.62
337.966	91.62
338.194	83.62
338.422	98.62
338.65	90.62
338.878	88.62
339.106	93.62
339.334	83.62
339.562	82.62
339.79	107.62
340.018	89.62
340.246	98.62
340.474	88.62
340.702	96.62
340.93	84.62
341.158	95.62
341.386	91.62
341.614	90.62
341.842	116.62
342.07	87.62
342.298	87.62
342.526	84.62
342.754	99.62
342.981	90.62
343.209	91.62
343.437	98.62
343.665	84.62
343.893	91.62
344.12	77.62
344.348	86.62
344.576	86.62
344.804	96.62
345.031	87.62
345.259	79.62
345.487	88.62
345.714	80.62
345.942	86.62
346.17	108.62
346.397	89.62
346.625	91.62
346.853	97.62
347.08	88.62
347.308	101.62
347.535	99.62
347.763	109.62
347.99	85.62
348.218	89.62
348.445	98.62
348.673	102.62
348.9	100.62
349.128	97.62
349.355	81.62
349.583	87.62
349.81	100.62
350.037	87.62
350.265	90.62
350.492	100.62
350.72	95.62
350.947	87.62
351.174	100.62
351.402	112.62
351.629	91.62
351.856	93.62
352.083	94.62
352.311	99.62
352.538	109.62
352.765	111.62
352.992	113.62
353.22	115.62
353.447	99.62
353.674	96.62
353.901	87.62
354.128	100.62
354.355	91.62
354.583	88.62
354.81	89.62
355.037	101.62
355.264	96.62
355.491	95.62
355.718	95.62
355.945	105.62
356.172	98.62
356.399	107.62
356.626	105.62
356.853	92.62
357.08	97.62
357.307	83.62
357.534	93.62
357.761	88.62
357.988	99.62
358.215	95.62
358.441	96.62
358.668	70.62
358.895	91.62
359.122	82.62
359.349	91.62
359.576	82.62
359.802	81.62
360.029	96.62
360.256	91.62
360.483	91.62
360.709	84.62
360.936	93.62
361.163	90.62
361.39	95.62
361.616	97.62
361.843	72.62
362.07	97.62
362.296	102.62
362.523	81.62
362.749	102.62
362.976	85.62
363.203	95.62
363.429	97.62
363.656	85.62
363.882	87.62
364.109	84.62
364.335	80.62
364.562	80.62
364.788	85.62
365.015	87.62
365.241	103.62
365.468	89.62
365.694	108.62
365.92	82.62
366.147	100.62
366.373	83.62
366.599	87.62
366.826	88.62
367.052	84.62
367.278	84.62
367.505	88.62
367.731	79.62
367.957	96.62
368.184	84.62
368.41	98.62
368.636	98.62
368.862	124.62
369.089	104.62
369.315	82.62
369.541	106.62
369.767	98.62
369.993	101.62
370.219	89.62
370.445	90.62
370.672	81.62
370.898	91.62
371.124	87.62
371.35	68.62
371.576	77.62
371.802	86.62
372.028	90.62
372.254	87.62
372.48	80.62
372.706	93.62
372.932	77.62
373.158	76.62
373.384	92.62
373.61	101.62
373.835	81.62
374.061	85.62
374.287	84.62
374.513	91.62
374.739	82.62
374.965	96.62
375.191	82.62
375.416	79.62
375.642	99.62
375.868	99.62
376.094	88.62
376.319	100.62
376.545	91.62
376.771	88.62
376.997	79.62
377.222	87.62
377.448	93.62
377.674	94.62
377.899	88.62
378.125	89.62
378.35	93.62
378.576	73.62
378.802	67.62
379.027	85.62
379.253	94.62
379.478	87.62
379.704	74.62
379.929	78.62
380.155	100.62
380.38	103.62
380.606	92.62
380.831	91.62
381.057	105.62
381.282	92.62
381.507	95.62
381.733	109.62
381.958	96.62
382.184	105.62
382.409	87.62
382.634	97.62
382.86	89.62
383.085	107.62
383.31	84.62
383.535	95.62
383.761	94.62
383.986	106.62
384.211	100.62
384.436	93.62
384.662	105.62
384.887	90.62
385.112	101.62
385.337	106.62
385.562	84.62
385.787	109.62
386.013	101.62
386.238	109.62
386.463	98.62
386.688	111.62
386.913	112.62
387.138	114.62
387.363	104.62
387.588	97.62
387.813	102.62
388.038	106.62
388.263	108.62
388.488	109.62
388.713	104.62
388.938	93.62
389.163	82.62
389.387	99.62
389.612	92.62
389.837	87.62
390.062	91.62
390.287	88.62
390.512	79.62
390.736	96.62
390.961	83.62
391.186	85.62
391.411	77.62
391.636	98.62
391.86	65.62
392.085	79.62
392.31	87.62
392.534	84.62
392.759	96.62
392.984	82.62
393.208	64.62
393.433	82.62
393.658	87.62
393.882	78.62
394.107	83.62
394.331	88.62
394.556	81.62
394.78	73.62
395.005	113.62
395.229	79.62
395.454	86.62
395.678	86.62
395.903	87.62
396.127	84.62
396.352	92.62
396.576	92.62
396.801	73.62
397.025	82.62
397.249	77.62
397.474	92.62
397.698	81.62
397.922	99.62
398.147	76.62
398.371	72.62
398.595	79.62
398.82	81.62
399.044	82.62
399.268	69.62
399.492	79.62
399.717	77.62
399.941	99.62
400.165	96.62
400.389	88.62
400.613	87.62
400.837	85.62
401.062	94.62
401.286	98.62
401.51	75.62
401.734	92.62
401.958	88.62
402.182	114.62
402.406	127.62
402.63	97.62
402.854	109.62
403.078	96.62
403.302	80.62
403.526	91.62
403.75	98.62
403.974	83.62
404.198	103.62
404.422	92.62
404.645	85.62
404.869	90.62
405.093	88.62
405.317	116.62
405.541	97.62
405.765	91.62
405.988	102.62
406.212	153.62
406.436	191.62
406.66	118.62
406.883	98.62
407.107	99.62
407.331	88.62
407.555	99.62
407.778	84.62
408.002	94.62
408.226	96.62
408.449	89.62
408.673	87.62
408.896	92.62
409.12	91.62
409.344	96.62
409.567	93.62
409.791	88.62
410.014	103.62
410.238	98.62
410.461	92.62
410.685	93.62
410.908	99.62
411.132	118.62
411.355	87.62
411.578	85.62
411.802	100.62
412.025	82.62
412.249	83.62
412.472	99.62
412.695	99.62
412.919	81.62
413.142	89.62
413.365	77.62
413.589	96.62
413.812	84.62
414.035	83.62
414.258	84.62
414.482	89.62
414.705	94.62
414.928	80.62
415.151	92.62
415.374	87.62
415.597	74.62
415.821	79.62
416.044	84.62
416.267	103.62
416.49	81.62
416.713	83.62
416.936	74.62
417.159	76.62
417.382	100.62
417.605	89.62
417.828	106.62
418.051	100.62
418.274	92.62
418.497	73.62
418.72	100.62
418.943	83.62
419.166	80.62
419.389	92.62
419.611	88.62
419.834	85.62
420.057	89.62
420.28	84.62
420.503	74.62
420.726	98.62
420.948	81.62
421.171	83.62
421.394	92.62
421.617	83.62
421.839	90.62
422.062	95.62
422.285	87.62
422.507	98.62
422.73	85.62
422.953	97.62
423.175	76.62
423.398	85.62
423.621	80.62
423.843	84.62
424.066	90.62
424.288	81.62
424.511	83.62
424.733	103.62
424.956	98.62
425.178	101.62
425.401	95.62
425.623	90.62
425.846	89.62
426.068	97.62
426.291	87.62
426.513	85.62
426.735	91.62
426.958	89.62
427.18	99.62
427.402	127.62
427.625	124.62
427.847	120.62
428.069	104.62
428.292	89.62
428.514	98.62
428.736	99.62
428.958	81.62
429.181	104.62
429.403	96.62
429.625	78.62
429.847	85.62
430.069	101.62
430.292	92.62
430.514	75.62
430.736	87.62
430.958	92.62
431.18	74.62
431.402	86.62
431.624	91.62
431.846	81.62
432.068	94.62
432.29	96.62
432.512	97.62
432.734	91.62
432.956	98.62
433.178	98.62
433.4	108.62
433.622	88.62
433.844	79.62
434.066	79.62
434.287	84.62
434.509	82.62
434.731	83.62
434.953	77.62
435.175	90.62
435.397	87.62
435.618	93.62
435.84	90.62
436.062	107.62
436.284	117.62
436.505	101.62
436.727	92.62
436.949	84.62
437.17	80.62
437.392	80.62
437.614	83.62
437.835	94.62
438.057	108.62
438.278	101.62
438.5	98.62
438.721	109.62
438.943	95.62
439.165	95.62
439.386	89.62
439.608	86.62
439.829	95.62
440.05	97.62
440.272	133.62
440.493	99.62
440.715	96.62
440.936	91.62
441.158	80.62
441.379	76.62
441.6	94.62
441.822	98.62
442.043	95.62
442.264	113.62
442.486	99.62
442.707	71.62
442.928	84.62
443.149	99.62
443.371	120.62
443.592	104.62
443.813	96.62
444.034	105.62
444.255	76.62
444.476	98.62
444.698	74.62
444.919	86.62
445.14	138.62
445.361	121.62
445.582	115.62
445.803	103.62
446.024	109.62
446.245	105.62
446.466	91.62
446.687	86.62
446.908	89.62
447.129	74.62
447.35	86.62
447.571	97.62
447.792	75.62
448.013	93.62
448.234	95.62
448.455	93.62
448.675	96.62
448.896	115.62
449.117	84.62
449.338	93.62
449.559	113.62
449.779	119.62
450	86.62
450.221	89.62
450.442	80.62
450.662	89.62
450.883	107.62
451.104	119.62
451.324	95.62
451.545	85.62
451.766	88.62
451.986	86.62
452.207	81.62
452.428	83.62
452.648	80.62
452.869	109.62
453.089	98.62
453.31	110.62
453.53	94.62
453.751	88.62
453.971	88.62
454.192	96.62
454.412	89.62
454.633	98.62
454.853	88.62
455.073	90.62
455.294	73.62
455.514	97.62
455.734	87.62
455.955	86.62
456.175	91.62
456.395	76.62
456.616	84.62
456.836	77.62
457.056	84.62
457.276	90.62
457.497	84.62
457.717	87.62
457.937	80.62
458.157	92.62
458.377	95.62
458.598	87.62
458.818	118.62
459.038	134.62
459.258	102.62
459.478	99.62
459.698	84.62
459.918	92.62
460.138	88.62
460.358	84.62
460.578	89.62
460.798	89.62
461.018	86.62
461.238	91.62
461.458	75.62
461.678	75.62
461.898	100.62
462.118	90.62
462.338	100.62
462.558	79.62
462.777	84.62
462.997	88.62
463.217	92.62
463.437	89.62
463.657	71.62
463.876	91.62
464.096	76.62
464.316	92.62
464.536	79.62
464.755	107.62
464.975	103.62
465.195	149.62
465.414	135.62
465.634	87.62
465.854	98.62
466.073	94.62
466.293	90.62
466.512	85.62
466.732	84.62
466.951	83.62
467.171	104.62
467.391	76.62
467.61	92.62
467.829	87.62
468.049	107.62
468.268	98.62
468.488	93.62
468.707	95.62
468.927	81.62
469.146	87.62
469.365	99.62
469.585	95.62
469.804	78.62
470.023	81.62
470.243	93.62
470.462	100.62
470.681	105.62
470.901	89.62
471.12	88.62
471.339	103.62
471.558	82.62
471.777	96.62
471.997	90.62
472.216	110.62
472.435	122.62
472.654	91.62
472.873	83.62
473.092	82.62
473.311	63.62
473.53	73.62
473.749	75.62
473.968	100.62
474.187	97.62
474.406	82.62
474.625	77.62
474.844	98.62
475.063	85.62
475.282	90.62
475.501	83.62
475.72	86.62
475.939	69.62
476.158	85.62
476.377	87.62
476.596	79.62
476.814	92.62
477.033	91.62
477.252	81.62
477.471	91.62
477.69	83.62
477.908	92.62
478.127	98.62
478.346	99.62
478.564	90.62
478.783	83.62
479.002	100.62
479.22	97.62
479.439	97.62
479.658	96.62
479.876	72.62
480.095	83.62
480.313	97.62
480.532	101.62
480.751	92.62
480.969	115.62
481.188	176.62
481.406	127.62
481.624	92.62
481.843	76.62
482.061	89.62
482.28	87.62
482.498	92.62
482.717	81.62
482.935	90.62
483.153	88.62
483.372	85.62
483.59	83.62
483.808	83.62
484.027	88.62
484.245	97.62
484.463	101.62
484.681	100.62
484.9	100.62
485.118	91.62
485.336	83.62
485.554	99.62
485.772	97.62
485.99	100.62
486.209	89.62
486.427	96.62
486.645	114.62
486.863	112.62
487.081	98.62
487.299	83.62
487.517	94.62
487.735	85.62
487.953	99.62
488.171	107.62
488.389	101.62
488.607	96.62
488.825	96.62
489.043	87.62
489.261	79.62
489.479	91.62
489.696	79.62
489.914	86.62
490.132	86.62
490.35	84.62
490.568	70.62
490.786	86.62
491.003	95.62
491.221	88.62
491.439	71.62
491.657	99.62
491.874	87.62
492.092	74.62
492.31	100.62
492.527	88.62
492.745	89.62
492.963	92.62
493.18	87.62
493.398	89.62
493.615	96.62
493.833	87.62
494.05	97.62
494.268	97.62
494.485	104.62
494.703	103.62
494.92	97.62
495.138	76.62
495.355	79.62
495.573	83.62
495.79	84.62
496.008	103.62
496.225	89.62
496.442	83.62
496.66	91.62
496.877	90.62
497.094	103.62
497.312	84.62
497.529	79.62
497.746	80.62
497.963	91.62
498.181	90.62
498.398	99.62
498.615	108.62
498.832	107.62
499.049	87.62
499.267	82.62
499.484	95.62
499.701	79.62
499.918	88.62
500.135	92.62
500.352	76.62
500.569	91.62
500.786	92.62
501.003	75.62
501.22	104.62
501.437	84.62
501.654	89.62
501.871	89.62
502.088	83.62
502.305	95.62
502.522	92.62
502.739	86.62
502.956	91.62
503.172	92.62
503.389	101.62
503.606	96.62
503.823	100.62
504.04	95.62
504.256	100.62
504.473	95.62
504.69	87.62
504.907	82.62
505.123	87.62
505.34	76.62
505.557	88.62
505.773	93.62
505.99	81.62
506.207	99.62
506.423	98.62
506.64	96.62
506.856	92.62
507.073	101.62
507.289	87.62
507.506	87.62
507.722	117.62
507.939	104.62
508.155	95.62
508.372	81.62
508.588	95.62
508.805	96.62
509.021	92.62
509.238	89.62
509.454	100.62
509.67	95.62
509.887	103.62
510.103	112.62
510.319	204.62
510.536	671.62
510.752	1915.62
510.968	537.62
511.184	146.62
511.401	101.62
511.617	102.62
511.833	92.62
512.049	97.62
512.265	89.62
512.481	86.62
512.698	89.62
512.914	84.62
513.13	91.62
513.346	81.62
513.562	95.62
513.778	107.62
513.994	96.62
514.21	71.62
514.426	108.62
514.642	107.62
514.858	120.62
515.074	153.62
515.29	365.62
515.506	1065.62
515.721	411.62
515.937	135.62
516.153	113.62
516.369	108.62
516.585	103.62
