Data from Uncirc_1982_H10_HRD10591_00017.txt Node
Date: Wed Jan 03 12:29:28 EST 2024
User: Yrep
Spectrometer: HR+D1059
Trigger mode: 1
Integration Time (sec): 1.000000E-1
Scans to average: 1
Electric dark correction enabled: true
Nonlinearity correction enabled: false
Boxcar width: 0
XAxis mode: Wavelengths
Number of Pixels in Spectrum: 2048
>>>>>Begin Spectral Data<<<<<
223.165	-16.38
223.4	-16.38
223.635	-16.38
223.869	-23.38
224.104	-26.38
224.338	-17.38
224.573	-25.38
224.808	-15.38
225.042	-8.38
225.277	3.62
225.511	-1.38
225.746	1.62
225.98	8.62
226.215	5.62
226.449	25.62
226.683	21.62
226.918	27.62
227.152	39.62
227.387	43.62
227.621	45.62
227.856	43.62
228.09	46.62
228.324	46.62
228.559	63.62
228.793	51.62
229.027	62.62
229.262	72.62
229.496	70.62
229.73	76.62
229.964	75.62
230.199	71.62
230.433	68.62
230.667	86.62
230.901	91.62
231.136	94.62
231.37	71.62
231.604	80.62
231.838	83.62
232.072	96.62
232.306	89.62
232.541	71.62
232.775	87.62
233.009	86.62
233.243	88.62
233.477	88.62
233.711	94.62
233.945	78.62
234.179	80.62
234.413	78.62
234.647	78.62
234.881	94.62
235.115	73.62
235.349	76.62
235.583	89.62
235.817	90.62
236.051	99.62
236.285	77.62
236.519	81.62
236.753	74.62
236.987	80.62
237.221	84.62
237.455	80.62
237.689	78.62
237.922	80.62
238.156	70.62
238.39	83.62
238.624	86.62
238.858	75.62
239.091	80.62
239.325	80.62
239.559	80.62
239.793	91.62
240.027	86.62
240.26	85.62
240.494	80.62
240.728	86.62
240.961	80.62
241.195	76.62
241.429	86.62
241.662	80.62
241.896	88.62
242.13	80.62
242.363	69.62
242.597	92.62
242.83	72.62
243.064	74.62
243.298	80.62
243.531	79.62
243.765	71.62
243.998	76.62
244.232	93.62
244.465	78.62
244.699	85.62
244.932	79.62
245.166	88.62
245.399	60.62
245.633	79.62
245.866	66.62
246.099	82.62
246.333	74.62
246.566	78.62
246.8	85.62
247.033	96.62
247.266	82.62
247.5	76.62
247.733	91.62
247.966	83.62
248.2	95.62
248.433	80.62
248.666	78.62
248.899	73.62
249.133	88.62
249.366	95.62
249.599	92.62
249.832	103.62
250.066	91.62
250.299	88.62
250.532	85.62
250.765	74.62
250.998	76.62
251.231	79.62
251.465	83.62
251.698	76.62
251.931	79.62
252.164	83.62
252.397	86.62
252.63	96.62
252.863	93.62
253.096	79.62
253.329	81.62
253.562	83.62
253.795	88.62
254.028	86.62
254.261	88.62
254.494	71.62
254.727	78.62
254.96	67.62
255.193	69.62
255.426	88.62
255.659	89.62
255.892	84.62
256.124	94.62
256.357	85.62
256.59	87.62
256.823	100.62
257.056	78.62
257.289	90.62
257.521	83.62
257.754	71.62
257.987	87.62
258.22	95.62
258.452	102.62
258.685	92.62
258.918	93.62
259.151	84.62
259.383	81.62
259.616	102.62
259.849	89.62
260.081	85.62
260.314	96.62
260.547	88.62
260.779	68.62
261.012	67.62
261.244	73.62
261.477	89.62
261.71	92.62
261.942	92.62
262.175	102.62
262.407	85.62
262.64	87.62
262.872	63.62
263.105	68.62
263.337	79.62
263.57	76.62
263.802	86.62
264.035	83.62
264.267	88.62
264.499	85.62
264.732	74.62
264.964	81.62
265.197	76.62
265.429	73.62
265.661	76.62
265.894	96.62
266.126	99.62
266.358	91.62
266.591	79.62
266.823	85.62
267.055	98.62
267.287	98.62
267.52	80.62
267.752	79.62
267.984	81.62
268.216	80.62
268.448	85.62
268.681	91.62
268.913	91.62
269.145	88.62
269.377	78.62
269.609	77.62
269.841	94.62
270.073	79.62
270.306	87.62
270.538	84.62
270.77	71.62
271.002	93.62
271.234	101.62
271.466	70.62
271.698	87.62
271.93	91.62
272.162	88.62
272.394	103.62
272.626	81.62
272.858	90.62
273.09	97.62
273.322	73.62
273.553	83.62
273.785	84.62
274.017	81.62
274.249	93.62
274.481	95.62
274.713	87.62
274.945	81.62
275.176	102.62
275.408	90.62
275.64	101.62
275.872	93.62
276.104	83.62
276.335	75.62
276.567	117.62
276.799	94.62
277.031	101.62
277.262	97.62
277.494	97.62
277.726	90.62
277.957	96.62
278.189	77.62
278.421	86.62
278.652	94.62
278.884	91.62
279.115	81.62
279.347	83.62
279.579	89.62
279.81	86.62
280.042	92.62
280.273	91.62
280.505	92.62
280.736	88.62
280.968	97.62
281.199	101.62
281.431	96.62
281.662	89.62
281.894	62.62
282.125	91.62
282.356	115.62
282.588	112.62
282.819	94.62
283.051	82.62
283.282	76.62
283.513	89.62
283.745	96.62
283.976	101.62
284.207	86.62
284.439	91.62
284.67	88.62
284.901	101.62
285.132	93.62
285.364	87.62
285.595	94.62
285.826	93.62
286.057	99.62
286.288	89.62
286.52	94.62
286.751	87.62
286.982	99.62
287.213	93.62
287.444	87.62
287.675	101.62
287.906	92.62
288.138	93.62
288.369	91.62
288.6	92.62
288.831	89.62
289.062	84.62
289.293	83.62
289.524	90.62
289.755	115.62
289.986	107.62
290.217	102.62
290.448	99.62
290.679	96.62
290.91	93.62
291.141	79.62
291.371	93.62
291.602	86.62
291.833	93.62
292.064	79.62
292.295	91.62
292.526	87.62
292.757	91.62
292.987	82.62
293.218	92.62
293.449	97.62
293.68	72.62
293.91	94.62
294.141	95.62
294.372	96.62
294.603	92.62
294.833	90.62
295.064	93.62
295.295	79.62
295.525	87.62
295.756	96.62
295.987	112.62
296.217	122.62
296.448	108.62
296.679	105.62
296.909	94.62
297.14	91.62
297.37	103.62
297.601	85.62
297.831	95.62
298.062	85.62
298.292	92.62
298.523	87.62
298.753	80.62
298.984	105.62
299.214	95.62
299.445	104.62
299.675	88.62
299.905	95.62
300.136	105.62
300.366	95.62
300.597	84.62
300.827	89.62
301.057	88.62
301.288	99.62
301.518	108.62
301.748	81.62
301.979	97.62
302.209	94.62
302.439	79.62
302.669	108.62
302.9	84.62
303.13	84.62
303.36	101.62
303.59	102.62
303.82	104.62
304.051	88.62
304.281	79.62
304.511	91.62
304.741	97.62
304.971	100.62
305.201	90.62
305.431	117.62
305.661	99.62
305.891	96.62
306.121	103.62
306.352	99.62
306.582	108.62
306.812	105.62
307.042	96.62
307.272	81.62
307.502	92.62
307.731	91.62
307.961	112.62
308.191	106.62
308.421	94.62
308.651	101.62
308.881	93.62
309.111	100.62
309.341	107.62
309.571	94.62
309.8	91.62
310.03	83.62
310.26	83.62
310.49	77.62
310.72	94.62
310.949	83.62
311.179	99.62
311.409	97.62
311.639	117.62
311.868	102.62
312.098	99.62
312.328	83.62
312.557	105.62
312.787	99.62
313.017	95.62
313.246	93.62
313.476	100.62
313.706	98.62
313.935	95.62
314.165	102.62
314.394	100.62
314.624	94.62
314.853	106.62
315.083	102.62
315.312	89.62
315.542	97.62
315.771	99.62
316.001	92.62
316.23	95.62
316.46	89.62
316.689	104.62
316.919	87.62
317.148	97.62
317.377	101.62
317.607	105.62
317.836	98.62
318.065	88.62
318.295	85.62
318.524	97.62
318.753	77.62
318.983	89.62
319.212	106.62
319.441	111.62
319.67	101.62
319.9	97.62
320.129	94.62
320.358	107.62
320.587	88.62
320.816	111.62
321.046	102.62
321.275	107.62
321.504	104.62
321.733	104.62
321.962	103.62
322.191	122.62
322.42	112.62
322.649	113.62
322.878	108.62
323.108	118.62
323.337	111.62
323.566	125.62
323.795	130.62
324.024	198.62
324.253	355.62
324.482	717.62
324.71	1432.62
324.939	1907.62
325.168	705.62
325.397	219.62
325.626	151.62
325.855	134.62
326.084	120.62
326.313	120.62
326.542	130.62
326.77	192.62
326.999	393.62
327.228	833.62
327.457	1496.62
327.686	1166.62
327.914	320.62
328.143	180.62
328.372	134.62
328.6	132.62
328.829	119.62
329.058	119.62
329.287	110.62
329.515	94.62
329.744	110.62
329.972	103.62
330.201	131.62
330.43	120.62
330.658	102.62
330.887	124.62
331.115	112.62
331.344	110.62
331.572	102.62
331.801	104.62
332.03	100.62
332.258	101.62
332.486	101.62
332.715	83.62
332.943	102.62
333.172	104.62
333.4	99.62
333.629	113.62
333.857	110.62
334.085	109.62
334.314	113.62
334.542	128.62
334.771	120.62
334.999	104.62
335.227	95.62
335.455	103.62
335.684	113.62
335.912	94.62
336.14	93.62
336.369	93.62
336.597	102.62
336.825	105.62
337.053	105.62
337.281	104.62
337.51	88.62
337.738	121.62
337.966	93.62
338.194	101.62
338.422	106.62
338.65	107.62
338.878	102.62
339.106	92.62
339.334	87.62
339.562	88.62
339.79	104.62
340.018	100.62
340.246	92.62
340.474	99.62
340.702	85.62
340.93	87.62
341.158	87.62
341.386	99.62
341.614	104.62
341.842	103.62
342.07	102.62
342.298	93.62
342.526	95.62
342.754	85.62
342.981	96.62
343.209	87.62
343.437	99.62
343.665	109.62
343.893	88.62
344.12	106.62
344.348	108.62
344.576	99.62
344.804	92.62
345.031	92.62
345.259	88.62
345.487	90.62
345.714	106.62
345.942	80.62
346.17	107.62
346.397	97.62
346.625	104.62
346.853	93.62
347.08	103.62
347.308	104.62
347.535	104.62
347.763	90.62
347.99	86.62
348.218	100.62
348.445	97.62
348.673	89.62
348.9	107.62
349.128	94.62
349.355	107.62
349.583	96.62
349.81	113.62
350.037	109.62
350.265	102.62
350.492	100.62
350.72	101.62
350.947	100.62
351.174	94.62
351.402	111.62
351.629	109.62
351.856	98.62
352.083	106.62
352.311	95.62
352.538	115.62
352.765	111.62
352.992	106.62
353.22	112.62
353.447	99.62
353.674	100.62
353.901	99.62
354.128	104.62
354.355	108.62
354.583	103.62
354.81	99.62
355.037	94.62
355.264	91.62
355.491	107.62
355.718	95.62
355.945	103.62
356.172	105.62
356.399	110.62
356.626	101.62
356.853	96.62
357.08	99.62
357.307	104.62
357.534	99.62
357.761	109.62
357.988	108.62
358.215	92.62
358.441	95.62
358.668	105.62
358.895	96.62
359.122	96.62
359.349	99.62
359.576	102.62
359.802	93.62
360.029	104.62
360.256	105.62
360.483	89.62
360.709	100.62
360.936	88.62
361.163	83.62
361.39	100.62
361.616	106.62
361.843	78.62
362.07	91.62
362.296	97.62
362.523	98.62
362.749	93.62
362.976	99.62
363.203	109.62
363.429	94.62
363.656	76.62
363.882	98.62
364.109	92.62
364.335	101.62
364.562	97.62
364.788	76.62
365.015	96.62
365.241	88.62
365.468	107.62
365.694	110.62
365.92	96.62
366.147	89.62
366.373	96.62
366.599	84.62
366.826	80.62
367.052	101.62
367.278	107.62
367.505	96.62
367.731	101.62
367.957	89.62
368.184	110.62
368.41	103.62
368.636	108.62
368.862	104.62
369.089	105.62
369.315	109.62
369.541	117.62
369.767	98.62
369.993	90.62
370.219	85.62
370.445	93.62
370.672	84.62
370.898	94.62
371.124	85.62
371.35	100.62
371.576	97.62
371.802	105.62
372.028	83.62
372.254	90.62
372.48	102.62
372.706	89.62
372.932	85.62
373.158	96.62
373.384	103.62
373.61	93.62
373.835	97.62
374.061	99.62
374.287	104.62
374.513	80.62
374.739	80.62
374.965	101.62
375.191	87.62
375.416	103.62
375.642	94.62
375.868	106.62
376.094	88.62
376.319	88.62
376.545	91.62
376.771	106.62
376.997	85.62
377.222	87.62
377.448	101.62
377.674	90.62
377.899	89.62
378.125	83.62
378.35	103.62
378.576	100.62
378.802	99.62
379.027	89.62
379.253	98.62
379.478	110.62
379.704	95.62
379.929	94.62
380.155	104.62
380.38	104.62
380.606	95.62
380.831	98.62
381.057	99.62
381.282	117.62
381.507	111.62
381.733	90.62
381.958	110.62
382.184	111.62
382.409	100.62
382.634	96.62
382.86	111.62
383.085	108.62
383.31	118.62
383.535	116.62
383.761	110.62
383.986	108.62
384.211	110.62
384.436	111.62
384.662	93.62
384.887	106.62
385.112	115.62
385.337	127.62
385.562	103.62
385.787	116.62
386.013	119.62
386.238	125.62
386.463	100.62
386.688	126.62
386.913	128.62
387.138	128.62
387.363	106.62
387.588	104.62
387.813	101.62
388.038	116.62
388.263	127.62
388.488	121.62
388.713	91.62
388.938	105.62
389.163	103.62
389.387	106.62
389.612	110.62
389.837	103.62
390.062	105.62
390.287	104.62
390.512	95.62
390.736	90.62
390.961	99.62
391.186	99.62
391.411	103.62
391.636	99.62
391.86	102.62
392.085	95.62
392.31	100.62
392.534	100.62
392.759	101.62
392.984	72.62
393.208	99.62
393.433	97.62
393.658	91.62
393.882	85.62
394.107	101.62
394.331	92.62
394.556	93.62
394.78	100.62
395.005	97.62
395.229	100.62
395.454	88.62
395.678	95.62
395.903	95.62
396.127	105.62
396.352	89.62
396.576	77.62
396.801	105.62
397.025	111.62
397.249	93.62
397.474	89.62
397.698	112.62
397.922	87.62
398.147	96.62
398.371	77.62
398.595	83.62
398.82	97.62
399.044	91.62
399.268	94.62
399.492	90.62
399.717	90.62
399.941	87.62
400.165	92.62
400.389	107.62
400.613	93.62
400.837	79.62
401.062	96.62
401.286	90.62
401.51	94.62
401.734	89.62
401.958	98.62
402.182	122.62
402.406	133.62
402.63	99.62
402.854	98.62
403.078	93.62
403.302	99.62
403.526	109.62
403.75	96.62
403.974	97.62
404.198	103.62
404.422	91.62
404.645	89.62
404.869	96.62
405.093	99.62
405.317	89.62
405.541	95.62
405.765	106.62
405.988	117.62
406.212	149.62
406.436	179.62
406.66	126.62
406.883	87.62
407.107	92.62
407.331	109.62
407.555	97.62
407.778	109.62
408.002	97.62
408.226	87.62
408.449	85.62
408.673	93.62
408.896	95.62
409.12	97.62
409.344	97.62
409.567	91.62
409.791	93.62
410.014	121.62
410.238	82.62
410.461	87.62
410.685	85.62
410.908	95.62
411.132	98.62
411.355	103.62
411.578	74.62
411.802	107.62
412.025	92.62
412.249	109.62
412.472	93.62
412.695	78.62
412.919	87.62
413.142	93.62
413.365	92.62
413.589	89.62
413.812	102.62
414.035	101.62
414.258	100.62
414.482	94.62
414.705	84.62
414.928	96.62
415.151	100.62
415.374	106.62
415.597	81.62
415.821	94.62
416.044	80.62
416.267	93.62
416.49	101.62
416.713	92.62
416.936	93.62
417.159	85.62
417.382	89.62
417.605	80.62
417.828	84.62
418.051	106.62
418.274	94.62
418.497	85.62
418.72	93.62
418.943	110.62
419.166	98.62
419.389	104.62
419.611	87.62
419.834	85.62
420.057	90.62
420.28	87.62
420.503	99.62
420.726	95.62
420.948	86.62
421.171	89.62
421.394	101.62
421.617	88.62
421.839	101.62
422.062	87.62
422.285	84.62
422.507	99.62
422.73	88.62
422.953	93.62
423.175	93.62
423.398	83.62
423.621	100.62
423.843	94.62
424.066	91.62
424.288	92.62
424.511	92.62
424.733	102.62
424.956	104.62
425.178	101.62
425.401	98.62
425.623	101.62
425.846	110.62
426.068	105.62
426.291	83.62
426.513	91.62
426.735	88.62
426.958	99.62
427.18	96.62
427.402	134.62
427.625	138.62
427.847	124.62
428.069	115.62
428.292	97.62
428.514	94.62
428.736	110.62
428.958	88.62
429.181	88.62
429.403	92.62
429.625	88.62
429.847	88.62
430.069	88.62
430.292	96.62
430.514	83.62
430.736	87.62
430.958	92.62
431.18	78.62
431.402	75.62
431.624	85.62
431.846	83.62
432.068	88.62
432.29	81.62
432.512	100.62
432.734	84.62
432.956	81.62
433.178	92.62
433.4	98.62
433.622	92.62
433.844	107.62
434.066	91.62
434.287	105.62
434.509	85.62
434.731	94.62
434.953	107.62
435.175	75.62
435.397	89.62
435.618	91.62
435.84	90.62
436.062	96.62
436.284	99.62
436.505	107.62
436.727	109.62
436.949	78.62
437.17	92.62
437.392	100.62
437.614	96.62
437.835	85.62
438.057	109.62
438.278	99.62
438.5	84.62
438.721	105.62
438.943	98.62
439.165	89.62
439.386	91.62
439.608	89.62
439.829	103.62
440.05	104.62
440.272	125.62
440.493	93.62
440.715	89.62
440.936	83.62
441.158	84.62
441.379	88.62
441.6	102.62
441.822	105.62
442.043	96.62
442.264	107.62
442.486	101.62
442.707	100.62
442.928	113.62
443.149	111.62
443.371	111.62
443.592	106.62
443.813	104.62
444.034	103.62
444.255	102.62
444.476	104.62
444.698	90.62
444.919	90.62
445.14	133.62
445.361	108.62
445.582	100.62
445.803	116.62
446.024	123.62
446.245	105.62
446.466	93.62
446.687	96.62
446.908	88.62
447.129	84.62
447.35	88.62
447.571	92.62
447.792	72.62
448.013	90.62
448.234	104.62
448.455	82.62
448.675	80.62
448.896	107.62
449.117	108.62
449.338	95.62
449.559	129.62
449.779	132.62
450	95.62
450.221	87.62
450.442	106.62
450.662	93.62
450.883	91.62
451.104	110.62
451.324	104.62
451.545	92.62
451.766	87.62
451.986	100.62
452.207	95.62
452.428	94.62
452.648	91.62
452.869	100.62
453.089	95.62
453.31	113.62
453.53	101.62
453.751	99.62
453.971	97.62
454.192	95.62
454.412	99.62
454.633	89.62
454.853	90.62
455.073	73.62
455.294	97.62
455.514	92.62
455.734	83.62
455.955	87.62
456.175	87.62
456.395	88.62
456.616	97.62
456.836	104.62
457.056	95.62
457.276	99.62
457.497	75.62
457.717	103.62
457.937	99.62
458.157	92.62
458.377	85.62
458.598	94.62
458.818	130.62
459.038	140.62
459.258	96.62
459.478	84.62
459.698	81.62
459.918	88.62
460.138	76.62
460.358	84.62
460.578	94.62
460.798	89.62
461.018	96.62
461.238	96.62
461.458	98.62
461.678	94.62
461.898	86.62
462.118	87.62
462.338	88.62
462.558	77.62
462.777	91.62
462.997	87.62
463.217	80.62
463.437	85.62
463.657	91.62
463.876	81.62
464.096	101.62
464.316	93.62
464.536	87.62
464.755	104.62
464.975	103.62
465.195	119.62
465.414	138.62
465.634	77.62
465.854	75.62
466.073	86.62
466.293	99.62
466.512	87.62
466.732	94.62
466.951	96.62
467.171	109.62
467.391	87.62
467.61	88.62
467.829	87.62
468.049	100.62
468.268	101.62
468.488	104.62
468.707	76.62
468.927	91.62
469.146	73.62
469.365	87.62
469.585	85.62
469.804	97.62
470.023	94.62
470.243	84.62
470.462	86.62
470.681	91.62
470.901	94.62
471.12	88.62
471.339	83.62
471.558	83.62
471.777	88.62
471.997	96.62
472.216	117.62
472.435	142.62
472.654	85.62
472.873	101.62
473.092	84.62
473.311	89.62
473.53	92.62
473.749	94.62
473.968	74.62
474.187	95.62
474.406	103.62
474.625	80.62
474.844	100.62
475.063	84.62
475.282	99.62
475.501	89.62
475.72	99.62
475.939	78.62
476.158	74.62
476.377	96.62
476.596	83.62
476.814	104.62
477.033	88.62
477.252	105.62
477.471	90.62
477.69	87.62
477.908	90.62
478.127	98.62
478.346	87.62
478.564	92.62
478.783	95.62
479.002	81.62
479.22	97.62
479.439	87.62
479.658	99.62
479.876	94.62
480.095	89.62
480.313	96.62
480.532	97.62
480.751	93.62
480.969	113.62
481.188	181.62
481.406	133.62
481.624	102.62
481.843	96.62
482.061	80.62
482.28	84.62
482.498	96.62
482.717	88.62
482.935	88.62
483.153	98.62
483.372	88.62
483.59	96.62
483.808	91.62
484.027	97.62
484.245	100.62
484.463	87.62
484.681	102.62
484.9	94.62
485.118	95.62
485.336	103.62
485.554	91.62
485.772	104.62
485.99	100.62
486.209	103.62
486.427	102.62
486.645	105.62
486.863	102.62
487.081	92.62
487.299	105.62
487.517	103.62
487.735	90.62
487.953	100.62
488.171	103.62
488.389	87.62
488.607	86.62
488.825	101.62
489.043	87.62
489.261	107.62
489.479	98.62
489.696	89.62
489.914	86.62
490.132	107.62
490.35	99.62
490.568	83.62
490.786	106.62
491.003	93.62
491.221	101.62
491.439	88.62
491.657	81.62
491.874	90.62
492.092	105.62
492.31	85.62
492.527	83.62
492.745	100.62
492.963	95.62
493.18	93.62
493.398	90.62
493.615	105.62
493.833	94.62
494.05	102.62
494.268	63.62
494.485	95.62
494.703	105.62
494.92	92.62
495.138	91.62
495.355	94.62
495.573	93.62
495.79	93.62
496.008	103.62
496.225	85.62
496.442	87.62
496.66	96.62
496.877	86.62
497.094	97.62
497.312	88.62
497.529	85.62
497.746	99.62
497.963	94.62
498.181	93.62
498.398	87.62
498.615	112.62
498.832	104.62
499.049	85.62
499.267	94.62
499.484	92.62
499.701	88.62
499.918	100.62
500.135	79.62
500.352	101.62
500.569	87.62
500.786	92.62
501.003	101.62
501.22	88.62
501.437	87.62
501.654	102.62
501.871	97.62
502.088	98.62
502.305	88.62
502.522	94.62
502.739	86.62
502.956	91.62
503.172	87.62
503.389	84.62
503.606	104.62
503.823	104.62
504.04	103.62
504.256	96.62
504.473	89.62
504.69	89.62
504.907	90.62
505.123	88.62
505.34	110.62
505.557	87.62
505.773	88.62
505.99	89.62
506.207	90.62
506.423	102.62
506.64	104.62
506.856	97.62
507.073	94.62
507.289	92.62
507.506	107.62
507.722	100.62
507.939	112.62
508.155	100.62
508.372	94.62
508.588	101.62
508.805	92.62
509.021	98.62
509.238	100.62
509.454	94.62
509.67	112.62
509.887	97.62
510.103	128.62
510.319	185.62
510.536	618.62
510.752	1838.62
510.968	521.62
511.184	135.62
511.401	103.62
511.617	96.62
511.833	108.62
512.049	94.62
512.265	93.62
512.481	96.62
512.698	95.62
512.914	97.62
513.13	93.62
513.346	93.62
513.562	102.62
513.778	83.62
513.994	97.62
514.21	99.62
