Data from Uncirc_1982_H10_HRD10591_00046.txt Node
Date: Wed Jan 03 12:29:34 EST 2024
User: Yrep
Spectrometer: HR+D1059
Trigger mode: 1
Integration Time (sec): 1.000000E-1
Scans to average: 1
Electric dark correction enabled: true
Nonlinearity correction enabled: false
Boxcar width: 0
XAxis mode: Wavelengths
Number of Pixels in Spectrum: 2048
>>>>>Begin Spectral Data<<<<<
223.165	-26.06
223.4	-26.06
223.635	-26.06
223.869	-7.06
224.104	-27.06
224.338	-2.06
224.573	-6.06
224.808	-8.06
225.042	-18.06
225.277	-7.06
225.511	-7.06
225.746	0.94
225.98	11.94
226.215	10.94
226.449	7.94
226.683	29.94
226.918	27.94
227.152	18.94
227.387	29.94
227.621	42.94
227.856	58.94
228.09	46.94
228.324	48.94
228.559	51.94
228.793	57.94
229.027	56.94
229.262	62.94
229.496	71.94
229.73	77.94
229.964	78.94
230.199	76.94
230.433	87.94
230.667	72.94
230.901	87.94
231.136	81.94
231.37	81.94
231.604	76.94
231.838	84.94
232.072	74.94
232.306	84.94
232.541	86.94
232.775	81.94
233.009	91.94
233.243	80.94
233.477	87.94
233.711	86.94
233.945	74.94
234.179	71.94
234.413	77.94
234.647	84.94
234.881	88.94
235.115	82.94
235.349	69.94
235.583	82.94
235.817	72.94
236.051	85.94
236.285	88.94
236.519	74.94
236.753	67.94
236.987	73.94
237.221	83.94
237.455	66.94
237.689	86.94
237.922	80.94
238.156	89.94
238.39	80.94
238.624	88.94
238.858	75.94
239.091	68.94
239.325	101.94
239.559	82.94
239.793	62.94
240.027	66.94
240.26	88.94
240.494	72.94
240.728	68.94
240.961	86.94
241.195	78.94
241.429	78.94
241.662	88.94
241.896	82.94
242.13	66.94
242.363	88.94
242.597	80.94
242.83	81.94
243.064	65.94
243.298	80.94
243.531	83.94
243.765	86.94
243.998	69.94
244.232	71.94
244.465	81.94
244.699	87.94
244.932	78.94
245.166	85.94
245.399	90.94
245.633	84.94
245.866	66.94
246.099	78.94
246.333	70.94
246.566	84.94
246.8	87.94
247.033	72.94
247.266	89.94
247.5	81.94
247.733	76.94
247.966	77.94
248.2	65.94
248.433	89.94
248.666	90.94
248.899	92.94
249.133	82.94
249.366	96.94
249.599	92.94
249.832	74.94
250.066	90.94
250.299	60.94
250.532	76.94
250.765	86.94
250.998	86.94
251.231	76.94
251.465	74.94
251.698	78.94
251.931	95.94
252.164	86.94
252.397	75.94
252.63	80.94
252.863	82.94
253.096	81.94
253.329	74.94
253.562	80.94
253.795	84.94
254.028	92.94
254.261	72.94
254.494	74.94
254.727	84.94
254.96	79.94
255.193	77.94
255.426	80.94
255.659	72.94
255.892	82.94
256.124	83.94
256.357	84.94
256.59	85.94
256.823	81.94
257.056	84.94
257.289	92.94
257.521	86.94
257.754	85.94
257.987	81.94
258.22	78.94
258.452	75.94
258.685	84.94
258.918	96.94
259.151	82.94
259.383	91.94
259.616	74.94
259.849	91.94
260.081	88.94
260.314	80.94
260.547	85.94
260.779	89.94
261.012	75.94
261.244	86.94
261.477	77.94
261.71	92.94
261.942	102.94
262.175	94.94
262.407	85.94
262.64	90.94
262.872	80.94
263.105	80.94
263.337	93.94
263.57	88.94
263.802	72.94
264.035	80.94
264.267	96.94
264.499	94.94
264.732	82.94
264.964	84.94
265.197	95.94
265.429	88.94
265.661	88.94
265.894	78.94
266.126	79.94
266.358	74.94
266.591	85.94
266.823	93.94
267.055	89.94
267.287	78.94
267.52	87.94
267.752	79.94
267.984	79.94
268.216	88.94
268.448	92.94
268.681	83.94
268.913	74.94
269.145	92.94
269.377	85.94
269.609	77.94
269.841	87.94
270.073	69.94
270.306	77.94
270.538	89.94
270.77	69.94
271.002	73.94
271.234	86.94
271.466	94.94
271.698	100.94
271.93	78.94
272.162	88.94
272.394	102.94
272.626	84.94
272.858	68.94
273.09	83.94
273.322	96.94
273.553	84.94
273.785	80.94
274.017	89.94
274.249	85.94
274.481	76.94
274.713	76.94
274.945	86.94
275.176	76.94
275.408	86.94
275.64	82.94
275.872	84.94
276.104	97.94
276.335	89.94
276.567	96.94
276.799	97.94
277.031	89.94
277.262	92.94
277.494	80.94
277.726	98.94
277.957	84.94
278.189	85.94
278.421	85.94
278.652	89.94
278.884	90.94
279.115	81.94
279.347	83.94
279.579	90.94
279.81	88.94
280.042	72.94
280.273	98.94
280.505	96.94
280.736	70.94
280.968	93.94
281.199	92.94
281.431	82.94
281.662	101.94
281.894	86.94
282.125	86.94
282.356	110.94
282.588	118.94
282.819	91.94
283.051	86.94
283.282	91.94
283.513	93.94
283.745	102.94
283.976	96.94
284.207	94.94
284.439	89.94
284.67	83.94
284.901	66.94
285.132	86.94
285.364	84.94
285.595	81.94
285.826	91.94
286.057	72.94
286.288	87.94
286.52	92.94
286.751	75.94
286.982	85.94
287.213	85.94
287.444	96.94
287.675	86.94
287.906	94.94
288.138	84.94
288.369	92.94
288.6	93.94
288.831	68.94
289.062	72.94
289.293	79.94
289.524	77.94
289.755	84.94
289.986	84.94
290.217	88.94
290.448	82.94
290.679	81.94
290.91	98.94
291.141	80.94
291.371	99.94
291.602	82.94
291.833	75.94
292.064	101.94
292.295	94.94
292.526	93.94
292.757	90.94
292.987	96.94
293.218	79.94
293.449	83.94
293.68	93.94
293.91	92.94
294.141	96.94
294.372	100.94
294.603	93.94
294.833	91.94
295.064	90.94
295.295	96.94
295.525	86.94
295.756	95.94
295.987	100.94
296.217	130.94
296.448	121.94
296.679	93.94
296.909	74.94
297.14	107.94
297.37	89.94
297.601	93.94
297.831	87.94
298.062	93.94
298.292	82.94
298.523	100.94
298.753	89.94
298.984	77.94
299.214	96.94
299.445	109.94
299.675	99.94
299.905	94.94
300.136	82.94
300.366	90.94
300.597	98.94
300.827	88.94
301.057	90.94
301.288	89.94
301.518	83.94
301.748	81.94
301.979	92.94
302.209	87.94
302.439	88.94
302.669	92.94
302.9	90.94
303.13	102.94
303.36	89.94
303.59	116.94
303.82	96.94
304.051	100.94
304.281	85.94
304.511	95.94
304.741	92.94
304.971	94.94
305.201	91.94
305.431	84.94
305.661	82.94
305.891	78.94
306.121	98.94
306.352	105.94
306.582	101.94
306.812	100.94
307.042	104.94
307.272	89.94
307.502	86.94
307.731	91.94
307.961	93.94
308.191	106.94
308.421	91.94
308.651	84.94
308.881	91.94
309.111	93.94
309.341	83.94
309.571	88.94
309.8	102.94
310.03	83.94
310.26	106.94
310.49	103.94
310.72	88.94
310.949	89.94
311.179	102.94
311.409	88.94
311.639	85.94
311.868	90.94
312.098	98.94
312.328	95.94
312.557	103.94
312.787	100.94
313.017	100.94
313.246	109.94
313.476	100.94
313.706	95.94
313.935	100.94
314.165	102.94
314.394	100.94
314.624	81.94
314.853	92.94
315.083	86.94
315.312	100.94
315.542	73.94
315.771	82.94
316.001	92.94
316.23	82.94
316.46	89.94
316.689	94.94
316.919	84.94
317.148	86.94
317.377	107.94
317.607	106.94
317.836	94.94
318.065	95.94
318.295	80.94
318.524	77.94
318.753	98.94
318.983	93.94
319.212	98.94
319.441	108.94
319.67	95.94
319.9	93.94
320.129	85.94
320.358	97.94
320.587	98.94
320.816	96.94
321.046	100.94
321.275	92.94
321.504	79.94
321.733	94.94
321.962	107.94
322.191	98.94
322.42	108.94
322.649	114.94
322.878	116.94
323.108	121.94
323.337	104.94
323.566	124.94
323.795	141.94
324.024	178.94
324.253	324.94
324.482	674.94
324.71	1402.94
324.939	1798.94
325.168	680.94
325.397	208.94
325.626	124.94
325.855	104.94
326.084	119.94
326.313	125.94
326.542	132.94
326.77	208.94
326.999	408.94
327.228	805.94
327.457	1447.94
327.686	1158.94
327.914	318.94
328.143	165.94
328.372	127.94
328.6	117.94
328.829	117.94
329.058	107.94
329.287	110.94
329.515	99.94
329.744	106.94
329.972	106.94
330.201	111.94
330.43	111.94
330.658	113.94
330.887	122.94
331.115	105.94
331.344	88.94
331.572	97.94
331.801	116.94
332.03	111.94
332.258	97.94
332.486	89.94
332.715	92.94
332.943	99.94
333.172	82.94
333.4	104.94
333.629	99.94
333.857	114.94
334.085	105.94
334.314	112.94
334.542	121.94
334.771	115.94
334.999	99.94
335.227	93.94
335.455	84.94
335.684	102.94
335.912	87.94
336.14	102.94
336.369	105.94
336.597	101.94
336.825	100.94
337.053	97.94
337.281	82.94
337.51	96.94
337.738	76.94
337.966	84.94
338.194	99.94
338.422	77.94
338.65	89.94
338.878	85.94
339.106	93.94
339.334	98.94
339.562	90.94
339.79	90.94
340.018	107.94
340.246	98.94
340.474	93.94
340.702	80.94
340.93	93.94
341.158	92.94
341.386	94.94
341.614	101.94
341.842	82.94
342.07	98.94
342.298	79.94
342.526	87.94
342.754	92.94
342.981	106.94
343.209	104.94
343.437	105.94
343.665	109.94
343.893	89.94
344.12	89.94
344.348	101.94
344.576	79.94
344.804	107.94
345.031	88.94
345.259	100.94
345.487	108.94
345.714	96.94
345.942	91.94
346.17	94.94
346.397	83.94
346.625	102.94
346.853	82.94
347.08	91.94
347.308	106.94
347.535	109.94
347.763	82.94
347.99	87.94
348.218	99.94
348.445	105.94
348.673	102.94
348.9	77.94
349.128	106.94
349.355	78.94
349.583	90.94
349.81	91.94
350.037	87.94
350.265	109.94
350.492	99.94
350.72	83.94
350.947	75.94
351.174	114.94
351.402	107.94
351.629	95.94
351.856	109.94
352.083	94.94
352.311	106.94
352.538	113.94
352.765	109.94
352.992	114.94
353.22	105.94
353.447	104.94
353.674	101.94
353.901	94.94
354.128	114.94
354.355	92.94
354.583	98.94
354.81	105.94
355.037	97.94
355.264	99.94
355.491	108.94
355.718	87.94
355.945	100.94
356.172	89.94
356.399	83.94
356.626	85.94
356.853	94.94
357.08	84.94
357.307	108.94
357.534	89.94
357.761	88.94
357.988	97.94
358.215	116.94
358.441	84.94
358.668	97.94
358.895	95.94
359.122	94.94
359.349	97.94
359.576	82.94
359.802	90.94
360.029	93.94
360.256	96.94
360.483	84.94
360.709	94.94
360.936	82.94
361.163	93.94
361.39	98.94
361.616	101.94
361.843	87.94
362.07	85.94
362.296	90.94
362.523	91.94
362.749	98.94
362.976	94.94
363.203	101.94
363.429	84.94
363.656	94.94
363.882	93.94
364.109	97.94
364.335	88.94
364.562	104.94
364.788	87.94
365.015	84.94
365.241	101.94
365.468	104.94
365.694	111.94
365.92	90.94
366.147	93.94
366.373	82.94
366.599	88.94
366.826	94.94
367.052	92.94
367.278	106.94
367.505	90.94
367.731	88.94
367.957	68.94
368.184	90.94
368.41	99.94
368.636	97.94
368.862	108.94
369.089	114.94
369.315	92.94
369.541	103.94
369.767	94.94
369.993	100.94
370.219	90.94
370.445	75.94
370.672	78.94
370.898	106.94
371.124	98.94
371.35	88.94
371.576	78.94
371.802	105.94
372.028	80.94
372.254	102.94
372.48	84.94
372.706	88.94
372.932	90.94
373.158	78.94
373.384	77.94
373.61	97.94
373.835	90.94
374.061	85.94
374.287	103.94
374.513	90.94
374.739	77.94
374.965	86.94
375.191	88.94
375.416	97.94
375.642	95.94
375.868	81.94
376.094	91.94
376.319	100.94
376.545	98.94
376.771	81.94
376.997	81.94
377.222	94.94
377.448	82.94
377.674	109.94
377.899	96.94
378.125	84.94
378.35	82.94
378.576	103.94
378.802	96.94
379.027	86.94
379.253	91.94
379.478	91.94
379.704	97.94
379.929	77.94
380.155	93.94
380.38	98.94
380.606	100.94
380.831	96.94
381.057	98.94
381.282	103.94
381.507	105.94
381.733	95.94
381.958	105.94
382.184	90.94
382.409	100.94
382.634	104.94
382.86	95.94
383.085	107.94
383.31	109.94
383.535	105.94
383.761	104.94
383.986	97.94
384.211	103.94
384.436	100.94
384.662	105.94
384.887	109.94
385.112	104.94
385.337	106.94
385.562	105.94
385.787	98.94
386.013	117.94
386.238	123.94
386.463	101.94
386.688	114.94
386.913	105.94
387.138	97.94
387.363	105.94
387.588	105.94
387.813	93.94
388.038	103.94
388.263	116.94
388.488	118.94
388.713	95.94
388.938	111.94
389.163	100.94
389.387	84.94
389.612	88.94
389.837	77.94
390.062	86.94
390.287	98.94
390.512	101.94
390.736	93.94
390.961	105.94
391.186	92.94
391.411	102.94
391.636	84.94
391.86	101.94
392.085	89.94
392.31	71.94
392.534	77.94
392.759	97.94
392.984	100.94
393.208	93.94
393.433	89.94
393.658	84.94
393.882	97.94
394.107	77.94
394.331	76.94
394.556	87.94
394.78	92.94
395.005	85.94
395.229	103.94
395.454	90.94
395.678	92.94
395.903	82.94
396.127	88.94
396.352	77.94
396.576	80.94
396.801	81.94
397.025	87.94
397.249	89.94
397.474	82.94
397.698	92.94
397.922	88.94
398.147	87.94
398.371	99.94
398.595	90.94
398.82	92.94
399.044	87.94
399.268	84.94
399.492	82.94
399.717	101.94
399.941	84.94
400.165	85.94
400.389	94.94
400.613	94.94
400.837	85.94
401.062	80.94
401.286	91.94
401.51	95.94
401.734	104.94
401.958	99.94
402.182	112.94
402.406	137.94
402.63	99.94
402.854	92.94
403.078	91.94
403.302	85.94
403.526	82.94
403.75	94.94
403.974	68.94
404.198	85.94
404.422	82.94
404.645	92.94
404.869	68.94
405.093	106.94
405.317	86.94
405.541	105.94
405.765	97.94
405.988	106.94
406.212	133.94
406.436	176.94
406.66	116.94
406.883	100.94
407.107	93.94
407.331	86.94
407.555	102.94
407.778	83.94
408.002	90.94
408.226	90.94
408.449	92.94
408.673	87.94
408.896	98.94
409.12	104.94
409.344	90.94
409.567	91.94
409.791	97.94
410.014	91.94
410.238	86.94
410.461	90.94
410.685	100.94
410.908	90.94
411.132	110.94
411.355	91.94
411.578	76.94
411.802	82.94
412.025	80.94
412.249	87.94
412.472	89.94
412.695	97.94
412.919	102.94
413.142	96.94
413.365	89.94
413.589	77.94
413.812	99.94
414.035	91.94
414.258	97.94
414.482	91.94
414.705	89.94
414.928	86.94
415.151	95.94
415.374	98.94
415.597	98.94
415.821	102.94
416.044	93.94
416.267	86.94
416.49	90.94
416.713	88.94
416.936	90.94
417.159	86.94
417.382	94.94
417.605	84.94
417.828	104.94
418.051	92.94
418.274	88.94
418.497	81.94
418.72	87.94
418.943	100.94
419.166	84.94
419.389	86.94
419.611	87.94
419.834	75.94
420.057	92.94
420.28	100.94
420.503	82.94
420.726	87.94
420.948	85.94
421.171	97.94
421.394	94.94
421.617	99.94
421.839	93.94
422.062	102.94
422.285	96.94
422.507	100.94
422.73	100.94
422.953	99.94
423.175	76.94
423.398	92.94
423.621	104.94
423.843	80.94
424.066	96.94
424.288	89.94
424.511	110.94
424.733	98.94
424.956	92.94
425.178	87.94
425.401	83.94
425.623	101.94
425.846	88.94
426.068	88.94
426.291	94.94
426.513	93.94
426.735	98.94
426.958	86.94
427.18	83.94
427.402	124.94
427.625	150.94
427.847	106.94
428.069	106.94
428.292	92.94
428.514	95.94
428.736	96.94
428.958	75.94
429.181	91.94
429.403	81.94
429.625	82.94
429.847	82.94
430.069	83.94
430.292	94.94
430.514	74.94
430.736	89.94
430.958	74.94
431.18	100.94
431.402	84.94
431.624	92.94
431.846	82.94
432.068	82.94
432.29	92.94
432.512	91.94
432.734	90.94
432.956	95.94
433.178	98.94
433.4	92.94
433.622	88.94
433.844	98.94
434.066	88.94
434.287	105.94
434.509	105.94
434.731	92.94
434.953	90.94
435.175	80.94
435.397	88.94
435.618	94.94
435.84	91.94
436.062	119.94
436.284	98.94
436.505	103.94
436.727	108.94
436.949	89.94
437.17	76.94
437.392	93.94
437.614	92.94
437.835	91.94
438.057	111.94
438.278	109.94
438.5	108.94
438.721	104.94
438.943	95.94
439.165	84.94
439.386	89.94
439.608	104.94
439.829	90.94
440.05	121.94
440.272	123.94
440.493	86.94
440.715	95.94
440.936	97.94
441.158	87.94
441.379	82.94
441.6	82.94
441.822	89.94
442.043	100.94
442.264	84.94
442.486	93.94
442.707	90.94
442.928	87.94
443.149	102.94
443.371	113.94
443.592	109.94
443.813	103.94
444.034	101.94
444.255	91.94
444.476	86.94
444.698	90.94
444.919	94.94
445.14	131.94
445.361	109.94
445.582	102.94
445.803	110.94
446.024	127.94
446.245	115.94
446.466	107.94
446.687	98.94
446.908	96.94
447.129	86.94
447.35	98.94
447.571	86.94
447.792	98.94
448.013	94.94
448.234	110.94
448.455	89.94
448.675	122.94
448.896	107.94
449.117	98.94
449.338	98.94
449.559	114.94
449.779	107.94
450	102.94
450.221	86.94
450.442	82.94
450.662	90.94
450.883	93.94
451.104	101.94
451.324	93.94
451.545	81.94
451.766	82.94
451.986	74.94
452.207	91.94
452.428	97.94
452.648	89.94
452.869	101.94
453.089	101.94
453.31	114.94
453.53	95.94
453.751	98.94
453.971	107.94
454.192	104.94
454.412	73.94
454.633	73.94
454.853	86.94
455.073	79.94
455.294	88.94
455.514	102.94
455.734	101.94
455.955	73.94
456.175	90.94
456.395	85.94
456.616	81.94
456.836	96.94
457.056	82.94
457.276	88.94
457.497	88.94
457.717	92.94
457.937	73.94
458.157	88.94
458.377	93.94
458.598	90.94
458.818	116.94
459.038	133.94
459.258	104.94
459.478	94.94
459.698	87.94
459.918	77.94
460.138	77.94
460.358	93.94
460.578	96.94
460.798	96.94
461.018	100.94
461.238	88.94
461.458	86.94
461.678	89.94
461.898	101.94
462.118	77.94
462.338	93.94
462.558	91.94
462.777	94.94
462.997	83.94
463.217	87.94
463.437	86.94
463.657	76.94
463.876	95.94
464.096	81.94
464.316	101.94
464.536	89.94
464.755	97.94
464.975	87.94
465.195	136.94
465.414	113.94
465.634	82.94
465.854	82.94
466.073	86.94
466.293	97.94
466.512	70.94
466.732	89.94
466.951	93.94
467.171	82.94
467.391	90.94
467.61	94.94
467.829	85.94
468.049	84.94
468.268	104.94
468.488	83.94
468.707	75.94
468.927	91.94
469.146	70.94
469.365	92.94
469.585	89.94
469.804	99.94
470.023	89.94
470.243	88.94
470.462	100.94
470.681	95.94
470.901	93.94
471.12	89.94
471.339	95.94
471.558	81.94
471.777	76.94
471.997	80.94
472.216	102.94
472.435	123.94
472.654	93.94
472.873	97.94
473.092	95.94
473.311	75.94
473.53	80.94
473.749	78.94
473.968	101.94
474.187	88.94
474.406	89.94
474.625	91.94
474.844	84.94
475.063	84.94
475.282	90.94
475.501	96.94
475.72	93.94
475.939	108.94
476.158	96.94
476.377	76.94
476.596	92.94
476.814	96.94
477.033	87.94
477.252	81.94
477.471	82.94
477.69	89.94
477.908	89.94
478.127	84.94
478.346	82.94
478.564	95.94
478.783	79.94
479.002	93.94
479.22	88.94
479.439	90.94
479.658	85.94
479.876	82.94
480.095	98.94
480.313	85.94
480.532	89.94
480.751	98.94
480.969	117.94
481.188	176.94
481.406	138.94
481.624	95.94
481.843	90.94
482.061	82.94
482.28	88.94
482.498	77.94
482.717	84.94
482.935	86.94
483.153	87.94
483.372	92.94
483.59	98.94
483.808	92.94
484.027	85.94
484.245	84.94
484.463	93.94
484.681	93.94
484.9	87.94
485.118	81.94
485.336	86.94
485.554	109.94
485.772	107.94
485.99	109.94
486.209	103.94
486.427	105.94
486.645	93.94
486.863	106.94
487.081	95.94
487.299	100.94
487.517	97.94
487.735	90.94
487.953	96.94
488.171	89.94
488.389	96.94
488.607	103.94
488.825	88.94
489.043	67.94
489.261	93.94
489.479	82.94
489.696	91.94
489.914	91.94
490.132	97.94
490.35	96.94
490.568	96.94
490.786	97.94
491.003	86.94
491.221	83.94
491.439	108.94
491.657	78.94
491.874	95.94
492.092	90.94
492.31	80.94
492.527	86.94
492.745	87.94
492.963	102.94
493.18	78.94
493.398	97.94
493.615	104.94
493.833	90.94
494.05	93.94
494.268	96.94
494.485	93.94
494.703	109.94
494.92	98.94
495.138	101.94
495.355	90.94
495.573	88.94
495.79	77.94
496.008	108.94
496.225	94.94
496.442	87.94
496.66	94.94
496.877	81.94
497.094	86.94
497.312	68.94
497.529	97.94
497.746	93.94
497.963	91.94
498.181	88.94
498.398	95.94
498.615	107.94
498.832	95.94
499.049	86.94
499.267	102.94
499.484	102.94
499.701	86.94
499.918	102.94
500.135	93.94
500.352	89.94
500.569	84.94
500.786	80.94
501.003	76.94
501.22	92.94
501.437	100.94
501.654	94.94
501.871	91.94
502.088	101.94
502.305	94.94
502.522	80.94
502.739	88.94
502.956	78.94
503.172	92.94
503.389	92.94
503.606	101.94
503.823	98.94
504.04	93.94
504.256	103.94
504.473	68.94
504.69	88.94
504.907	93.94
505.123	84.94
505.34	91.94
505.557	88.94
505.773	92.94
505.99	71.94
506.207	107.94
506.423	97.94
506.64	91.94
506.856	84.94
507.073	103.94
507.289	98.94
507.506	98.94
507.722	94.94
507.939	107.94
508.155	84.94
508.372	99.94
508.588	92.94
508.805	101.94
509.021	89.94
509.238	106.94
509.454	93.94
509.67	103.94
509.887	112.94
510.103	135.94
510.319	183.94
510.536	622.94
510.752	1834.94
510.968	505.94
511.184	134.94
511.401	118.94
511.617	104.94
511.833	93.94
512.049	83.94
512.265	82.94
512.481	95.94
512.698	100.94
512.914	92.94
513.13	100.94
513.346	92.94
513.562	89.94
513.778	115.94
513.994	96.94
514.21	99.94
514.426	113.94
514.642	117.94
514.858	105.94
515.074	131.94
515.29	330.94
515.506	1022.94
515.721	383.94
