Data from Uncirc_1982_H10_HRD10591_00065.txt Node
Date: Wed Jan 03 12:29:38 EST 2024
User: Yrep
Spectrometer: HR+D1059
Trigger mode: 1
Integration Time (sec): 1.000000E-1
Scans to average: 1
Electric dark correction enabled: true
Nonlinearity correction enabled: false
Boxcar width: 0
XAxis mode: Wavelengths
Number of Pixels in Spectrum: 2048
>>>>>Begin Spectral Data<<<<<
223.165	-15.38
223.4	-15.38
223.635	-15.38
223.869	-21.38
224.104	-12.38
224.338	-29.38
224.573	-18.38
224.808	-20.38
225.042	-14.38
225.277	1.62
225.511	0.62
225.746	10.62
225.98	5.62
226.215	0.62
226.449	26.62
226.683	21.62
226.918	28.62
227.152	35.62
227.387	26.62
227.621	27.62
227.856	24.62
228.09	48.62
228.324	37.62
228.559	53.62
228.793	69.62
229.027	50.62
229.262	68.62
229.496	60.62
229.73	77.62
229.964	77.62
230.199	65.62
230.433	70.62
230.667	71.62
230.901	75.62
231.136	91.62
231.37	67.62
231.604	71.62
231.838	59.62
232.072	63.62
232.306	67.62
232.541	72.62
232.775	75.62
233.009	78.62
233.243	66.62
233.477	69.62
233.711	87.62
233.945	58.62
234.179	61.62
234.413	83.62
234.647	97.62
234.881	68.62
235.115	69.62
235.349	80.62
235.583	79.62
235.817	70.62
236.051	77.62
236.285	65.62
236.519	61.62
236.753	71.62
236.987	88.62
237.221	84.62
237.455	80.62
237.689	80.62
237.922	68.62
238.156	61.62
238.39	73.62
238.624	71.62
238.858	65.62
239.091	57.62
239.325	75.62
239.559	77.62
239.793	78.62
240.027	74.62
240.26	70.62
240.494	77.62
240.728	69.62
240.961	80.62
241.195	72.62
241.429	82.62
241.662	57.62
241.896	73.62
242.13	66.62
242.363	73.62
242.597	61.62
242.83	71.62
243.064	75.62
243.298	65.62
243.531	71.62
243.765	66.62
243.998	77.62
244.232	71.62
244.465	72.62
244.699	64.62
244.932	89.62
245.166	78.62
245.399	91.62
245.633	72.62
245.866	69.62
246.099	58.62
246.333	65.62
246.566	92.62
246.8	81.62
247.033	80.62
247.266	66.62
247.5	77.62
247.733	79.62
247.966	62.62
248.2	72.62
248.433	83.62
248.666	70.62
248.899	73.62
249.133	79.62
249.366	86.62
249.599	94.62
249.832	85.62
250.066	74.62
250.299	55.62
250.532	75.62
250.765	86.62
250.998	72.62
251.231	62.62
251.465	81.62
251.698	83.62
251.931	82.62
252.164	82.62
252.397	66.62
252.63	84.62
252.863	81.62
253.096	80.62
253.329	79.62
253.562	82.62
253.795	89.62
254.028	92.62
254.261	85.62
254.494	89.62
254.727	75.62
254.96	71.62
255.193	89.62
255.426	91.62
255.659	76.62
255.892	80.62
256.124	92.62
256.357	83.62
256.59	70.62
256.823	73.62
257.056	74.62
257.289	85.62
257.521	72.62
257.754	65.62
257.987	67.62
258.22	78.62
258.452	81.62
258.685	78.62
258.918	84.62
259.151	67.62
259.383	87.62
259.616	69.62
259.849	71.62
260.081	72.62
260.314	87.62
260.547	74.62
260.779	79.62
261.012	59.62
261.244	71.62
261.477	101.62
261.71	75.62
261.942	92.62
262.175	90.62
262.407	73.62
262.64	73.62
262.872	81.62
263.105	77.62
263.337	79.62
263.57	74.62
263.802	75.62
264.035	81.62
264.267	80.62
264.499	69.62
264.732	83.62
264.964	75.62
265.197	69.62
265.429	84.62
265.661	75.62
265.894	64.62
266.126	83.62
266.358	72.62
266.591	82.62
266.823	85.62
267.055	91.62
267.287	69.62
267.52	80.62
267.752	81.62
267.984	97.62
268.216	89.62
268.448	72.62
268.681	80.62
268.913	84.62
269.145	77.62
269.377	67.62
269.609	87.62
269.841	84.62
270.073	81.62
270.306	90.62
270.538	86.62
270.77	74.62
271.002	71.62
271.234	78.62
271.466	78.62
271.698	74.62
271.93	81.62
272.162	74.62
272.394	66.62
272.626	91.62
272.858	71.62
273.09	86.62
273.322	77.62
273.553	90.62
273.785	79.62
274.017	88.62
274.249	75.62
274.481	79.62
274.713	79.62
274.945	77.62
275.176	79.62
275.408	78.62
275.64	81.62
275.872	80.62
276.104	80.62
276.335	91.62
276.567	90.62
276.799	99.62
277.031	100.62
277.262	102.62
277.494	98.62
277.726	84.62
277.957	89.62
278.189	98.62
278.421	87.62
278.652	81.62
278.884	83.62
279.115	91.62
279.347	68.62
279.579	85.62
279.81	83.62
280.042	91.62
280.273	87.62
280.505	82.62
280.736	81.62
280.968	83.62
281.199	78.62
281.431	91.62
281.662	84.62
281.894	77.62
282.125	81.62
282.356	115.62
282.588	121.62
282.819	90.62
283.051	81.62
283.282	87.62
283.513	85.62
283.745	81.62
283.976	83.62
284.207	78.62
284.439	80.62
284.67	95.62
284.901	81.62
285.132	103.62
285.364	74.62
285.595	77.62
285.826	81.62
286.057	83.62
286.288	83.62
286.52	80.62
286.751	97.62
286.982	89.62
287.213	73.62
287.444	81.62
287.675	72.62
287.906	79.62
288.138	81.62
288.369	89.62
288.6	91.62
288.831	88.62
289.062	79.62
289.293	91.62
289.524	81.62
289.755	74.62
289.986	88.62
290.217	83.62
290.448	89.62
290.679	87.62
290.91	90.62
291.141	86.62
291.371	83.62
291.602	70.62
291.833	85.62
292.064	84.62
292.295	89.62
292.526	89.62
292.757	90.62
292.987	103.62
293.218	75.62
293.449	78.62
293.68	93.62
293.91	81.62
294.141	96.62
294.372	100.62
294.603	92.62
294.833	87.62
295.064	93.62
295.295	79.62
295.525	90.62
295.756	90.62
295.987	103.62
296.217	129.62
296.448	111.62
296.679	75.62
296.909	78.62
297.14	83.62
297.37	93.62
297.601	93.62
297.831	83.62
298.062	78.62
298.292	87.62
298.523	74.62
298.753	87.62
298.984	81.62
299.214	90.62
299.445	87.62
299.675	85.62
299.905	93.62
300.136	66.62
300.366	83.62
300.597	84.62
300.827	95.62
301.057	85.62
301.288	99.62
301.518	85.62
301.748	76.62
301.979	93.62
302.209	88.62
302.439	81.62
302.669	86.62
302.9	76.62
303.13	82.62
303.36	81.62
303.59	82.62
303.82	101.62
304.051	81.62
304.281	79.62
304.511	82.62
304.741	90.62
304.971	79.62
305.201	92.62
305.431	83.62
305.661	74.62
305.891	87.62
306.121	99.62
306.352	97.62
306.582	109.62
306.812	93.62
307.042	74.62
307.272	100.62
307.502	89.62
307.731	89.62
307.961	86.62
308.191	81.62
308.421	66.62
308.651	91.62
308.881	85.62
309.111	104.62
309.341	84.62
309.571	87.62
309.8	87.62
310.03	91.62
310.26	86.62
310.49	99.62
310.72	103.62
310.949	82.62
311.179	97.62
311.409	83.62
311.639	96.62
311.868	98.62
312.098	94.62
312.328	74.62
312.557	93.62
312.787	89.62
313.017	91.62
313.246	83.62
313.476	82.62
313.706	88.62
313.935	82.62
314.165	96.62
314.394	93.62
314.624	89.62
314.853	95.62
315.083	97.62
315.312	85.62
315.542	89.62
315.771	86.62
316.001	86.62
316.23	99.62
316.46	98.62
316.689	93.62
316.919	89.62
317.148	85.62
317.377	93.62
317.607	93.62
317.836	78.62
318.065	85.62
318.295	93.62
318.524	81.62
318.753	85.62
318.983	86.62
319.212	92.62
319.441	102.62
319.67	92.62
319.9	85.62
320.129	83.62
320.358	97.62
320.587	96.62
320.816	96.62
321.046	103.62
321.275	89.62
321.504	97.62
321.733	85.62
321.962	89.62
322.191	101.62
322.42	94.62
322.649	94.62
322.878	102.62
323.108	99.62
323.337	98.62
323.566	114.62
323.795	132.62
324.024	173.62
324.253	307.62
324.482	663.62
324.71	1313.62
324.939	1716.62
325.168	627.62
325.397	192.62
325.626	132.62
325.855	114.62
326.084	112.62
326.313	123.62
326.542	121.62
326.77	195.62
326.999	393.62
327.228	746.62
327.457	1356.62
327.686	1079.62
327.914	305.62
328.143	167.62
328.372	135.62
328.6	120.62
328.829	117.62
329.058	123.62
329.287	101.62
329.515	110.62
329.744	93.62
329.972	103.62
330.201	111.62
330.43	105.62
330.658	120.62
330.887	125.62
331.115	105.62
331.344	90.62
331.572	89.62
331.801	103.62
332.03	98.62
332.258	98.62
332.486	90.62
332.715	78.62
332.943	76.62
333.172	88.62
333.4	110.62
333.629	113.62
333.857	104.62
334.085	104.62
334.314	104.62
334.542	116.62
334.771	120.62
334.999	108.62
335.227	89.62
335.455	106.62
335.684	84.62
335.912	86.62
336.14	90.62
336.369	84.62
336.597	90.62
336.825	91.62
337.053	72.62
337.281	80.62
337.51	77.62
337.738	98.62
337.966	83.62
338.194	82.62
338.422	85.62
338.65	101.62
338.878	94.62
339.106	91.62
339.334	96.62
339.562	87.62
339.79	93.62
340.018	75.62
340.246	87.62
340.474	88.62
340.702	95.62
340.93	91.62
341.158	95.62
341.386	100.62
341.614	96.62
341.842	102.62
342.07	85.62
342.298	83.62
342.526	89.62
342.754	97.62
342.981	90.62
343.209	87.62
343.437	100.62
343.665	89.62
343.893	83.62
344.12	95.62
344.348	92.62
344.576	97.62
344.804	87.62
345.031	83.62
345.259	93.62
345.487	93.62
345.714	95.62
345.942	85.62
346.17	80.62
346.397	79.62
346.625	91.62
346.853	83.62
347.08	96.62
347.308	93.62
347.535	95.62
347.763	102.62
347.99	77.62
348.218	87.62
348.445	101.62
348.673	85.62
348.9	82.62
349.128	99.62
349.355	92.62
349.583	93.62
349.81	84.62
350.037	92.62
350.265	89.62
350.492	79.62
350.72	92.62
350.947	82.62
351.174	112.62
351.402	105.62
351.629	91.62
351.856	85.62
352.083	94.62
352.311	96.62
352.538	93.62
352.765	99.62
352.992	112.62
353.22	105.62
353.447	105.62
353.674	94.62
353.901	92.62
354.128	81.62
354.355	90.62
354.583	84.62
354.81	93.62
355.037	101.62
355.264	87.62
355.491	93.62
355.718	91.62
355.945	95.62
356.172	99.62
356.399	99.62
356.626	94.62
356.853	100.62
357.08	98.62
357.307	95.62
357.534	81.62
357.761	84.62
357.988	89.62
358.215	83.62
358.441	89.62
358.668	88.62
358.895	87.62
359.122	94.62
359.349	93.62
359.576	98.62
359.802	89.62
360.029	104.62
360.256	108.62
360.483	96.62
360.709	92.62
360.936	82.62
361.163	89.62
361.39	91.62
361.616	80.62
361.843	95.62
362.07	77.62
362.296	80.62
362.523	95.62
362.749	86.62
362.976	88.62
363.203	81.62
363.429	88.62
363.656	87.62
363.882	95.62
364.109	92.62
364.335	91.62
364.562	86.62
364.788	94.62
365.015	82.62
365.241	86.62
365.468	88.62
365.694	104.62
365.92	94.62
366.147	82.62
366.373	80.62
366.599	89.62
366.826	97.62
367.052	94.62
367.278	73.62
367.505	77.62
367.731	81.62
367.957	98.62
368.184	79.62
368.41	92.62
368.636	87.62
368.862	100.62
369.089	113.62
369.315	93.62
369.541	90.62
369.767	68.62
369.993	67.62
370.219	85.62
370.445	83.62
370.672	89.62
370.898	93.62
371.124	91.62
371.35	77.62
371.576	90.62
371.802	71.62
372.028	79.62
372.254	85.62
372.48	97.62
372.706	83.62
372.932	90.62
373.158	85.62
373.384	95.62
373.61	88.62
373.835	73.62
374.061	72.62
374.287	94.62
374.513	78.62
374.739	90.62
374.965	99.62
375.191	96.62
375.416	97.62
375.642	86.62
375.868	83.62
376.094	82.62
376.319	93.62
376.545	91.62
376.771	81.62
376.997	81.62
377.222	85.62
377.448	90.62
377.674	90.62
377.899	88.62
378.125	94.62
378.35	94.62
378.576	107.62
378.802	98.62
379.027	90.62
379.253	90.62
379.478	87.62
379.704	96.62
379.929	95.62
380.155	93.62
380.38	99.62
380.606	76.62
380.831	95.62
381.057	93.62
381.282	87.62
381.507	80.62
381.733	88.62
381.958	96.62
382.184	89.62
382.409	104.62
382.634	101.62
382.86	93.62
383.085	95.62
383.31	87.62
383.535	87.62
383.761	110.62
383.986	91.62
384.211	89.62
384.436	86.62
384.662	103.62
384.887	97.62
385.112	111.62
385.337	107.62
385.562	117.62
385.787	89.62
386.013	102.62
386.238	117.62
386.463	112.62
386.688	111.62
386.913	99.62
387.138	87.62
387.363	105.62
387.588	113.62
387.813	112.62
388.038	92.62
388.263	87.62
388.488	99.62
388.713	96.62
388.938	104.62
389.163	101.62
389.387	91.62
389.612	103.62
389.837	90.62
390.062	83.62
390.287	103.62
390.512	97.62
390.736	82.62
390.961	87.62
391.186	84.62
391.411	89.62
391.636	99.62
391.86	72.62
392.085	74.62
392.31	84.62
392.534	91.62
392.759	95.62
392.984	64.62
393.208	77.62
393.433	83.62
393.658	83.62
393.882	74.62
394.107	88.62
394.331	91.62
394.556	88.62
394.78	72.62
395.005	91.62
395.229	77.62
395.454	83.62
395.678	72.62
395.903	91.62
396.127	93.62
396.352	87.62
396.576	85.62
396.801	80.62
397.025	88.62
397.249	96.62
397.474	84.62
397.698	83.62
397.922	87.62
398.147	77.62
398.371	83.62
398.595	87.62
398.82	83.62
399.044	84.62
399.268	99.62
399.492	70.62
399.717	93.62
399.941	81.62
400.165	89.62
400.389	81.62
400.613	95.62
400.837	84.62
401.062	89.62
401.286	82.62
401.51	93.62
401.734	82.62
401.958	92.62
402.182	90.62
402.406	122.62
402.63	95.62
402.854	86.62
403.078	86.62
403.302	78.62
403.526	86.62
403.75	89.62
403.974	83.62
404.198	88.62
404.422	89.62
404.645	95.62
404.869	83.62
405.093	95.62
405.317	84.62
405.541	80.62
405.765	95.62
405.988	104.62
406.212	134.62
406.436	170.62
406.66	129.62
406.883	78.62
407.107	83.62
407.331	98.62
407.555	94.62
407.778	86.62
408.002	87.62
408.226	79.62
408.449	85.62
408.673	94.62
408.896	93.62
409.12	100.62
409.344	72.62
409.567	93.62
409.791	94.62
410.014	102.62
410.238	90.62
410.461	81.62
410.685	103.62
410.908	83.62
411.132	93.62
411.355	93.62
411.578	85.62
411.802	92.62
412.025	84.62
412.249	70.62
412.472	89.62
412.695	97.62
412.919	76.62
413.142	79.62
413.365	90.62
413.589	81.62
413.812	77.62
414.035	80.62
414.258	89.62
414.482	84.62
414.705	87.62
414.928	74.62
415.151	87.62
415.374	88.62
415.597	84.62
415.821	91.62
416.044	73.62
416.267	87.62
416.49	65.62
416.713	88.62
416.936	85.62
417.159	82.62
417.382	79.62
417.605	79.62
417.828	91.62
418.051	75.62
418.274	102.62
418.497	94.62
418.72	88.62
418.943	77.62
419.166	64.62
419.389	99.62
419.611	86.62
419.834	87.62
420.057	92.62
420.28	83.62
420.503	90.62
420.726	89.62
420.948	75.62
421.171	85.62
421.394	102.62
421.617	86.62
421.839	69.62
422.062	71.62
422.285	100.62
422.507	102.62
422.73	106.62
422.953	89.62
423.175	74.62
423.398	94.62
423.621	80.62
423.843	80.62
424.066	78.62
424.288	83.62
424.511	86.62
424.733	85.62
424.956	102.62
425.178	86.62
425.401	96.62
425.623	96.62
425.846	85.62
426.068	92.62
426.291	95.62
426.513	88.62
426.735	97.62
426.958	81.62
427.18	96.62
427.402	124.62
427.625	129.62
427.847	133.62
428.069	113.62
428.292	90.62
428.514	91.62
428.736	85.62
428.958	86.62
429.181	85.62
429.403	68.62
429.625	82.62
429.847	75.62
430.069	95.62
430.292	81.62
430.514	99.62
430.736	90.62
430.958	85.62
431.18	83.62
431.402	86.62
431.624	90.62
431.846	86.62
432.068	79.62
432.29	84.62
432.512	87.62
432.734	88.62
432.956	81.62
433.178	91.62
433.4	101.62
433.622	81.62
433.844	88.62
434.066	107.62
434.287	93.62
434.509	89.62
434.731	74.62
434.953	85.62
435.175	79.62
435.397	83.62
435.618	92.62
435.84	87.62
436.062	113.62
436.284	102.62
436.505	86.62
436.727	85.62
436.949	86.62
437.17	71.62
437.392	80.62
437.614	93.62
437.835	102.62
438.057	107.62
438.278	83.62
438.5	100.62
438.721	109.62
438.943	98.62
439.165	88.62
439.386	85.62
439.608	99.62
439.829	94.62
440.05	101.62
440.272	122.62
440.493	103.62
440.715	79.62
440.936	78.62
441.158	68.62
441.379	78.62
441.6	89.62
441.822	87.62
442.043	85.62
442.264	91.62
442.486	94.62
442.707	71.62
442.928	98.62
443.149	107.62
443.371	112.62
443.592	92.62
443.813	111.62
444.034	95.62
444.255	90.62
444.476	93.62
444.698	96.62
444.919	96.62
445.14	130.62
445.361	106.62
445.582	103.62
445.803	116.62
446.024	99.62
446.245	101.62
446.466	90.62
446.687	81.62
446.908	91.62
447.129	82.62
447.35	86.62
447.571	83.62
447.792	89.62
448.013	82.62
448.234	102.62
448.455	90.62
448.675	105.62
448.896	103.62
449.117	87.62
449.338	99.62
449.559	114.62
449.779	114.62
450	95.62
450.221	94.62
450.442	93.62
450.662	101.62
450.883	101.62
451.104	85.62
451.324	69.62
451.545	85.62
451.766	89.62
451.986	86.62
452.207	81.62
452.428	95.62
452.648	86.62
452.869	91.62
453.089	101.62
453.31	105.62
453.53	84.62
453.751	93.62
453.971	105.62
454.192	91.62
454.412	91.62
454.633	86.62
454.853	80.62
455.073	70.62
455.294	89.62
455.514	105.62
455.734	83.62
455.955	83.62
456.175	77.62
456.395	82.62
456.616	67.62
456.836	101.62
457.056	77.62
457.276	71.62
457.497	85.62
457.717	86.62
457.937	70.62
458.157	69.62
458.377	83.62
458.598	102.62
458.818	114.62
459.038	122.62
459.258	101.62
459.478	84.62
459.698	66.62
459.918	90.62
460.138	79.62
460.358	84.62
460.578	78.62
460.798	75.62
461.018	87.62
461.238	89.62
461.458	91.62
461.678	85.62
461.898	85.62
462.118	86.62
462.338	81.62
462.558	84.62
462.777	73.62
462.997	83.62
463.217	73.62
463.437	81.62
463.657	88.62
463.876	86.62
464.096	93.62
464.316	83.62
464.536	69.62
464.755	90.62
464.975	91.62
465.195	137.62
465.414	125.62
465.634	93.62
465.854	78.62
466.073	81.62
466.293	85.62
466.512	91.62
466.732	75.62
466.951	81.62
467.171	93.62
467.391	96.62
467.61	88.62
467.829	86.62
468.049	90.62
468.268	93.62
468.488	73.62
468.707	87.62
468.927	81.62
469.146	83.62
469.365	90.62
469.585	87.62
469.804	87.62
470.023	95.62
470.243	82.62
470.462	83.62
470.681	87.62
470.901	92.62
471.12	85.62
471.339	104.62
471.558	73.62
471.777	86.62
471.997	81.62
472.216	108.62
472.435	115.62
472.654	93.62
472.873	89.62
473.092	70.62
473.311	85.62
473.53	91.62
473.749	101.62
473.968	97.62
474.187	94.62
474.406	89.62
474.625	81.62
474.844	65.62
475.063	71.62
475.282	78.62
475.501	84.62
475.72	94.62
475.939	91.62
476.158	89.62
476.377	77.62
476.596	75.62
476.814	88.62
477.033	95.62
477.252	73.62
477.471	79.62
477.69	83.62
477.908	80.62
478.127	88.62
478.346	83.62
478.564	91.62
478.783	74.62
479.002	87.62
479.22	91.62
479.439	94.62
479.658	94.62
479.876	93.62
480.095	90.62
480.313	83.62
480.532	86.62
480.751	102.62
480.969	108.62
481.188	187.62
481.406	135.62
481.624	101.62
481.843	74.62
482.061	84.62
482.28	87.62
482.498	79.62
482.717	83.62
482.935	96.62
483.153	70.62
483.372	92.62
483.59	97.62
483.808	93.62
484.027	89.62
484.245	88.62
484.463	94.62
484.681	113.62
484.9	95.62
485.118	90.62
485.336	91.62
485.554	106.62
485.772	82.62
485.99	105.62
486.209	90.62
486.427	94.62
486.645	91.62
486.863	104.62
487.081	94.62
487.299	95.62
487.517	91.62
487.735	83.62
487.953	83.62
488.171	95.62
488.389	86.62
488.607	86.62
488.825	98.62
489.043	87.62
489.261	98.62
489.479	70.62
489.696	95.62
489.914	71.62
490.132	79.62
490.35	90.62
490.568	97.62
490.786	83.62
491.003	91.62
491.221	98.62
491.439	84.62
491.657	91.62
491.874	103.62
492.092	82.62
492.31	90.62
492.527	104.62
492.745	84.62
492.963	83.62
493.18	90.62
493.398	100.62
493.615	92.62
493.833	112.62
494.05	84.62
494.268	82.62
494.485	87.62
494.703	81.62
494.92	86.62
495.138	87.62
495.355	101.62
495.573	96.62
495.79	71.62
496.008	77.62
496.225	89.62
496.442	95.62
496.66	101.62
496.877	86.62
497.094	85.62
497.312	82.62
497.529	78.62
497.746	81.62
497.963	87.62
498.181	96.62
498.398	90.62
498.615	90.62
498.832	89.62
499.049	87.62
499.267	87.62
499.484	86.62
499.701	97.62
499.918	93.62
500.135	94.62
500.352	79.62
500.569	99.62
500.786	92.62
501.003	91.62
501.22	80.62
501.437	96.62
501.654	86.62
501.871	104.62
502.088	91.62
502.305	84.62
502.522	83.62
502.739	88.62
502.956	85.62
503.172	83.62
503.389	83.62
503.606	101.62
503.823	91.62
504.04	88.62
504.256	99.62
504.473	104.62
504.69	77.62
504.907	93.62
505.123	88.62
505.34	79.62
505.557	98.62
505.773	88.62
505.99	98.62
506.207	84.62
506.423	83.62
506.64	103.62
506.856	87.62
507.073	83.62
507.289	80.62
507.506	86.62
507.722	93.62
507.939	95.62
508.155	88.62
508.372	88.62
508.588	74.62
508.805	95.62
509.021	97.62
509.238	86.62
509.454	83.62
509.67	106.62
509.887	100.62
510.103	120.62
510.319	195.62
510.536	618.62
510.752	1847.62
510.968	533.62
511.184	137.62
511.401	99.62
511.617	125.62
511.833	79.62
512.049	95.62
512.265	83.62
512.481	81.62
512.698	96.62
512.914	98.62
513.13	94.62
513.346	81.62
513.562	88.62
513.778	102.62
513.994	95.62
514.21	97.62
514.426	102.62
514.642	109.62
514.858	105.62
515.074	134.62
515.29	337.62
515.506	1059.62
515.721	374.62
515.937	123.62
516.153	96.62
516.369	93.62
516.585	91.62
516.801	91.62
517.016	88.62
517.232	81.62
