Data from Uncirc_1982_H10_HRD10591_00071.txt Node
Date: Wed Jan 03 12:29:39 EST 2024
User: Yrep
Spectrometer: HR+D1059
Trigger mode: 1
Integration Time (sec): 1.000000E-1
Scans to average: 1
Electric dark correction enabled: true
Nonlinearity correction enabled: false
Boxcar width: 0
XAxis mode: Wavelengths
Number of Pixels in Spectrum: 2048
>>>>>Begin Spectral Data<<<<<
223.165	-19.06
223.4	-19.06
223.635	-19.06
223.869	-26.06
224.104	-15.06
224.338	-3.06
224.573	-16.06
224.808	-14.06
225.042	-2.06
225.277	2.94
225.511	2.94
225.746	1.94
225.98	-3.06
226.215	9.94
226.449	25.94
226.683	21.94
226.918	7.94
227.152	24.94
227.387	28.94
227.621	43.94
227.856	44.94
228.09	47.94
228.324	50.94
228.559	65.94
228.793	51.94
229.027	61.94
229.262	59.94
229.496	66.94
229.73	89.94
229.964	83.94
230.199	73.94
230.433	78.94
230.667	92.94
230.901	94.94
231.136	66.94
231.37	65.94
231.604	78.94
231.838	62.94
232.072	68.94
232.306	83.94
232.541	67.94
232.775	78.94
233.009	82.94
233.243	75.94
233.477	86.94
233.711	75.94
233.945	75.94
234.179	82.94
234.413	72.94
234.647	75.94
234.881	84.94
235.115	99.94
235.349	75.94
235.583	69.94
235.817	84.94
236.051	90.94
236.285	76.94
236.519	79.94
236.753	77.94
236.987	57.94
237.221	65.94
237.455	77.94
237.689	85.94
237.922	88.94
238.156	60.94
238.39	66.94
238.624	71.94
238.858	72.94
239.091	89.94
239.325	84.94
239.559	73.94
239.793	79.94
240.027	82.94
240.26	74.94
240.494	81.94
240.728	86.94
240.961	69.94
241.195	86.94
241.429	76.94
241.662	63.94
241.896	86.94
242.13	76.94
242.363	73.94
242.597	68.94
242.83	77.94
243.064	78.94
243.298	76.94
243.531	77.94
243.765	76.94
243.998	83.94
244.232	83.94
244.465	79.94
244.699	75.94
244.932	76.94
245.166	74.94
245.399	83.94
245.633	86.94
245.866	68.94
246.099	84.94
246.333	84.94
246.566	91.94
246.8	70.94
247.033	67.94
247.266	82.94
247.5	67.94
247.733	83.94
247.966	93.94
248.2	82.94
248.433	81.94
248.666	76.94
248.899	74.94
249.133	68.94
249.366	85.94
249.599	99.94
249.832	88.94
250.066	77.94
250.299	76.94
250.532	79.94
250.765	86.94
250.998	84.94
251.231	92.94
251.465	77.94
251.698	78.94
251.931	76.94
252.164	80.94
252.397	75.94
252.63	75.94
252.863	86.94
253.096	73.94
253.329	73.94
253.562	76.94
253.795	91.94
254.028	83.94
254.261	73.94
254.494	70.94
254.727	75.94
254.96	85.94
255.193	83.94
255.426	89.94
255.659	70.94
255.892	77.94
256.124	85.94
256.357	73.94
256.59	75.94
256.823	93.94
257.056	82.94
257.289	70.94
257.521	98.94
257.754	92.94
257.987	88.94
258.22	85.94
258.452	86.94
258.685	82.94
258.918	84.94
259.151	88.94
259.383	84.94
259.616	89.94
259.849	100.94
260.081	81.94
260.314	78.94
260.547	89.94
260.779	87.94
261.012	72.94
261.244	89.94
261.477	89.94
261.71	94.94
261.942	90.94
262.175	95.94
262.407	90.94
262.64	89.94
262.872	82.94
263.105	85.94
263.337	95.94
263.57	95.94
263.802	85.94
264.035	91.94
264.267	98.94
264.499	90.94
264.732	93.94
264.964	84.94
265.197	86.94
265.429	85.94
265.661	74.94
265.894	89.94
266.126	95.94
266.358	96.94
266.591	90.94
266.823	86.94
267.055	85.94
267.287	84.94
267.52	73.94
267.752	83.94
267.984	87.94
268.216	95.94
268.448	77.94
268.681	86.94
268.913	81.94
269.145	91.94
269.377	95.94
269.609	90.94
269.841	91.94
270.073	88.94
270.306	77.94
270.538	87.94
270.77	69.94
271.002	90.94
271.234	82.94
271.466	89.94
271.698	97.94
271.93	99.94
272.162	89.94
272.394	89.94
272.626	90.94
272.858	82.94
273.09	75.94
273.322	89.94
273.553	86.94
273.785	98.94
274.017	102.94
274.249	95.94
274.481	89.94
274.713	84.94
274.945	82.94
275.176	81.94
275.408	88.94
275.64	89.94
275.872	90.94
276.104	83.94
276.335	94.94
276.567	105.94
276.799	85.94
277.031	95.94
277.262	87.94
277.494	93.94
277.726	90.94
277.957	90.94
278.189	97.94
278.421	97.94
278.652	93.94
278.884	81.94
279.115	77.94
279.347	85.94
279.579	73.94
279.81	94.94
280.042	78.94
280.273	88.94
280.505	85.94
280.736	83.94
280.968	77.94
281.199	84.94
281.431	89.94
281.662	90.94
281.894	95.94
282.125	89.94
282.356	98.94
282.588	123.94
282.819	110.94
283.051	93.94
283.282	101.94
283.513	84.94
283.745	89.94
283.976	84.94
284.207	104.94
284.439	109.94
284.67	87.94
284.901	93.94
285.132	90.94
285.364	91.94
285.595	75.94
285.826	80.94
286.057	88.94
286.288	76.94
286.52	85.94
286.751	77.94
286.982	90.94
287.213	83.94
287.444	101.94
287.675	96.94
287.906	95.94
288.138	88.94
288.369	88.94
288.6	82.94
288.831	87.94
289.062	88.94
289.293	84.94
289.524	92.94
289.755	88.94
289.986	83.94
290.217	93.94
290.448	82.94
290.679	94.94
290.91	92.94
291.141	78.94
291.371	75.94
291.602	78.94
291.833	93.94
292.064	92.94
292.295	68.94
292.526	95.94
292.757	90.94
292.987	85.94
293.218	84.94
293.449	82.94
293.68	101.94
293.91	95.94
294.141	93.94
294.372	86.94
294.603	86.94
294.833	75.94
295.064	85.94
295.295	89.94
295.525	77.94
295.756	101.94
295.987	108.94
296.217	123.94
296.448	111.94
296.679	93.94
296.909	77.94
297.14	98.94
297.37	93.94
297.601	94.94
297.831	87.94
298.062	95.94
298.292	78.94
298.523	89.94
298.753	84.94
298.984	75.94
299.214	89.94
299.445	84.94
299.675	77.94
299.905	109.94
300.136	94.94
300.366	88.94
300.597	90.94
300.827	85.94
301.057	111.94
301.288	104.94
301.518	105.94
301.748	96.94
301.979	97.94
302.209	78.94
302.439	100.94
302.669	81.94
302.9	88.94
303.13	95.94
303.36	82.94
303.59	92.94
303.82	99.94
304.051	109.94
304.281	98.94
304.511	91.94
304.741	85.94
304.971	94.94
305.201	95.94
305.431	86.94
305.661	89.94
305.891	81.94
306.121	107.94
306.352	102.94
306.582	92.94
306.812	88.94
307.042	115.94
307.272	102.94
307.502	100.94
307.731	91.94
307.961	92.94
308.191	84.94
308.421	94.94
308.651	103.94
308.881	85.94
309.111	94.94
309.341	102.94
309.571	102.94
309.8	88.94
310.03	103.94
310.26	116.94
310.49	90.94
310.72	102.94
310.949	97.94
311.179	89.94
311.409	91.94
311.639	90.94
311.868	98.94
312.098	82.94
312.328	95.94
312.557	102.94
312.787	94.94
313.017	98.94
313.246	78.94
313.476	96.94
313.706	93.94
313.935	92.94
314.165	91.94
314.394	89.94
314.624	90.94
314.853	93.94
315.083	101.94
315.312	88.94
315.542	94.94
315.771	106.94
316.001	90.94
316.23	100.94
316.46	93.94
316.689	103.94
316.919	94.94
317.148	96.94
317.377	94.94
317.607	90.94
317.836	94.94
318.065	91.94
318.295	95.94
318.524	91.94
318.753	88.94
318.983	86.94
319.212	86.94
319.441	99.94
319.67	103.94
319.9	97.94
320.129	99.94
320.358	109.94
320.587	106.94
320.816	94.94
321.046	105.94
321.275	85.94
321.504	89.94
321.733	101.94
321.962	102.94
322.191	93.94
322.42	101.94
322.649	102.94
322.878	108.94
323.108	106.94
323.337	115.94
323.566	123.94
323.795	136.94
324.024	189.94
324.253	335.94
324.482	705.94
324.71	1442.94
324.939	1891.94
325.168	704.94
325.397	231.94
325.626	137.94
325.855	116.94
326.084	112.94
326.313	120.94
326.542	135.94
326.77	197.94
326.999	389.94
327.228	826.94
327.457	1473.94
327.686	1161.94
327.914	327.94
328.143	174.94
328.372	149.94
328.6	115.94
328.829	124.94
329.058	113.94
329.287	114.94
329.515	106.94
329.744	85.94
329.972	107.94
330.201	125.94
330.43	136.94
330.658	100.94
330.887	123.94
331.115	101.94
331.344	90.94
331.572	108.94
331.801	103.94
332.03	102.94
332.258	106.94
332.486	102.94
332.715	94.94
332.943	99.94
333.172	98.94
333.4	94.94
333.629	99.94
333.857	106.94
334.085	104.94
334.314	100.94
334.542	135.94
334.771	118.94
334.999	101.94
335.227	94.94
335.455	79.94
335.684	102.94
335.912	95.94
336.14	94.94
336.369	104.94
336.597	91.94
336.825	94.94
337.053	83.94
337.281	100.94
337.51	87.94
337.738	98.94
337.966	98.94
338.194	94.94
338.422	102.94
338.65	88.94
338.878	99.94
339.106	102.94
339.334	86.94
339.562	89.94
339.79	98.94
340.018	97.94
340.246	93.94
340.474	86.94
340.702	92.94
340.93	85.94
341.158	97.94
341.386	109.94
341.614	105.94
341.842	92.94
342.07	95.94
342.298	106.94
342.526	91.94
342.754	91.94
342.981	99.94
343.209	97.94
343.437	107.94
343.665	104.94
343.893	90.94
344.12	99.94
344.348	90.94
344.576	96.94
344.804	97.94
345.031	87.94
345.259	88.94
345.487	101.94
345.714	79.94
345.942	95.94
346.17	95.94
346.397	86.94
346.625	97.94
346.853	87.94
347.08	96.94
347.308	104.94
347.535	105.94
347.763	92.94
347.99	87.94
348.218	86.94
348.445	94.94
348.673	95.94
348.9	109.94
349.128	105.94
349.355	91.94
349.583	94.94
349.81	89.94
350.037	97.94
350.265	92.94
350.492	99.94
350.72	97.94
350.947	106.94
351.174	105.94
351.402	120.94
351.629	115.94
351.856	100.94
352.083	101.94
352.311	104.94
352.538	108.94
352.765	109.94
352.992	117.94
353.22	101.94
353.447	91.94
353.674	93.94
353.901	88.94
354.128	102.94
354.355	106.94
354.583	90.94
354.81	90.94
355.037	104.94
355.264	91.94
355.491	104.94
355.718	94.94
355.945	107.94
356.172	104.94
356.399	107.94
356.626	88.94
356.853	95.94
357.08	91.94
357.307	97.94
357.534	102.94
357.761	101.94
357.988	94.94
358.215	93.94
358.441	105.94
358.668	104.94
358.895	94.94
359.122	102.94
359.349	104.94
359.576	94.94
359.802	96.94
360.029	99.94
360.256	101.94
360.483	89.94
360.709	93.94
360.936	90.94
361.163	108.94
361.39	94.94
361.616	93.94
361.843	88.94
362.07	86.94
362.296	88.94
362.523	90.94
362.749	97.94
362.976	78.94
363.203	81.94
363.429	86.94
363.656	85.94
363.882	102.94
364.109	90.94
364.335	99.94
364.562	87.94
364.788	98.94
365.015	102.94
365.241	105.94
365.468	94.94
365.694	106.94
365.92	99.94
366.147	75.94
366.373	88.94
366.599	85.94
366.826	87.94
367.052	91.94
367.278	105.94
367.505	95.94
367.731	87.94
367.957	107.94
368.184	101.94
368.41	95.94
368.636	112.94
368.862	107.94
369.089	112.94
369.315	85.94
369.541	85.94
369.767	92.94
369.993	87.94
370.219	94.94
370.445	89.94
370.672	96.94
370.898	97.94
371.124	106.94
371.35	97.94
371.576	85.94
371.802	108.94
372.028	87.94
372.254	105.94
372.48	85.94
372.706	92.94
372.932	87.94
373.158	95.94
373.384	89.94
373.61	100.94
373.835	72.94
374.061	92.94
374.287	87.94
374.513	102.94
374.739	92.94
374.965	89.94
375.191	105.94
375.416	115.94
375.642	87.94
375.868	91.94
376.094	99.94
376.319	103.94
376.545	90.94
376.771	82.94
376.997	82.94
377.222	94.94
377.448	103.94
377.674	102.94
377.899	86.94
378.125	102.94
378.35	104.94
378.576	106.94
378.802	90.94
379.027	95.94
379.253	93.94
379.478	94.94
379.704	91.94
379.929	93.94
380.155	92.94
380.38	92.94
380.606	101.94
380.831	101.94
381.057	108.94
381.282	108.94
381.507	96.94
381.733	106.94
381.958	105.94
382.184	97.94
382.409	101.94
382.634	90.94
382.86	89.94
383.085	97.94
383.31	91.94
383.535	108.94
383.761	116.94
383.986	104.94
384.211	98.94
384.436	107.94
384.662	95.94
384.887	83.94
385.112	115.94
385.337	102.94
385.562	103.94
385.787	107.94
386.013	108.94
386.238	110.94
386.463	111.94
386.688	119.94
386.913	100.94
387.138	108.94
387.363	99.94
387.588	89.94
387.813	95.94
388.038	100.94
388.263	113.94
388.488	103.94
388.713	102.94
388.938	89.94
389.163	121.94
389.387	101.94
389.612	94.94
389.837	91.94
390.062	103.94
390.287	91.94
390.512	89.94
390.736	90.94
390.961	97.94
391.186	99.94
391.411	93.94
391.636	93.94
391.86	83.94
392.085	89.94
392.31	79.94
392.534	91.94
392.759	91.94
392.984	87.94
393.208	81.94
393.433	94.94
393.658	97.94
393.882	84.94
394.107	70.94
394.331	83.94
394.556	93.94
394.78	102.94
395.005	82.94
395.229	78.94
395.454	72.94
395.678	88.94
395.903	99.94
396.127	78.94
396.352	82.94
396.576	86.94
396.801	88.94
397.025	82.94
397.249	81.94
397.474	96.94
397.698	87.94
397.922	93.94
398.147	92.94
398.371	95.94
398.595	89.94
398.82	84.94
399.044	99.94
399.268	89.94
399.492	83.94
399.717	83.94
399.941	101.94
400.165	83.94
400.389	91.94
400.613	96.94
400.837	91.94
401.062	93.94
401.286	92.94
401.51	97.94
401.734	99.94
401.958	91.94
402.182	109.94
402.406	136.94
402.63	111.94
402.854	86.94
403.078	94.94
403.302	88.94
403.526	95.94
403.75	87.94
403.974	86.94
404.198	90.94
404.422	115.94
404.645	90.94
404.869	101.94
405.093	94.94
405.317	103.94
405.541	101.94
405.765	87.94
405.988	112.94
406.212	141.94
406.436	185.94
406.66	125.94
406.883	89.94
407.107	93.94
407.331	93.94
407.555	100.94
407.778	93.94
408.002	91.94
408.226	89.94
408.449	76.94
408.673	105.94
408.896	93.94
409.12	103.94
409.344	88.94
409.567	99.94
409.791	87.94
410.014	99.94
410.238	101.94
410.461	99.94
410.685	84.94
410.908	94.94
411.132	113.94
411.355	107.94
411.578	97.94
411.802	95.94
412.025	93.94
412.249	91.94
412.472	97.94
412.695	100.94
412.919	87.94
413.142	87.94
413.365	81.94
413.589	82.94
413.812	78.94
414.035	98.94
414.258	96.94
414.482	81.94
414.705	82.94
414.928	92.94
415.151	89.94
415.374	91.94
415.597	91.94
415.821	94.94
416.044	99.94
416.267	83.94
416.49	93.94
416.713	106.94
416.936	86.94
417.159	70.94
417.382	88.94
417.605	99.94
417.828	102.94
418.051	86.94
418.274	91.94
418.497	84.94
418.72	91.94
418.943	99.94
419.166	90.94
419.389	96.94
419.611	97.94
419.834	103.94
420.057	99.94
420.28	86.94
420.503	96.94
420.726	81.94
420.948	101.94
421.171	90.94
421.394	83.94
421.617	90.94
421.839	72.94
422.062	93.94
422.285	90.94
422.507	79.94
422.73	94.94
422.953	95.94
423.175	97.94
423.398	98.94
423.621	90.94
423.843	83.94
424.066	83.94
424.288	95.94
424.511	109.94
424.733	109.94
424.956	98.94
425.178	97.94
425.401	95.94
425.623	94.94
425.846	79.94
426.068	82.94
426.291	87.94
426.513	85.94
426.735	93.94
426.958	106.94
427.18	112.94
427.402	106.94
427.625	138.94
427.847	117.94
428.069	98.94
428.292	85.94
428.514	78.94
428.736	92.94
428.958	86.94
429.181	94.94
429.403	81.94
429.625	75.94
429.847	87.94
430.069	106.94
430.292	93.94
430.514	86.94
430.736	91.94
430.958	84.94
431.18	77.94
431.402	84.94
431.624	78.94
431.846	89.94
432.068	93.94
432.29	85.94
432.512	94.94
432.734	92.94
432.956	101.94
433.178	77.94
433.4	93.94
433.622	91.94
433.844	94.94
434.066	82.94
434.287	87.94
434.509	78.94
434.731	81.94
434.953	84.94
435.175	75.94
435.397	85.94
435.618	96.94
435.84	87.94
436.062	108.94
436.284	94.94
436.505	95.94
436.727	91.94
436.949	85.94
437.17	100.94
437.392	69.94
437.614	88.94
437.835	102.94
438.057	96.94
438.278	101.94
438.5	103.94
438.721	108.94
438.943	98.94
439.165	83.94
439.386	79.94
439.608	89.94
439.829	95.94
440.05	115.94
440.272	125.94
440.493	106.94
440.715	94.94
440.936	93.94
441.158	95.94
441.379	89.94
441.6	92.94
441.822	94.94
442.043	102.94
442.264	102.94
442.486	96.94
442.707	109.94
442.928	84.94
443.149	113.94
443.371	110.94
443.592	106.94
443.813	117.94
444.034	98.94
444.255	83.94
444.476	87.94
444.698	91.94
444.919	87.94
445.14	120.94
445.361	125.94
445.582	108.94
445.803	107.94
446.024	109.94
446.245	115.94
446.466	110.94
446.687	97.94
446.908	69.94
447.129	92.94
447.35	101.94
447.571	85.94
447.792	100.94
448.013	90.94
448.234	100.94
448.455	95.94
448.675	94.94
448.896	101.94
449.117	100.94
449.338	94.94
449.559	134.94
449.779	119.94
450	103.94
450.221	94.94
450.442	84.94
450.662	97.94
450.883	97.94
451.104	106.94
451.324	93.94
451.545	90.94
451.766	84.94
451.986	82.94
452.207	85.94
452.428	93.94
452.648	107.94
452.869	111.94
453.089	103.94
453.31	106.94
453.53	92.94
453.751	89.94
453.971	97.94
454.192	100.94
454.412	101.94
454.633	86.94
454.853	82.94
455.073	78.94
455.294	89.94
455.514	95.94
455.734	79.94
455.955	98.94
456.175	86.94
456.395	74.94
456.616	92.94
456.836	86.94
457.056	80.94
457.276	84.94
457.497	86.94
457.717	89.94
457.937	96.94
458.157	85.94
458.377	85.94
458.598	94.94
458.818	121.94
459.038	129.94
459.258	107.94
459.478	84.94
459.698	85.94
459.918	74.94
460.138	96.94
460.358	74.94
460.578	100.94
460.798	86.94
461.018	84.94
461.238	88.94
461.458	91.94
461.678	83.94
461.898	102.94
462.118	78.94
462.338	88.94
462.558	101.94
462.777	77.94
462.997	82.94
463.217	88.94
463.437	84.94
463.657	83.94
463.876	91.94
464.096	86.94
464.316	71.94
464.536	86.94
464.755	88.94
464.975	100.94
465.195	134.94
465.414	134.94
465.634	109.94
465.854	83.94
466.073	91.94
466.293	79.94
466.512	97.94
466.732	78.94
466.951	81.94
467.171	101.94
467.391	91.94
467.61	100.94
467.829	89.94
468.049	94.94
468.268	98.94
468.488	88.94
468.707	88.94
468.927	87.94
469.146	103.94
469.365	94.94
469.585	88.94
469.804	98.94
470.023	100.94
470.243	89.94
470.462	91.94
470.681	111.94
470.901	74.94
471.12	85.94
471.339	101.94
471.558	91.94
471.777	94.94
471.997	99.94
472.216	105.94
472.435	129.94
472.654	87.94
472.873	84.94
473.092	84.94
473.311	95.94
473.53	76.94
473.749	79.94
473.968	100.94
474.187	78.94
474.406	87.94
474.625	92.94
474.844	87.94
475.063	79.94
475.282	87.94
475.501	91.94
475.72	90.94
475.939	73.94
476.158	69.94
476.377	78.94
476.596	95.94
476.814	78.94
477.033	83.94
477.252	101.94
477.471	85.94
477.69	89.94
477.908	96.94
478.127	83.94
478.346	94.94
478.564	101.94
478.783	102.94
479.002	91.94
479.22	93.94
479.439	87.94
479.658	102.94
479.876	98.94
480.095	93.94
480.313	88.94
480.532	93.94
480.751	103.94
480.969	114.94
481.188	184.94
481.406	149.94
481.624	114.94
481.843	105.94
482.061	87.94
482.28	91.94
482.498	106.94
482.717	84.94
482.935	97.94
483.153	100.94
483.372	88.94
483.59	92.94
483.808	88.94
484.027	95.94
484.245	91.94
484.463	91.94
484.681	94.94
484.9	95.94
485.118	106.94
485.336	92.94
485.554	82.94
485.772	96.94
485.99	95.94
486.209	86.94
486.427	101.94
486.645	118.94
486.863	111.94
487.081	104.94
487.299	99.94
487.517	93.94
487.735	94.94
487.953	99.94
488.171	94.94
488.389	94.94
488.607	102.94
488.825	95.94
489.043	97.94
489.261	95.94
489.479	97.94
489.696	97.94
489.914	91.94
490.132	94.94
490.35	102.94
490.568	84.94
490.786	84.94
491.003	100.94
491.221	88.94
491.439	101.94
491.657	94.94
491.874	90.94
492.092	99.94
492.31	94.94
492.527	93.94
492.745	91.94
492.963	84.94
493.18	99.94
493.398	91.94
493.615	95.94
493.833	120.94
494.05	90.94
494.268	96.94
494.485	93.94
494.703	102.94
494.92	103.94
495.138	71.94
495.355	83.94
495.573	100.94
495.79	85.94
496.008	93.94
496.225	105.94
496.442	97.94
496.66	98.94
496.877	76.94
497.094	90.94
497.312	87.94
497.529	95.94
497.746	70.94
497.963	96.94
498.181	89.94
498.398	99.94
498.615	109.94
498.832	109.94
499.049	91.94
499.267	98.94
499.484	89.94
499.701	98.94
499.918	89.94
500.135	82.94
500.352	83.94
500.569	106.94
500.786	106.94
501.003	89.94
501.22	83.94
501.437	84.94
501.654	96.94
501.871	96.94
502.088	106.94
502.305	96.94
502.522	96.94
502.739	94.94
502.956	92.94
503.172	86.94
503.389	84.94
503.606	92.94
503.823	82.94
504.04	94.94
504.256	89.94
504.473	76.94
504.69	81.94
504.907	81.94
505.123	89.94
505.34	99.94
505.557	96.94
505.773	108.94
505.99	96.94
506.207	94.94
506.423	84.94
506.64	76.94
506.856	104.94
507.073	91.94
507.289	98.94
507.506	93.94
507.722	107.94
507.939	111.94
508.155	93.94
508.372	93.94
508.588	85.94
508.805	106.94
509.021	97.94
509.238	111.94
509.454	112.94
509.67	95.94
509.887	101.94
510.103	112.94
510.319	185.94
510.536	622.94
510.752	1817.94
510.968	513.94
511.184	125.94
511.401	107.94
511.617	98.94
511.833	92.94
512.049	93.94
512.265	81.94
512.481	89.94
512.698	94.94
512.914	93.94
513.13	92.94
513.346	85.94
513.562	99.94
513.778	93.94
513.994	97.94
514.21	98.94
514.426	102.94
514.642	140.94
514.858	110.94
515.074	147.94
515.29	346.94
515.506	1049.94
