Data from Uncirc_1982_H10_HRD10591_00034.txt Node
Date: Wed Jan 03 12:29:31 EST 2024
User: Yrep
Spectrometer: HR+D1059
Trigger mode: 1
Integration Time (sec): 1.000000E-1
Scans to average: 1
Electric dark correction enabled: true
Nonlinearity correction enabled: false
Boxcar width: 0
XAxis mode: Wavelengths
Number of Pixels in Spectrum: 2048
>>>>>Begin Spectral Data<<<<<
223.165	-25.38
223.4	-25.38
223.635	-25.38
223.869	-17.38
224.104	-9.38
224.338	-11.38
224.573	-16.38
224.808	-26.38
225.042	-2.38
225.277	-5.38
225.511	2.62
225.746	-8.38
225.98	3.62
226.215	16.62
226.449	20.62
226.683	23.62
226.918	25.62
227.152	29.62
227.387	31.62
227.621	47.62
227.856	52.62
228.09	37.62
228.324	61.62
228.559	51.62
228.793	61.62
229.027	70.62
229.262	56.62
229.496	89.62
229.73	86.62
229.964	67.62
230.199	68.62
230.433	78.62
230.667	87.62
230.901	79.62
231.136	88.62
231.37	80.62
231.604	64.62
231.838	95.62
232.072	76.62
232.306	92.62
232.541	76.62
232.775	82.62
233.009	74.62
233.243	77.62
233.477	88.62
233.711	78.62
233.945	82.62
234.179	71.62
234.413	96.62
234.647	64.62
234.881	76.62
235.115	69.62
235.349	70.62
235.583	74.62
235.817	75.62
236.051	87.62
236.285	70.62
236.519	77.62
236.753	72.62
236.987	74.62
237.221	73.62
237.455	93.62
237.689	76.62
237.922	83.62
238.156	83.62
238.39	87.62
238.624	79.62
238.858	87.62
239.091	86.62
239.325	95.62
239.559	94.62
239.793	67.62
240.027	87.62
240.26	73.62
240.494	80.62
240.728	83.62
240.961	85.62
241.195	74.62
241.429	84.62
241.662	82.62
241.896	66.62
242.13	86.62
242.363	77.62
242.597	85.62
242.83	75.62
243.064	70.62
243.298	68.62
243.531	89.62
243.765	82.62
243.998	84.62
244.232	84.62
244.465	90.62
244.699	78.62
244.932	82.62
245.166	71.62
245.399	87.62
245.633	86.62
245.866	77.62
246.099	86.62
246.333	84.62
246.566	83.62
246.8	68.62
247.033	69.62
247.266	79.62
247.5	83.62
247.733	78.62
247.966	77.62
248.2	76.62
248.433	95.62
248.666	79.62
248.899	93.62
249.133	91.62
249.366	85.62
249.599	86.62
249.832	84.62
250.066	77.62
250.299	80.62
250.532	91.62
250.765	75.62
250.998	72.62
251.231	82.62
251.465	79.62
251.698	90.62
251.931	89.62
252.164	89.62
252.397	86.62
252.63	80.62
252.863	78.62
253.096	75.62
253.329	90.62
253.562	66.62
253.795	75.62
254.028	87.62
254.261	80.62
254.494	71.62
254.727	85.62
254.96	95.62
255.193	94.62
255.426	82.62
255.659	84.62
255.892	77.62
256.124	84.62
256.357	82.62
256.59	91.62
256.823	62.62
257.056	84.62
257.289	86.62
257.521	79.62
257.754	79.62
257.987	79.62
258.22	96.62
258.452	74.62
258.685	85.62
258.918	71.62
259.151	74.62
259.383	86.62
259.616	76.62
259.849	90.62
260.081	80.62
260.314	88.62
260.547	81.62
260.779	98.62
261.012	79.62
261.244	86.62
261.477	77.62
261.71	86.62
261.942	102.62
262.175	101.62
262.407	94.62
262.64	90.62
262.872	86.62
263.105	77.62
263.337	91.62
263.57	74.62
263.802	84.62
264.035	73.62
264.267	78.62
264.499	86.62
264.732	79.62
264.964	103.62
265.197	94.62
265.429	90.62
265.661	86.62
265.894	88.62
266.126	91.62
266.358	71.62
266.591	78.62
266.823	85.62
267.055	84.62
267.287	88.62
267.52	86.62
267.752	75.62
267.984	95.62
268.216	88.62
268.448	82.62
268.681	78.62
268.913	88.62
269.145	91.62
269.377	99.62
269.609	79.62
269.841	87.62
270.073	86.62
270.306	93.62
270.538	92.62
270.77	63.62
271.002	80.62
271.234	91.62
271.466	93.62
271.698	89.62
271.93	85.62
272.162	84.62
272.394	73.62
272.626	94.62
272.858	89.62
273.09	100.62
273.322	87.62
273.553	93.62
273.785	96.62
274.017	85.62
274.249	76.62
274.481	79.62
274.713	73.62
274.945	77.62
275.176	88.62
275.408	71.62
275.64	79.62
275.872	95.62
276.104	98.62
276.335	68.62
276.567	93.62
276.799	97.62
277.031	107.62
277.262	74.62
277.494	88.62
277.726	90.62
277.957	82.62
278.189	74.62
278.421	78.62
278.652	88.62
278.884	91.62
279.115	89.62
279.347	84.62
279.579	86.62
279.81	78.62
280.042	98.62
280.273	75.62
280.505	88.62
280.736	100.62
280.968	86.62
281.199	89.62
281.431	89.62
281.662	96.62
281.894	86.62
282.125	109.62
282.356	101.62
282.588	106.62
282.819	103.62
283.051	98.62
283.282	82.62
283.513	93.62
283.745	91.62
283.976	98.62
284.207	93.62
284.439	76.62
284.67	86.62
284.901	86.62
285.132	71.62
285.364	96.62
285.595	90.62
285.826	94.62
286.057	88.62
286.288	77.62
286.52	94.62
286.751	99.62
286.982	85.62
287.213	89.62
287.444	90.62
287.675	93.62
287.906	82.62
288.138	84.62
288.369	95.62
288.6	101.62
288.831	79.62
289.062	88.62
289.293	100.62
289.524	88.62
289.755	89.62
289.986	96.62
290.217	79.62
290.448	92.62
290.679	94.62
290.91	98.62
291.141	88.62
291.371	81.62
291.602	86.62
291.833	85.62
292.064	91.62
292.295	94.62
292.526	83.62
292.757	88.62
292.987	84.62
293.218	90.62
293.449	92.62
293.68	101.62
293.91	87.62
294.141	95.62
294.372	93.62
294.603	82.62
294.833	100.62
295.064	91.62
295.295	88.62
295.525	89.62
295.756	106.62
295.987	111.62
296.217	115.62
296.448	117.62
296.679	85.62
296.909	104.62
297.14	100.62
297.37	102.62
297.601	89.62
297.831	84.62
298.062	116.62
298.292	89.62
298.523	84.62
298.753	82.62
298.984	88.62
299.214	101.62
299.445	95.62
299.675	100.62
299.905	102.62
300.136	77.62
300.366	98.62
300.597	90.62
300.827	88.62
301.057	92.62
301.288	107.62
301.518	96.62
301.748	104.62
301.979	104.62
302.209	89.62
302.439	78.62
302.669	95.62
302.9	90.62
303.13	92.62
303.36	79.62
303.59	99.62
303.82	106.62
304.051	95.62
304.281	84.62
304.511	96.62
304.741	89.62
304.971	77.62
305.201	79.62
305.431	92.62
305.661	87.62
305.891	94.62
306.121	95.62
306.352	84.62
306.582	113.62
306.812	86.62
307.042	102.62
307.272	87.62
307.502	94.62
307.731	97.62
307.961	93.62
308.191	107.62
308.421	92.62
308.651	96.62
308.881	85.62
309.111	79.62
309.341	106.62
309.571	98.62
309.8	98.62
310.03	84.62
310.26	90.62
310.49	88.62
310.72	102.62
310.949	102.62
311.179	104.62
311.409	90.62
311.639	109.62
311.868	107.62
312.098	108.62
312.328	97.62
312.557	84.62
312.787	85.62
313.017	96.62
313.246	93.62
313.476	91.62
313.706	101.62
313.935	98.62
314.165	93.62
314.394	91.62
314.624	99.62
314.853	95.62
315.083	105.62
315.312	101.62
315.542	112.62
315.771	105.62
316.001	86.62
316.23	85.62
316.46	103.62
316.689	91.62
316.919	78.62
317.148	78.62
317.377	90.62
317.607	79.62
317.836	95.62
318.065	95.62
318.295	88.62
318.524	88.62
318.753	83.62
318.983	88.62
319.212	90.62
319.441	114.62
319.67	98.62
319.9	104.62
320.129	106.62
320.358	92.62
320.587	98.62
320.816	96.62
321.046	82.62
321.275	103.62
321.504	86.62
321.733	96.62
321.962	112.62
322.191	99.62
322.42	101.62
322.649	95.62
322.878	108.62
323.108	113.62
323.337	121.62
323.566	121.62
323.795	144.62
324.024	189.62
324.253	333.62
324.482	686.62
324.71	1394.62
324.939	1830.62
325.168	692.62
325.397	223.62
325.626	137.62
325.855	124.62
326.084	119.62
326.313	123.62
326.542	127.62
326.77	195.62
326.999	382.62
327.228	800.62
327.457	1453.62
327.686	1158.62
327.914	313.62
328.143	154.62
328.372	132.62
328.6	126.62
328.829	119.62
329.058	111.62
329.287	108.62
329.515	105.62
329.744	104.62
329.972	98.62
330.201	111.62
330.43	135.62
330.658	122.62
330.887	121.62
331.115	108.62
331.344	88.62
331.572	104.62
331.801	99.62
332.03	97.62
332.258	102.62
332.486	88.62
332.715	83.62
332.943	96.62
333.172	100.62
333.4	100.62
333.629	95.62
333.857	103.62
334.085	109.62
334.314	110.62
334.542	130.62
334.771	127.62
334.999	102.62
335.227	104.62
335.455	90.62
335.684	86.62
335.912	97.62
336.14	97.62
336.369	99.62
336.597	84.62
336.825	91.62
337.053	90.62
337.281	96.62
337.51	86.62
337.738	88.62
337.966	89.62
338.194	100.62
338.422	110.62
338.65	99.62
338.878	102.62
339.106	88.62
339.334	93.62
339.562	103.62
339.79	87.62
340.018	76.62
340.246	106.62
340.474	94.62
340.702	106.62
340.93	78.62
341.158	83.62
341.386	101.62
341.614	87.62
341.842	92.62
342.07	87.62
342.298	94.62
342.526	86.62
342.754	98.62
342.981	82.62
343.209	80.62
343.437	88.62
343.665	102.62
343.893	99.62
344.12	116.62
344.348	105.62
344.576	84.62
344.804	97.62
345.031	102.62
345.259	94.62
345.487	91.62
345.714	102.62
345.942	102.62
346.17	90.62
346.397	88.62
346.625	87.62
346.853	83.62
347.08	97.62
347.308	117.62
347.535	93.62
347.763	95.62
347.99	96.62
348.218	95.62
348.445	101.62
348.673	103.62
348.9	90.62
349.128	89.62
349.355	94.62
349.583	96.62
349.81	92.62
350.037	91.62
350.265	95.62
350.492	99.62
350.72	109.62
350.947	95.62
351.174	105.62
351.402	118.62
351.629	115.62
351.856	104.62
352.083	102.62
352.311	86.62
352.538	110.62
352.765	112.62
352.992	87.62
353.22	106.62
353.447	92.62
353.674	107.62
353.901	100.62
354.128	100.62
354.355	95.62
354.583	107.62
354.81	87.62
355.037	90.62
355.264	96.62
355.491	96.62
355.718	97.62
355.945	107.62
356.172	98.62
356.399	111.62
356.626	108.62
356.853	99.62
357.08	108.62
357.307	109.62
357.534	88.62
357.761	90.62
357.988	99.62
358.215	94.62
358.441	110.62
358.668	106.62
358.895	103.62
359.122	90.62
359.349	101.62
359.576	95.62
359.802	103.62
360.029	111.62
360.256	104.62
360.483	100.62
360.709	103.62
360.936	105.62
361.163	75.62
361.39	86.62
361.616	92.62
361.843	88.62
362.07	91.62
362.296	79.62
362.523	95.62
362.749	104.62
362.976	78.62
363.203	96.62
363.429	96.62
363.656	103.62
363.882	88.62
364.109	84.62
364.335	84.62
364.562	86.62
364.788	82.62
365.015	88.62
365.241	95.62
365.468	100.62
365.694	108.62
365.92	99.62
366.147	95.62
366.373	102.62
366.599	85.62
366.826	83.62
367.052	93.62
367.278	87.62
367.505	86.62
367.731	97.62
367.957	84.62
368.184	76.62
368.41	90.62
368.636	105.62
368.862	111.62
369.089	94.62
369.315	91.62
369.541	92.62
369.767	83.62
369.993	102.62
370.219	99.62
370.445	93.62
370.672	85.62
370.898	91.62
371.124	77.62
371.35	76.62
371.576	101.62
371.802	82.62
372.028	90.62
372.254	94.62
372.48	92.62
372.706	82.62
372.932	86.62
373.158	96.62
373.384	86.62
373.61	86.62
373.835	102.62
374.061	84.62
374.287	96.62
374.513	83.62
374.739	109.62
374.965	84.62
375.191	78.62
375.416	80.62
375.642	89.62
375.868	86.62
376.094	93.62
376.319	67.62
376.545	96.62
376.771	92.62
376.997	84.62
377.222	99.62
377.448	86.62
377.674	89.62
377.899	102.62
378.125	83.62
378.35	101.62
378.576	103.62
378.802	88.62
379.027	102.62
379.253	91.62
379.478	103.62
379.704	98.62
379.929	104.62
380.155	98.62
380.38	97.62
380.606	95.62
380.831	80.62
381.057	108.62
381.282	104.62
381.507	96.62
381.733	108.62
381.958	101.62
382.184	109.62
382.409	115.62
382.634	115.62
382.86	113.62
383.085	104.62
383.31	107.62
383.535	111.62
383.761	93.62
383.986	98.62
384.211	102.62
384.436	96.62
384.662	94.62
384.887	114.62
385.112	96.62
385.337	104.62
385.562	105.62
385.787	108.62
386.013	107.62
386.238	117.62
386.463	110.62
386.688	117.62
386.913	108.62
387.138	118.62
387.363	106.62
387.588	117.62
387.813	117.62
388.038	118.62
388.263	131.62
388.488	120.62
388.713	100.62
388.938	90.62
389.163	91.62
389.387	88.62
389.612	93.62
389.837	98.62
390.062	112.62
390.287	113.62
390.512	94.62
390.736	87.62
390.961	88.62
391.186	89.62
391.411	98.62
391.636	94.62
391.86	91.62
392.085	88.62
392.31	94.62
392.534	88.62
392.759	90.62
392.984	87.62
393.208	85.62
393.433	97.62
393.658	84.62
393.882	98.62
394.107	100.62
394.331	89.62
394.556	89.62
394.78	102.62
395.005	86.62
395.229	86.62
395.454	78.62
395.678	88.62
395.903	97.62
396.127	99.62
396.352	89.62
396.576	86.62
396.801	83.62
397.025	101.62
397.249	79.62
397.474	81.62
397.698	106.62
397.922	87.62
398.147	78.62
398.371	93.62
398.595	87.62
398.82	86.62
399.044	76.62
399.268	86.62
399.492	80.62
399.717	100.62
399.941	100.62
400.165	105.62
400.389	97.62
400.613	99.62
400.837	94.62
401.062	78.62
401.286	75.62
401.51	93.62
401.734	88.62
401.958	112.62
402.182	118.62
402.406	138.62
402.63	117.62
402.854	96.62
403.078	94.62
403.302	87.62
403.526	92.62
403.75	79.62
403.974	88.62
404.198	98.62
404.422	95.62
404.645	85.62
404.869	100.62
405.093	98.62
405.317	93.62
405.541	114.62
405.765	84.62
405.988	109.62
406.212	152.62
406.436	184.62
406.66	109.62
406.883	89.62
407.107	88.62
407.331	92.62
407.555	104.62
407.778	100.62
408.002	102.62
408.226	96.62
408.449	89.62
408.673	119.62
408.896	92.62
409.12	85.62
409.344	100.62
409.567	107.62
409.791	94.62
410.014	91.62
410.238	105.62
410.461	100.62
410.685	116.62
410.908	109.62
411.132	111.62
411.355	98.62
411.578	102.62
411.802	90.62
412.025	99.62
412.249	100.62
412.472	85.62
412.695	94.62
412.919	83.62
413.142	98.62
413.365	100.62
413.589	104.62
413.812	82.62
414.035	78.62
414.258	86.62
414.482	93.62
414.705	103.62
414.928	101.62
415.151	98.62
415.374	100.62
415.597	87.62
415.821	101.62
416.044	89.62
416.267	103.62
416.49	95.62
416.713	84.62
416.936	83.62
417.159	88.62
417.382	106.62
417.605	96.62
417.828	108.62
418.051	94.62
418.274	88.62
418.497	91.62
418.72	96.62
418.943	104.62
419.166	89.62
419.389	92.62
419.611	75.62
419.834	103.62
420.057	84.62
420.28	101.62
420.503	91.62
420.726	89.62
420.948	84.62
421.171	93.62
421.394	90.62
421.617	101.62
421.839	98.62
422.062	93.62
422.285	101.62
422.507	103.62
422.73	117.62
422.953	91.62
423.175	90.62
423.398	100.62
423.621	102.62
423.843	95.62
424.066	91.62
424.288	87.62
424.511	98.62
424.733	99.62
424.956	99.62
425.178	94.62
425.401	90.62
425.623	88.62
425.846	111.62
426.068	102.62
426.291	84.62
426.513	100.62
426.735	96.62
426.958	95.62
427.18	109.62
427.402	108.62
427.625	141.62
427.847	125.62
428.069	120.62
428.292	102.62
428.514	82.62
428.736	88.62
428.958	88.62
429.181	99.62
429.403	83.62
429.625	92.62
429.847	89.62
430.069	99.62
430.292	93.62
430.514	86.62
430.736	95.62
430.958	83.62
431.18	83.62
431.402	78.62
431.624	92.62
431.846	92.62
432.068	94.62
432.29	86.62
432.512	97.62
432.734	87.62
432.956	98.62
433.178	87.62
433.4	101.62
433.622	105.62
433.844	97.62
434.066	90.62
434.287	93.62
434.509	89.62
434.731	82.62
434.953	92.62
435.175	90.62
435.397	87.62
435.618	91.62
435.84	92.62
436.062	111.62
436.284	118.62
436.505	104.62
436.727	104.62
436.949	100.62
437.17	79.62
437.392	84.62
437.614	98.62
437.835	91.62
438.057	110.62
438.278	110.62
438.5	94.62
438.721	109.62
438.943	114.62
439.165	90.62
439.386	98.62
439.608	94.62
439.829	98.62
440.05	120.62
440.272	142.62
440.493	93.62
440.715	93.62
440.936	100.62
441.158	96.62
441.379	100.62
441.6	97.62
441.822	95.62
442.043	104.62
442.264	98.62
442.486	77.62
442.707	93.62
442.928	102.62
443.149	126.62
443.371	116.62
443.592	108.62
443.813	102.62
444.034	100.62
444.255	99.62
444.476	88.62
444.698	87.62
444.919	97.62
445.14	126.62
445.361	114.62
445.582	120.62
445.803	105.62
446.024	113.62
446.245	116.62
446.466	122.62
446.687	90.62
446.908	80.62
447.129	92.62
447.35	92.62
447.571	95.62
447.792	92.62
448.013	100.62
448.234	105.62
448.455	107.62
448.675	101.62
448.896	106.62
449.117	94.62
449.338	100.62
449.559	126.62
449.779	116.62
450	90.62
450.221	93.62
450.442	88.62
450.662	104.62
450.883	99.62
451.104	111.62
451.324	97.62
451.545	87.62
451.766	86.62
451.986	83.62
452.207	88.62
452.428	103.62
452.648	96.62
452.869	102.62
453.089	95.62
453.31	104.62
453.53	101.62
453.751	96.62
453.971	106.62
454.192	110.62
454.412	96.62
454.633	93.62
454.853	103.62
455.073	84.62
455.294	87.62
455.514	103.62
455.734	103.62
455.955	100.62
456.175	87.62
456.395	98.62
456.616	93.62
456.836	99.62
457.056	91.62
457.276	86.62
457.497	92.62
457.717	95.62
457.937	99.62
458.157	85.62
458.377	92.62
458.598	99.62
458.818	128.62
459.038	133.62
459.258	107.62
459.478	96.62
459.698	82.62
459.918	84.62
460.138	84.62
460.358	85.62
460.578	93.62
460.798	103.62
461.018	97.62
461.238	82.62
461.458	81.62
461.678	97.62
461.898	74.62
462.118	89.62
462.338	88.62
462.558	82.62
462.777	90.62
462.997	90.62
463.217	88.62
463.437	80.62
463.657	86.62
463.876	77.62
464.096	93.62
464.316	91.62
464.536	101.62
464.755	86.62
464.975	93.62
465.195	149.62
465.414	119.62
465.634	82.62
465.854	96.62
466.073	94.62
466.293	98.62
466.512	88.62
466.732	86.62
466.951	85.62
467.171	86.62
467.391	101.62
467.61	105.62
467.829	92.62
468.049	98.62
468.268	103.62
468.488	85.62
468.707	94.62
468.927	92.62
469.146	91.62
469.365	79.62
469.585	95.62
469.804	96.62
470.023	93.62
470.243	94.62
470.462	92.62
470.681	104.62
470.901	91.62
471.12	94.62
471.339	82.62
471.558	91.62
471.777	82.62
471.997	86.62
472.216	116.62
472.435	135.62
472.654	87.62
472.873	85.62
473.092	84.62
473.311	77.62
473.53	93.62
473.749	85.62
473.968	93.62
474.187	108.62
474.406	94.62
474.625	87.62
474.844	90.62
475.063	88.62
475.282	86.62
475.501	88.62
475.72	90.62
475.939	84.62
476.158	100.62
476.377	91.62
476.596	80.62
476.814	92.62
477.033	100.62
477.252	94.62
477.471	83.62
477.69	96.62
477.908	88.62
478.127	106.62
478.346	96.62
478.564	90.62
478.783	105.62
479.002	97.62
479.22	103.62
479.439	108.62
479.658	115.62
479.876	86.62
480.095	87.62
480.313	94.62
480.532	98.62
480.751	105.62
480.969	123.62
481.188	172.62
481.406	146.62
481.624	85.62
481.843	75.62
482.061	86.62
482.28	96.62
482.498	91.62
482.717	104.62
482.935	108.62
483.153	97.62
483.372	93.62
483.59	84.62
483.808	94.62
484.027	97.62
484.245	97.62
484.463	87.62
484.681	99.62
484.9	98.62
485.118	86.62
485.336	106.62
485.554	112.62
485.772	101.62
485.99	97.62
486.209	90.62
486.427	102.62
486.645	100.62
486.863	106.62
487.081	102.62
487.299	100.62
487.517	91.62
487.735	98.62
487.953	94.62
488.171	107.62
488.389	82.62
488.607	94.62
488.825	86.62
489.043	86.62
489.261	85.62
489.479	93.62
489.696	83.62
489.914	104.62
490.132	96.62
490.35	103.62
490.568	73.62
490.786	104.62
491.003	95.62
491.221	92.62
491.439	97.62
491.657	88.62
491.874	100.62
492.092	110.62
492.31	101.62
492.527	98.62
492.745	103.62
492.963	91.62
493.18	96.62
493.398	103.62
493.615	104.62
493.833	102.62
494.05	93.62
494.268	78.62
494.485	86.62
494.703	80.62
494.92	74.62
495.138	94.62
495.355	95.62
495.573	93.62
495.79	110.62
496.008	98.62
496.225	92.62
496.442	96.62
496.66	99.62
496.877	85.62
497.094	95.62
497.312	80.62
497.529	86.62
497.746	106.62
497.963	92.62
498.181	97.62
498.398	95.62
498.615	109.62
498.832	115.62
499.049	98.62
499.267	85.62
499.484	75.62
499.701	90.62
499.918	86.62
500.135	92.62
500.352	103.62
500.569	92.62
500.786	94.62
501.003	84.62
501.22	98.62
501.437	96.62
501.654	94.62
501.871	112.62
502.088	88.62
502.305	87.62
502.522	111.62
502.739	91.62
502.956	89.62
503.172	94.62
503.389	104.62
503.606	83.62
503.823	99.62
504.04	98.62
504.256	89.62
504.473	77.62
504.69	100.62
504.907	86.62
505.123	102.62
505.34	98.62
505.557	95.62
505.773	93.62
505.99	98.62
506.207	72.62
506.423	86.62
506.64	94.62
506.856	95.62
507.073	99.62
507.289	99.62
507.506	108.62
507.722	92.62
507.939	105.62
508.155	90.62
508.372	100.62
508.588	97.62
508.805	93.62
509.021	79.62
509.238	91.62
509.454	100.62
509.67	105.62
509.887	117.62
510.103	127.62
510.319	183.62
510.536	608.62
510.752	1816.62
510.968	516.62
511.184	148.62
511.401	110.62
511.617	107.62
511.833	98.62
512.049	94.62
512.265	105.62
512.481	92.62
512.698	87.62
512.914	87.62
513.13	100.62
513.346	101.62
513.562	108.62
513.778	98.62
513.994	96.62
514.21	108.62
514.426	119.62
514.642	110.62
