Data from Uncirc_1982_H10_HRD10591_00090.txt Node
Date: Wed Jan 03 12:29:43 EST 2024
User: Yrep
Spectrometer: HR+D1059
Trigger mode: 1
Integration Time (sec): 1.000000E-1
Scans to average: 1
Electric dark correction enabled: true
Nonlinearity correction enabled: false
Boxcar width: 0
XAxis mode: Wavelengths
Number of Pixels in Spectrum: 2048
>>>>>Begin Spectral Data<<<<<
223.165	-24.38
223.4	-24.38
223.635	-24.38
223.869	-11.38
224.104	-20.38
224.338	-17.38
224.573	-23.38
224.808	-9.38
225.042	-24.38
225.277	-7.38
225.511	12.62
225.746	7.62
225.98	13.62
226.215	5.62
226.449	30.62
226.683	10.62
226.918	26.62
227.152	30.62
227.387	46.62
227.621	30.62
227.856	41.62
228.09	48.62
228.324	60.62
228.559	49.62
228.793	65.62
229.027	71.62
229.262	80.62
229.496	69.62
229.73	71.62
229.964	85.62
230.199	64.62
230.433	66.62
230.667	63.62
230.901	70.62
231.136	89.62
231.37	84.62
231.604	81.62
231.838	80.62
232.072	76.62
232.306	73.62
232.541	70.62
232.775	72.62
233.009	100.62
233.243	85.62
233.477	72.62
233.711	87.62
233.945	77.62
234.179	85.62
234.413	83.62
234.647	77.62
234.881	70.62
235.115	103.62
235.349	90.62
235.583	76.62
235.817	82.62
236.051	84.62
236.285	86.62
236.519	71.62
236.753	79.62
236.987	71.62
237.221	75.62
237.455	84.62
237.689	77.62
237.922	78.62
238.156	73.62
238.39	81.62
238.624	74.62
238.858	83.62
239.091	80.62
239.325	79.62
239.559	88.62
239.793	86.62
240.027	90.62
240.26	88.62
240.494	89.62
240.728	76.62
240.961	84.62
241.195	74.62
241.429	62.62
241.662	68.62
241.896	82.62
242.13	78.62
242.363	80.62
242.597	68.62
242.83	85.62
243.064	86.62
243.298	82.62
243.531	82.62
243.765	68.62
243.998	76.62
244.232	73.62
244.465	81.62
244.699	66.62
244.932	77.62
245.166	80.62
245.399	82.62
245.633	74.62
245.866	80.62
246.099	78.62
246.333	86.62
246.566	89.62
246.8	88.62
247.033	72.62
247.266	67.62
247.5	81.62
247.733	81.62
247.966	88.62
248.2	82.62
248.433	84.62
248.666	87.62
248.899	88.62
249.133	86.62
249.366	97.62
249.599	82.62
249.832	98.62
250.066	105.62
250.299	86.62
250.532	70.62
250.765	82.62
250.998	74.62
251.231	80.62
251.465	69.62
251.698	91.62
251.931	80.62
252.164	85.62
252.397	72.62
252.63	64.62
252.863	76.62
253.096	92.62
253.329	86.62
253.562	87.62
253.795	88.62
254.028	87.62
254.261	77.62
254.494	74.62
254.727	90.62
254.96	99.62
255.193	55.62
255.426	82.62
255.659	89.62
255.892	85.62
256.124	71.62
256.357	92.62
256.59	100.62
256.823	74.62
257.056	84.62
257.289	66.62
257.521	82.62
257.754	77.62
257.987	75.62
258.22	83.62
258.452	82.62
258.685	84.62
258.918	71.62
259.151	86.62
259.383	89.62
259.616	82.62
259.849	86.62
260.081	84.62
260.314	90.62
260.547	75.62
260.779	84.62
261.012	90.62
261.244	87.62
261.477	86.62
261.71	99.62
261.942	99.62
262.175	123.62
262.407	99.62
262.64	80.62
262.872	74.62
263.105	83.62
263.337	86.62
263.57	80.62
263.802	85.62
264.035	85.62
264.267	92.62
264.499	83.62
264.732	88.62
264.964	80.62
265.197	87.62
265.429	100.62
265.661	72.62
265.894	73.62
266.126	88.62
266.358	73.62
266.591	72.62
266.823	84.62
267.055	89.62
267.287	102.62
267.52	88.62
267.752	82.62
267.984	77.62
268.216	84.62
268.448	71.62
268.681	73.62
268.913	80.62
269.145	90.62
269.377	74.62
269.609	81.62
269.841	75.62
270.073	74.62
270.306	73.62
270.538	98.62
270.77	85.62
271.002	85.62
271.234	92.62
271.466	80.62
271.698	75.62
271.93	84.62
272.162	75.62
272.394	90.62
272.626	93.62
272.858	94.62
273.09	94.62
273.322	86.62
273.553	83.62
273.785	95.62
274.017	83.62
274.249	86.62
274.481	86.62
274.713	94.62
274.945	91.62
275.176	85.62
275.408	96.62
275.64	96.62
275.872	84.62
276.104	84.62
276.335	96.62
276.567	100.62
276.799	108.62
277.031	95.62
277.262	91.62
277.494	79.62
277.726	69.62
277.957	76.62
278.189	98.62
278.421	77.62
278.652	92.62
278.884	97.62
279.115	84.62
279.347	87.62
279.579	92.62
279.81	76.62
280.042	91.62
280.273	94.62
280.505	84.62
280.736	77.62
280.968	80.62
281.199	88.62
281.431	83.62
281.662	83.62
281.894	107.62
282.125	91.62
282.356	103.62
282.588	109.62
282.819	92.62
283.051	80.62
283.282	82.62
283.513	81.62
283.745	88.62
283.976	93.62
284.207	80.62
284.439	88.62
284.67	85.62
284.901	91.62
285.132	89.62
285.364	92.62
285.595	81.62
285.826	84.62
286.057	86.62
286.288	90.62
286.52	92.62
286.751	69.62
286.982	76.62
287.213	96.62
287.444	87.62
287.675	96.62
287.906	101.62
288.138	89.62
288.369	91.62
288.6	91.62
288.831	98.62
289.062	88.62
289.293	101.62
289.524	73.62
289.755	90.62
289.986	84.62
290.217	85.62
290.448	67.62
290.679	82.62
290.91	90.62
291.141	98.62
291.371	92.62
291.602	97.62
291.833	77.62
292.064	79.62
292.295	82.62
292.526	74.62
292.757	93.62
292.987	77.62
293.218	91.62
293.449	86.62
293.68	93.62
293.91	92.62
294.141	92.62
294.372	80.62
294.603	88.62
294.833	97.62
295.064	91.62
295.295	87.62
295.525	91.62
295.756	97.62
295.987	106.62
296.217	115.62
296.448	114.62
296.679	89.62
296.909	82.62
297.14	85.62
297.37	87.62
297.601	89.62
297.831	86.62
298.062	90.62
298.292	90.62
298.523	94.62
298.753	94.62
298.984	97.62
299.214	88.62
299.445	102.62
299.675	76.62
299.905	82.62
300.136	74.62
300.366	75.62
300.597	93.62
300.827	82.62
301.057	100.62
301.288	102.62
301.518	101.62
301.748	94.62
301.979	108.62
302.209	90.62
302.439	104.62
302.669	74.62
302.9	78.62
303.13	86.62
303.36	102.62
303.59	94.62
303.82	111.62
304.051	81.62
304.281	88.62
304.511	84.62
304.741	77.62
304.971	92.62
305.201	89.62
305.431	80.62
305.661	90.62
305.891	90.62
306.121	84.62
306.352	100.62
306.582	111.62
306.812	93.62
307.042	80.62
307.272	94.62
307.502	93.62
307.731	98.62
307.961	91.62
308.191	84.62
308.421	96.62
308.651	93.62
308.881	86.62
309.111	97.62
309.341	98.62
309.571	97.62
309.8	93.62
310.03	101.62
310.26	101.62
310.49	102.62
310.72	104.62
310.949	99.62
311.179	99.62
311.409	101.62
311.639	90.62
311.868	102.62
312.098	98.62
312.328	90.62
312.557	88.62
312.787	101.62
313.017	92.62
313.246	96.62
313.476	93.62
313.706	77.62
313.935	91.62
314.165	88.62
314.394	97.62
314.624	93.62
314.853	95.62
315.083	89.62
315.312	98.62
315.542	96.62
315.771	91.62
316.001	89.62
316.23	101.62
316.46	73.62
316.689	94.62
316.919	89.62
317.148	95.62
317.377	98.62
317.607	90.62
317.836	105.62
318.065	100.62
318.295	81.62
318.524	73.62
318.753	81.62
318.983	100.62
319.212	92.62
319.441	101.62
319.67	110.62
319.9	79.62
320.129	90.62
320.358	84.62
320.587	93.62
320.816	93.62
321.046	98.62
321.275	86.62
321.504	92.62
321.733	88.62
321.962	98.62
322.191	112.62
322.42	101.62
322.649	96.62
322.878	101.62
323.108	109.62
323.337	120.62
323.566	132.62
323.795	137.62
324.024	189.62
324.253	347.62
324.482	734.62
324.71	1437.62
324.939	1886.62
325.168	680.62
325.397	220.62
325.626	129.62
325.855	116.62
326.084	115.62
326.313	111.62
326.542	133.62
326.77	183.62
326.999	416.62
327.228	822.62
327.457	1493.62
327.686	1186.62
327.914	318.62
328.143	172.62
328.372	140.62
328.6	102.62
328.829	116.62
329.058	110.62
329.287	103.62
329.515	101.62
329.744	124.62
329.972	100.62
330.201	116.62
330.43	123.62
330.658	126.62
330.887	122.62
331.115	109.62
331.344	97.62
331.572	108.62
331.801	104.62
332.03	93.62
332.258	97.62
332.486	83.62
332.715	102.62
332.943	93.62
333.172	101.62
333.4	101.62
333.629	109.62
333.857	111.62
334.085	111.62
334.314	103.62
334.542	128.62
334.771	114.62
334.999	102.62
335.227	98.62
335.455	94.62
335.684	99.62
335.912	98.62
336.14	97.62
336.369	102.62
336.597	89.62
336.825	95.62
337.053	84.62
337.281	89.62
337.51	98.62
337.738	82.62
337.966	91.62
338.194	82.62
338.422	105.62
338.65	85.62
338.878	98.62
339.106	89.62
339.334	101.62
339.562	94.62
339.79	80.62
340.018	83.62
340.246	84.62
340.474	98.62
340.702	83.62
340.93	85.62
341.158	84.62
341.386	94.62
341.614	101.62
341.842	86.62
342.07	84.62
342.298	90.62
342.526	89.62
342.754	96.62
342.981	89.62
343.209	87.62
343.437	98.62
343.665	103.62
343.893	95.62
344.12	85.62
344.348	96.62
344.576	100.62
344.804	89.62
345.031	90.62
345.259	96.62
345.487	97.62
345.714	105.62
345.942	103.62
346.17	85.62
346.397	81.62
346.625	92.62
346.853	87.62
347.08	84.62
347.308	97.62
347.535	98.62
347.763	106.62
347.99	98.62
348.218	92.62
348.445	93.62
348.673	85.62
348.9	94.62
349.128	96.62
349.355	92.62
349.583	100.62
349.81	96.62
350.037	80.62
350.265	87.62
350.492	86.62
350.72	95.62
350.947	98.62
351.174	107.62
351.402	110.62
351.629	93.62
351.856	98.62
352.083	100.62
352.311	109.62
352.538	96.62
352.765	96.62
352.992	102.62
353.22	108.62
353.447	91.62
353.674	88.62
353.901	103.62
354.128	101.62
354.355	104.62
354.583	104.62
354.81	98.62
355.037	85.62
355.264	102.62
355.491	100.62
355.718	99.62
355.945	89.62
356.172	81.62
356.399	105.62
356.626	92.62
356.853	94.62
357.08	85.62
357.307	110.62
357.534	100.62
357.761	97.62
357.988	101.62
358.215	98.62
358.441	101.62
358.668	75.62
358.895	89.62
359.122	85.62
359.349	91.62
359.576	80.62
359.802	88.62
360.029	99.62
360.256	105.62
360.483	113.62
360.709	84.62
360.936	86.62
361.163	84.62
361.39	91.62
361.616	100.62
361.843	93.62
362.07	76.62
362.296	99.62
362.523	90.62
362.749	61.62
362.976	78.62
363.203	99.62
363.429	74.62
363.656	91.62
363.882	85.62
364.109	84.62
364.335	90.62
364.562	84.62
364.788	88.62
365.015	106.62
365.241	104.62
365.468	102.62
365.694	106.62
365.92	94.62
366.147	96.62
366.373	103.62
366.599	70.62
366.826	85.62
367.052	88.62
367.278	90.62
367.505	92.62
367.731	83.62
367.957	93.62
368.184	80.62
368.41	97.62
368.636	110.62
368.862	104.62
369.089	107.62
369.315	99.62
369.541	84.62
369.767	104.62
369.993	99.62
370.219	85.62
370.445	88.62
370.672	92.62
370.898	66.62
371.124	103.62
371.35	77.62
371.576	88.62
371.802	90.62
372.028	81.62
372.254	85.62
372.48	88.62
372.706	85.62
372.932	94.62
373.158	82.62
373.384	98.62
373.61	84.62
373.835	104.62
374.061	97.62
374.287	93.62
374.513	85.62
374.739	96.62
374.965	77.62
375.191	98.62
375.416	92.62
375.642	93.62
375.868	114.62
376.094	74.62
376.319	90.62
376.545	85.62
376.771	80.62
376.997	80.62
377.222	89.62
377.448	85.62
377.674	89.62
377.899	91.62
378.125	96.62
378.35	94.62
378.576	88.62
378.802	98.62
379.027	93.62
379.253	92.62
379.478	97.62
379.704	91.62
379.929	89.62
380.155	104.62
380.38	94.62
380.606	97.62
380.831	87.62
381.057	98.62
381.282	93.62
381.507	93.62
381.733	91.62
381.958	91.62
382.184	102.62
382.409	99.62
382.634	99.62
382.86	95.62
383.085	90.62
383.31	108.62
383.535	93.62
383.761	109.62
383.986	109.62
384.211	103.62
384.436	93.62
384.662	90.62
384.887	90.62
385.112	116.62
385.337	106.62
385.562	100.62
385.787	103.62
386.013	104.62
386.238	97.62
386.463	114.62
386.688	110.62
386.913	89.62
387.138	96.62
387.363	94.62
387.588	97.62
387.813	101.62
388.038	106.62
388.263	107.62
388.488	108.62
388.713	101.62
388.938	87.62
389.163	98.62
389.387	98.62
389.612	109.62
389.837	86.62
390.062	95.62
390.287	99.62
390.512	92.62
390.736	96.62
390.961	88.62
391.186	94.62
391.411	84.62
391.636	84.62
391.86	92.62
392.085	78.62
392.31	82.62
392.534	88.62
392.759	102.62
392.984	81.62
393.208	85.62
393.433	76.62
393.658	82.62
393.882	83.62
394.107	89.62
394.331	94.62
394.556	84.62
394.78	72.62
395.005	92.62
395.229	90.62
395.454	81.62
395.678	84.62
395.903	85.62
396.127	90.62
396.352	74.62
396.576	80.62
396.801	64.62
397.025	91.62
397.249	90.62
397.474	103.62
397.698	88.62
397.922	93.62
398.147	89.62
398.371	78.62
398.595	90.62
398.82	80.62
399.044	83.62
399.268	86.62
399.492	89.62
399.717	88.62
399.941	73.62
400.165	108.62
400.389	82.62
400.613	86.62
400.837	88.62
401.062	86.62
401.286	92.62
401.51	81.62
401.734	92.62
401.958	89.62
402.182	104.62
402.406	131.62
402.63	117.62
402.854	92.62
403.078	77.62
403.302	88.62
403.526	84.62
403.75	85.62
403.974	90.62
404.198	101.62
404.422	74.62
404.645	88.62
404.869	97.62
405.093	99.62
405.317	99.62
405.541	101.62
405.765	98.62
405.988	98.62
406.212	130.62
406.436	184.62
406.66	125.62
406.883	96.62
407.107	82.62
407.331	98.62
407.555	91.62
407.778	85.62
408.002	81.62
408.226	92.62
408.449	82.62
408.673	93.62
408.896	96.62
409.12	96.62
409.344	91.62
409.567	101.62
409.791	88.62
410.014	105.62
410.238	104.62
410.461	91.62
410.685	84.62
410.908	93.62
411.132	104.62
411.355	92.62
411.578	96.62
411.802	87.62
412.025	98.62
412.249	91.62
412.472	95.62
412.695	90.62
412.919	81.62
413.142	88.62
413.365	83.62
413.589	82.62
413.812	78.62
414.035	86.62
414.258	94.62
414.482	80.62
414.705	84.62
414.928	93.62
415.151	85.62
415.374	88.62
415.597	91.62
415.821	82.62
416.044	86.62
416.267	85.62
416.49	87.62
416.713	72.62
416.936	100.62
417.159	84.62
417.382	81.62
417.605	93.62
417.828	86.62
418.051	82.62
418.274	92.62
418.497	93.62
418.72	84.62
418.943	95.62
419.166	98.62
419.389	99.62
419.611	81.62
419.834	81.62
420.057	93.62
420.28	82.62
420.503	81.62
420.726	91.62
420.948	87.62
421.171	93.62
421.394	67.62
421.617	94.62
421.839	84.62
422.062	86.62
422.285	97.62
422.507	88.62
422.73	89.62
422.953	91.62
423.175	75.62
423.398	72.62
423.621	86.62
423.843	86.62
424.066	87.62
424.288	84.62
424.511	82.62
424.733	104.62
424.956	92.62
425.178	99.62
425.401	83.62
425.623	86.62
425.846	95.62
426.068	92.62
426.291	96.62
426.513	84.62
426.735	87.62
426.958	88.62
427.18	109.62
427.402	112.62
427.625	137.62
427.847	115.62
428.069	98.62
428.292	96.62
428.514	76.62
428.736	81.62
428.958	87.62
429.181	94.62
429.403	77.62
429.625	95.62
429.847	88.62
430.069	97.62
430.292	86.62
430.514	84.62
430.736	90.62
430.958	93.62
431.18	92.62
431.402	87.62
431.624	82.62
431.846	77.62
432.068	82.62
432.29	94.62
432.512	100.62
432.734	94.62
432.956	81.62
433.178	87.62
433.4	88.62
433.622	94.62
433.844	96.62
434.066	93.62
434.287	75.62
434.509	76.62
434.731	93.62
434.953	82.62
435.175	99.62
435.397	100.62
435.618	84.62
435.84	106.62
436.062	97.62
436.284	95.62
436.505	89.62
436.727	89.62
436.949	102.62
437.17	92.62
437.392	88.62
437.614	97.62
437.835	98.62
438.057	105.62
438.278	98.62
438.5	102.62
438.721	112.62
438.943	99.62
439.165	85.62
439.386	98.62
439.608	90.62
439.829	103.62
440.05	116.62
440.272	109.62
440.493	89.62
440.715	86.62
440.936	96.62
441.158	85.62
441.379	80.62
441.6	97.62
441.822	81.62
442.043	85.62
442.264	83.62
442.486	100.62
442.707	96.62
442.928	98.62
443.149	115.62
443.371	113.62
443.592	94.62
443.813	100.62
444.034	89.62
444.255	106.62
444.476	89.62
444.698	81.62
444.919	81.62
445.14	129.62
445.361	109.62
445.582	105.62
445.803	116.62
446.024	98.62
446.245	119.62
446.466	116.62
446.687	72.62
446.908	81.62
447.129	88.62
447.35	84.62
447.571	96.62
447.792	81.62
448.013	93.62
448.234	92.62
448.455	95.62
448.675	111.62
448.896	103.62
449.117	94.62
449.338	92.62
449.559	110.62
449.779	105.62
450	99.62
450.221	87.62
450.442	84.62
450.662	85.62
450.883	99.62
451.104	117.62
451.324	82.62
451.545	94.62
451.766	107.62
451.986	86.62
452.207	88.62
452.428	103.62
452.648	108.62
452.869	111.62
453.089	98.62
453.31	97.62
453.53	93.62
453.751	96.62
453.971	91.62
454.192	94.62
454.412	85.62
454.633	78.62
454.853	71.62
455.073	84.62
455.294	79.62
455.514	90.62
455.734	88.62
455.955	89.62
456.175	92.62
456.395	101.62
456.616	84.62
456.836	76.62
457.056	86.62
457.276	84.62
457.497	84.62
457.717	85.62
457.937	84.62
458.157	99.62
458.377	71.62
458.598	104.62
458.818	126.62
459.038	136.62
459.258	113.62
459.478	102.62
459.698	92.62
459.918	100.62
460.138	87.62
460.358	86.62
460.578	87.62
460.798	68.62
461.018	74.62
461.238	86.62
461.458	88.62
461.678	79.62
461.898	77.62
462.118	84.62
462.338	88.62
462.558	86.62
462.777	94.62
462.997	88.62
463.217	77.62
463.437	82.62
463.657	70.62
463.876	95.62
464.096	84.62
464.316	71.62
464.536	98.62
464.755	90.62
464.975	104.62
465.195	137.62
465.414	135.62
465.634	90.62
465.854	73.62
466.073	84.62
466.293	84.62
466.512	84.62
466.732	71.62
466.951	92.62
467.171	100.62
467.391	84.62
467.61	100.62
467.829	93.62
468.049	87.62
468.268	90.62
468.488	103.62
468.707	82.62
468.927	87.62
469.146	89.62
469.365	94.62
469.585	86.62
469.804	105.62
470.023	105.62
470.243	108.62
470.462	90.62
470.681	95.62
470.901	83.62
471.12	79.62
471.339	75.62
471.558	96.62
471.777	90.62
471.997	92.62
472.216	105.62
472.435	140.62
472.654	90.62
472.873	92.62
473.092	82.62
473.311	87.62
473.53	91.62
473.749	94.62
473.968	112.62
474.187	102.62
474.406	110.62
474.625	104.62
474.844	80.62
475.063	90.62
475.282	100.62
475.501	73.62
475.72	93.62
475.939	75.62
476.158	82.62
476.377	78.62
476.596	88.62
476.814	84.62
477.033	90.62
477.252	89.62
477.471	94.62
477.69	74.62
477.908	91.62
478.127	96.62
478.346	81.62
478.564	98.62
478.783	95.62
479.002	82.62
479.22	96.62
479.439	94.62
479.658	87.62
479.876	98.62
480.095	76.62
480.313	93.62
480.532	95.62
480.751	77.62
480.969	108.62
481.188	174.62
481.406	141.62
481.624	84.62
481.843	96.62
482.061	89.62
482.28	71.62
482.498	86.62
482.717	76.62
482.935	80.62
483.153	94.62
483.372	77.62
483.59	91.62
483.808	104.62
484.027	89.62
484.245	104.62
484.463	93.62
484.681	104.62
484.9	90.62
485.118	87.62
485.336	93.62
485.554	98.62
485.772	105.62
485.99	112.62
486.209	92.62
486.427	102.62
486.645	106.62
486.863	105.62
487.081	96.62
487.299	89.62
487.517	104.62
487.735	107.62
487.953	67.62
488.171	97.62
488.389	101.62
488.607	96.62
488.825	91.62
489.043	86.62
489.261	93.62
489.479	98.62
489.696	86.62
489.914	82.62
490.132	82.62
490.35	101.62
490.568	82.62
490.786	102.62
491.003	100.62
491.221	94.62
491.439	93.62
491.657	108.62
491.874	93.62
492.092	78.62
492.31	100.62
492.527	91.62
492.745	82.62
492.963	91.62
493.18	96.62
493.398	92.62
493.615	94.62
493.833	96.62
494.05	82.62
494.268	96.62
494.485	83.62
494.703	82.62
494.92	98.62
495.138	92.62
495.355	91.62
495.573	94.62
495.79	84.62
496.008	81.62
496.225	93.62
496.442	94.62
496.66	91.62
496.877	89.62
497.094	91.62
497.312	93.62
497.529	94.62
497.746	91.62
497.963	91.62
498.181	80.62
498.398	96.62
498.615	104.62
498.832	115.62
499.049	105.62
499.267	99.62
499.484	90.62
499.701	96.62
499.918	82.62
500.135	82.62
500.352	81.62
500.569	91.62
500.786	93.62
501.003	89.62
501.22	81.62
501.437	102.62
501.654	94.62
501.871	103.62
502.088	88.62
502.305	83.62
502.522	82.62
502.739	97.62
502.956	90.62
503.172	90.62
503.389	92.62
503.606	99.62
503.823	78.62
504.04	109.62
504.256	89.62
504.473	96.62
504.69	101.62
504.907	89.62
505.123	93.62
505.34	99.62
505.557	96.62
505.773	94.62
505.99	92.62
506.207	91.62
506.423	83.62
506.64	91.62
506.856	98.62
507.073	75.62
507.289	94.62
507.506	104.62
507.722	105.62
507.939	103.62
508.155	96.62
508.372	96.62
508.588	91.62
508.805	96.62
509.021	100.62
509.238	93.62
509.454	100.62
509.67	94.62
509.887	114.62
510.103	128.62
510.319	201.62
510.536	672.62
510.752	1921.62
510.968	546.62
511.184	137.62
511.401	116.62
511.617	106.62
511.833	96.62
512.049	93.62
512.265	75.62
512.481	90.62
512.698	93.62
512.914	85.62
513.13	72.62
513.346	87.62
513.562	92.62
513.778	106.62
513.994	98.62
514.21	105.62
514.426	110.62
514.642	114.62
514.858	127.62
515.074	141.62
515.29	360.62
515.506	1095.62
515.721	408.62
515.937	138.62
516.153	102.62
