Data from Uncirc_1982_H10_HRD10591_00066.txt Node
Date: Wed Jan 03 12:29:38 EST 2024
User: Yrep
Spectrometer: HR+D1059
Trigger mode: 1
Integration Time (sec): 1.000000E-1
Scans to average: 1
Electric dark correction enabled: true
Nonlinearity correction enabled: false
Boxcar width: 0
XAxis mode: Wavelengths
Number of Pixels in Spectrum: 2048
>>>>>Begin Spectral Data<<<<<
223.165	-12.19
223.4	-12.19
223.635	-12.19
223.869	-17.19
224.104	-12.19
224.338	-21.19
224.573	-19.19
224.808	-15.19
225.042	-15.19
225.277	-10.19
225.511	2.81
225.746	10.81
225.98	2.81
226.215	5.81
226.449	17.81
226.683	23.81
226.918	18.81
227.152	39.81
227.387	32.81
227.621	18.81
227.856	47.81
228.09	51.81
228.324	59.81
228.559	49.81
228.793	54.81
229.027	49.81
229.262	59.81
229.496	62.81
229.73	79.81
229.964	74.81
230.199	66.81
230.433	70.81
230.667	72.81
230.901	60.81
231.136	71.81
231.37	69.81
231.604	61.81
231.838	77.81
232.072	67.81
232.306	62.81
232.541	61.81
232.775	82.81
233.009	83.81
233.243	57.81
233.477	72.81
233.711	76.81
233.945	68.81
234.179	72.81
234.413	77.81
234.647	73.81
234.881	70.81
235.115	80.81
235.349	77.81
235.583	69.81
235.817	95.81
236.051	83.81
236.285	75.81
236.519	71.81
236.753	70.81
236.987	80.81
237.221	68.81
237.455	88.81
237.689	73.81
237.922	72.81
238.156	63.81
238.39	78.81
238.624	66.81
238.858	81.81
239.091	78.81
239.325	71.81
239.559	69.81
239.793	80.81
240.027	72.81
240.26	80.81
240.494	74.81
240.728	85.81
240.961	70.81
241.195	81.81
241.429	66.81
241.662	64.81
241.896	60.81
242.13	87.81
242.363	73.81
242.597	71.81
242.83	61.81
243.064	78.81
243.298	80.81
243.531	78.81
243.765	72.81
243.998	77.81
244.232	73.81
244.465	81.81
244.699	87.81
244.932	64.81
245.166	64.81
245.399	76.81
245.633	78.81
245.866	67.81
246.099	68.81
246.333	74.81
246.566	72.81
246.8	70.81
247.033	60.81
247.266	82.81
247.5	89.81
247.733	75.81
247.966	68.81
248.2	76.81
248.433	64.81
248.666	72.81
248.899	72.81
249.133	83.81
249.366	79.81
249.599	71.81
249.832	68.81
250.066	78.81
250.299	69.81
250.532	83.81
250.765	86.81
250.998	81.81
251.231	83.81
251.465	84.81
251.698	90.81
251.931	77.81
252.164	71.81
252.397	76.81
252.63	80.81
252.863	83.81
253.096	68.81
253.329	88.81
253.562	66.81
253.795	78.81
254.028	63.81
254.261	68.81
254.494	83.81
254.727	68.81
254.96	86.81
255.193	82.81
255.426	60.81
255.659	66.81
255.892	86.81
256.124	92.81
256.357	70.81
256.59	65.81
256.823	55.81
257.056	68.81
257.289	69.81
257.521	84.81
257.754	67.81
257.987	84.81
258.22	71.81
258.452	86.81
258.685	78.81
258.918	78.81
259.151	72.81
259.383	69.81
259.616	73.81
259.849	75.81
260.081	65.81
260.314	77.81
260.547	87.81
260.779	83.81
261.012	94.81
261.244	85.81
261.477	89.81
261.71	80.81
261.942	102.81
262.175	92.81
262.407	93.81
262.64	72.81
262.872	80.81
263.105	74.81
263.337	76.81
263.57	75.81
263.802	76.81
264.035	75.81
264.267	79.81
264.499	70.81
264.732	76.81
264.964	82.81
265.197	76.81
265.429	84.81
265.661	78.81
265.894	92.81
266.126	83.81
266.358	77.81
266.591	73.81
266.823	81.81
267.055	69.81
267.287	85.81
267.52	86.81
267.752	82.81
267.984	82.81
268.216	78.81
268.448	85.81
268.681	72.81
268.913	71.81
269.145	93.81
269.377	79.81
269.609	82.81
269.841	77.81
270.073	79.81
270.306	67.81
270.538	86.81
270.77	73.81
271.002	78.81
271.234	87.81
271.466	87.81
271.698	78.81
271.93	73.81
272.162	88.81
272.394	87.81
272.626	86.81
272.858	72.81
273.09	92.81
273.322	96.81
273.553	87.81
273.785	80.81
274.017	88.81
274.249	73.81
274.481	93.81
274.713	73.81
274.945	80.81
275.176	98.81
275.408	89.81
275.64	71.81
275.872	78.81
276.104	80.81
276.335	85.81
276.567	104.81
276.799	95.81
277.031	95.81
277.262	84.81
277.494	80.81
277.726	73.81
277.957	78.81
278.189	82.81
278.421	89.81
278.652	84.81
278.884	70.81
279.115	84.81
279.347	76.81
279.579	88.81
279.81	77.81
280.042	82.81
280.273	85.81
280.505	88.81
280.736	74.81
280.968	82.81
281.199	94.81
281.431	86.81
281.662	86.81
281.894	81.81
282.125	80.81
282.356	94.81
282.588	136.81
282.819	92.81
283.051	79.81
283.282	84.81
283.513	89.81
283.745	76.81
283.976	86.81
284.207	95.81
284.439	74.81
284.67	81.81
284.901	100.81
285.132	89.81
285.364	81.81
285.595	69.81
285.826	76.81
286.057	69.81
286.288	98.81
286.52	76.81
286.751	75.81
286.982	90.81
287.213	77.81
287.444	81.81
287.675	91.81
287.906	90.81
288.138	81.81
288.369	85.81
288.6	76.81
288.831	88.81
289.062	87.81
289.293	77.81
289.524	72.81
289.755	76.81
289.986	87.81
290.217	76.81
290.448	86.81
290.679	83.81
290.91	86.81
291.141	82.81
291.371	84.81
291.602	82.81
291.833	79.81
292.064	96.81
292.295	76.81
292.526	80.81
292.757	80.81
292.987	85.81
293.218	65.81
293.449	84.81
293.68	77.81
293.91	88.81
294.141	71.81
294.372	93.81
294.603	66.81
294.833	88.81
295.064	84.81
295.295	79.81
295.525	85.81
295.756	97.81
295.987	107.81
296.217	124.81
296.448	102.81
296.679	86.81
296.909	78.81
297.14	86.81
297.37	109.81
297.601	100.81
297.831	81.81
298.062	68.81
298.292	104.81
298.523	89.81
298.753	63.81
298.984	94.81
299.214	88.81
299.445	85.81
299.675	87.81
299.905	87.81
300.136	76.81
300.366	78.81
300.597	91.81
300.827	78.81
301.057	92.81
301.288	96.81
301.518	92.81
301.748	82.81
301.979	92.81
302.209	88.81
302.439	82.81
302.669	90.81
302.9	85.81
303.13	70.81
303.36	88.81
303.59	90.81
303.82	82.81
304.051	87.81
304.281	82.81
304.511	82.81
304.741	79.81
304.971	84.81
305.201	91.81
305.431	97.81
305.661	86.81
305.891	87.81
306.121	86.81
306.352	80.81
306.582	89.81
306.812	74.81
307.042	101.81
307.272	84.81
307.502	87.81
307.731	90.81
307.961	90.81
308.191	84.81
308.421	99.81
308.651	85.81
308.881	87.81
309.111	82.81
309.341	85.81
309.571	93.81
309.8	102.81
310.03	82.81
310.26	88.81
310.49	71.81
310.72	84.81
310.949	103.81
311.179	88.81
311.409	92.81
311.639	90.81
311.868	85.81
312.098	95.81
312.328	93.81
312.557	82.81
312.787	84.81
313.017	94.81
313.246	90.81
313.476	83.81
313.706	92.81
313.935	76.81
314.165	94.81
314.394	77.81
314.624	99.81
314.853	85.81
315.083	94.81
315.312	87.81
315.542	94.81
315.771	98.81
316.001	90.81
316.23	87.81
316.46	72.81
316.689	86.81
316.919	84.81
317.148	86.81
317.377	97.81
317.607	69.81
317.836	84.81
318.065	84.81
318.295	82.81
318.524	86.81
318.753	93.81
318.983	85.81
319.212	81.81
319.441	103.81
319.67	96.81
319.9	94.81
320.129	91.81
320.358	91.81
320.587	79.81
320.816	90.81
321.046	97.81
321.275	86.81
321.504	88.81
321.733	90.81
321.962	78.81
322.191	111.81
322.42	115.81
322.649	111.81
322.878	96.81
323.108	93.81
323.337	112.81
323.566	114.81
323.795	144.81
324.024	184.81
324.253	316.81
324.482	684.81
324.71	1372.81
324.939	1792.81
325.168	667.81
325.397	201.81
325.626	130.81
325.855	116.81
326.084	127.81
326.313	116.81
326.542	136.81
326.77	202.81
326.999	388.81
327.228	780.81
327.457	1411.81
327.686	1136.81
327.914	315.81
328.143	163.81
328.372	130.81
328.6	105.81
328.829	102.81
329.058	109.81
329.287	105.81
329.515	113.81
329.744	99.81
329.972	101.81
330.201	117.81
330.43	97.81
330.658	97.81
330.887	113.81
331.115	110.81
331.344	73.81
331.572	92.81
331.801	100.81
332.03	94.81
332.258	86.81
332.486	89.81
332.715	90.81
332.943	80.81
333.172	103.81
333.4	98.81
333.629	104.81
333.857	94.81
334.085	102.81
334.314	113.81
334.542	115.81
334.771	112.81
334.999	99.81
335.227	97.81
335.455	81.81
335.684	94.81
335.912	86.81
336.14	91.81
336.369	100.81
336.597	86.81
336.825	88.81
337.053	83.81
337.281	95.81
337.51	79.81
337.738	88.81
337.966	94.81
338.194	90.81
338.422	81.81
338.65	78.81
338.878	89.81
339.106	100.81
339.334	77.81
339.562	94.81
339.79	85.81
340.018	93.81
340.246	102.81
340.474	88.81
340.702	79.81
340.93	83.81
341.158	80.81
341.386	88.81
341.614	96.81
341.842	95.81
342.07	81.81
342.298	78.81
342.526	91.81
342.754	92.81
342.981	77.81
343.209	76.81
343.437	106.81
343.665	88.81
343.893	74.81
344.12	96.81
344.348	92.81
344.576	92.81
344.804	83.81
345.031	80.81
345.259	85.81
345.487	90.81
345.714	96.81
345.942	99.81
346.17	88.81
346.397	87.81
346.625	84.81
346.853	88.81
347.08	82.81
347.308	81.81
347.535	87.81
347.763	91.81
347.99	93.81
348.218	95.81
348.445	82.81
348.673	87.81
348.9	94.81
349.128	92.81
349.355	87.81
349.583	78.81
349.81	93.81
350.037	101.81
350.265	94.81
350.492	98.81
350.72	82.81
350.947	101.81
351.174	85.81
351.402	109.81
351.629	101.81
351.856	100.81
352.083	89.81
352.311	99.81
352.538	99.81
352.765	95.81
352.992	89.81
353.22	98.81
353.447	98.81
353.674	91.81
353.901	88.81
354.128	99.81
354.355	102.81
354.583	87.81
354.81	68.81
355.037	100.81
355.264	89.81
355.491	109.81
355.718	90.81
355.945	88.81
356.172	83.81
356.399	84.81
356.626	69.81
356.853	82.81
357.08	92.81
357.307	89.81
357.534	84.81
357.761	85.81
357.988	88.81
358.215	92.81
358.441	95.81
358.668	84.81
358.895	89.81
359.122	78.81
359.349	76.81
359.576	92.81
359.802	95.81
360.029	107.81
360.256	98.81
360.483	84.81
360.709	83.81
360.936	95.81
361.163	97.81
361.39	87.81
361.616	102.81
361.843	85.81
362.07	77.81
362.296	100.81
362.523	89.81
362.749	96.81
362.976	90.81
363.203	93.81
363.429	84.81
363.656	87.81
363.882	79.81
364.109	86.81
364.335	84.81
364.562	79.81
364.788	74.81
365.015	94.81
365.241	96.81
365.468	83.81
365.694	86.81
365.92	88.81
366.147	89.81
366.373	74.81
366.599	77.81
366.826	84.81
367.052	79.81
367.278	87.81
367.505	87.81
367.731	66.81
367.957	80.81
368.184	92.81
368.41	101.81
368.636	81.81
368.862	104.81
369.089	102.81
369.315	82.81
369.541	97.81
369.767	85.81
369.993	85.81
370.219	87.81
370.445	84.81
370.672	86.81
370.898	94.81
371.124	97.81
371.35	82.81
371.576	84.81
371.802	90.81
372.028	77.81
372.254	85.81
372.48	74.81
372.706	70.81
372.932	81.81
373.158	92.81
373.384	77.81
373.61	92.81
373.835	89.81
374.061	79.81
374.287	74.81
374.513	94.81
374.739	73.81
374.965	90.81
375.191	91.81
375.416	76.81
375.642	86.81
375.868	83.81
376.094	87.81
376.319	87.81
376.545	90.81
376.771	95.81
376.997	100.81
377.222	106.81
377.448	94.81
377.674	84.81
377.899	91.81
378.125	74.81
378.35	90.81
378.576	88.81
378.802	80.81
379.027	78.81
379.253	100.81
379.478	84.81
379.704	72.81
379.929	90.81
380.155	88.81
380.38	77.81
380.606	93.81
380.831	85.81
381.057	86.81
381.282	89.81
381.507	96.81
381.733	97.81
381.958	92.81
382.184	91.81
382.409	88.81
382.634	89.81
382.86	88.81
383.085	78.81
383.31	111.81
383.535	92.81
383.761	82.81
383.986	103.81
384.211	98.81
384.436	92.81
384.662	87.81
384.887	84.81
385.112	84.81
385.337	102.81
385.562	100.81
385.787	95.81
386.013	99.81
386.238	103.81
386.463	99.81
386.688	112.81
386.913	94.81
387.138	100.81
387.363	99.81
387.588	87.81
387.813	88.81
388.038	100.81
388.263	109.81
388.488	101.81
388.713	103.81
388.938	95.81
389.163	89.81
389.387	106.81
389.612	97.81
389.837	75.81
390.062	77.81
390.287	82.81
390.512	90.81
390.736	102.81
390.961	84.81
391.186	93.81
391.411	97.81
391.636	86.81
391.86	79.81
392.085	82.81
392.31	79.81
392.534	70.81
392.759	81.81
392.984	74.81
393.208	73.81
393.433	79.81
393.658	84.81
393.882	91.81
394.107	81.81
394.331	70.81
394.556	80.81
394.78	90.81
395.005	85.81
395.229	83.81
395.454	81.81
395.678	92.81
395.903	84.81
396.127	75.81
396.352	69.81
396.576	81.81
396.801	81.81
397.025	85.81
397.249	105.81
397.474	100.81
397.698	85.81
397.922	81.81
398.147	82.81
398.371	77.81
398.595	76.81
398.82	80.81
399.044	80.81
399.268	74.81
399.492	76.81
399.717	100.81
399.941	80.81
400.165	77.81
400.389	78.81
400.613	83.81
400.837	73.81
401.062	79.81
401.286	85.81
401.51	87.81
401.734	88.81
401.958	84.81
402.182	110.81
402.406	132.81
402.63	111.81
402.854	88.81
403.078	78.81
403.302	73.81
403.526	90.81
403.75	83.81
403.974	86.81
404.198	89.81
404.422	89.81
404.645	87.81
404.869	80.81
405.093	84.81
405.317	103.81
405.541	85.81
405.765	77.81
405.988	108.81
406.212	141.81
406.436	177.81
406.66	102.81
406.883	85.81
407.107	89.81
407.331	86.81
407.555	85.81
407.778	93.81
408.002	93.81
408.226	85.81
408.449	80.81
408.673	84.81
408.896	94.81
409.12	84.81
409.344	89.81
409.567	90.81
409.791	93.81
410.014	86.81
410.238	94.81
410.461	87.81
410.685	100.81
410.908	91.81
411.132	97.81
411.355	93.81
411.578	97.81
411.802	96.81
412.025	73.81
412.249	94.81
412.472	79.81
412.695	80.81
412.919	89.81
413.142	80.81
413.365	80.81
413.589	101.81
413.812	84.81
414.035	98.81
414.258	71.81
414.482	88.81
414.705	84.81
414.928	73.81
415.151	76.81
415.374	108.81
415.597	90.81
415.821	77.81
416.044	77.81
416.267	87.81
416.49	81.81
416.713	69.81
416.936	84.81
417.159	97.81
417.382	84.81
417.605	69.81
417.828	94.81
418.051	104.81
418.274	96.81
418.497	85.81
418.72	85.81
418.943	70.81
419.166	86.81
419.389	79.81
419.611	87.81
419.834	94.81
420.057	83.81
420.28	61.81
420.503	93.81
420.726	89.81
420.948	82.81
421.171	91.81
421.394	94.81
421.617	73.81
421.839	97.81
422.062	92.81
422.285	92.81
422.507	100.81
422.73	96.81
422.953	83.81
423.175	94.81
423.398	79.81
423.621	82.81
423.843	83.81
424.066	93.81
424.288	89.81
424.511	88.81
424.733	100.81
424.956	97.81
425.178	104.81
425.401	98.81
425.623	82.81
425.846	96.81
426.068	84.81
426.291	94.81
426.513	78.81
426.735	89.81
426.958	82.81
427.18	97.81
427.402	111.81
427.625	129.81
427.847	119.81
428.069	102.81
428.292	80.81
428.514	68.81
428.736	76.81
428.958	88.81
429.181	84.81
429.403	89.81
429.625	80.81
429.847	76.81
430.069	98.81
430.292	94.81
430.514	87.81
430.736	66.81
430.958	81.81
431.18	84.81
431.402	94.81
431.624	65.81
431.846	88.81
432.068	92.81
432.29	79.81
432.512	80.81
432.734	92.81
432.956	64.81
433.178	78.81
433.4	95.81
433.622	88.81
433.844	98.81
434.066	100.81
434.287	87.81
434.509	86.81
434.731	85.81
434.953	103.81
435.175	76.81
435.397	80.81
435.618	88.81
435.84	92.81
436.062	117.81
436.284	97.81
436.505	98.81
436.727	92.81
436.949	82.81
437.17	81.81
437.392	79.81
437.614	80.81
437.835	86.81
438.057	109.81
438.278	102.81
438.5	91.81
438.721	110.81
438.943	83.81
439.165	93.81
439.386	93.81
439.608	80.81
439.829	84.81
440.05	111.81
440.272	110.81
440.493	82.81
440.715	81.81
440.936	80.81
441.158	91.81
441.379	84.81
441.6	78.81
441.822	69.81
442.043	88.81
442.264	84.81
442.486	100.81
442.707	95.81
442.928	74.81
443.149	103.81
443.371	111.81
443.592	107.81
443.813	106.81
444.034	82.81
444.255	76.81
444.476	69.81
444.698	85.81
444.919	81.81
445.14	138.81
445.361	110.81
445.582	89.81
445.803	112.81
446.024	106.81
446.245	122.81
446.466	109.81
446.687	89.81
446.908	87.81
447.129	86.81
447.35	86.81
447.571	73.81
447.792	86.81
448.013	99.81
448.234	91.81
448.455	87.81
448.675	96.81
448.896	118.81
449.117	93.81
449.338	99.81
449.559	121.81
449.779	112.81
450	98.81
450.221	84.81
450.442	81.81
450.662	96.81
450.883	92.81
451.104	93.81
451.324	88.81
451.545	96.81
451.766	79.81
451.986	68.81
452.207	94.81
452.428	103.81
452.648	92.81
452.869	103.81
453.089	118.81
453.31	96.81
453.53	80.81
453.751	73.81
453.971	90.81
454.192	99.81
454.412	80.81
454.633	81.81
454.853	72.81
455.073	82.81
455.294	73.81
455.514	88.81
455.734	90.81
455.955	102.81
456.175	87.81
456.395	80.81
456.616	81.81
456.836	84.81
457.056	95.81
457.276	68.81
457.497	66.81
457.717	88.81
457.937	97.81
458.157	84.81
458.377	74.81
458.598	91.81
458.818	122.81
459.038	141.81
459.258	99.81
459.478	84.81
459.698	79.81
459.918	100.81
460.138	84.81
460.358	82.81
460.578	76.81
460.798	100.81
461.018	81.81
461.238	78.81
461.458	86.81
461.678	78.81
461.898	82.81
462.118	84.81
462.338	82.81
462.558	90.81
462.777	83.81
462.997	73.81
463.217	79.81
463.437	88.81
463.657	79.81
463.876	86.81
464.096	81.81
464.316	81.81
464.536	96.81
464.755	96.81
464.975	106.81
465.195	135.81
465.414	143.81
465.634	95.81
465.854	73.81
466.073	89.81
466.293	82.81
466.512	102.81
466.732	83.81
466.951	81.81
467.171	73.81
467.391	93.81
467.61	101.81
467.829	78.81
468.049	97.81
468.268	96.81
468.488	78.81
468.707	83.81
468.927	90.81
469.146	85.81
469.365	77.81
469.585	94.81
469.804	96.81
470.023	91.81
470.243	79.81
470.462	100.81
470.681	92.81
470.901	90.81
471.12	85.81
471.339	80.81
471.558	94.81
471.777	86.81
471.997	82.81
472.216	120.81
472.435	131.81
472.654	87.81
472.873	91.81
473.092	94.81
473.311	83.81
473.53	81.81
473.749	77.81
473.968	80.81
474.187	102.81
474.406	100.81
474.625	87.81
474.844	72.81
475.063	68.81
475.282	79.81
475.501	82.81
475.72	84.81
475.939	72.81
476.158	88.81
476.377	85.81
476.596	81.81
476.814	89.81
477.033	82.81
477.252	80.81
477.471	89.81
477.69	91.81
477.908	88.81
478.127	79.81
478.346	74.81
478.564	94.81
478.783	87.81
479.002	67.81
479.22	78.81
479.439	80.81
479.658	117.81
479.876	86.81
480.095	80.81
480.313	83.81
480.532	69.81
480.751	94.81
480.969	117.81
481.188	171.81
481.406	154.81
481.624	82.81
481.843	81.81
482.061	87.81
482.28	87.81
482.498	85.81
482.717	78.81
482.935	96.81
483.153	89.81
483.372	87.81
483.59	89.81
483.808	97.81
484.027	89.81
484.245	94.81
484.463	78.81
484.681	95.81
484.9	83.81
485.118	86.81
485.336	106.81
485.554	94.81
485.772	82.81
485.99	95.81
486.209	82.81
486.427	96.81
486.645	97.81
486.863	104.81
487.081	110.81
487.299	97.81
487.517	94.81
487.735	90.81
487.953	92.81
488.171	92.81
488.389	73.81
488.607	78.81
488.825	70.81
489.043	85.81
489.261	91.81
489.479	88.81
489.696	89.81
489.914	99.81
490.132	85.81
490.35	80.81
490.568	82.81
490.786	92.81
491.003	96.81
491.221	76.81
491.439	93.81
491.657	97.81
491.874	91.81
492.092	89.81
492.31	96.81
492.527	92.81
492.745	96.81
492.963	95.81
493.18	86.81
493.398	101.81
493.615	95.81
493.833	95.81
494.05	84.81
494.268	92.81
494.485	90.81
494.703	88.81
494.92	93.81
495.138	90.81
495.355	89.81
495.573	90.81
495.79	86.81
496.008	103.81
496.225	83.81
496.442	92.81
496.66	88.81
496.877	87.81
497.094	105.81
497.312	92.81
497.529	76.81
497.746	91.81
497.963	92.81
498.181	94.81
498.398	99.81
498.615	111.81
498.832	101.81
499.049	84.81
499.267	96.81
499.484	92.81
499.701	93.81
499.918	93.81
500.135	71.81
500.352	79.81
500.569	77.81
500.786	86.81
501.003	74.81
501.22	77.81
501.437	73.81
501.654	84.81
501.871	102.81
502.088	80.81
502.305	97.81
502.522	102.81
502.739	77.81
502.956	85.81
503.172	94.81
503.389	84.81
503.606	86.81
503.823	98.81
504.04	96.81
504.256	88.81
504.473	95.81
504.69	88.81
504.907	93.81
505.123	94.81
505.34	74.81
505.557	87.81
505.773	76.81
505.99	87.81
506.207	81.81
506.423	80.81
506.64	85.81
506.856	99.81
507.073	88.81
507.289	84.81
507.506	84.81
507.722	88.81
507.939	97.81
508.155	90.81
508.372	98.81
508.588	92.81
508.805	93.81
509.021	80.81
509.238	88.81
509.454	99.81
509.67	89.81
509.887	101.81
510.103	124.81
510.319	195.81
510.536	636.81
510.752	1863.81
510.968	529.81
511.184	129.81
511.401	105.81
511.617	87.81
511.833	98.81
512.049	92.81
512.265	95.81
512.481	86.81
512.698	86.81
512.914	89.81
513.13	92.81
513.346	77.81
513.562	94.81
513.778	90.81
513.994	92.81
514.21	113.81
514.426	120.81
514.642	113.81
514.858	104.81
515.074	146.81
515.29	374.81
515.506	1079.81
515.721	377.81
515.937	135.81
516.153	98.81
516.369	86.81
516.585	109.81
516.801	88.81
517.016	100.81
517.232	100.81
517.448	102.81
