Data from Uncirc_1982_H10_HRD10591_00039.txt Node
Date: Wed Jan 03 12:29:32 EST 2024
User: Yrep
Spectrometer: HR+D1059
Trigger mode: 1
Integration Time (sec): 1.000000E-1
Scans to average: 1
Electric dark correction enabled: true
Nonlinearity correction enabled: false
Boxcar width: 0
XAxis mode: Wavelengths
Number of Pixels in Spectrum: 2048
>>>>>Begin Spectral Data<<<<<
223.165	-21.69
223.4	-21.69
223.635	-21.69
223.869	-7.69
224.104	-3.69
224.338	-9.69
224.573	-4.69
224.808	-18.69
225.042	0.31
225.277	-11.69
225.511	-1.69
225.746	2.31
225.98	2.31
226.215	4.31
226.449	14.31
226.683	14.31
226.918	17.31
227.152	24.31
227.387	25.31
227.621	34.31
227.856	40.31
228.09	34.31
228.324	58.31
228.559	47.31
228.793	56.31
229.027	67.31
229.262	73.31
229.496	68.31
229.73	74.31
229.964	85.31
230.199	70.31
230.433	69.31
230.667	71.31
230.901	62.31
231.136	80.31
231.37	77.31
231.604	76.31
231.838	90.31
232.072	82.31
232.306	60.31
232.541	75.31
232.775	69.31
233.009	79.31
233.243	82.31
233.477	71.31
233.711	80.31
233.945	65.31
234.179	82.31
234.413	73.31
234.647	85.31
234.881	82.31
235.115	73.31
235.349	64.31
235.583	66.31
235.817	62.31
236.051	74.31
236.285	73.31
236.519	75.31
236.753	74.31
236.987	74.31
237.221	85.31
237.455	86.31
237.689	98.31
237.922	83.31
238.156	66.31
238.39	75.31
238.624	68.31
238.858	74.31
239.091	86.31
239.325	66.31
239.559	66.31
239.793	71.31
240.027	63.31
240.26	79.31
240.494	68.31
240.728	76.31
240.961	80.31
241.195	72.31
241.429	78.31
241.662	86.31
241.896	66.31
242.13	77.31
242.363	82.31
242.597	75.31
242.83	72.31
243.064	62.31
243.298	75.31
243.531	72.31
243.765	77.31
243.998	72.31
244.232	78.31
244.465	79.31
244.699	74.31
244.932	81.31
245.166	81.31
245.399	85.31
245.633	72.31
245.866	68.31
246.099	73.31
246.333	73.31
246.566	75.31
246.8	79.31
247.033	84.31
247.266	78.31
247.5	89.31
247.733	74.31
247.966	76.31
248.2	91.31
248.433	76.31
248.666	76.31
248.899	75.31
249.133	82.31
249.366	87.31
249.599	92.31
249.832	86.31
250.066	71.31
250.299	67.31
250.532	73.31
250.765	79.31
250.998	68.31
251.231	78.31
251.465	64.31
251.698	78.31
251.931	83.31
252.164	65.31
252.397	79.31
252.63	64.31
252.863	82.31
253.096	85.31
253.329	76.31
253.562	70.31
253.795	68.31
254.028	82.31
254.261	78.31
254.494	88.31
254.727	82.31
254.96	81.31
255.193	71.31
255.426	70.31
255.659	86.31
255.892	86.31
256.124	76.31
256.357	73.31
256.59	86.31
256.823	88.31
257.056	76.31
257.289	73.31
257.521	81.31
257.754	62.31
257.987	78.31
258.22	86.31
258.452	90.31
258.685	82.31
258.918	77.31
259.151	79.31
259.383	79.31
259.616	87.31
259.849	74.31
260.081	84.31
260.314	86.31
260.547	74.31
260.779	73.31
261.012	75.31
261.244	70.31
261.477	86.31
261.71	102.31
261.942	102.31
262.175	98.31
262.407	77.31
262.64	81.31
262.872	81.31
263.105	81.31
263.337	91.31
263.57	80.31
263.802	79.31
264.035	78.31
264.267	90.31
264.499	86.31
264.732	79.31
264.964	81.31
265.197	79.31
265.429	96.31
265.661	78.31
265.894	86.31
266.126	68.31
266.358	75.31
266.591	83.31
266.823	80.31
267.055	76.31
267.287	82.31
267.52	78.31
267.752	86.31
267.984	82.31
268.216	74.31
268.448	75.31
268.681	79.31
268.913	82.31
269.145	86.31
269.377	64.31
269.609	75.31
269.841	76.31
270.073	81.31
270.306	86.31
270.538	82.31
270.77	87.31
271.002	88.31
271.234	90.31
271.466	78.31
271.698	86.31
271.93	68.31
272.162	75.31
272.394	95.31
272.626	92.31
272.858	75.31
273.09	82.31
273.322	85.31
273.553	82.31
273.785	91.31
274.017	83.31
274.249	78.31
274.481	87.31
274.713	66.31
274.945	86.31
275.176	91.31
275.408	86.31
275.64	76.31
275.872	91.31
276.104	90.31
276.335	85.31
276.567	71.31
276.799	83.31
277.031	89.31
277.262	76.31
277.494	104.31
277.726	83.31
277.957	84.31
278.189	78.31
278.421	86.31
278.652	79.31
278.884	87.31
279.115	85.31
279.347	91.31
279.579	87.31
279.81	84.31
280.042	88.31
280.273	70.31
280.505	83.31
280.736	80.31
280.968	81.31
281.199	83.31
281.431	100.31
281.662	89.31
281.894	69.31
282.125	92.31
282.356	91.31
282.588	126.31
282.819	101.31
283.051	89.31
283.282	84.31
283.513	75.31
283.745	99.31
283.976	86.31
284.207	76.31
284.439	94.31
284.67	83.31
284.901	71.31
285.132	80.31
285.364	86.31
285.595	84.31
285.826	86.31
286.057	77.31
286.288	88.31
286.52	91.31
286.751	84.31
286.982	91.31
287.213	88.31
287.444	84.31
287.675	88.31
287.906	78.31
288.138	83.31
288.369	98.31
288.6	84.31
288.831	80.31
289.062	99.31
289.293	87.31
289.524	92.31
289.755	95.31
289.986	73.31
290.217	88.31
290.448	82.31
290.679	96.31
290.91	95.31
291.141	88.31
291.371	80.31
291.602	74.31
291.833	90.31
292.064	86.31
292.295	90.31
292.526	94.31
292.757	73.31
292.987	82.31
293.218	82.31
293.449	81.31
293.68	91.31
293.91	88.31
294.141	93.31
294.372	82.31
294.603	85.31
294.833	87.31
295.064	98.31
295.295	83.31
295.525	90.31
295.756	90.31
295.987	98.31
296.217	114.31
296.448	104.31
296.679	85.31
296.909	86.31
297.14	81.31
297.37	82.31
297.601	96.31
297.831	100.31
298.062	90.31
298.292	80.31
298.523	96.31
298.753	76.31
298.984	75.31
299.214	82.31
299.445	82.31
299.675	82.31
299.905	86.31
300.136	88.31
300.366	80.31
300.597	77.31
300.827	84.31
301.057	88.31
301.288	89.31
301.518	96.31
301.748	86.31
301.979	95.31
302.209	95.31
302.439	98.31
302.669	71.31
302.9	98.31
303.13	89.31
303.36	84.31
303.59	90.31
303.82	100.31
304.051	96.31
304.281	78.31
304.511	103.31
304.741	80.31
304.971	74.31
305.201	91.31
305.431	90.31
305.661	80.31
305.891	78.31
306.121	100.31
306.352	88.31
306.582	96.31
306.812	90.31
307.042	92.31
307.272	92.31
307.502	87.31
307.731	92.31
307.961	86.31
308.191	73.31
308.421	86.31
308.651	88.31
308.881	94.31
309.111	87.31
309.341	82.31
309.571	99.31
309.8	95.31
310.03	84.31
310.26	92.31
310.49	95.31
310.72	84.31
310.949	87.31
311.179	100.31
311.409	88.31
311.639	96.31
311.868	99.31
312.098	95.31
312.328	81.31
312.557	94.31
312.787	109.31
313.017	78.31
313.246	83.31
313.476	90.31
313.706	91.31
313.935	100.31
314.165	99.31
314.394	99.31
314.624	98.31
314.853	90.31
315.083	99.31
315.312	87.31
315.542	106.31
315.771	91.31
316.001	79.31
316.23	106.31
316.46	94.31
316.689	96.31
316.919	98.31
317.148	94.31
317.377	93.31
317.607	102.31
317.836	92.31
318.065	94.31
318.295	85.31
318.524	79.31
318.753	97.31
318.983	88.31
319.212	98.31
319.441	104.31
319.67	98.31
319.9	88.31
320.129	88.31
320.358	102.31
320.587	83.31
320.816	80.31
321.046	91.31
321.275	100.31
321.504	82.31
321.733	86.31
321.962	83.31
322.191	103.31
322.42	94.31
322.649	104.31
322.878	107.31
323.108	115.31
323.337	120.31
323.566	109.31
323.795	127.31
324.024	177.31
324.253	292.31
324.482	581.31
324.71	1145.31
324.939	1566.31
325.168	586.31
325.397	176.31
325.626	115.31
325.855	106.31
326.084	106.31
326.313	118.31
326.542	114.31
326.77	178.31
326.999	331.31
327.228	662.31
327.457	1202.31
327.686	954.31
327.914	279.31
328.143	166.31
328.372	128.31
328.6	113.31
328.829	101.31
329.058	105.31
329.287	95.31
329.515	98.31
329.744	98.31
329.972	80.31
330.201	111.31
330.43	124.31
330.658	99.31
330.887	107.31
331.115	97.31
331.344	100.31
331.572	96.31
331.801	76.31
332.03	90.31
332.258	99.31
332.486	103.31
332.715	96.31
332.943	81.31
333.172	81.31
333.4	84.31
333.629	94.31
333.857	96.31
334.085	99.31
334.314	106.31
334.542	105.31
334.771	110.31
334.999	88.31
335.227	79.31
335.455	87.31
335.684	114.31
335.912	92.31
336.14	83.31
336.369	82.31
336.597	102.31
336.825	90.31
337.053	91.31
337.281	88.31
337.51	68.31
337.738	83.31
337.966	100.31
338.194	86.31
338.422	88.31
338.65	97.31
338.878	87.31
339.106	82.31
339.334	87.31
339.562	91.31
339.79	90.31
340.018	75.31
340.246	92.31
340.474	95.31
340.702	98.31
340.93	96.31
341.158	72.31
341.386	87.31
341.614	101.31
341.842	88.31
342.07	79.31
342.298	88.31
342.526	84.31
342.754	81.31
342.981	82.31
343.209	90.31
343.437	87.31
343.665	98.31
343.893	94.31
344.12	96.31
344.348	82.31
344.576	98.31
344.804	99.31
345.031	94.31
345.259	90.31
345.487	89.31
345.714	99.31
345.942	90.31
346.17	86.31
346.397	94.31
346.625	94.31
346.853	75.31
347.08	88.31
347.308	99.31
347.535	91.31
347.763	89.31
347.99	100.31
348.218	96.31
348.445	72.31
348.673	89.31
348.9	103.31
349.128	93.31
349.355	94.31
349.583	95.31
349.81	80.31
350.037	97.31
350.265	87.31
350.492	99.31
350.72	87.31
350.947	112.31
351.174	90.31
351.402	89.31
351.629	94.31
351.856	98.31
352.083	98.31
352.311	93.31
352.538	107.31
352.765	114.31
352.992	110.31
353.22	102.31
353.447	117.31
353.674	109.31
353.901	102.31
354.128	92.31
354.355	97.31
354.583	88.31
354.81	106.31
355.037	96.31
355.264	74.31
355.491	91.31
355.718	86.31
355.945	80.31
356.172	86.31
356.399	91.31
356.626	92.31
356.853	92.31
357.08	91.31
357.307	99.31
357.534	90.31
357.761	78.31
357.988	105.31
358.215	92.31
358.441	98.31
358.668	103.31
358.895	99.31
359.122	89.31
359.349	81.31
359.576	104.31
359.802	92.31
360.029	95.31
360.256	88.31
360.483	100.31
360.709	85.31
360.936	85.31
361.163	91.31
361.39	92.31
361.616	81.31
361.843	75.31
362.07	87.31
362.296	106.31
362.523	84.31
362.749	70.31
362.976	82.31
363.203	95.31
363.429	88.31
363.656	88.31
363.882	92.31
364.109	98.31
364.335	86.31
364.562	78.31
364.788	90.31
365.015	78.31
365.241	87.31
365.468	90.31
365.694	98.31
365.92	83.31
366.147	92.31
366.373	80.31
366.599	96.31
366.826	104.31
367.052	87.31
367.278	91.31
367.505	82.31
367.731	80.31
367.957	93.31
368.184	97.31
368.41	86.31
368.636	112.31
368.862	107.31
369.089	103.31
369.315	97.31
369.541	83.31
369.767	83.31
369.993	93.31
370.219	88.31
370.445	75.31
370.672	78.31
370.898	82.31
371.124	91.31
371.35	74.31
371.576	84.31
371.802	87.31
372.028	94.31
372.254	89.31
372.48	98.31
372.706	94.31
372.932	88.31
373.158	96.31
373.384	83.31
373.61	86.31
373.835	88.31
374.061	90.31
374.287	86.31
374.513	91.31
374.739	97.31
374.965	87.31
375.191	80.31
375.416	91.31
375.642	96.31
375.868	94.31
376.094	82.31
376.319	78.31
376.545	71.31
376.771	91.31
376.997	91.31
377.222	68.31
377.448	84.31
377.674	85.31
377.899	91.31
378.125	81.31
378.35	92.31
378.576	90.31
378.802	88.31
379.027	73.31
379.253	84.31
379.478	82.31
379.704	83.31
379.929	78.31
380.155	86.31
380.38	75.31
380.606	92.31
380.831	92.31
381.057	100.31
381.282	92.31
381.507	101.31
381.733	91.31
381.958	92.31
382.184	97.31
382.409	95.31
382.634	83.31
382.86	90.31
383.085	95.31
383.31	102.31
383.535	92.31
383.761	90.31
383.986	91.31
384.211	95.31
384.436	112.31
384.662	90.31
384.887	103.31
385.112	74.31
385.337	103.31
385.562	101.31
385.787	91.31
386.013	111.31
386.238	111.31
386.463	110.31
386.688	112.31
386.913	92.31
387.138	105.31
387.363	101.31
387.588	89.31
387.813	100.31
388.038	103.31
388.263	113.31
388.488	110.31
388.713	87.31
388.938	92.31
389.163	96.31
389.387	80.31
389.612	85.31
389.837	90.31
390.062	104.31
390.287	99.31
390.512	98.31
390.736	90.31
390.961	94.31
391.186	89.31
391.411	94.31
391.636	84.31
391.86	85.31
392.085	94.31
392.31	81.31
392.534	75.31
392.759	81.31
392.984	81.31
393.208	79.31
393.433	84.31
393.658	80.31
393.882	82.31
394.107	97.31
394.331	80.31
394.556	75.31
394.78	90.31
395.005	86.31
395.229	97.31
395.454	90.31
395.678	79.31
395.903	75.31
396.127	98.31
396.352	93.31
396.576	99.31
396.801	86.31
397.025	91.31
397.249	83.31
397.474	76.31
397.698	94.31
397.922	82.31
398.147	88.31
398.371	96.31
398.595	86.31
398.82	83.31
399.044	88.31
399.268	87.31
399.492	73.31
399.717	75.31
399.941	93.31
400.165	96.31
400.389	66.31
400.613	97.31
400.837	87.31
401.062	75.31
401.286	90.31
401.51	80.31
401.734	98.31
401.958	76.31
402.182	101.31
402.406	129.31
402.63	105.31
402.854	102.31
403.078	85.31
403.302	86.31
403.526	75.31
403.75	88.31
403.974	87.31
404.198	87.31
404.422	92.31
404.645	86.31
404.869	84.31
405.093	92.31
405.317	100.31
405.541	92.31
405.765	95.31
405.988	95.31
406.212	130.31
406.436	154.31
406.66	89.31
406.883	87.31
407.107	93.31
407.331	91.31
407.555	103.31
407.778	82.31
408.002	89.31
408.226	78.31
408.449	75.31
408.673	84.31
408.896	82.31
409.12	103.31
409.344	98.31
409.567	91.31
409.791	77.31
410.014	93.31
410.238	103.31
410.461	88.31
410.685	90.31
410.908	97.31
411.132	86.31
411.355	106.31
411.578	95.31
411.802	81.31
412.025	82.31
412.249	84.31
412.472	89.31
412.695	88.31
412.919	74.31
413.142	106.31
413.365	89.31
413.589	80.31
413.812	94.31
414.035	94.31
414.258	89.31
414.482	97.31
414.705	83.31
414.928	92.31
415.151	93.31
415.374	99.31
415.597	94.31
415.821	80.31
416.044	73.31
416.267	90.31
416.49	89.31
416.713	99.31
416.936	83.31
417.159	98.31
417.382	98.31
417.605	85.31
417.828	91.31
418.051	84.31
418.274	84.31
418.497	81.31
418.72	101.31
418.943	95.31
419.166	90.31
419.389	84.31
419.611	99.31
419.834	96.31
420.057	91.31
420.28	77.31
420.503	90.31
420.726	76.31
420.948	75.31
421.171	73.31
421.394	87.31
421.617	86.31
421.839	95.31
422.062	94.31
422.285	79.31
422.507	87.31
422.73	93.31
422.953	91.31
423.175	94.31
423.398	80.31
423.621	86.31
423.843	88.31
424.066	93.31
424.288	97.31
424.511	79.31
424.733	84.31
424.956	83.31
425.178	91.31
425.401	88.31
425.623	91.31
425.846	74.31
426.068	96.31
426.291	87.31
426.513	91.31
426.735	96.31
426.958	83.31
427.18	110.31
427.402	104.31
427.625	117.31
427.847	96.31
428.069	91.31
428.292	90.31
428.514	92.31
428.736	63.31
428.958	90.31
429.181	74.31
429.403	78.31
429.625	72.31
429.847	83.31
430.069	89.31
430.292	86.31
430.514	69.31
430.736	84.31
430.958	83.31
431.18	88.31
431.402	94.31
431.624	86.31
431.846	87.31
432.068	78.31
432.29	91.31
432.512	92.31
432.734	82.31
432.956	88.31
433.178	94.31
433.4	86.31
433.622	85.31
433.844	93.31
434.066	77.31
434.287	83.31
434.509	82.31
434.731	86.31
434.953	74.31
435.175	83.31
435.397	82.31
435.618	78.31
435.84	97.31
436.062	102.31
436.284	89.31
436.505	89.31
436.727	80.31
436.949	98.31
437.17	87.31
437.392	89.31
437.614	96.31
437.835	88.31
438.057	92.31
438.278	96.31
438.5	103.31
438.721	108.31
438.943	78.31
439.165	81.31
439.386	85.31
439.608	88.31
439.829	101.31
440.05	107.31
440.272	112.31
440.493	94.31
440.715	94.31
440.936	85.31
441.158	91.31
441.379	103.31
441.6	92.31
441.822	101.31
442.043	90.31
442.264	84.31
442.486	98.31
442.707	90.31
442.928	90.31
443.149	103.31
443.371	116.31
443.592	101.31
443.813	111.31
444.034	107.31
444.255	87.31
444.476	85.31
444.698	85.31
444.919	76.31
445.14	123.31
445.361	118.31
445.582	112.31
445.803	115.31
446.024	107.31
446.245	107.31
446.466	94.31
446.687	75.31
446.908	84.31
447.129	78.31
447.35	91.31
447.571	73.31
447.792	80.31
448.013	90.31
448.234	83.31
448.455	93.31
448.675	119.31
448.896	108.31
449.117	98.31
449.338	113.31
449.559	113.31
449.779	114.31
450	83.31
450.221	73.31
450.442	87.31
450.662	95.31
450.883	85.31
451.104	86.31
451.324	81.31
451.545	81.31
451.766	69.31
451.986	87.31
452.207	95.31
452.428	79.31
452.648	89.31
452.869	91.31
453.089	89.31
453.31	90.31
453.53	98.31
453.751	95.31
453.971	99.31
454.192	71.31
454.412	92.31
454.633	78.31
454.853	87.31
455.073	81.31
455.294	89.31
455.514	74.31
455.734	84.31
455.955	73.31
456.175	85.31
456.395	67.31
456.616	96.31
456.836	77.31
457.056	79.31
457.276	84.31
457.497	90.31
457.717	90.31
457.937	72.31
458.157	84.31
458.377	80.31
458.598	88.31
458.818	108.31
459.038	123.31
459.258	87.31
459.478	87.31
459.698	69.31
459.918	82.31
460.138	83.31
460.358	87.31
460.578	89.31
460.798	84.31
461.018	85.31
461.238	71.31
461.458	89.31
461.678	86.31
461.898	82.31
462.118	99.31
462.338	89.31
462.558	90.31
462.777	71.31
462.997	80.31
463.217	94.31
463.437	82.31
463.657	84.31
463.876	82.31
464.096	71.31
464.316	74.31
464.536	87.31
464.755	90.31
464.975	96.31
465.195	115.31
465.414	110.31
465.634	88.31
465.854	90.31
466.073	86.31
466.293	88.31
466.512	83.31
466.732	63.31
466.951	71.31
467.171	91.31
467.391	94.31
467.61	86.31
467.829	91.31
468.049	87.31
468.268	100.31
468.488	72.31
468.707	79.31
468.927	86.31
469.146	90.31
469.365	87.31
469.585	87.31
469.804	86.31
470.023	87.31
470.243	75.31
470.462	84.31
470.681	91.31
470.901	84.31
471.12	87.31
471.339	90.31
471.558	89.31
471.777	90.31
471.997	85.31
472.216	105.31
472.435	117.31
472.654	87.31
472.873	92.31
473.092	94.31
473.311	84.31
473.53	70.31
473.749	78.31
473.968	86.31
474.187	99.31
474.406	100.31
474.625	96.31
474.844	79.31
475.063	79.31
475.282	100.31
475.501	81.31
475.72	78.31
475.939	73.31
476.158	98.31
476.377	76.31
476.596	88.31
476.814	79.31
477.033	83.31
477.252	86.31
477.471	90.31
477.69	88.31
477.908	74.31
478.127	75.31
478.346	90.31
478.564	69.31
478.783	92.31
479.002	98.31
479.22	87.31
479.439	101.31
479.658	78.31
479.876	81.31
480.095	90.31
480.313	89.31
480.532	89.31
480.751	86.31
480.969	95.31
481.188	153.31
481.406	119.31
481.624	80.31
481.843	90.31
482.061	83.31
482.28	94.31
482.498	92.31
482.717	78.31
482.935	91.31
483.153	86.31
483.372	83.31
483.59	86.31
483.808	85.31
484.027	98.31
484.245	90.31
484.463	88.31
484.681	91.31
484.9	91.31
485.118	91.31
485.336	84.31
485.554	110.31
485.772	92.31
485.99	88.31
486.209	102.31
486.427	104.31
486.645	100.31
486.863	106.31
487.081	97.31
487.299	95.31
487.517	76.31
487.735	105.31
487.953	90.31
488.171	85.31
488.389	112.31
488.607	108.31
488.825	93.31
489.043	86.31
489.261	73.31
489.479	79.31
489.696	96.31
489.914	71.31
490.132	74.31
490.35	80.31
490.568	88.31
490.786	81.31
491.003	73.31
491.221	92.31
491.439	96.31
491.657	90.31
491.874	82.31
492.092	82.31
492.31	94.31
492.527	93.31
492.745	82.31
492.963	92.31
493.18	78.31
493.398	100.31
493.615	98.31
493.833	86.31
494.05	100.31
494.268	89.31
494.485	102.31
494.703	71.31
494.92	89.31
495.138	79.31
495.355	76.31
495.573	90.31
495.79	80.31
496.008	89.31
496.225	86.31
496.442	94.31
496.66	73.31
496.877	85.31
497.094	85.31
497.312	86.31
497.529	83.31
497.746	88.31
497.963	75.31
498.181	76.31
498.398	101.31
498.615	92.31
498.832	106.31
499.049	78.31
499.267	83.31
499.484	90.31
499.701	81.31
499.918	88.31
500.135	71.31
500.352	83.31
500.569	97.31
500.786	96.31
501.003	81.31
501.22	92.31
501.437	95.31
501.654	89.31
501.871	106.31
502.088	95.31
502.305	90.31
502.522	88.31
502.739	83.31
502.956	89.31
503.172	102.31
503.389	92.31
503.606	104.31
503.823	89.31
504.04	95.31
504.256	96.31
504.473	94.31
504.69	88.31
504.907	92.31
505.123	81.31
505.34	94.31
505.557	97.31
505.773	86.31
505.99	80.31
506.207	90.31
506.423	94.31
506.64	80.31
506.856	76.31
507.073	80.31
507.289	87.31
507.506	112.31
507.722	104.31
507.939	96.31
508.155	93.31
508.372	73.31
508.588	89.31
508.805	90.31
509.021	97.31
509.238	100.31
509.454	93.31
509.67	89.31
509.887	88.31
510.103	113.31
510.319	170.31
510.536	514.31
510.752	1432.31
510.968	407.31
511.184	126.31
511.401	105.31
511.617	89.31
511.833	84.31
512.049	95.31
512.265	87.31
512.481	73.31
512.698	94.31
512.914	98.31
513.13	97.31
513.346	104.31
513.562	82.31
513.778	82.31
513.994	93.31
514.21	86.31
514.426	92.31
514.642	101.31
514.858	103.31
515.074	143.31
515.29	279.31
515.506	810.31
515.721	316.31
515.937	124.31
516.153	88.31
516.369	90.31
516.585	89.31
516.801	84.31
517.016	92.31
517.232	101.31
517.448	82.31
