Data from Uncirc_1982_H10_HRD10591_00100.txt Node
Date: Wed Jan 03 12:29:45 EST 2024
User: Yrep
Spectrometer: HR+D1059
Trigger mode: 1
Integration Time (sec): 1.000000E-1
Scans to average: 1
Electric dark correction enabled: true
Nonlinearity correction enabled: false
Boxcar width: 0
XAxis mode: Wavelengths
Number of Pixels in Spectrum: 2048
>>>>>Begin Spectral Data<<<<<
223.165	-12
223.4	-12
223.635	-12
223.869	-9
224.104	-30
224.338	-10
224.573	-21
224.808	-12
225.042	-4
225.277	6
225.511	-21
225.746	2
225.98	17
226.215	14
226.449	10
226.683	8
226.918	38
227.152	24
227.387	36
227.621	22
227.856	52
228.09	60
228.324	60
228.559	64
228.793	66
229.027	62
229.262	59
229.496	78
229.73	86
229.964	88
230.199	83
230.433	79
230.667	70
230.901	83
231.136	79
231.37	94
231.604	73
231.838	74
232.072	97
232.306	86
232.541	71
232.775	82
233.009	76
233.243	76
233.477	80
233.711	86
233.945	92
234.179	72
234.413	71
234.647	91
234.881	75
235.115	74
235.349	80
235.583	91
235.817	76
236.051	87
236.285	74
236.519	75
236.753	78
236.987	69
237.221	79
237.455	83
237.689	72
237.922	66
238.156	82
238.39	86
238.624	87
238.858	76
239.091	75
239.325	84
239.559	94
239.793	69
240.027	85
240.26	67
240.494	82
240.728	70
240.961	65
241.195	73
241.429	76
241.662	63
241.896	88
242.13	91
242.363	78
242.597	64
242.83	88
243.064	86
243.298	88
243.531	69
243.765	82
243.998	84
244.232	91
244.465	97
244.699	90
244.932	75
245.166	74
245.399	63
245.633	80
245.866	69
246.099	88
246.333	85
246.566	86
246.8	75
247.033	78
247.266	60
247.5	91
247.733	84
247.966	89
248.2	82
248.433	71
248.666	90
248.899	86
249.133	99
249.366	107
249.599	85
249.832	75
250.066	72
250.299	58
250.532	87
250.765	88
250.998	71
251.231	90
251.465	82
251.698	90
251.931	85
252.164	85
252.397	88
252.63	82
252.863	92
253.096	84
253.329	87
253.562	70
253.795	82
254.028	93
254.261	101
254.494	83
254.727	93
254.96	77
255.193	67
255.426	98
255.659	90
255.892	80
256.124	85
256.357	87
256.59	88
256.823	87
257.056	79
257.289	84
257.521	78
257.754	88
257.987	83
258.22	98
258.452	79
258.685	78
258.918	76
259.151	92
259.383	76
259.616	86
259.849	79
260.081	94
260.314	76
260.547	82
260.779	84
261.012	83
261.244	83
261.477	91
261.71	95
261.942	104
262.175	109
262.407	87
262.64	70
262.872	94
263.105	79
263.337	93
263.57	92
263.802	70
264.035	85
264.267	67
264.499	77
264.732	87
264.964	77
265.197	86
265.429	76
265.661	92
265.894	78
266.126	88
266.358	90
266.591	85
266.823	84
267.055	71
267.287	87
267.52	84
267.752	73
267.984	90
268.216	72
268.448	95
268.681	91
268.913	87
269.145	90
269.377	86
269.609	92
269.841	96
270.073	77
270.306	82
270.538	83
270.77	88
271.002	90
271.234	96
271.466	94
271.698	95
271.93	99
272.162	77
272.394	88
272.626	88
272.858	92
273.09	93
273.322	90
273.553	88
273.785	87
274.017	69
274.249	77
274.481	83
274.713	103
274.945	91
275.176	91
275.408	86
275.64	88
275.872	77
276.104	79
276.335	80
276.567	94
276.799	104
277.031	102
277.262	112
277.494	94
277.726	86
277.957	90
278.189	98
278.421	78
278.652	92
278.884	90
279.115	95
279.347	96
279.579	88
279.81	88
280.042	88
280.273	96
280.505	88
280.736	96
280.968	88
281.199	61
281.431	102
281.662	87
281.894	97
282.125	100
282.356	110
282.588	110
282.819	110
283.051	91
283.282	79
283.513	85
283.745	78
283.976	101
284.207	84
284.439	87
284.67	87
284.901	90
285.132	83
285.364	76
285.595	84
285.826	86
286.057	89
286.288	90
286.52	88
286.751	85
286.982	94
287.213	90
287.444	88
287.675	98
287.906	95
288.138	90
288.369	111
288.6	100
288.831	89
289.062	97
289.293	100
289.524	78
289.755	85
289.986	91
290.217	76
290.448	87
290.679	90
290.91	91
291.141	93
291.371	106
291.602	86
291.833	94
292.064	83
292.295	76
292.526	94
292.757	84
292.987	99
293.218	95
293.449	90
293.68	92
293.91	78
294.141	85
294.372	78
294.603	94
294.833	84
295.064	97
295.295	86
295.525	92
295.756	106
295.987	118
296.217	123
296.448	116
296.679	102
296.909	85
297.14	82
297.37	95
297.601	88
297.831	87
298.062	72
298.292	76
298.523	89
298.753	96
298.984	93
299.214	93
299.445	82
299.675	95
299.905	93
300.136	96
300.366	86
300.597	90
300.827	98
301.057	104
301.288	106
301.518	106
301.748	102
301.979	104
302.209	94
302.439	84
302.669	98
302.9	83
303.13	92
303.36	85
303.59	89
303.82	97
304.051	98
304.281	87
304.511	109
304.741	80
304.971	76
305.201	87
305.431	100
305.661	105
305.891	94
306.121	102
306.352	88
306.582	104
306.812	95
307.042	96
307.272	94
307.502	97
307.731	91
307.961	93
308.191	86
308.421	79
308.651	84
308.881	86
309.111	108
309.341	98
309.571	92
309.8	106
310.03	96
310.26	94
310.49	102
310.72	97
310.949	101
311.179	99
311.409	97
311.639	93
311.868	85
312.098	97
312.328	103
312.557	100
312.787	112
313.017	105
313.246	106
313.476	86
313.706	93
313.935	102
314.165	108
314.394	95
314.624	97
314.853	91
315.083	97
315.312	93
315.542	94
315.771	115
316.001	92
316.23	79
316.46	85
316.689	74
316.919	76
317.148	101
317.377	103
317.607	109
317.836	99
318.065	87
318.295	93
318.524	92
318.753	82
318.983	98
319.212	82
319.441	103
319.67	108
319.9	104
320.129	94
320.358	99
320.587	95
320.816	92
321.046	100
321.275	106
321.504	104
321.733	102
321.962	91
322.191	101
322.42	107
322.649	97
322.878	110
323.108	108
323.337	122
323.566	111
323.795	137
324.024	189
324.253	342
324.482	757
324.71	1504
324.939	1951
325.168	709
325.397	216
325.626	131
325.855	122
326.084	128
326.313	117
326.542	140
326.77	222
326.999	402
327.228	838
327.457	1532
327.686	1212
327.914	348
328.143	191
328.372	143
328.6	113
328.829	110
329.058	132
329.287	109
329.515	91
329.744	106
329.972	115
330.201	120
330.43	135
330.658	134
330.887	134
331.115	107
331.344	106
331.572	95
331.801	93
332.03	97
332.258	95
332.486	92
332.715	96
332.943	104
333.172	97
333.4	94
333.629	109
333.857	107
334.085	104
334.314	104
334.542	129
334.771	135
334.999	103
335.227	106
335.455	92
335.684	96
335.912	97
336.14	100
336.369	100
336.597	80
336.825	88
337.053	90
337.281	91
337.51	90
337.738	96
337.966	100
338.194	93
338.422	93
338.65	107
338.878	86
339.106	86
339.334	90
339.562	102
339.79	94
340.018	95
340.246	96
340.474	100
340.702	103
340.93	92
341.158	90
341.386	84
341.614	103
341.842	103
342.07	99
342.298	82
342.526	95
342.754	99
342.981	88
343.209	90
343.437	86
343.665	105
343.893	91
344.12	92
344.348	90
344.576	99
344.804	91
345.031	86
345.259	91
345.487	100
345.714	96
345.942	100
346.17	86
346.397	95
346.625	93
346.853	96
347.08	105
347.308	91
347.535	99
347.763	99
347.99	100
348.218	106
348.445	105
348.673	100
348.9	94
349.128	102
349.355	78
349.583	104
349.81	89
350.037	92
350.265	96
350.492	94
350.72	113
350.947	98
351.174	109
351.402	112
351.629	113
351.856	104
352.083	94
352.311	117
352.538	119
352.765	102
352.992	114
353.22	116
353.447	106
353.674	97
353.901	100
354.128	92
354.355	94
354.583	108
354.81	91
355.037	88
355.264	88
355.491	94
355.718	95
355.945	85
356.172	90
356.399	94
356.626	102
356.853	104
357.08	100
357.307	99
357.534	91
357.761	103
357.988	105
358.215	109
358.441	98
358.668	89
358.895	79
359.122	102
359.349	90
359.576	94
359.802	102
360.029	108
360.256	98
360.483	96
360.709	99
360.936	94
361.163	88
361.39	101
361.616	99
361.843	87
362.07	87
362.296	94
362.523	90
362.749	84
362.976	85
363.203	89
363.429	88
363.656	86
363.882	90
364.109	91
364.335	96
364.562	100
364.788	94
365.015	88
365.241	96
365.468	102
365.694	106
365.92	95
366.147	86
366.373	78
366.599	95
366.826	91
367.052	95
367.278	84
367.505	85
367.731	102
367.957	91
368.184	96
368.41	87
368.636	111
368.862	118
369.089	122
369.315	107
369.541	101
369.767	91
369.993	91
370.219	92
370.445	93
370.672	92
370.898	99
371.124	87
371.35	74
371.576	89
371.802	78
372.028	98
372.254	95
372.48	83
372.706	89
372.932	104
373.158	93
373.384	106
373.61	98
373.835	88
374.061	98
374.287	104
374.513	85
374.739	87
374.965	87
375.191	93
375.416	98
375.642	102
375.868	113
376.094	92
376.319	104
376.545	92
376.771	91
376.997	112
377.222	102
377.448	100
377.674	65
377.899	68
378.125	104
378.35	90
378.576	99
378.802	96
379.027	93
379.253	90
379.478	94
379.704	100
379.929	84
380.155	90
380.38	83
380.606	108
380.831	96
381.057	102
381.282	84
381.507	95
381.733	82
381.958	94
382.184	102
382.409	92
382.634	110
382.86	90
383.085	110
383.31	100
383.535	98
383.761	91
383.986	104
384.211	105
384.436	105
384.662	84
384.887	87
385.112	109
385.337	97
385.562	91
385.787	101
386.013	108
386.238	87
386.463	103
386.688	94
386.913	100
387.138	107
387.363	100
387.588	101
387.813	95
388.038	106
388.263	114
388.488	115
388.713	109
388.938	95
389.163	87
389.387	93
389.612	115
389.837	84
390.062	99
390.287	94
390.512	100
390.736	95
390.961	86
391.186	100
391.411	100
391.636	87
391.86	90
392.085	87
392.31	103
392.534	94
392.759	94
392.984	98
393.208	86
393.433	88
393.658	94
393.882	90
394.107	93
394.331	89
394.556	79
394.78	99
395.005	86
395.229	92
395.454	96
395.678	91
395.903	87
396.127	96
396.352	99
396.576	82
396.801	77
397.025	78
397.249	74
397.474	93
397.698	90
397.922	94
398.147	78
398.371	80
398.595	94
398.82	72
399.044	78
399.268	89
399.492	102
399.717	84
399.941	79
400.165	101
400.389	86
400.613	90
400.837	80
401.062	83
401.286	92
401.51	91
401.734	84
401.958	90
402.182	124
402.406	157
402.63	98
402.854	96
403.078	86
403.302	84
403.526	89
403.75	90
403.974	91
404.198	87
404.422	90
404.645	86
404.869	89
405.093	96
405.317	79
405.541	98
405.765	88
405.988	108
406.212	154
406.436	178
406.66	122
406.883	89
407.107	79
407.331	89
407.555	103
407.778	96
408.002	102
408.226	99
408.449	86
408.673	102
408.896	97
409.12	99
409.344	94
409.567	95
409.791	83
410.014	100
410.238	104
410.461	80
410.685	86
410.908	91
411.132	115
411.355	106
411.578	106
411.802	85
412.025	104
412.249	94
412.472	90
412.695	90
412.919	91
413.142	89
413.365	87
413.589	100
413.812	96
414.035	92
414.258	96
414.482	99
414.705	89
414.928	87
415.151	93
415.374	92
415.597	84
415.821	90
416.044	76
416.267	94
416.49	71
416.713	88
416.936	86
417.159	96
417.382	81
417.605	89
417.828	106
418.051	102
418.274	97
418.497	87
418.72	77
418.943	96
419.166	90
419.389	87
419.611	92
419.834	90
420.057	91
420.28	98
420.503	85
420.726	92
420.948	82
421.171	95
421.394	74
421.617	84
421.839	107
422.062	92
422.285	98
422.507	107
422.73	94
422.953	98
423.175	92
423.398	82
423.621	114
423.843	94
424.066	84
424.288	88
424.511	99
424.733	94
424.956	104
425.178	80
425.401	97
425.623	94
425.846	100
426.068	86
426.291	100
426.513	89
426.735	92
426.958	87
427.18	113
427.402	117
427.625	136
427.847	121
428.069	102
428.292	97
428.514	105
428.736	85
428.958	87
429.181	86
429.403	92
429.625	90
429.847	86
430.069	90
430.292	89
430.514	83
430.736	84
430.958	87
431.18	84
431.402	94
431.624	93
431.846	90
432.068	97
432.29	95
432.512	79
432.734	95
432.956	83
433.178	99
433.4	96
433.622	91
433.844	86
434.066	103
434.287	95
434.509	102
434.731	76
434.953	91
435.175	93
435.397	90
435.618	90
435.84	107
436.062	102
436.284	99
436.505	98
436.727	99
436.949	100
437.17	92
437.392	90
437.614	98
437.835	98
438.057	108
438.278	101
438.5	105
438.721	114
438.943	116
439.165	79
439.386	90
439.608	84
439.829	98
440.05	112
440.272	119
440.493	101
440.715	83
440.936	91
441.158	89
441.379	76
441.6	91
441.822	100
442.043	96
442.264	87
442.486	102
442.707	90
442.928	114
443.149	124
443.371	119
443.592	111
443.813	112
444.034	107
444.255	89
444.476	107
444.698	96
444.919	94
445.14	136
445.361	131
445.582	110
445.803	130
446.024	130
446.245	114
446.466	105
446.687	84
446.908	85
447.129	84
447.35	82
447.571	100
447.792	79
448.013	95
448.234	94
448.455	94
448.675	102
448.896	106
449.117	103
449.338	95
449.559	133
449.779	114
450	93
450.221	79
450.442	88
450.662	83
450.883	99
451.104	98
451.324	87
451.545	90
451.766	93
451.986	88
452.207	76
452.428	98
452.648	99
452.869	107
453.089	103
453.31	125
453.53	85
453.751	68
453.971	95
454.192	92
454.412	90
454.633	83
454.853	77
455.073	91
455.294	96
455.514	91
455.734	88
455.955	90
456.175	84
456.395	78
456.616	89
456.836	92
457.056	93
457.276	93
457.497	74
457.717	84
457.937	72
458.157	84
458.377	97
458.598	100
458.818	125
459.038	136
459.258	118
459.478	95
459.698	87
459.918	94
460.138	90
460.358	101
460.578	92
460.798	92
461.018	92
461.238	99
461.458	94
461.678	83
461.898	95
462.118	101
462.338	81
462.558	75
462.777	79
462.997	78
463.217	90
463.437	85
463.657	97
463.876	79
464.096	96
464.316	94
464.536	85
464.755	95
464.975	109
465.195	142
465.414	142
465.634	105
465.854	93
466.073	96
466.293	94
466.512	93
466.732	89
466.951	93
467.171	86
467.391	91
467.61	99
467.829	94
468.049	90
468.268	86
468.488	91
468.707	88
468.927	79
469.146	75
469.365	80
469.585	81
469.804	94
470.023	84
470.243	82
470.462	102
470.681	115
470.901	90
471.12	83
471.339	93
471.558	101
471.777	92
471.997	99
472.216	104
472.435	133
472.654	100
472.873	92
473.092	79
473.311	93
473.53	96
473.749	88
473.968	96
474.187	94
474.406	118
474.625	94
474.844	86
475.063	98
475.282	90
475.501	98
475.72	110
475.939	95
476.158	80
476.377	98
476.596	100
476.814	90
477.033	86
477.252	86
477.471	99
477.69	91
477.908	96
478.127	92
478.346	88
478.564	103
478.783	85
479.002	85
479.22	79
479.439	106
479.658	98
479.876	95
480.095	90
480.313	104
480.532	100
480.751	105
480.969	112
481.188	183
481.406	144
481.624	89
481.843	84
482.061	99
482.28	92
482.498	93
482.717	90
482.935	85
483.153	101
483.372	83
483.59	91
483.808	98
484.027	89
484.245	95
484.463	104
484.681	99
484.9	91
485.118	98
485.336	98
485.554	81
485.772	101
485.99	120
486.209	116
486.427	110
486.645	114
486.863	112
487.081	108
487.299	91
487.517	91
487.735	110
487.953	98
488.171	95
488.389	101
488.607	100
488.825	98
489.043	91
489.261	86
489.479	85
489.696	92
489.914	93
490.132	91
490.35	80
490.568	98
490.786	94
491.003	88
491.221	98
491.439	84
491.657	96
491.874	101
492.092	97
492.31	102
492.527	98
492.745	78
492.963	87
493.18	88
493.398	102
493.615	85
493.833	99
494.05	98
494.268	95
494.485	100
494.703	102
494.92	93
495.138	90
495.355	89
495.573	102
495.79	84
496.008	88
496.225	90
496.442	78
496.66	90
496.877	78
497.094	94
497.312	93
497.529	91
497.746	95
497.963	92
498.181	76
498.398	88
498.615	100
498.832	107
499.049	105
499.267	97
499.484	94
499.701	91
499.918	82
500.135	104
500.352	80
500.569	92
500.786	89
501.003	97
501.22	96
501.437	84
501.654	87
501.871	107
502.088	82
502.305	102
502.522	92
502.739	100
502.956	94
503.172	89
503.389	106
503.606	110
503.823	94
504.04	108
504.256	90
504.473	93
504.69	101
504.907	89
505.123	93
505.34	75
505.557	94
505.773	99
505.99	90
506.207	92
506.423	89
506.64	95
506.856	101
507.073	91
507.289	100
507.506	97
507.722	111
507.939	86
508.155	103
508.372	91
508.588	94
508.805	108
509.021	101
509.238	90
509.454	110
509.67	99
509.887	114
510.103	120
510.319	189
510.536	661
510.752	2039
510.968	550
511.184	148
511.401	96
511.617	106
511.833	91
512.049	89
512.265	110
512.481	99
512.698	100
512.914	93
513.13	107
513.346	91
513.562	103
513.778	88
513.994	99
514.21	108
514.426	105
514.642	123
514.858	104
515.074	133
515.29	379
515.506	1164
515.721	432
515.937	148
516.153	105
516.369	104
516.585	95
516.801	88
517.016	96
517.232	109
517.448	107
517.664	106
517.879	78
518.095	99
518.311	107
518.527	97
518.742	95
518.958	92
519.173	93
519.389	97
519.605	96
519.82	97
520.036	96
520.251	106
520.467	112
520.682	111
520.898	100
521.113	102
521.329	137
521.544	200
521.76	472
521.975	1909
522.19	1112
522.406	269
522.621	126
522.836	94
523.052	95
523.267	108
523.482	101
523.698	114
523.913	125
524.128	90
524.343	100
524.559	91
524.774	99
524.989	90
525.204	101
525.419	112
525.634	96
525.849	94
526.064	95
526.28	92
526.495	95
526.71	99
526.925	101
527.14	82
527.355	87
527.57	100
527.785	116
527.999	95
528.214	107
528.429	104
528.644	92
528.859	83
529.074	86
529.289	122
529.503	164
529.718	101
529.933	85
530.148	79
530.363	90
530.577	87
530.792	88
531.007	86
531.221	92
531.436	88
531.651	87
531.865	95
532.08	94
532.295	93
532.509	103
532.724	81
532.938	83
533.153	90
533.367	102
533.582	104
533.796	91
534.011	97
534.225	88
534.44	79
534.654	94
534.868	97
535.083	99
535.297	90
535.511	106
535.726	92
535.94	89
536.154	95
536.369	101
536.583	93
536.797	85
537.011	86
537.225	82
537.44	101
537.654	89
537.868	86
538.082	100
538.296	92
538.51	98
538.724	90
538.938	83
539.153	96
539.367	83
539.581	101
539.795	106
540.009	106
540.222	92
540.436	100
540.65	67
540.864	82
541.078	82
541.292	100
541.506	84
541.72	96
541.934	85
542.147	89
542.361	92
542.575	94
542.789	87
543.002	71
543.216	92
543.43	112
543.644	91
543.857	98
544.071	99
544.285	101
544.498	79
544.712	100
544.925	91
545.139	82
545.352	86
545.566	83
545.779	83
545.993	83
546.206	102
546.42	72
546.633	96
546.847	96
547.06	85
547.274	91
547.487	96
547.7	85
547.914	89
548.127	79
548.34	99
548.554	99
548.767	95
548.98	96
549.193	88
549.407	92
549.62	77
549.833	102
550.046	90
550.259	92
550.473	108
550.686	94
550.899	82
551.112	90
551.325	76
551.538	74
551.751	86
551.964	90
552.177	98
552.39	94
552.603	92
552.816	88
553.029	98
553.242	94
553.455	90
553.667	102
553.88	104
554.093	99
554.306	96
554.519	86
554.732	84
554.944	96
555.157	82
555.37	92
555.583	94
555.795	93
556.008	96
556.221	86
556.433	86
556.646	98
556.859	99
557.071	87
557.284	87
557.496	92
557.709	85
557.921	87
558.134	85
558.346	111
558.559	103
558.771	85
558.984	83
559.196	79
559.409	95
559.621	88
559.833	95
560.046	101
560.258	86
560.47	98
560.683	82
560.895	89
561.107	99
561.32	93
561.532	93
561.744	93
561.956	97
562.168	99
562.381	88
562.593	95
562.805	84
563.017	101
563.229	101
563.441	93
563.653	86
563.865	93
564.077	106
564.289	93
564.501	93
564.713	79
564.925	93
565.137	101
565.349	91
565.561	88
565.773	112
565.985	85
566.197	80
566.408	88
566.62	78
566.832	78
567.044	101
567.255	80
567.467	88
567.679	98
567.891	94
568.102	84
568.314	92
568.526	83
568.737	89
568.949	95
569.161	96
569.372	88
569.584	95
569.795	95
570.007	123
570.218	221
570.43	127
570.641	92
570.853	93
571.064	83
571.276	90
571.487	92
571.698	89
571.91	91
572.121	82
572.333	93
572.544	102
572.755	88
572.966	97
573.178	76
573.389	108
573.6	89
573.811	78
574.023	87
574.234	79
574.445	96
574.656	93
574.867	84
575.078	101
575.289	90
575.501	88
575.712	87
575.923	80
576.134	89
576.345	100
576.556	80
576.767	93
576.978	95
577.188	88
577.399	109
577.61	103
577.821	108
578.032	100
578.243	239
578.454	659
578.665	188
578.875	112
579.086	91
579.297	77
579.508	88
579.718	100
579.929	95
580.14	84
580.35	84
580.561	93
580.772	90
580.982	90
581.193	84
581.403	82
581.614	82
581.825	87
582.035	80
582.246	93
582.456	74
582.667	84
582.877	89
583.087	88
583.298	95
