Data from Uncirc_1982_H10_HRD10591_00024.txt Node
Date: Wed Jan 03 12:29:29 EST 2024
User: Yrep
Spectrometer: HR+D1059
Trigger mode: 1
Integration Time (sec): 1.000000E-1
Scans to average: 1
Electric dark correction enabled: true
Nonlinearity correction enabled: false
Boxcar width: 0
XAxis mode: Wavelengths
Number of Pixels in Spectrum: 2048
>>>>>Begin Spectral Data<<<<<
223.165	-14.88
223.4	-14.88
223.635	-14.88
223.869	-19.88
224.104	-13.88
224.338	-9.88
224.573	-6.88
224.808	-22.88
225.042	-5.88
225.277	-0.88
225.511	-1.88
225.746	1.12
225.98	-4.88
226.215	4.12
226.449	14.12
226.683	30.12
226.918	21.12
227.152	31.12
227.387	36.12
227.621	36.12
227.856	44.12
228.09	47.12
228.324	46.12
228.559	48.12
228.793	49.12
229.027	54.12
229.262	54.12
229.496	68.12
229.73	78.12
229.964	92.12
230.199	80.12
230.433	76.12
230.667	74.12
230.901	87.12
231.136	70.12
231.37	93.12
231.604	70.12
231.838	73.12
232.072	77.12
232.306	84.12
232.541	77.12
232.775	88.12
233.009	82.12
233.243	84.12
233.477	86.12
233.711	97.12
233.945	69.12
234.179	78.12
234.413	85.12
234.647	84.12
234.881	82.12
235.115	71.12
235.349	71.12
235.583	77.12
235.817	89.12
236.051	69.12
236.285	86.12
236.519	69.12
236.753	80.12
236.987	72.12
237.221	82.12
237.455	99.12
237.689	80.12
237.922	89.12
238.156	68.12
238.39	69.12
238.624	92.12
238.858	72.12
239.091	65.12
239.325	81.12
239.559	76.12
239.793	76.12
240.027	85.12
240.26	71.12
240.494	82.12
240.728	82.12
240.961	66.12
241.195	75.12
241.429	84.12
241.662	80.12
241.896	73.12
242.13	80.12
242.363	83.12
242.597	83.12
242.83	85.12
243.064	74.12
243.298	64.12
243.531	66.12
243.765	76.12
243.998	88.12
244.232	73.12
244.465	72.12
244.699	80.12
244.932	87.12
245.166	68.12
245.399	85.12
245.633	74.12
245.866	86.12
246.099	82.12
246.333	77.12
246.566	84.12
246.8	68.12
247.033	89.12
247.266	97.12
247.5	80.12
247.733	76.12
247.966	84.12
248.2	89.12
248.433	67.12
248.666	75.12
248.899	77.12
249.133	86.12
249.366	84.12
249.599	83.12
249.832	95.12
250.066	81.12
250.299	90.12
250.532	78.12
250.765	86.12
250.998	61.12
251.231	73.12
251.465	88.12
251.698	76.12
251.931	85.12
252.164	90.12
252.397	86.12
252.63	77.12
252.863	73.12
253.096	79.12
253.329	82.12
253.562	83.12
253.795	78.12
254.028	92.12
254.261	84.12
254.494	83.12
254.727	78.12
254.96	70.12
255.193	75.12
255.426	75.12
255.659	86.12
255.892	73.12
256.124	75.12
256.357	74.12
256.59	88.12
256.823	76.12
257.056	82.12
257.289	80.12
257.521	77.12
257.754	80.12
257.987	94.12
258.22	77.12
258.452	84.12
258.685	88.12
258.918	81.12
259.151	85.12
259.383	91.12
259.616	84.12
259.849	68.12
260.081	78.12
260.314	86.12
260.547	81.12
260.779	73.12
261.012	67.12
261.244	88.12
261.477	86.12
261.71	74.12
261.942	96.12
262.175	93.12
262.407	86.12
262.64	73.12
262.872	92.12
263.105	83.12
263.337	94.12
263.57	78.12
263.802	83.12
264.035	86.12
264.267	84.12
264.499	78.12
264.732	95.12
264.964	86.12
265.197	78.12
265.429	85.12
265.661	71.12
265.894	88.12
266.126	83.12
266.358	78.12
266.591	88.12
266.823	80.12
267.055	73.12
267.287	87.12
267.52	86.12
267.752	89.12
267.984	89.12
268.216	92.12
268.448	80.12
268.681	88.12
268.913	92.12
269.145	90.12
269.377	89.12
269.609	81.12
269.841	83.12
270.073	60.12
270.306	75.12
270.538	86.12
270.77	84.12
271.002	89.12
271.234	98.12
271.466	76.12
271.698	88.12
271.93	93.12
272.162	91.12
272.394	82.12
272.626	68.12
272.858	88.12
273.09	66.12
273.322	90.12
273.553	73.12
273.785	88.12
274.017	78.12
274.249	91.12
274.481	82.12
274.713	84.12
274.945	88.12
275.176	67.12
275.408	98.12
275.64	78.12
275.872	72.12
276.104	82.12
276.335	83.12
276.567	104.12
276.799	93.12
277.031	90.12
277.262	91.12
277.494	98.12
277.726	86.12
277.957	80.12
278.189	81.12
278.421	78.12
278.652	88.12
278.884	82.12
279.115	96.12
279.347	97.12
279.579	88.12
279.81	86.12
280.042	85.12
280.273	77.12
280.505	82.12
280.736	79.12
280.968	83.12
281.199	86.12
281.431	83.12
281.662	98.12
281.894	84.12
282.125	95.12
282.356	104.12
282.588	120.12
282.819	106.12
283.051	72.12
283.282	85.12
283.513	87.12
283.745	82.12
283.976	84.12
284.207	83.12
284.439	88.12
284.67	84.12
284.901	87.12
285.132	97.12
285.364	80.12
285.595	82.12
285.826	88.12
286.057	92.12
286.288	91.12
286.52	84.12
286.751	84.12
286.982	96.12
287.213	87.12
287.444	79.12
287.675	71.12
287.906	97.12
288.138	84.12
288.369	88.12
288.6	92.12
288.831	96.12
289.062	83.12
289.293	92.12
289.524	89.12
289.755	80.12
289.986	85.12
290.217	82.12
290.448	74.12
290.679	86.12
290.91	73.12
291.141	73.12
291.371	71.12
291.602	85.12
291.833	78.12
292.064	90.12
292.295	87.12
292.526	77.12
292.757	95.12
292.987	104.12
293.218	102.12
293.449	94.12
293.68	102.12
293.91	91.12
294.141	96.12
294.372	89.12
294.603	88.12
294.833	97.12
295.064	98.12
295.295	87.12
295.525	101.12
295.756	98.12
295.987	111.12
296.217	116.12
296.448	119.12
296.679	83.12
296.909	84.12
297.14	87.12
297.37	86.12
297.601	95.12
297.831	88.12
298.062	88.12
298.292	86.12
298.523	74.12
298.753	79.12
298.984	79.12
299.214	78.12
299.445	91.12
299.675	85.12
299.905	87.12
300.136	91.12
300.366	83.12
300.597	94.12
300.827	91.12
301.057	104.12
301.288	96.12
301.518	98.12
301.748	83.12
301.979	106.12
302.209	92.12
302.439	82.12
302.669	97.12
302.9	93.12
303.13	96.12
303.36	105.12
303.59	99.12
303.82	116.12
304.051	84.12
304.281	98.12
304.511	93.12
304.741	92.12
304.971	85.12
305.201	89.12
305.431	79.12
305.661	105.12
305.891	99.12
306.121	88.12
306.352	88.12
306.582	96.12
306.812	92.12
307.042	94.12
307.272	94.12
307.502	94.12
307.731	89.12
307.961	81.12
308.191	83.12
308.421	86.12
308.651	93.12
308.881	97.12
309.111	82.12
309.341	92.12
309.571	102.12
309.8	97.12
310.03	103.12
310.26	90.12
310.49	113.12
310.72	85.12
310.949	104.12
311.179	93.12
311.409	85.12
311.639	84.12
311.868	104.12
312.098	84.12
312.328	98.12
312.557	90.12
312.787	87.12
313.017	106.12
313.246	91.12
313.476	94.12
313.706	82.12
313.935	93.12
314.165	95.12
314.394	95.12
314.624	96.12
314.853	86.12
315.083	85.12
315.312	93.12
315.542	86.12
315.771	94.12
316.001	97.12
316.23	89.12
316.46	65.12
316.689	97.12
316.919	99.12
317.148	86.12
317.377	99.12
317.607	96.12
317.836	97.12
318.065	93.12
318.295	77.12
318.524	91.12
318.753	90.12
318.983	98.12
319.212	97.12
319.441	114.12
319.67	100.12
319.9	93.12
320.129	104.12
320.358	96.12
320.587	93.12
320.816	86.12
321.046	97.12
321.275	96.12
321.504	87.12
321.733	112.12
321.962	90.12
322.191	105.12
322.42	99.12
322.649	100.12
322.878	120.12
323.108	105.12
323.337	116.12
323.566	110.12
323.795	158.12
324.024	185.12
324.253	351.12
324.482	732.12
324.71	1507.12
324.939	1962.12
325.168	720.12
325.397	232.12
325.626	146.12
325.855	134.12
326.084	123.12
326.313	140.12
326.542	139.12
326.77	212.12
326.999	409.12
327.228	809.12
327.457	1535.12
327.686	1250.12
327.914	338.12
328.143	182.12
328.372	147.12
328.6	114.12
328.829	99.12
329.058	115.12
329.287	123.12
329.515	111.12
329.744	112.12
329.972	91.12
330.201	113.12
330.43	124.12
330.658	123.12
330.887	121.12
331.115	105.12
331.344	91.12
331.572	119.12
331.801	108.12
332.03	94.12
332.258	88.12
332.486	108.12
332.715	94.12
332.943	88.12
333.172	96.12
333.4	92.12
333.629	113.12
333.857	95.12
334.085	109.12
334.314	109.12
334.542	123.12
334.771	113.12
334.999	101.12
335.227	107.12
335.455	97.12
335.684	83.12
335.912	105.12
336.14	96.12
336.369	91.12
336.597	86.12
336.825	90.12
337.053	71.12
337.281	99.12
337.51	96.12
337.738	106.12
337.966	104.12
338.194	102.12
338.422	87.12
338.65	106.12
338.878	78.12
339.106	82.12
339.334	90.12
339.562	99.12
339.79	87.12
340.018	87.12
340.246	88.12
340.474	81.12
340.702	89.12
340.93	104.12
341.158	75.12
341.386	103.12
341.614	96.12
341.842	92.12
342.07	91.12
342.298	107.12
342.526	93.12
342.754	75.12
342.981	86.12
343.209	85.12
343.437	96.12
343.665	87.12
343.893	80.12
344.12	98.12
344.348	93.12
344.576	87.12
344.804	82.12
345.031	102.12
345.259	104.12
345.487	90.12
345.714	101.12
345.942	99.12
346.17	94.12
346.397	97.12
346.625	92.12
346.853	102.12
347.08	86.12
347.308	84.12
347.535	104.12
347.763	112.12
347.99	84.12
348.218	94.12
348.445	85.12
348.673	95.12
348.9	77.12
349.128	84.12
349.355	100.12
349.583	93.12
349.81	99.12
350.037	91.12
350.265	98.12
350.492	88.12
350.72	105.12
350.947	116.12
351.174	97.12
351.402	99.12
351.629	90.12
351.856	107.12
352.083	100.12
352.311	82.12
352.538	99.12
352.765	120.12
352.992	110.12
353.22	110.12
353.447	99.12
353.674	104.12
353.901	110.12
354.128	105.12
354.355	98.12
354.583	90.12
354.81	107.12
355.037	103.12
355.264	97.12
355.491	85.12
355.718	83.12
355.945	105.12
356.172	102.12
356.399	108.12
356.626	90.12
356.853	94.12
357.08	98.12
357.307	96.12
357.534	100.12
357.761	92.12
357.988	107.12
358.215	107.12
358.441	111.12
358.668	95.12
358.895	86.12
359.122	86.12
359.349	91.12
359.576	91.12
359.802	104.12
360.029	108.12
360.256	107.12
360.483	94.12
360.709	88.12
360.936	82.12
361.163	87.12
361.39	105.12
361.616	87.12
361.843	91.12
362.07	100.12
362.296	90.12
362.523	93.12
362.749	80.12
362.976	82.12
363.203	89.12
363.429	92.12
363.656	85.12
363.882	102.12
364.109	81.12
364.335	88.12
364.562	87.12
364.788	91.12
365.015	101.12
365.241	94.12
365.468	94.12
365.694	94.12
365.92	96.12
366.147	92.12
366.373	98.12
366.599	109.12
366.826	97.12
367.052	82.12
367.278	82.12
367.505	97.12
367.731	76.12
367.957	93.12
368.184	84.12
368.41	92.12
368.636	100.12
368.862	114.12
369.089	97.12
369.315	87.12
369.541	88.12
369.767	83.12
369.993	88.12
370.219	100.12
370.445	107.12
370.672	79.12
370.898	76.12
371.124	84.12
371.35	88.12
371.576	93.12
371.802	93.12
372.028	85.12
372.254	94.12
372.48	103.12
372.706	85.12
372.932	67.12
373.158	80.12
373.384	81.12
373.61	100.12
373.835	91.12
374.061	93.12
374.287	95.12
374.513	104.12
374.739	96.12
374.965	87.12
375.191	90.12
375.416	106.12
375.642	104.12
375.868	99.12
376.094	92.12
376.319	76.12
376.545	92.12
376.771	95.12
376.997	84.12
377.222	91.12
377.448	96.12
377.674	107.12
377.899	82.12
378.125	96.12
378.35	82.12
378.576	88.12
378.802	93.12
379.027	94.12
379.253	107.12
379.478	104.12
379.704	94.12
379.929	100.12
380.155	102.12
380.38	92.12
380.606	108.12
380.831	101.12
381.057	96.12
381.282	96.12
381.507	94.12
381.733	105.12
381.958	96.12
382.184	108.12
382.409	81.12
382.634	105.12
382.86	99.12
383.085	104.12
383.31	100.12
383.535	110.12
383.761	103.12
383.986	103.12
384.211	97.12
384.436	99.12
384.662	100.12
384.887	109.12
385.112	109.12
385.337	108.12
385.562	98.12
385.787	118.12
386.013	110.12
386.238	129.12
386.463	102.12
386.688	110.12
386.913	127.12
387.138	104.12
387.363	89.12
387.588	96.12
387.813	101.12
388.038	113.12
388.263	126.12
388.488	125.12
388.713	115.12
388.938	89.12
389.163	86.12
389.387	103.12
389.612	91.12
389.837	105.12
390.062	101.12
390.287	99.12
390.512	74.12
390.736	111.12
390.961	103.12
391.186	97.12
391.411	107.12
391.636	89.12
391.86	73.12
392.085	88.12
392.31	92.12
392.534	85.12
392.759	94.12
392.984	88.12
393.208	85.12
393.433	91.12
393.658	83.12
393.882	88.12
394.107	93.12
394.331	92.12
394.556	98.12
394.78	97.12
395.005	91.12
395.229	80.12
395.454	84.12
395.678	94.12
395.903	84.12
396.127	83.12
396.352	101.12
396.576	84.12
396.801	79.12
397.025	76.12
397.249	82.12
397.474	85.12
397.698	91.12
397.922	91.12
398.147	90.12
398.371	92.12
398.595	80.12
398.82	91.12
399.044	80.12
399.268	92.12
399.492	81.12
399.717	96.12
399.941	88.12
400.165	90.12
400.389	85.12
400.613	81.12
400.837	73.12
401.062	80.12
401.286	101.12
401.51	87.12
401.734	81.12
401.958	98.12
402.182	122.12
402.406	118.12
402.63	98.12
402.854	91.12
403.078	76.12
403.302	86.12
403.526	91.12
403.75	107.12
403.974	89.12
404.198	82.12
404.422	97.12
404.645	93.12
404.869	94.12
405.093	100.12
405.317	93.12
405.541	100.12
405.765	114.12
405.988	102.12
406.212	133.12
406.436	168.12
406.66	117.12
406.883	96.12
407.107	105.12
407.331	102.12
407.555	93.12
407.778	88.12
408.002	88.12
408.226	73.12
408.449	83.12
408.673	86.12
408.896	103.12
409.12	90.12
409.344	80.12
409.567	102.12
409.791	79.12
410.014	98.12
410.238	87.12
410.461	88.12
410.685	86.12
410.908	89.12
411.132	86.12
411.355	96.12
411.578	90.12
411.802	108.12
412.025	98.12
412.249	102.12
412.472	86.12
412.695	102.12
412.919	106.12
413.142	90.12
413.365	94.12
413.589	90.12
413.812	86.12
414.035	97.12
414.258	98.12
414.482	96.12
414.705	97.12
414.928	89.12
415.151	109.12
415.374	99.12
415.597	101.12
415.821	91.12
416.044	91.12
416.267	89.12
416.49	96.12
416.713	98.12
416.936	93.12
417.159	107.12
417.382	84.12
417.605	88.12
417.828	96.12
418.051	92.12
418.274	88.12
418.497	90.12
418.72	81.12
418.943	81.12
419.166	99.12
419.389	85.12
419.611	93.12
419.834	96.12
420.057	100.12
420.28	94.12
420.503	80.12
420.726	78.12
420.948	83.12
421.171	101.12
421.394	92.12
421.617	100.12
421.839	86.12
422.062	105.12
422.285	91.12
422.507	109.12
422.73	102.12
422.953	82.12
423.175	85.12
423.398	101.12
423.621	93.12
423.843	88.12
424.066	80.12
424.288	77.12
424.511	84.12
424.733	98.12
424.956	103.12
425.178	94.12
425.401	104.12
425.623	84.12
425.846	78.12
426.068	90.12
426.291	94.12
426.513	74.12
426.735	98.12
426.958	100.12
427.18	104.12
427.402	123.12
427.625	148.12
427.847	128.12
428.069	109.12
428.292	94.12
428.514	81.12
428.736	89.12
428.958	65.12
429.181	92.12
429.403	94.12
429.625	93.12
429.847	90.12
430.069	96.12
430.292	99.12
430.514	75.12
430.736	81.12
430.958	85.12
431.18	86.12
431.402	85.12
431.624	83.12
431.846	94.12
432.068	84.12
432.29	98.12
432.512	100.12
432.734	78.12
432.956	76.12
433.178	98.12
433.4	90.12
433.622	84.12
433.844	82.12
434.066	76.12
434.287	89.12
434.509	76.12
434.731	89.12
434.953	91.12
435.175	92.12
435.397	99.12
435.618	93.12
435.84	85.12
436.062	120.12
436.284	99.12
436.505	106.12
436.727	111.12
436.949	95.12
437.17	89.12
437.392	76.12
437.614	103.12
437.835	94.12
438.057	108.12
438.278	112.12
438.5	95.12
438.721	117.12
438.943	108.12
439.165	96.12
439.386	97.12
439.608	91.12
439.829	94.12
440.05	120.12
440.272	126.12
440.493	92.12
440.715	83.12
440.936	76.12
441.158	89.12
441.379	84.12
441.6	82.12
441.822	101.12
442.043	91.12
442.264	96.12
442.486	86.12
442.707	96.12
442.928	96.12
443.149	107.12
443.371	116.12
443.592	101.12
443.813	108.12
444.034	103.12
444.255	95.12
444.476	84.12
444.698	90.12
444.919	88.12
445.14	132.12
445.361	115.12
445.582	122.12
445.803	108.12
446.024	112.12
446.245	117.12
446.466	117.12
446.687	83.12
446.908	101.12
447.129	91.12
447.35	70.12
447.571	90.12
447.792	109.12
448.013	92.12
448.234	91.12
448.455	94.12
448.675	104.12
448.896	98.12
449.117	94.12
449.338	105.12
449.559	115.12
449.779	113.12
450	72.12
450.221	96.12
450.442	87.12
450.662	88.12
450.883	105.12
451.104	116.12
451.324	96.12
451.545	78.12
451.766	80.12
451.986	84.12
452.207	92.12
452.428	96.12
452.648	102.12
452.869	110.12
453.089	95.12
453.31	114.12
453.53	88.12
453.751	100.12
453.971	99.12
454.192	100.12
454.412	76.12
454.633	90.12
454.853	73.12
455.073	98.12
455.294	78.12
455.514	99.12
455.734	89.12
455.955	86.12
456.175	101.12
456.395	88.12
456.616	89.12
456.836	91.12
457.056	97.12
457.276	80.12
457.497	78.12
457.717	88.12
457.937	78.12
458.157	89.12
458.377	77.12
458.598	94.12
458.818	130.12
459.038	133.12
459.258	93.12
459.478	82.12
459.698	88.12
459.918	85.12
460.138	78.12
460.358	80.12
460.578	96.12
460.798	82.12
461.018	90.12
461.238	92.12
461.458	92.12
461.678	97.12
461.898	84.12
462.118	94.12
462.338	96.12
462.558	86.12
462.777	84.12
462.997	88.12
463.217	90.12
463.437	90.12
463.657	106.12
463.876	75.12
464.096	95.12
464.316	98.12
464.536	83.12
464.755	90.12
464.975	103.12
465.195	129.12
465.414	119.12
465.634	96.12
465.854	88.12
466.073	85.12
466.293	99.12
466.512	92.12
466.732	92.12
466.951	78.12
467.171	106.12
467.391	104.12
467.61	92.12
467.829	90.12
468.049	91.12
468.268	91.12
468.488	97.12
468.707	92.12
468.927	96.12
469.146	80.12
469.365	92.12
469.585	89.12
469.804	85.12
470.023	98.12
470.243	85.12
470.462	90.12
470.681	96.12
470.901	75.12
471.12	97.12
471.339	61.12
471.558	73.12
471.777	88.12
471.997	85.12
472.216	98.12
472.435	137.12
472.654	110.12
472.873	96.12
473.092	85.12
473.311	84.12
473.53	72.12
473.749	68.12
473.968	93.12
474.187	91.12
474.406	105.12
474.625	94.12
474.844	75.12
475.063	96.12
475.282	98.12
475.501	92.12
475.72	93.12
475.939	94.12
476.158	96.12
476.377	96.12
476.596	86.12
476.814	85.12
477.033	83.12
477.252	91.12
477.471	84.12
477.69	97.12
477.908	82.12
478.127	78.12
478.346	80.12
478.564	81.12
478.783	94.12
479.002	92.12
479.22	82.12
479.439	101.12
479.658	96.12
479.876	91.12
480.095	92.12
480.313	92.12
480.532	97.12
480.751	98.12
480.969	109.12
481.188	185.12
481.406	141.12
481.624	97.12
481.843	92.12
482.061	82.12
482.28	85.12
482.498	81.12
482.717	98.12
482.935	104.12
483.153	96.12
483.372	92.12
483.59	103.12
483.808	77.12
484.027	98.12
484.245	88.12
484.463	96.12
484.681	102.12
484.9	95.12
485.118	107.12
485.336	94.12
485.554	91.12
485.772	110.12
485.99	109.12
486.209	111.12
486.427	97.12
486.645	98.12
486.863	118.12
487.081	88.12
487.299	91.12
487.517	91.12
487.735	97.12
487.953	87.12
488.171	96.12
488.389	91.12
488.607	74.12
488.825	74.12
489.043	89.12
489.261	89.12
489.479	105.12
489.696	93.12
489.914	94.12
490.132	92.12
490.35	92.12
490.568	80.12
490.786	88.12
491.003	94.12
491.221	75.12
491.439	85.12
491.657	88.12
491.874	91.12
492.092	75.12
492.31	83.12
492.527	102.12
492.745	90.12
492.963	97.12
493.18	97.12
493.398	82.12
493.615	104.12
493.833	86.12
494.05	87.12
494.268	88.12
494.485	85.12
494.703	85.12
494.92	98.12
495.138	88.12
495.355	89.12
495.573	98.12
495.79	96.12
496.008	95.12
496.225	92.12
496.442	78.12
496.66	90.12
496.877	97.12
497.094	94.12
497.312	80.12
497.529	86.12
497.746	86.12
497.963	93.12
498.181	88.12
498.398	101.12
498.615	102.12
498.832	105.12
499.049	90.12
499.267	95.12
499.484	84.12
499.701	98.12
499.918	83.12
500.135	88.12
500.352	88.12
500.569	74.12
500.786	92.12
501.003	77.12
501.22	79.12
501.437	87.12
501.654	102.12
501.871	102.12
502.088	93.12
502.305	93.12
502.522	90.12
502.739	93.12
502.956	86.12
503.172	96.12
503.389	108.12
503.606	97.12
503.823	101.12
504.04	91.12
504.256	91.12
504.473	85.12
504.69	85.12
504.907	88.12
505.123	94.12
505.34	97.12
505.557	84.12
505.773	76.12
505.99	80.12
506.207	75.12
506.423	82.12
506.64	90.12
506.856	97.12
507.073	87.12
507.289	100.12
507.506	96.12
507.722	88.12
507.939	109.12
508.155	107.12
508.372	88.12
508.588	98.12
508.805	104.12
509.021	104.12
509.238	111.12
509.454	81.12
509.67	87.12
509.887	96.12
510.103	118.12
510.319	194.12
510.536	611.12
510.752	1792.12
510.968	508.12
511.184	146.12
511.401	76.12
511.617	102.12
511.833	96.12
512.049	89.12
512.265	98.12
512.481	91.12
512.698	90.12
512.914	86.12
513.13	89.12
513.346	74.12
513.562	87.12
513.778	100.12
513.994	90.12
514.21	103.12
514.426	104.12
514.642	106.12
514.858	114.12
515.074	140.12
515.29	350.12
515.506	1065.12
515.721	378.12
515.937	131.12
