Data from Uncirc_1982_H10_HRD10591_00011.txt Node
Date: Wed Jan 03 12:29:27 EST 2024
User: Yrep
Spectrometer: HR+D1059
Trigger mode: 1
Integration Time (sec): 1.000000E-1
Scans to average: 1
Electric dark correction enabled: true
Nonlinearity correction enabled: false
Boxcar width: 0
XAxis mode: Wavelengths
Number of Pixels in Spectrum: 2048
>>>>>Begin Spectral Data<<<<<
223.165	-16.25
223.4	-16.25
223.635	-16.25
223.869	-27.25
224.104	-9.25
224.338	-9.25
224.573	-29.25
224.808	-14.25
225.042	-7.25
225.277	-0.25
225.511	1.75
225.746	-1.25
225.98	1.75
226.215	14.75
226.449	14.75
226.683	14.75
226.918	31.75
227.152	34.75
227.387	50.75
227.621	31.75
227.856	41.75
228.09	57.75
228.324	47.75
228.559	51.75
228.793	56.75
229.027	54.75
229.262	45.75
229.496	57.75
229.73	81.75
229.964	82.75
230.199	70.75
230.433	71.75
230.667	65.75
230.901	71.75
231.136	81.75
231.37	69.75
231.604	74.75
231.838	68.75
232.072	72.75
232.306	74.75
232.541	74.75
232.775	70.75
233.009	86.75
233.243	84.75
233.477	60.75
233.711	66.75
233.945	73.75
234.179	72.75
234.413	86.75
234.647	71.75
234.881	81.75
235.115	79.75
235.349	89.75
235.583	94.75
235.817	83.75
236.051	67.75
236.285	88.75
236.519	71.75
236.753	76.75
236.987	98.75
237.221	79.75
237.455	60.75
237.689	67.75
237.922	74.75
238.156	71.75
238.39	85.75
238.624	74.75
238.858	77.75
239.091	74.75
239.325	71.75
239.559	77.75
239.793	63.75
240.027	79.75
240.26	78.75
240.494	64.75
240.728	83.75
240.961	70.75
241.195	66.75
241.429	73.75
241.662	71.75
241.896	64.75
242.13	68.75
242.363	72.75
242.597	72.75
242.83	89.75
243.064	71.75
243.298	66.75
243.531	73.75
243.765	93.75
243.998	77.75
244.232	67.75
244.465	90.75
244.699	74.75
244.932	73.75
245.166	76.75
245.399	81.75
245.633	78.75
245.866	67.75
246.099	63.75
246.333	66.75
246.566	73.75
246.8	73.75
247.033	65.75
247.266	78.75
247.5	81.75
247.733	78.75
247.966	81.75
248.2	89.75
248.433	83.75
248.666	63.75
248.899	64.75
249.133	78.75
249.366	87.75
249.599	86.75
249.832	70.75
250.066	93.75
250.299	86.75
250.532	75.75
250.765	85.75
250.998	71.75
251.231	74.75
251.465	82.75
251.698	72.75
251.931	75.75
252.164	74.75
252.397	70.75
252.63	62.75
252.863	73.75
253.096	66.75
253.329	87.75
253.562	78.75
253.795	71.75
254.028	82.75
254.261	71.75
254.494	83.75
254.727	87.75
254.96	90.75
255.193	77.75
255.426	65.75
255.659	76.75
255.892	90.75
256.124	69.75
256.357	77.75
256.59	78.75
256.823	78.75
257.056	88.75
257.289	82.75
257.521	71.75
257.754	72.75
257.987	72.75
258.22	77.75
258.452	78.75
258.685	82.75
258.918	69.75
259.151	85.75
259.383	72.75
259.616	67.75
259.849	87.75
260.081	102.75
260.314	82.75
260.547	83.75
260.779	76.75
261.012	75.75
261.244	97.75
261.477	93.75
261.71	71.75
261.942	97.75
262.175	109.75
262.407	81.75
262.64	72.75
262.872	71.75
263.105	71.75
263.337	78.75
263.57	75.75
263.802	82.75
264.035	73.75
264.267	73.75
264.499	78.75
264.732	85.75
264.964	83.75
265.197	88.75
265.429	73.75
265.661	88.75
265.894	68.75
266.126	81.75
266.358	79.75
266.591	83.75
266.823	76.75
267.055	79.75
267.287	93.75
267.52	80.75
267.752	61.75
267.984	94.75
268.216	77.75
268.448	83.75
268.681	78.75
268.913	70.75
269.145	97.75
269.377	79.75
269.609	86.75
269.841	92.75
270.073	80.75
270.306	79.75
270.538	78.75
270.77	81.75
271.002	78.75
271.234	94.75
271.466	83.75
271.698	93.75
271.93	72.75
272.162	91.75
272.394	88.75
272.626	87.75
272.858	93.75
273.09	85.75
273.322	82.75
273.553	81.75
273.785	74.75
274.017	87.75
274.249	81.75
274.481	71.75
274.713	73.75
274.945	83.75
275.176	73.75
275.408	72.75
275.64	91.75
275.872	75.75
276.104	92.75
276.335	88.75
276.567	93.75
276.799	85.75
277.031	95.75
277.262	88.75
277.494	81.75
277.726	88.75
277.957	87.75
278.189	83.75
278.421	80.75
278.652	82.75
278.884	83.75
279.115	84.75
279.347	93.75
279.579	86.75
279.81	96.75
280.042	91.75
280.273	89.75
280.505	75.75
280.736	79.75
280.968	65.75
281.199	74.75
281.431	74.75
281.662	77.75
281.894	85.75
282.125	93.75
282.356	120.75
282.588	109.75
282.819	101.75
283.051	88.75
283.282	89.75
283.513	79.75
283.745	83.75
283.976	93.75
284.207	69.75
284.439	86.75
284.67	81.75
284.901	73.75
285.132	73.75
285.364	78.75
285.595	77.75
285.826	88.75
286.057	88.75
286.288	90.75
286.52	70.75
286.751	93.75
286.982	79.75
287.213	76.75
287.444	84.75
287.675	78.75
287.906	89.75
288.138	87.75
288.369	87.75
288.6	86.75
288.831	93.75
289.062	72.75
289.293	75.75
289.524	88.75
289.755	116.75
289.986	93.75
290.217	83.75
290.448	87.75
290.679	84.75
290.91	80.75
291.141	87.75
291.371	83.75
291.602	86.75
291.833	78.75
292.064	93.75
292.295	98.75
292.526	86.75
292.757	85.75
292.987	94.75
293.218	89.75
293.449	81.75
293.68	71.75
293.91	72.75
294.141	100.75
294.372	88.75
294.603	95.75
294.833	77.75
295.064	83.75
295.295	78.75
295.525	85.75
295.756	91.75
295.987	101.75
296.217	106.75
296.448	99.75
296.679	88.75
296.909	89.75
297.14	85.75
297.37	89.75
297.601	95.75
297.831	80.75
298.062	89.75
298.292	78.75
298.523	95.75
298.753	78.75
298.984	82.75
299.214	91.75
299.445	98.75
299.675	67.75
299.905	90.75
300.136	93.75
300.366	82.75
300.597	84.75
300.827	87.75
301.057	95.75
301.288	101.75
301.518	76.75
301.748	91.75
301.979	105.75
302.209	86.75
302.439	80.75
302.669	88.75
302.9	94.75
303.13	72.75
303.36	95.75
303.59	89.75
303.82	90.75
304.051	97.75
304.281	86.75
304.511	98.75
304.741	97.75
304.971	99.75
305.201	86.75
305.431	79.75
305.661	65.75
305.891	79.75
306.121	93.75
306.352	89.75
306.582	89.75
306.812	84.75
307.042	83.75
307.272	89.75
307.502	88.75
307.731	84.75
307.961	79.75
308.191	83.75
308.421	94.75
308.651	103.75
308.881	94.75
309.111	77.75
309.341	75.75
309.571	91.75
309.8	97.75
310.03	90.75
310.26	86.75
310.49	88.75
310.72	111.75
310.949	103.75
311.179	86.75
311.409	85.75
311.639	72.75
311.868	91.75
312.098	99.75
312.328	82.75
312.557	105.75
312.787	97.75
313.017	71.75
313.246	85.75
313.476	87.75
313.706	81.75
313.935	79.75
314.165	104.75
314.394	91.75
314.624	80.75
314.853	81.75
315.083	86.75
315.312	91.75
315.542	88.75
315.771	89.75
316.001	98.75
316.23	87.75
316.46	80.75
316.689	87.75
316.919	78.75
317.148	102.75
317.377	91.75
317.607	105.75
317.836	89.75
318.065	83.75
318.295	72.75
318.524	85.75
318.753	77.75
318.983	92.75
319.212	85.75
319.441	106.75
319.67	102.75
319.9	97.75
320.129	97.75
320.358	98.75
320.587	102.75
320.816	89.75
321.046	85.75
321.275	93.75
321.504	102.75
321.733	89.75
321.962	82.75
322.191	81.75
322.42	90.75
322.649	93.75
322.878	102.75
323.108	90.75
323.337	90.75
323.566	111.75
323.795	122.75
324.024	164.75
324.253	289.75
324.482	582.75
324.71	1197.75
324.939	1545.75
325.168	588.75
325.397	195.75
325.626	125.75
325.855	106.75
326.084	122.75
326.313	105.75
326.542	117.75
326.77	179.75
326.999	337.75
327.228	689.75
327.457	1232.75
327.686	965.75
327.914	287.75
328.143	146.75
328.372	137.75
328.6	123.75
328.829	101.75
329.058	118.75
329.287	114.75
329.515	91.75
329.744	104.75
329.972	99.75
330.201	104.75
330.43	119.75
330.658	112.75
330.887	105.75
331.115	94.75
331.344	94.75
331.572	90.75
331.801	99.75
332.03	84.75
332.258	93.75
332.486	75.75
332.715	94.75
332.943	97.75
333.172	93.75
333.4	90.75
333.629	82.75
333.857	95.75
334.085	104.75
334.314	99.75
334.542	108.75
334.771	123.75
334.999	89.75
335.227	103.75
335.455	103.75
335.684	93.75
335.912	86.75
336.14	87.75
336.369	83.75
336.597	90.75
336.825	79.75
337.053	85.75
337.281	87.75
337.51	80.75
337.738	81.75
337.966	79.75
338.194	78.75
338.422	87.75
338.65	92.75
338.878	99.75
339.106	78.75
339.334	94.75
339.562	70.75
339.79	96.75
340.018	70.75
340.246	69.75
340.474	79.75
340.702	85.75
340.93	84.75
341.158	74.75
341.386	94.75
341.614	81.75
341.842	96.75
342.07	92.75
342.298	84.75
342.526	91.75
342.754	94.75
342.981	95.75
343.209	86.75
343.437	113.75
343.665	81.75
343.893	88.75
344.12	78.75
344.348	99.75
344.576	73.75
344.804	75.75
345.031	86.75
345.259	95.75
345.487	79.75
345.714	83.75
345.942	89.75
346.17	82.75
346.397	98.75
346.625	98.75
346.853	82.75
347.08	90.75
347.308	92.75
347.535	89.75
347.763	81.75
347.99	103.75
348.218	99.75
348.445	92.75
348.673	87.75
348.9	97.75
349.128	78.75
349.355	88.75
349.583	95.75
349.81	90.75
350.037	93.75
350.265	82.75
350.492	94.75
350.72	94.75
350.947	90.75
351.174	97.75
351.402	98.75
351.629	85.75
351.856	99.75
352.083	96.75
352.311	101.75
352.538	106.75
352.765	99.75
352.992	106.75
353.22	93.75
353.447	97.75
353.674	104.75
353.901	79.75
354.128	89.75
354.355	91.75
354.583	94.75
354.81	106.75
355.037	96.75
355.264	88.75
355.491	88.75
355.718	94.75
355.945	85.75
356.172	97.75
356.399	99.75
356.626	89.75
356.853	94.75
357.08	100.75
357.307	88.75
357.534	85.75
357.761	72.75
357.988	83.75
358.215	90.75
358.441	114.75
358.668	106.75
358.895	99.75
359.122	92.75
359.349	88.75
359.576	87.75
359.802	94.75
360.029	82.75
360.256	89.75
360.483	85.75
360.709	86.75
360.936	89.75
361.163	82.75
361.39	82.75
361.616	97.75
361.843	87.75
362.07	102.75
362.296	70.75
362.523	89.75
362.749	77.75
362.976	81.75
363.203	78.75
363.429	76.75
363.656	96.75
363.882	81.75
364.109	107.75
364.335	77.75
364.562	83.75
364.788	86.75
365.015	79.75
365.241	77.75
365.468	90.75
365.694	98.75
365.92	90.75
366.147	73.75
366.373	99.75
366.599	78.75
366.826	85.75
367.052	87.75
367.278	87.75
367.505	94.75
367.731	83.75
367.957	79.75
368.184	97.75
368.41	91.75
368.636	92.75
368.862	105.75
369.089	92.75
369.315	97.75
369.541	89.75
369.767	90.75
369.993	89.75
370.219	89.75
370.445	89.75
370.672	87.75
370.898	92.75
371.124	84.75
371.35	87.75
371.576	82.75
371.802	87.75
372.028	87.75
372.254	91.75
372.48	89.75
372.706	83.75
372.932	90.75
373.158	90.75
373.384	103.75
373.61	84.75
373.835	89.75
374.061	97.75
374.287	100.75
374.513	77.75
374.739	92.75
374.965	89.75
375.191	81.75
375.416	96.75
375.642	79.75
375.868	84.75
376.094	86.75
376.319	74.75
376.545	80.75
376.771	83.75
376.997	88.75
377.222	101.75
377.448	102.75
377.674	85.75
377.899	96.75
378.125	97.75
378.35	80.75
378.576	102.75
378.802	87.75
379.027	85.75
379.253	102.75
379.478	101.75
379.704	92.75
379.929	102.75
380.155	94.75
380.38	79.75
380.606	94.75
380.831	98.75
381.057	102.75
381.282	100.75
381.507	111.75
381.733	89.75
381.958	93.75
382.184	92.75
382.409	96.75
382.634	86.75
382.86	99.75
383.085	118.75
383.31	105.75
383.535	119.75
383.761	100.75
383.986	103.75
384.211	99.75
384.436	107.75
384.662	106.75
384.887	121.75
385.112	118.75
385.337	120.75
385.562	112.75
385.787	116.75
386.013	106.75
386.238	133.75
386.463	115.75
386.688	121.75
386.913	112.75
387.138	110.75
387.363	108.75
387.588	107.75
387.813	113.75
388.038	107.75
388.263	134.75
388.488	138.75
388.713	111.75
388.938	98.75
389.163	90.75
389.387	89.75
389.612	83.75
389.837	94.75
390.062	102.75
390.287	99.75
390.512	83.75
390.736	85.75
390.961	101.75
391.186	107.75
391.411	87.75
391.636	98.75
391.86	81.75
392.085	85.75
392.31	93.75
392.534	82.75
392.759	89.75
392.984	86.75
393.208	77.75
393.433	83.75
393.658	89.75
393.882	77.75
394.107	91.75
394.331	102.75
394.556	99.75
394.78	86.75
395.005	94.75
395.229	92.75
395.454	88.75
395.678	74.75
395.903	93.75
396.127	75.75
396.352	86.75
396.576	86.75
396.801	90.75
397.025	81.75
397.249	87.75
397.474	74.75
397.698	92.75
397.922	71.75
398.147	87.75
398.371	101.75
398.595	75.75
398.82	90.75
399.044	82.75
399.268	74.75
399.492	81.75
399.717	82.75
399.941	80.75
400.165	82.75
400.389	90.75
400.613	83.75
400.837	94.75
401.062	69.75
401.286	95.75
401.51	93.75
401.734	91.75
401.958	86.75
402.182	103.75
402.406	123.75
402.63	95.75
402.854	87.75
403.078	68.75
403.302	89.75
403.526	85.75
403.75	72.75
403.974	77.75
404.198	86.75
404.422	74.75
404.645	80.75
404.869	102.75
405.093	93.75
405.317	95.75
405.541	93.75
405.765	96.75
405.988	105.75
406.212	146.75
406.436	165.75
406.66	123.75
406.883	86.75
407.107	81.75
407.331	85.75
407.555	78.75
407.778	81.75
408.002	84.75
408.226	88.75
408.449	78.75
408.673	90.75
408.896	89.75
409.12	93.75
409.344	98.75
409.567	90.75
409.791	89.75
410.014	99.75
410.238	90.75
410.461	103.75
410.685	87.75
410.908	89.75
411.132	96.75
411.355	99.75
411.578	90.75
411.802	91.75
412.025	99.75
412.249	89.75
412.472	94.75
412.695	84.75
412.919	98.75
413.142	96.75
413.365	79.75
413.589	93.75
413.812	86.75
414.035	96.75
414.258	84.75
414.482	83.75
414.705	83.75
414.928	89.75
415.151	95.75
415.374	102.75
415.597	98.75
415.821	102.75
416.044	90.75
416.267	89.75
416.49	81.75
416.713	86.75
416.936	89.75
417.159	81.75
417.382	91.75
417.605	103.75
417.828	94.75
418.051	83.75
418.274	84.75
418.497	79.75
418.72	101.75
418.943	90.75
419.166	82.75
419.389	93.75
419.611	77.75
419.834	86.75
420.057	75.75
420.28	82.75
420.503	84.75
420.726	94.75
420.948	101.75
421.171	74.75
421.394	87.75
421.617	88.75
421.839	84.75
422.062	94.75
422.285	90.75
422.507	80.75
422.73	97.75
422.953	93.75
423.175	87.75
423.398	86.75
423.621	81.75
423.843	83.75
424.066	89.75
424.288	81.75
424.511	87.75
424.733	96.75
424.956	87.75
425.178	96.75
425.401	97.75
425.623	98.75
425.846	84.75
426.068	87.75
426.291	85.75
426.513	98.75
426.735	96.75
426.958	86.75
427.18	99.75
427.402	101.75
427.625	120.75
427.847	111.75
428.069	98.75
428.292	96.75
428.514	79.75
428.736	79.75
428.958	75.75
429.181	79.75
429.403	94.75
429.625	86.75
429.847	101.75
430.069	95.75
430.292	93.75
430.514	78.75
430.736	73.75
430.958	87.75
431.18	65.75
431.402	83.75
431.624	89.75
431.846	97.75
432.068	94.75
432.29	92.75
432.512	92.75
432.734	86.75
432.956	103.75
433.178	99.75
433.4	91.75
433.622	76.75
433.844	101.75
434.066	101.75
434.287	90.75
434.509	91.75
434.731	85.75
434.953	94.75
435.175	77.75
435.397	84.75
435.618	88.75
435.84	88.75
436.062	97.75
436.284	99.75
436.505	96.75
436.727	85.75
436.949	93.75
437.17	91.75
437.392	84.75
437.614	85.75
437.835	91.75
438.057	95.75
438.278	99.75
438.5	94.75
438.721	117.75
438.943	100.75
439.165	87.75
439.386	80.75
439.608	101.75
439.829	95.75
440.05	104.75
440.272	104.75
440.493	82.75
440.715	75.75
440.936	73.75
441.158	79.75
441.379	81.75
441.6	86.75
441.822	81.75
442.043	86.75
442.264	85.75
442.486	85.75
442.707	94.75
442.928	92.75
443.149	101.75
443.371	104.75
443.592	77.75
443.813	105.75
444.034	95.75
444.255	63.75
444.476	97.75
444.698	81.75
444.919	90.75
445.14	131.75
445.361	117.75
445.582	103.75
445.803	113.75
446.024	115.75
446.245	118.75
446.466	91.75
446.687	78.75
446.908	85.75
447.129	99.75
447.35	90.75
447.571	87.75
447.792	89.75
448.013	89.75
448.234	87.75
448.455	82.75
448.675	92.75
448.896	106.75
449.117	93.75
449.338	97.75
449.559	117.75
449.779	105.75
450	81.75
450.221	85.75
450.442	83.75
450.662	95.75
450.883	100.75
451.104	80.75
451.324	81.75
451.545	84.75
451.766	97.75
451.986	79.75
452.207	101.75
452.428	88.75
452.648	87.75
452.869	105.75
453.089	103.75
453.31	91.75
453.53	85.75
453.751	97.75
453.971	100.75
454.192	78.75
454.412	78.75
454.633	85.75
454.853	102.75
455.073	91.75
455.294	90.75
455.514	91.75
455.734	78.75
455.955	83.75
456.175	89.75
456.395	83.75
456.616	82.75
456.836	97.75
457.056	86.75
457.276	87.75
457.497	98.75
457.717	88.75
457.937	82.75
458.157	83.75
458.377	94.75
458.598	93.75
458.818	96.75
459.038	125.75
459.258	82.75
459.478	80.75
459.698	93.75
459.918	100.75
460.138	72.75
460.358	88.75
460.578	85.75
460.798	83.75
461.018	100.75
461.238	81.75
461.458	83.75
461.678	75.75
461.898	97.75
462.118	90.75
462.338	93.75
462.558	90.75
462.777	72.75
462.997	85.75
463.217	85.75
463.437	89.75
463.657	95.75
463.876	94.75
464.096	94.75
464.316	93.75
464.536	79.75
464.755	94.75
464.975	85.75
465.195	117.75
465.414	126.75
465.634	73.75
465.854	84.75
466.073	77.75
466.293	74.75
466.512	72.75
466.732	79.75
466.951	98.75
467.171	111.75
467.391	85.75
467.61	97.75
467.829	81.75
468.049	108.75
468.268	104.75
468.488	85.75
468.707	86.75
468.927	86.75
469.146	83.75
469.365	77.75
469.585	74.75
469.804	96.75
470.023	91.75
470.243	77.75
470.462	92.75
470.681	74.75
470.901	89.75
471.12	92.75
471.339	87.75
471.558	90.75
471.777	81.75
471.997	94.75
472.216	104.75
472.435	143.75
472.654	101.75
472.873	85.75
473.092	93.75
473.311	95.75
473.53	92.75
473.749	80.75
473.968	76.75
474.187	79.75
474.406	91.75
474.625	85.75
474.844	90.75
475.063	83.75
475.282	83.75
475.501	87.75
475.72	88.75
475.939	75.75
476.158	80.75
476.377	77.75
476.596	75.75
476.814	85.75
477.033	102.75
477.252	79.75
477.471	102.75
477.69	102.75
477.908	86.75
478.127	82.75
478.346	81.75
478.564	104.75
478.783	107.75
479.002	94.75
479.22	85.75
479.439	84.75
479.658	97.75
479.876	77.75
480.095	89.75
480.313	92.75
480.532	81.75
480.751	101.75
480.969	106.75
481.188	154.75
481.406	125.75
481.624	89.75
481.843	79.75
482.061	89.75
482.28	94.75
482.498	94.75
482.717	74.75
482.935	93.75
483.153	87.75
483.372	74.75
483.59	85.75
483.808	95.75
484.027	88.75
484.245	102.75
484.463	93.75
484.681	91.75
484.9	97.75
485.118	99.75
485.336	96.75
485.554	85.75
485.772	84.75
485.99	89.75
486.209	104.75
486.427	92.75
486.645	94.75
486.863	97.75
487.081	106.75
487.299	89.75
487.517	95.75
487.735	97.75
487.953	86.75
488.171	102.75
488.389	86.75
488.607	104.75
488.825	77.75
489.043	68.75
489.261	89.75
489.479	78.75
489.696	94.75
489.914	98.75
490.132	90.75
490.35	80.75
490.568	88.75
490.786	80.75
491.003	94.75
491.221	77.75
491.439	94.75
491.657	87.75
491.874	93.75
492.092	95.75
492.31	92.75
492.527	85.75
492.745	99.75
492.963	96.75
493.18	84.75
493.398	93.75
493.615	97.75
493.833	99.75
494.05	88.75
494.268	81.75
494.485	85.75
494.703	102.75
494.92	90.75
495.138	79.75
495.355	106.75
495.573	87.75
495.79	85.75
496.008	106.75
496.225	83.75
496.442	80.75
496.66	101.75
496.877	97.75
497.094	77.75
497.312	86.75
497.529	75.75
497.746	85.75
497.963	85.75
498.181	77.75
498.398	82.75
498.615	95.75
498.832	104.75
499.049	91.75
499.267	105.75
499.484	94.75
499.701	86.75
499.918	82.75
500.135	91.75
500.352	82.75
500.569	96.75
500.786	104.75
501.003	85.75
501.22	84.75
501.437	92.75
501.654	111.75
501.871	102.75
502.088	94.75
502.305	85.75
502.522	77.75
502.739	82.75
502.956	77.75
503.172	90.75
503.389	99.75
503.606	89.75
503.823	88.75
504.04	83.75
504.256	96.75
504.473	87.75
504.69	85.75
504.907	88.75
505.123	79.75
505.34	84.75
505.557	100.75
505.773	86.75
505.99	80.75
506.207	79.75
506.423	71.75
506.64	90.75
506.856	93.75
507.073	92.75
507.289	105.75
507.506	95.75
507.722	97.75
507.939	105.75
508.155	95.75
508.372	89.75
508.588	79.75
508.805	103.75
509.021	86.75
509.238	92.75
509.454	100.75
509.67	98.75
509.887	93.75
510.103	131.75
510.319	157.75
510.536	538.75
510.752	1481.75
510.968	445.75
511.184	137.75
511.401	92.75
511.617	87.75
511.833	93.75
512.049	102.75
512.265	89.75
512.481	101.75
512.698	83.75
512.914	101.75
513.13	97.75
513.346	85.75
513.562	87.75
513.778	79.75
513.994	91.75
514.21	93.75
514.426	103.75
514.642	103.75
514.858	97.75
515.074	131.75
515.29	302.75
515.506	858.75
515.721	338.75
515.937	122.75
516.153	104.75
516.369	87.75
516.585	83.75
516.801	83.75
517.016	80.75
