Data from Uncirc_1982_H10_HRD10591_00032.txt Node
Date: Wed Jan 03 12:29:31 EST 2024
User: Yrep
Spectrometer: HR+D1059
Trigger mode: 1
Integration Time (sec): 1.000000E-1
Scans to average: 1
Electric dark correction enabled: true
Nonlinearity correction enabled: false
Boxcar width: 0
XAxis mode: Wavelengths
Number of Pixels in Spectrum: 2048
>>>>>Begin Spectral Data<<<<<
223.165	-28.62
223.4	-28.62
223.635	-28.62
223.869	-24.62
224.104	-12.62
224.338	-8.62
224.573	-20.62
224.808	-6.62
225.042	-7.62
225.277	0.38
225.511	-1.62
225.746	-1.62
225.98	7.38
226.215	22.38
226.449	25.38
226.683	17.38
226.918	14.38
227.152	25.38
227.387	37.38
227.621	34.38
227.856	47.38
228.09	32.38
228.324	61.38
228.559	55.38
228.793	65.38
229.027	59.38
229.262	63.38
229.496	69.38
229.73	82.38
229.964	77.38
230.199	80.38
230.433	59.38
230.667	71.38
230.901	74.38
231.136	86.38
231.37	79.38
231.604	83.38
231.838	86.38
232.072	80.38
232.306	76.38
232.541	88.38
232.775	82.38
233.009	79.38
233.243	58.38
233.477	64.38
233.711	87.38
233.945	73.38
234.179	83.38
234.413	89.38
234.647	73.38
234.881	68.38
235.115	81.38
235.349	72.38
235.583	81.38
235.817	71.38
236.051	79.38
236.285	77.38
236.519	75.38
236.753	87.38
236.987	82.38
237.221	77.38
237.455	67.38
237.689	67.38
237.922	61.38
238.156	74.38
238.39	80.38
238.624	82.38
238.858	74.38
239.091	57.38
239.325	83.38
239.559	89.38
239.793	65.38
240.027	56.38
240.26	66.38
240.494	71.38
240.728	79.38
240.961	73.38
241.195	70.38
241.429	82.38
241.662	73.38
241.896	77.38
242.13	67.38
242.363	80.38
242.597	76.38
242.83	66.38
243.064	72.38
243.298	62.38
243.531	71.38
243.765	88.38
243.998	87.38
244.232	77.38
244.465	91.38
244.699	71.38
244.932	69.38
245.166	78.38
245.399	77.38
245.633	73.38
245.866	63.38
246.099	62.38
246.333	58.38
246.566	72.38
246.8	82.38
247.033	87.38
247.266	68.38
247.5	74.38
247.733	72.38
247.966	68.38
248.2	93.38
248.433	72.38
248.666	80.38
248.899	71.38
249.133	84.38
249.366	93.38
249.599	79.38
249.832	81.38
250.066	85.38
250.299	78.38
250.532	73.38
250.765	82.38
250.998	87.38
251.231	88.38
251.465	73.38
251.698	67.38
251.931	72.38
252.164	74.38
252.397	76.38
252.63	85.38
252.863	71.38
253.096	73.38
253.329	78.38
253.562	71.38
253.795	81.38
254.028	87.38
254.261	63.38
254.494	82.38
254.727	83.38
254.96	85.38
255.193	76.38
255.426	99.38
255.659	77.38
255.892	91.38
256.124	73.38
256.357	82.38
256.59	93.38
256.823	82.38
257.056	91.38
257.289	66.38
257.521	77.38
257.754	74.38
257.987	81.38
258.22	77.38
258.452	79.38
258.685	65.38
258.918	67.38
259.151	86.38
259.383	85.38
259.616	81.38
259.849	67.38
260.081	74.38
260.314	74.38
260.547	82.38
260.779	82.38
261.012	65.38
261.244	86.38
261.477	73.38
261.71	83.38
261.942	93.38
262.175	103.38
262.407	74.38
262.64	80.38
262.872	81.38
263.105	89.38
263.337	79.38
263.57	84.38
263.802	89.38
264.035	84.38
264.267	82.38
264.499	91.38
264.732	98.38
264.964	69.38
265.197	78.38
265.429	83.38
265.661	84.38
265.894	94.38
266.126	72.38
266.358	89.38
266.591	81.38
266.823	96.38
267.055	77.38
267.287	97.38
267.52	75.38
267.752	85.38
267.984	84.38
268.216	80.38
268.448	53.38
268.681	79.38
268.913	73.38
269.145	97.38
269.377	75.38
269.609	73.38
269.841	76.38
270.073	85.38
270.306	77.38
270.538	101.38
270.77	88.38
271.002	94.38
271.234	85.38
271.466	90.38
271.698	91.38
271.93	95.38
272.162	91.38
272.394	92.38
272.626	59.38
272.858	81.38
273.09	81.38
273.322	81.38
273.553	83.38
273.785	84.38
274.017	74.38
274.249	83.38
274.481	81.38
274.713	75.38
274.945	73.38
275.176	81.38
275.408	76.38
275.64	80.38
275.872	82.38
276.104	77.38
276.335	82.38
276.567	99.38
276.799	93.38
277.031	80.38
277.262	99.38
277.494	90.38
277.726	91.38
277.957	83.38
278.189	83.38
278.421	81.38
278.652	86.38
278.884	85.38
279.115	82.38
279.347	81.38
279.579	78.38
279.81	80.38
280.042	70.38
280.273	87.38
280.505	79.38
280.736	70.38
280.968	89.38
281.199	87.38
281.431	79.38
281.662	103.38
281.894	104.38
282.125	92.38
282.356	102.38
282.588	94.38
282.819	90.38
283.051	89.38
283.282	88.38
283.513	89.38
283.745	82.38
283.976	83.38
284.207	85.38
284.439	89.38
284.67	81.38
284.901	83.38
285.132	83.38
285.364	68.38
285.595	93.38
285.826	82.38
286.057	92.38
286.288	79.38
286.52	81.38
286.751	77.38
286.982	77.38
287.213	97.38
287.444	86.38
287.675	91.38
287.906	97.38
288.138	97.38
288.369	93.38
288.6	100.38
288.831	91.38
289.062	87.38
289.293	86.38
289.524	86.38
289.755	83.38
289.986	89.38
290.217	83.38
290.448	75.38
290.679	94.38
290.91	88.38
291.141	82.38
291.371	74.38
291.602	77.38
291.833	93.38
292.064	96.38
292.295	80.38
292.526	85.38
292.757	88.38
292.987	79.38
293.218	67.38
293.449	93.38
293.68	88.38
293.91	86.38
294.141	94.38
294.372	92.38
294.603	83.38
294.833	85.38
295.064	77.38
295.295	90.38
295.525	93.38
295.756	100.38
295.987	95.38
296.217	107.38
296.448	108.38
296.679	95.38
296.909	81.38
297.14	92.38
297.37	89.38
297.601	80.38
297.831	77.38
298.062	87.38
298.292	82.38
298.523	88.38
298.753	85.38
298.984	101.38
299.214	69.38
299.445	86.38
299.675	94.38
299.905	102.38
300.136	106.38
300.366	91.38
300.597	92.38
300.827	99.38
301.057	89.38
301.288	72.38
301.518	81.38
301.748	92.38
301.979	88.38
302.209	93.38
302.439	86.38
302.669	91.38
302.9	62.38
303.13	80.38
303.36	92.38
303.59	86.38
303.82	95.38
304.051	84.38
304.281	85.38
304.511	87.38
304.741	79.38
304.971	91.38
305.201	71.38
305.431	106.38
305.661	95.38
305.891	86.38
306.121	92.38
306.352	88.38
306.582	97.38
306.812	72.38
307.042	98.38
307.272	85.38
307.502	87.38
307.731	90.38
307.961	95.38
308.191	91.38
308.421	79.38
308.651	89.38
308.881	86.38
309.111	97.38
309.341	77.38
309.571	80.38
309.8	79.38
310.03	96.38
310.26	93.38
310.49	93.38
310.72	91.38
310.949	96.38
311.179	92.38
311.409	78.38
311.639	77.38
311.868	78.38
312.098	80.38
312.328	90.38
312.557	91.38
312.787	99.38
313.017	94.38
313.246	107.38
313.476	95.38
313.706	77.38
313.935	90.38
314.165	99.38
314.394	94.38
314.624	81.38
314.853	103.38
315.083	102.38
315.312	86.38
315.542	95.38
315.771	95.38
316.001	87.38
316.23	101.38
316.46	93.38
316.689	88.38
316.919	98.38
317.148	99.38
317.377	85.38
317.607	90.38
317.836	77.38
318.065	89.38
318.295	86.38
318.524	62.38
318.753	94.38
318.983	93.38
319.212	86.38
319.441	93.38
319.67	103.38
319.9	86.38
320.129	93.38
320.358	98.38
320.587	86.38
320.816	89.38
321.046	86.38
321.275	97.38
321.504	80.38
321.733	89.38
321.962	83.38
322.191	99.38
322.42	98.38
322.649	109.38
322.878	93.38
323.108	110.38
323.337	101.38
323.566	128.38
323.795	124.38
324.024	180.38
324.253	310.38
324.482	630.38
324.71	1269.38
324.939	1677.38
325.168	617.38
325.397	211.38
325.626	121.38
325.855	125.38
326.084	114.38
326.313	118.38
326.542	128.38
326.77	203.38
326.999	365.38
327.228	756.38
327.457	1327.38
327.686	1043.38
327.914	284.38
328.143	165.38
328.372	130.38
328.6	108.38
328.829	109.38
329.058	117.38
329.287	121.38
329.515	95.38
329.744	101.38
329.972	103.38
330.201	111.38
330.43	96.38
330.658	111.38
330.887	127.38
331.115	107.38
331.344	89.38
331.572	94.38
331.801	91.38
332.03	101.38
332.258	97.38
332.486	97.38
332.715	79.38
332.943	89.38
333.172	85.38
333.4	90.38
333.629	97.38
333.857	109.38
334.085	90.38
334.314	108.38
334.542	119.38
334.771	116.38
334.999	93.38
335.227	94.38
335.455	102.38
335.684	80.38
335.912	88.38
336.14	101.38
336.369	97.38
336.597	97.38
336.825	78.38
337.053	97.38
337.281	77.38
337.51	97.38
337.738	79.38
337.966	89.38
338.194	85.38
338.422	90.38
338.65	82.38
338.878	86.38
339.106	75.38
339.334	91.38
339.562	77.38
339.79	90.38
340.018	99.38
340.246	91.38
340.474	84.38
340.702	89.38
340.93	84.38
341.158	102.38
341.386	102.38
341.614	87.38
341.842	105.38
342.07	81.38
342.298	83.38
342.526	65.38
342.754	90.38
342.981	93.38
343.209	82.38
343.437	99.38
343.665	86.38
343.893	79.38
344.12	83.38
344.348	104.38
344.576	101.38
344.804	84.38
345.031	82.38
345.259	85.38
345.487	91.38
345.714	79.38
345.942	81.38
346.17	85.38
346.397	88.38
346.625	95.38
346.853	95.38
347.08	104.38
347.308	97.38
347.535	81.38
347.763	99.38
347.99	94.38
348.218	93.38
348.445	79.38
348.673	93.38
348.9	73.38
349.128	85.38
349.355	98.38
349.583	92.38
349.81	86.38
350.037	91.38
350.265	107.38
350.492	84.38
350.72	87.38
350.947	93.38
351.174	84.38
351.402	91.38
351.629	105.38
351.856	84.38
352.083	100.38
352.311	104.38
352.538	106.38
352.765	111.38
352.992	98.38
353.22	100.38
353.447	87.38
353.674	96.38
353.901	95.38
354.128	95.38
354.355	102.38
354.583	89.38
354.81	84.38
355.037	96.38
355.264	86.38
355.491	98.38
355.718	92.38
355.945	97.38
356.172	98.38
356.399	98.38
356.626	101.38
356.853	88.38
357.08	85.38
357.307	100.38
357.534	93.38
357.761	97.38
357.988	90.38
358.215	99.38
358.441	109.38
358.668	79.38
358.895	86.38
359.122	87.38
359.349	96.38
359.576	83.38
359.802	95.38
360.029	113.38
360.256	95.38
360.483	98.38
360.709	92.38
360.936	86.38
361.163	97.38
361.39	89.38
361.616	79.38
361.843	86.38
362.07	67.38
362.296	81.38
362.523	100.38
362.749	105.38
362.976	87.38
363.203	74.38
363.429	88.38
363.656	90.38
363.882	80.38
364.109	85.38
364.335	65.38
364.562	75.38
364.788	94.38
365.015	88.38
365.241	95.38
365.468	101.38
365.694	99.38
365.92	98.38
366.147	90.38
366.373	80.38
366.599	89.38
366.826	81.38
367.052	78.38
367.278	85.38
367.505	89.38
367.731	88.38
367.957	91.38
368.184	77.38
368.41	101.38
368.636	110.38
368.862	107.38
369.089	99.38
369.315	75.38
369.541	79.38
369.767	81.38
369.993	88.38
370.219	90.38
370.445	85.38
370.672	85.38
370.898	82.38
371.124	98.38
371.35	70.38
371.576	70.38
371.802	86.38
372.028	93.38
372.254	91.38
372.48	92.38
372.706	93.38
372.932	98.38
373.158	94.38
373.384	92.38
373.61	85.38
373.835	87.38
374.061	78.38
374.287	88.38
374.513	89.38
374.739	75.38
374.965	77.38
375.191	93.38
375.416	92.38
375.642	89.38
375.868	83.38
376.094	85.38
376.319	94.38
376.545	91.38
376.771	97.38
376.997	79.38
377.222	77.38
377.448	88.38
377.674	93.38
377.899	89.38
378.125	88.38
378.35	95.38
378.576	89.38
378.802	85.38
379.027	82.38
379.253	89.38
379.478	81.38
379.704	84.38
379.929	105.38
380.155	99.38
380.38	94.38
380.606	89.38
380.831	90.38
381.057	103.38
381.282	84.38
381.507	111.38
381.733	108.38
381.958	90.38
382.184	89.38
382.409	96.38
382.634	106.38
382.86	91.38
383.085	105.38
383.31	106.38
383.535	93.38
383.761	84.38
383.986	106.38
384.211	97.38
384.436	97.38
384.662	113.38
384.887	85.38
385.112	104.38
385.337	104.38
385.562	99.38
385.787	103.38
386.013	110.38
386.238	112.38
386.463	107.38
386.688	98.38
386.913	106.38
387.138	113.38
387.363	106.38
387.588	96.38
387.813	97.38
388.038	97.38
388.263	107.38
388.488	110.38
388.713	98.38
388.938	103.38
389.163	99.38
389.387	93.38
389.612	86.38
389.837	91.38
390.062	98.38
390.287	101.38
390.512	89.38
390.736	89.38
390.961	95.38
391.186	97.38
391.411	105.38
391.636	90.38
391.86	89.38
392.085	92.38
392.31	85.38
392.534	85.38
392.759	80.38
392.984	91.38
393.208	89.38
393.433	92.38
393.658	83.38
393.882	92.38
394.107	81.38
394.331	84.38
394.556	82.38
394.78	77.38
395.005	78.38
395.229	84.38
395.454	105.38
395.678	77.38
395.903	64.38
396.127	86.38
396.352	93.38
396.576	101.38
396.801	96.38
397.025	76.38
397.249	87.38
397.474	82.38
397.698	67.38
397.922	77.38
398.147	86.38
398.371	82.38
398.595	68.38
398.82	93.38
399.044	91.38
399.268	89.38
399.492	83.38
399.717	86.38
399.941	70.38
400.165	98.38
400.389	78.38
400.613	82.38
400.837	97.38
401.062	80.38
401.286	91.38
401.51	78.38
401.734	72.38
401.958	90.38
402.182	97.38
402.406	119.38
402.63	106.38
402.854	83.38
403.078	97.38
403.302	78.38
403.526	95.38
403.75	76.38
403.974	79.38
404.198	83.38
404.422	81.38
404.645	85.38
404.869	85.38
405.093	79.38
405.317	83.38
405.541	89.38
405.765	94.38
405.988	91.38
406.212	152.38
406.436	173.38
406.66	113.38
406.883	85.38
407.107	80.38
407.331	90.38
407.555	97.38
407.778	73.38
408.002	87.38
408.226	77.38
408.449	86.38
408.673	87.38
408.896	83.38
409.12	85.38
409.344	79.38
409.567	86.38
409.791	83.38
410.014	76.38
410.238	98.38
410.461	88.38
410.685	80.38
410.908	100.38
411.132	102.38
411.355	79.38
411.578	85.38
411.802	90.38
412.025	85.38
412.249	99.38
412.472	90.38
412.695	103.38
412.919	88.38
413.142	82.38
413.365	89.38
413.589	93.38
413.812	81.38
414.035	88.38
414.258	95.38
414.482	98.38
414.705	77.38
414.928	80.38
415.151	101.38
415.374	91.38
415.597	85.38
415.821	86.38
416.044	74.38
416.267	80.38
416.49	79.38
416.713	83.38
416.936	100.38
417.159	78.38
417.382	64.38
417.605	70.38
417.828	71.38
418.051	83.38
418.274	79.38
418.497	87.38
418.72	80.38
418.943	83.38
419.166	98.38
419.389	81.38
419.611	79.38
419.834	79.38
420.057	72.38
420.28	79.38
420.503	81.38
420.726	68.38
420.948	86.38
421.171	73.38
421.394	91.38
421.617	85.38
421.839	86.38
422.062	83.38
422.285	82.38
422.507	91.38
422.73	94.38
422.953	95.38
423.175	90.38
423.398	70.38
423.621	76.38
423.843	81.38
424.066	80.38
424.288	87.38
424.511	81.38
424.733	98.38
424.956	85.38
425.178	86.38
425.401	88.38
425.623	90.38
425.846	94.38
426.068	85.38
426.291	72.38
426.513	79.38
426.735	95.38
426.958	81.38
427.18	85.38
427.402	107.38
427.625	133.38
427.847	112.38
428.069	103.38
428.292	92.38
428.514	82.38
428.736	92.38
428.958	94.38
429.181	80.38
429.403	87.38
429.625	77.38
429.847	83.38
430.069	93.38
430.292	91.38
430.514	76.38
430.736	77.38
430.958	75.38
431.18	73.38
431.402	85.38
431.624	80.38
431.846	82.38
432.068	78.38
432.29	73.38
432.512	87.38
432.734	74.38
432.956	73.38
433.178	99.38
433.4	85.38
433.622	91.38
433.844	90.38
434.066	98.38
434.287	89.38
434.509	83.38
434.731	82.38
434.953	71.38
435.175	78.38
435.397	90.38
435.618	79.38
435.84	87.38
436.062	91.38
436.284	108.38
436.505	97.38
436.727	97.38
436.949	89.38
437.17	79.38
437.392	73.38
437.614	91.38
437.835	94.38
438.057	93.38
438.278	83.38
438.5	98.38
438.721	98.38
438.943	81.38
439.165	88.38
439.386	80.38
439.608	88.38
439.829	102.38
440.05	115.38
440.272	95.38
440.493	99.38
440.715	80.38
440.936	94.38
441.158	73.38
441.379	100.38
441.6	93.38
441.822	85.38
442.043	95.38
442.264	89.38
442.486	96.38
442.707	71.38
442.928	79.38
443.149	109.38
443.371	105.38
443.592	89.38
443.813	99.38
444.034	103.38
444.255	87.38
444.476	87.38
444.698	89.38
444.919	84.38
445.14	135.38
445.361	117.38
445.582	94.38
445.803	106.38
446.024	100.38
446.245	117.38
446.466	101.38
446.687	88.38
446.908	77.38
447.129	88.38
447.35	85.38
447.571	103.38
447.792	88.38
448.013	94.38
448.234	108.38
448.455	96.38
448.675	95.38
448.896	105.38
449.117	88.38
449.338	89.38
449.559	106.38
449.779	107.38
450	87.38
450.221	99.38
450.442	98.38
450.662	64.38
450.883	83.38
451.104	97.38
451.324	91.38
451.545	85.38
451.766	85.38
451.986	70.38
452.207	81.38
452.428	80.38
452.648	89.38
452.869	97.38
453.089	93.38
453.31	101.38
453.53	99.38
453.751	96.38
453.971	103.38
454.192	97.38
454.412	81.38
454.633	82.38
454.853	81.38
455.073	81.38
455.294	81.38
455.514	102.38
455.734	81.38
455.955	99.38
456.175	85.38
456.395	74.38
456.616	89.38
456.836	89.38
457.056	79.38
457.276	86.38
457.497	82.38
457.717	84.38
457.937	73.38
458.157	85.38
458.377	66.38
458.598	87.38
458.818	127.38
459.038	111.38
459.258	97.38
459.478	107.38
459.698	78.38
459.918	84.38
460.138	91.38
460.358	85.38
460.578	104.38
460.798	79.38
461.018	87.38
461.238	83.38
461.458	79.38
461.678	88.38
461.898	94.38
462.118	77.38
462.338	75.38
462.558	81.38
462.777	78.38
462.997	91.38
463.217	87.38
463.437	82.38
463.657	81.38
463.876	82.38
464.096	81.38
464.316	69.38
464.536	90.38
464.755	72.38
464.975	93.38
465.195	121.38
465.414	117.38
465.634	84.38
465.854	88.38
466.073	81.38
466.293	98.38
466.512	73.38
466.732	81.38
466.951	74.38
467.171	75.38
467.391	85.38
467.61	97.38
467.829	92.38
468.049	93.38
468.268	86.38
468.488	73.38
468.707	65.38
468.927	86.38
469.146	77.38
469.365	93.38
469.585	91.38
469.804	81.38
470.023	84.38
470.243	82.38
470.462	103.38
470.681	92.38
470.901	78.38
471.12	94.38
471.339	91.38
471.558	106.38
471.777	78.38
471.997	81.38
472.216	97.38
472.435	116.38
472.654	96.38
472.873	88.38
473.092	97.38
473.311	89.38
473.53	96.38
473.749	83.38
473.968	89.38
474.187	81.38
474.406	88.38
474.625	91.38
474.844	86.38
475.063	84.38
475.282	99.38
475.501	94.38
475.72	83.38
475.939	88.38
476.158	74.38
476.377	99.38
476.596	87.38
476.814	85.38
477.033	83.38
477.252	87.38
477.471	87.38
477.69	67.38
477.908	85.38
478.127	89.38
478.346	76.38
478.564	91.38
478.783	88.38
479.002	90.38
479.22	83.38
479.439	99.38
479.658	92.38
479.876	93.38
480.095	83.38
480.313	105.38
480.532	93.38
480.751	81.38
480.969	105.38
481.188	150.38
481.406	128.38
481.624	85.38
481.843	82.38
482.061	84.38
482.28	95.38
482.498	85.38
482.717	77.38
482.935	97.38
483.153	85.38
483.372	90.38
483.59	83.38
483.808	77.38
484.027	83.38
484.245	83.38
484.463	101.38
484.681	88.38
484.9	90.38
485.118	94.38
485.336	89.38
485.554	69.38
485.772	94.38
485.99	97.38
486.209	110.38
486.427	106.38
486.645	90.38
486.863	99.38
487.081	86.38
487.299	95.38
487.517	91.38
487.735	79.38
487.953	83.38
488.171	93.38
488.389	86.38
488.607	100.38
488.825	78.38
489.043	90.38
489.261	95.38
489.479	83.38
489.696	93.38
489.914	68.38
490.132	90.38
490.35	78.38
490.568	89.38
490.786	90.38
491.003	104.38
491.221	95.38
491.439	88.38
491.657	90.38
491.874	86.38
492.092	86.38
492.31	87.38
492.527	88.38
492.745	79.38
492.963	88.38
493.18	77.38
493.398	81.38
493.615	93.38
493.833	89.38
494.05	98.38
494.268	85.38
494.485	88.38
494.703	92.38
494.92	84.38
495.138	90.38
495.355	85.38
495.573	74.38
495.79	95.38
496.008	98.38
496.225	89.38
496.442	95.38
496.66	93.38
496.877	79.38
497.094	89.38
497.312	91.38
497.529	81.38
497.746	85.38
497.963	93.38
498.181	84.38
498.398	89.38
498.615	89.38
498.832	103.38
499.049	98.38
499.267	73.38
499.484	88.38
499.701	90.38
499.918	92.38
500.135	83.38
500.352	104.38
500.569	100.38
500.786	94.38
501.003	86.38
501.22	83.38
501.437	72.38
501.654	85.38
501.871	97.38
502.088	93.38
502.305	87.38
502.522	92.38
502.739	80.38
502.956	68.38
503.172	77.38
503.389	86.38
503.606	90.38
503.823	78.38
504.04	83.38
504.256	94.38
504.473	74.38
504.69	88.38
504.907	79.38
505.123	81.38
505.34	90.38
505.557	93.38
505.773	81.38
505.99	72.38
506.207	73.38
506.423	77.38
506.64	90.38
506.856	88.38
507.073	95.38
507.289	88.38
507.506	92.38
507.722	93.38
507.939	96.38
508.155	82.38
508.372	85.38
508.588	84.38
508.805	106.38
509.021	96.38
509.238	96.38
509.454	90.38
509.67	93.38
509.887	106.38
510.103	113.38
510.319	169.38
510.536	549.38
510.752	1608.38
510.968	465.38
511.184	126.38
511.401	100.38
511.617	88.38
511.833	88.38
512.049	89.38
512.265	82.38
512.481	68.38
512.698	79.38
512.914	77.38
513.13	100.38
513.346	99.38
513.562	87.38
513.778	84.38
513.994	93.38
514.21	99.38
514.426	109.38
514.642	120.38
514.858	106.38
515.074	126.38
515.29	327.38
515.506	930.38
515.721	323.38
515.937	129.38
516.153	99.38
516.369	102.38
516.585	83.38
516.801	97.38
517.016	85.38
517.232	96.38
517.448	108.38
