Data from Uncirc_1982_H10_HRD10591_00036.txt Node
Date: Wed Jan 03 12:29:32 EST 2024
User: Yrep
Spectrometer: HR+D1059
Trigger mode: 1
Integration Time (sec): 1.000000E-1
Scans to average: 1
Electric dark correction enabled: true
Nonlinearity correction enabled: false
Boxcar width: 0
XAxis mode: Wavelengths
Number of Pixels in Spectrum: 2048
>>>>>Begin Spectral Data<<<<<
223.165	-22.69
223.4	-22.69
223.635	-22.69
223.869	-23.69
224.104	-29.69
224.338	-22.69
224.573	-15.69
224.808	-3.69
225.042	-20.69
225.277	4.31
225.511	-1.69
225.746	13.31
225.98	11.31
226.215	5.31
226.449	19.31
226.683	21.31
226.918	32.31
227.152	33.31
227.387	34.31
227.621	39.31
227.856	43.31
228.09	43.31
228.324	53.31
228.559	56.31
228.793	51.31
229.027	62.31
229.262	44.31
229.496	69.31
229.73	83.31
229.964	82.31
230.199	69.31
230.433	66.31
230.667	74.31
230.901	88.31
231.136	77.31
231.37	75.31
231.604	80.31
231.838	76.31
232.072	81.31
232.306	61.31
232.541	85.31
232.775	79.31
233.009	85.31
233.243	85.31
233.477	68.31
233.711	88.31
233.945	63.31
234.179	77.31
234.413	71.31
234.647	74.31
234.881	82.31
235.115	93.31
235.349	80.31
235.583	76.31
235.817	61.31
236.051	72.31
236.285	77.31
236.519	66.31
236.753	80.31
236.987	83.31
237.221	93.31
237.455	87.31
237.689	102.31
237.922	80.31
238.156	91.31
238.39	73.31
238.624	85.31
238.858	79.31
239.091	69.31
239.325	68.31
239.559	84.31
239.793	84.31
240.027	82.31
240.26	72.31
240.494	76.31
240.728	68.31
240.961	87.31
241.195	81.31
241.429	87.31
241.662	88.31
241.896	80.31
242.13	72.31
242.363	80.31
242.597	101.31
242.83	87.31
243.064	68.31
243.298	59.31
243.531	70.31
243.765	76.31
243.998	92.31
244.232	78.31
244.465	93.31
244.699	89.31
244.932	69.31
245.166	85.31
245.399	68.31
245.633	70.31
245.866	83.31
246.099	75.31
246.333	73.31
246.566	64.31
246.8	86.31
247.033	73.31
247.266	70.31
247.5	87.31
247.733	71.31
247.966	93.31
248.2	87.31
248.433	75.31
248.666	76.31
248.899	83.31
249.133	84.31
249.366	91.31
249.599	92.31
249.832	72.31
250.066	83.31
250.299	89.31
250.532	79.31
250.765	77.31
250.998	87.31
251.231	83.31
251.465	81.31
251.698	75.31
251.931	69.31
252.164	75.31
252.397	81.31
252.63	87.31
252.863	81.31
253.096	93.31
253.329	94.31
253.562	83.31
253.795	70.31
254.028	77.31
254.261	80.31
254.494	81.31
254.727	64.31
254.96	78.31
255.193	66.31
255.426	85.31
255.659	68.31
255.892	94.31
256.124	86.31
256.357	70.31
256.59	84.31
256.823	83.31
257.056	89.31
257.289	95.31
257.521	74.31
257.754	75.31
257.987	79.31
258.22	76.31
258.452	85.31
258.685	86.31
258.918	90.31
259.151	94.31
259.383	89.31
259.616	81.31
259.849	84.31
260.081	70.31
260.314	85.31
260.547	82.31
260.779	74.31
261.012	71.31
261.244	84.31
261.477	89.31
261.71	86.31
261.942	110.31
262.175	94.31
262.407	86.31
262.64	76.31
262.872	76.31
263.105	84.31
263.337	70.31
263.57	86.31
263.802	91.31
264.035	77.31
264.267	99.31
264.499	67.31
264.732	70.31
264.964	82.31
265.197	81.31
265.429	98.31
265.661	82.31
265.894	80.31
266.126	89.31
266.358	92.31
266.591	83.31
266.823	75.31
267.055	95.31
267.287	100.31
267.52	91.31
267.752	87.31
267.984	83.31
268.216	87.31
268.448	93.31
268.681	83.31
268.913	92.31
269.145	89.31
269.377	90.31
269.609	87.31
269.841	91.31
270.073	74.31
270.306	77.31
270.538	91.31
270.77	83.31
271.002	99.31
271.234	99.31
271.466	83.31
271.698	72.31
271.93	76.31
272.162	69.31
272.394	91.31
272.626	84.31
272.858	84.31
273.09	92.31
273.322	106.31
273.553	93.31
273.785	89.31
274.017	72.31
274.249	81.31
274.481	95.31
274.713	88.31
274.945	87.31
275.176	85.31
275.408	90.31
275.64	96.31
275.872	81.31
276.104	84.31
276.335	81.31
276.567	96.31
276.799	85.31
277.031	93.31
277.262	95.31
277.494	92.31
277.726	88.31
277.957	80.31
278.189	102.31
278.421	86.31
278.652	64.31
278.884	99.31
279.115	79.31
279.347	86.31
279.579	88.31
279.81	95.31
280.042	80.31
280.273	80.31
280.505	76.31
280.736	107.31
280.968	105.31
281.199	91.31
281.431	80.31
281.662	84.31
281.894	99.31
282.125	91.31
282.356	119.31
282.588	130.31
282.819	102.31
283.051	83.31
283.282	86.31
283.513	95.31
283.745	91.31
283.976	89.31
284.207	88.31
284.439	73.31
284.67	88.31
284.901	86.31
285.132	89.31
285.364	68.31
285.595	93.31
285.826	94.31
286.057	80.31
286.288	90.31
286.52	94.31
286.751	92.31
286.982	75.31
287.213	71.31
287.444	83.31
287.675	85.31
287.906	96.31
288.138	83.31
288.369	91.31
288.6	89.31
288.831	96.31
289.062	102.31
289.293	99.31
289.524	88.31
289.755	85.31
289.986	73.31
290.217	81.31
290.448	93.31
290.679	103.31
290.91	92.31
291.141	85.31
291.371	84.31
291.602	88.31
291.833	99.31
292.064	83.31
292.295	94.31
292.526	84.31
292.757	91.31
292.987	76.31
293.218	93.31
293.449	87.31
293.68	89.31
293.91	86.31
294.141	102.31
294.372	70.31
294.603	93.31
294.833	79.31
295.064	86.31
295.295	73.31
295.525	83.31
295.756	93.31
295.987	93.31
296.217	140.31
296.448	123.31
296.679	80.31
296.909	91.31
297.14	85.31
297.37	97.31
297.601	92.31
297.831	91.31
298.062	74.31
298.292	95.31
298.523	97.31
298.753	96.31
298.984	73.31
299.214	73.31
299.445	89.31
299.675	98.31
299.905	95.31
300.136	92.31
300.366	100.31
300.597	91.31
300.827	77.31
301.057	86.31
301.288	96.31
301.518	87.31
301.748	94.31
301.979	91.31
302.209	83.31
302.439	95.31
302.669	69.31
302.9	97.31
303.13	93.31
303.36	87.31
303.59	99.31
303.82	105.31
304.051	83.31
304.281	99.31
304.511	96.31
304.741	79.31
304.971	95.31
305.201	90.31
305.431	88.31
305.661	79.31
305.891	83.31
306.121	106.31
306.352	97.31
306.582	100.31
306.812	98.31
307.042	89.31
307.272	93.31
307.502	98.31
307.731	97.31
307.961	89.31
308.191	74.31
308.421	93.31
308.651	89.31
308.881	91.31
309.111	105.31
309.341	73.31
309.571	92.31
309.8	86.31
310.03	98.31
310.26	97.31
310.49	88.31
310.72	103.31
310.949	98.31
311.179	115.31
311.409	92.31
311.639	87.31
311.868	91.31
312.098	86.31
312.328	103.31
312.557	97.31
312.787	92.31
313.017	94.31
313.246	113.31
313.476	85.31
313.706	82.31
313.935	86.31
314.165	95.31
314.394	91.31
314.624	107.31
314.853	107.31
315.083	92.31
315.312	89.31
315.542	92.31
315.771	95.31
316.001	104.31
316.23	77.31
316.46	94.31
316.689	93.31
316.919	89.31
317.148	87.31
317.377	100.31
317.607	81.31
317.836	99.31
318.065	88.31
318.295	85.31
318.524	102.31
318.753	98.31
318.983	94.31
319.212	95.31
319.441	108.31
319.67	112.31
319.9	88.31
320.129	82.31
320.358	96.31
320.587	95.31
320.816	104.31
321.046	97.31
321.275	97.31
321.504	89.31
321.733	89.31
321.962	101.31
322.191	97.31
322.42	104.31
322.649	107.31
322.878	104.31
323.108	106.31
323.337	110.31
323.566	121.31
323.795	141.31
324.024	193.31
324.253	351.31
324.482	771.31
324.71	1581.31
324.939	2079.31
325.168	746.31
325.397	223.31
325.626	139.31
325.855	122.31
326.084	122.31
326.313	142.31
326.542	145.31
326.77	214.31
326.999	433.31
327.228	885.31
327.457	1623.31
327.686	1279.31
327.914	354.31
328.143	195.31
328.372	132.31
328.6	126.31
328.829	116.31
329.058	118.31
329.287	115.31
329.515	100.31
329.744	116.31
329.972	102.31
330.201	111.31
330.43	123.31
330.658	114.31
330.887	132.31
331.115	105.31
331.344	108.31
331.572	91.31
331.801	109.31
332.03	90.31
332.258	95.31
332.486	86.31
332.715	103.31
332.943	82.31
333.172	105.31
333.4	101.31
333.629	105.31
333.857	112.31
334.085	99.31
334.314	108.31
334.542	120.31
334.771	119.31
334.999	104.31
335.227	91.31
335.455	106.31
335.684	77.31
335.912	102.31
336.14	82.31
336.369	107.31
336.597	85.31
336.825	93.31
337.053	76.31
337.281	102.31
337.51	86.31
337.738	94.31
337.966	84.31
338.194	98.31
338.422	95.31
338.65	91.31
338.878	75.31
339.106	81.31
339.334	83.31
339.562	102.31
339.79	75.31
340.018	95.31
340.246	92.31
340.474	90.31
340.702	96.31
340.93	101.31
341.158	103.31
341.386	98.31
341.614	90.31
341.842	100.31
342.07	87.31
342.298	87.31
342.526	81.31
342.754	76.31
342.981	106.31
343.209	88.31
343.437	99.31
343.665	91.31
343.893	90.31
344.12	105.31
344.348	90.31
344.576	85.31
344.804	91.31
345.031	98.31
345.259	100.31
345.487	97.31
345.714	85.31
345.942	100.31
346.17	98.31
346.397	101.31
346.625	80.31
346.853	84.31
347.08	95.31
347.308	99.31
347.535	103.31
347.763	96.31
347.99	85.31
348.218	101.31
348.445	100.31
348.673	99.31
348.9	86.31
349.128	93.31
349.355	86.31
349.583	76.31
349.81	103.31
350.037	101.31
350.265	99.31
350.492	103.31
350.72	87.31
350.947	101.31
351.174	107.31
351.402	107.31
351.629	93.31
351.856	100.31
352.083	103.31
352.311	97.31
352.538	114.31
352.765	113.31
352.992	105.31
353.22	103.31
353.447	104.31
353.674	87.31
353.901	100.31
354.128	82.31
354.355	84.31
354.583	97.31
354.81	104.31
355.037	109.31
355.264	85.31
355.491	80.31
355.718	92.31
355.945	97.31
356.172	96.31
356.399	91.31
356.626	103.31
356.853	94.31
357.08	91.31
357.307	93.31
357.534	98.31
357.761	83.31
357.988	104.31
358.215	105.31
358.441	93.31
358.668	108.31
358.895	103.31
359.122	86.31
359.349	89.31
359.576	98.31
359.802	90.31
360.029	117.31
360.256	87.31
360.483	91.31
360.709	95.31
360.936	105.31
361.163	89.31
361.39	90.31
361.616	87.31
361.843	71.31
362.07	86.31
362.296	83.31
362.523	70.31
362.749	93.31
362.976	99.31
363.203	71.31
363.429	86.31
363.656	81.31
363.882	75.31
364.109	113.31
364.335	99.31
364.562	87.31
364.788	84.31
365.015	103.31
365.241	103.31
365.468	92.31
365.694	99.31
365.92	94.31
366.147	85.31
366.373	86.31
366.599	88.31
366.826	98.31
367.052	79.31
367.278	86.31
367.505	83.31
367.731	91.31
367.957	86.31
368.184	94.31
368.41	103.31
368.636	97.31
368.862	118.31
369.089	93.31
369.315	86.31
369.541	84.31
369.767	100.31
369.993	77.31
370.219	93.31
370.445	96.31
370.672	94.31
370.898	96.31
371.124	92.31
371.35	81.31
371.576	93.31
371.802	99.31
372.028	88.31
372.254	93.31
372.48	104.31
372.706	82.31
372.932	90.31
373.158	88.31
373.384	92.31
373.61	92.31
373.835	89.31
374.061	96.31
374.287	84.31
374.513	87.31
374.739	83.31
374.965	92.31
375.191	97.31
375.416	90.31
375.642	70.31
375.868	98.31
376.094	91.31
376.319	74.31
376.545	76.31
376.771	84.31
376.997	79.31
377.222	90.31
377.448	84.31
377.674	94.31
377.899	93.31
378.125	101.31
378.35	88.31
378.576	83.31
378.802	82.31
379.027	83.31
379.253	85.31
379.478	90.31
379.704	95.31
379.929	85.31
380.155	106.31
380.38	97.31
380.606	103.31
380.831	94.31
381.057	97.31
381.282	99.31
381.507	94.31
381.733	100.31
381.958	94.31
382.184	93.31
382.409	104.31
382.634	105.31
382.86	106.31
383.085	110.31
383.31	95.31
383.535	108.31
383.761	97.31
383.986	92.31
384.211	103.31
384.436	96.31
384.662	106.31
384.887	112.31
385.112	114.31
385.337	104.31
385.562	111.31
385.787	96.31
386.013	115.31
386.238	102.31
386.463	118.31
386.688	112.31
386.913	113.31
387.138	108.31
387.363	103.31
387.588	97.31
387.813	91.31
388.038	105.31
388.263	123.31
388.488	126.31
388.713	105.31
388.938	101.31
389.163	99.31
389.387	102.31
389.612	100.31
389.837	90.31
390.062	96.31
390.287	100.31
390.512	100.31
390.736	88.31
390.961	99.31
391.186	90.31
391.411	84.31
391.636	95.31
391.86	80.31
392.085	84.31
392.31	87.31
392.534	78.31
392.759	89.31
392.984	87.31
393.208	91.31
393.433	100.31
393.658	86.31
393.882	79.31
394.107	84.31
394.331	89.31
394.556	91.31
394.78	67.31
395.005	85.31
395.229	82.31
395.454	88.31
395.678	76.31
395.903	86.31
396.127	81.31
396.352	99.31
396.576	86.31
396.801	96.31
397.025	99.31
397.249	77.31
397.474	68.31
397.698	83.31
397.922	87.31
398.147	95.31
398.371	88.31
398.595	90.31
398.82	83.31
399.044	82.31
399.268	82.31
399.492	80.31
399.717	97.31
399.941	103.31
400.165	85.31
400.389	84.31
400.613	84.31
400.837	76.31
401.062	85.31
401.286	79.31
401.51	83.31
401.734	75.31
401.958	103.31
402.182	137.31
402.406	132.31
402.63	94.31
402.854	91.31
403.078	73.31
403.302	83.31
403.526	99.31
403.75	88.31
403.974	95.31
404.198	88.31
404.422	85.31
404.645	75.31
404.869	95.31
405.093	91.31
405.317	96.31
405.541	88.31
405.765	94.31
405.988	102.31
406.212	156.31
406.436	190.31
406.66	115.31
406.883	109.31
407.107	93.31
407.331	87.31
407.555	88.31
407.778	74.31
408.002	79.31
408.226	85.31
408.449	84.31
408.673	87.31
408.896	97.31
409.12	99.31
409.344	98.31
409.567	82.31
409.791	98.31
410.014	104.31
410.238	87.31
410.461	87.31
410.685	106.31
410.908	97.31
411.132	97.31
411.355	89.31
411.578	95.31
411.802	79.31
412.025	95.31
412.249	91.31
412.472	79.31
412.695	108.31
412.919	103.31
413.142	85.31
413.365	75.31
413.589	91.31
413.812	83.31
414.035	91.31
414.258	82.31
414.482	88.31
414.705	89.31
414.928	83.31
415.151	80.31
415.374	81.31
415.597	85.31
415.821	97.31
416.044	94.31
416.267	99.31
416.49	88.31
416.713	82.31
416.936	86.31
417.159	79.31
417.382	80.31
417.605	84.31
417.828	80.31
418.051	88.31
418.274	95.31
418.497	72.31
418.72	82.31
418.943	85.31
419.166	69.31
419.389	84.31
419.611	99.31
419.834	80.31
420.057	95.31
420.28	94.31
420.503	83.31
420.726	93.31
420.948	81.31
421.171	91.31
421.394	87.31
421.617	75.31
421.839	94.31
422.062	82.31
422.285	102.31
422.507	104.31
422.73	96.31
422.953	72.31
423.175	74.31
423.398	91.31
423.621	91.31
423.843	97.31
424.066	102.31
424.288	96.31
424.511	95.31
424.733	86.31
424.956	94.31
425.178	88.31
425.401	96.31
425.623	88.31
425.846	84.31
426.068	92.31
426.291	92.31
426.513	89.31
426.735	89.31
426.958	97.31
427.18	83.31
427.402	128.31
427.625	126.31
427.847	112.31
428.069	106.31
428.292	85.31
428.514	93.31
428.736	84.31
428.958	84.31
429.181	90.31
429.403	79.31
429.625	75.31
429.847	89.31
430.069	104.31
430.292	92.31
430.514	86.31
430.736	85.31
430.958	69.31
431.18	83.31
431.402	95.31
431.624	92.31
431.846	93.31
432.068	97.31
432.29	85.31
432.512	97.31
432.734	83.31
432.956	89.31
433.178	85.31
433.4	99.31
433.622	94.31
433.844	80.31
434.066	90.31
434.287	80.31
434.509	87.31
434.731	85.31
434.953	71.31
435.175	90.31
435.397	90.31
435.618	84.31
435.84	102.31
436.062	105.31
436.284	108.31
436.505	93.31
436.727	100.31
436.949	87.31
437.17	87.31
437.392	93.31
437.614	91.31
437.835	86.31
438.057	85.31
438.278	99.31
438.5	101.31
438.721	118.31
438.943	99.31
439.165	71.31
439.386	90.31
439.608	84.31
439.829	91.31
440.05	111.31
440.272	106.31
440.493	79.31
440.715	89.31
440.936	86.31
441.158	85.31
441.379	97.31
441.6	98.31
441.822	85.31
442.043	99.31
442.264	97.31
442.486	92.31
442.707	88.31
442.928	96.31
443.149	112.31
443.371	117.31
443.592	92.31
443.813	112.31
444.034	102.31
444.255	92.31
444.476	88.31
444.698	79.31
444.919	78.31
445.14	128.31
445.361	114.31
445.582	116.31
445.803	122.31
446.024	125.31
446.245	121.31
446.466	103.31
446.687	73.31
446.908	93.31
447.129	101.31
447.35	72.31
447.571	67.31
447.792	87.31
448.013	100.31
448.234	99.31
448.455	94.31
448.675	106.31
448.896	99.31
449.117	104.31
449.338	92.31
449.559	130.31
449.779	124.31
450	90.31
450.221	88.31
450.442	90.31
450.662	88.31
450.883	106.31
451.104	95.31
451.324	93.31
451.545	79.31
451.766	92.31
451.986	92.31
452.207	97.31
452.428	95.31
452.648	103.31
452.869	113.31
453.089	105.31
453.31	104.31
453.53	81.31
453.751	99.31
453.971	74.31
454.192	114.31
454.412	96.31
454.633	83.31
454.853	95.31
455.073	76.31
455.294	85.31
455.514	90.31
455.734	73.31
455.955	79.31
456.175	79.31
456.395	85.31
456.616	89.31
456.836	83.31
457.056	85.31
457.276	77.31
457.497	79.31
457.717	86.31
457.937	84.31
458.157	71.31
458.377	79.31
458.598	92.31
458.818	121.31
459.038	116.31
459.258	97.31
459.478	80.31
459.698	85.31
459.918	76.31
460.138	72.31
460.358	80.31
460.578	81.31
460.798	77.31
461.018	86.31
461.238	100.31
461.458	85.31
461.678	84.31
461.898	84.31
462.118	94.31
462.338	91.31
462.558	84.31
462.777	90.31
462.997	83.31
463.217	74.31
463.437	83.31
463.657	81.31
463.876	83.31
464.096	79.31
464.316	89.31
464.536	96.31
464.755	79.31
464.975	108.31
465.195	137.31
465.414	131.31
465.634	83.31
465.854	81.31
466.073	63.31
466.293	90.31
466.512	83.31
466.732	73.31
466.951	97.31
467.171	92.31
467.391	88.31
467.61	97.31
467.829	89.31
468.049	111.31
468.268	104.31
468.488	94.31
468.707	91.31
468.927	88.31
469.146	85.31
469.365	98.31
469.585	88.31
469.804	89.31
470.023	89.31
470.243	96.31
470.462	93.31
470.681	94.31
470.901	88.31
471.12	81.31
471.339	64.31
471.558	88.31
471.777	104.31
471.997	99.31
472.216	127.31
472.435	127.31
472.654	96.31
472.873	96.31
473.092	81.31
473.311	84.31
473.53	86.31
473.749	71.31
473.968	81.31
474.187	89.31
474.406	76.31
474.625	82.31
474.844	88.31
475.063	95.31
475.282	96.31
475.501	93.31
475.72	103.31
475.939	100.31
476.158	76.31
476.377	83.31
476.596	89.31
476.814	77.31
477.033	99.31
477.252	89.31
477.471	77.31
477.69	86.31
477.908	91.31
478.127	89.31
478.346	93.31
478.564	84.31
478.783	89.31
479.002	80.31
479.22	75.31
479.439	96.31
479.658	94.31
479.876	84.31
480.095	77.31
480.313	93.31
480.532	92.31
480.751	84.31
480.969	110.31
481.188	176.31
481.406	141.31
481.624	93.31
481.843	84.31
482.061	84.31
482.28	77.31
482.498	91.31
482.717	93.31
482.935	93.31
483.153	83.31
483.372	87.31
483.59	92.31
483.808	80.31
484.027	97.31
484.245	96.31
484.463	95.31
484.681	80.31
484.9	102.31
485.118	102.31
485.336	79.31
485.554	93.31
485.772	100.31
485.99	99.31
486.209	103.31
486.427	104.31
486.645	112.31
486.863	103.31
487.081	93.31
487.299	85.31
487.517	99.31
487.735	95.31
487.953	82.31
488.171	91.31
488.389	98.31
488.607	96.31
488.825	104.31
489.043	94.31
489.261	98.31
489.479	76.31
489.696	93.31
489.914	86.31
490.132	99.31
490.35	110.31
490.568	79.31
490.786	76.31
491.003	81.31
491.221	65.31
491.439	91.31
491.657	73.31
491.874	92.31
492.092	83.31
492.31	87.31
492.527	96.31
492.745	94.31
492.963	92.31
493.18	86.31
493.398	73.31
493.615	85.31
493.833	96.31
494.05	99.31
494.268	88.31
494.485	95.31
494.703	85.31
494.92	81.31
495.138	83.31
495.355	101.31
495.573	77.31
495.79	98.31
496.008	95.31
496.225	91.31
496.442	87.31
496.66	90.31
496.877	89.31
497.094	92.31
497.312	91.31
497.529	92.31
497.746	98.31
497.963	89.31
498.181	73.31
498.398	91.31
498.615	103.31
498.832	107.31
499.049	100.31
499.267	96.31
499.484	66.31
499.701	85.31
499.918	87.31
500.135	81.31
500.352	98.31
500.569	88.31
500.786	79.31
501.003	76.31
501.22	89.31
501.437	80.31
501.654	88.31
501.871	100.31
502.088	95.31
502.305	84.31
502.522	73.31
502.739	79.31
502.956	93.31
503.172	82.31
503.389	101.31
503.606	93.31
503.823	102.31
504.04	86.31
504.256	91.31
504.473	92.31
504.69	94.31
504.907	85.31
505.123	92.31
505.34	85.31
505.557	81.31
505.773	68.31
505.99	98.31
506.207	83.31
506.423	81.31
506.64	89.31
506.856	93.31
507.073	85.31
507.289	95.31
507.506	94.31
507.722	100.31
507.939	91.31
508.155	102.31
508.372	87.31
508.588	80.31
508.805	93.31
509.021	91.31
509.238	87.31
509.454	94.31
509.67	106.31
509.887	102.31
510.103	116.31
510.319	211.31
510.536	703.31
510.752	2083.31
510.968	569.31
511.184	135.31
511.401	99.31
511.617	95.31
511.833	79.31
512.049	86.31
512.265	96.31
512.481	89.31
512.698	82.31
512.914	101.31
513.13	95.31
513.346	92.31
513.562	97.31
513.778	96.31
513.994	109.31
514.21	92.31
514.426	112.31
514.642	107.31
514.858	113.31
515.074	145.31
515.29	383.31
515.506	1192.31
515.721	426.31
515.937	139.31
516.153	97.31
516.369	92.31
