Data from Uncirc_1982_H10_HRD10591_00058.txt Node
Date: Wed Jan 03 12:29:36 EST 2024
User: Yrep
Spectrometer: HR+D1059
Trigger mode: 1
Integration Time (sec): 1.000000E-1
Scans to average: 1
Electric dark correction enabled: true
Nonlinearity correction enabled: false
Boxcar width: 0
XAxis mode: Wavelengths
Number of Pixels in Spectrum: 2048
>>>>>Begin Spectral Data<<<<<
223.165	-23.12
223.4	-23.12
223.635	-23.12
223.869	-31.12
224.104	-8.12
224.338	-6.12
224.573	-12.12
224.808	-24.12
225.042	-1.12
225.277	-5.12
225.511	-8.12
225.746	6.88
225.98	7.88
226.215	14.88
226.449	14.88
226.683	22.88
226.918	32.88
227.152	18.88
227.387	43.88
227.621	36.88
227.856	40.88
228.09	48.88
228.324	44.88
228.559	54.88
228.793	54.88
229.027	70.88
229.262	68.88
229.496	51.88
229.73	87.88
229.964	87.88
230.199	96.88
230.433	77.88
230.667	84.88
230.901	65.88
231.136	70.88
231.37	88.88
231.604	81.88
231.838	89.88
232.072	80.88
232.306	86.88
232.541	80.88
232.775	88.88
233.009	75.88
233.243	83.88
233.477	93.88
233.711	67.88
233.945	88.88
234.179	84.88
234.413	86.88
234.647	64.88
234.881	80.88
235.115	45.88
235.349	75.88
235.583	71.88
235.817	85.88
236.051	78.88
236.285	90.88
236.519	89.88
236.753	82.88
236.987	81.88
237.221	77.88
237.455	85.88
237.689	77.88
237.922	79.88
238.156	74.88
238.39	76.88
238.624	66.88
238.858	74.88
239.091	75.88
239.325	75.88
239.559	78.88
239.793	74.88
240.027	85.88
240.26	74.88
240.494	80.88
240.728	75.88
240.961	76.88
241.195	82.88
241.429	73.88
241.662	72.88
241.896	62.88
242.13	69.88
242.363	72.88
242.597	73.88
242.83	71.88
243.064	82.88
243.298	76.88
243.531	77.88
243.765	77.88
243.998	62.88
244.232	77.88
244.465	89.88
244.699	87.88
244.932	75.88
245.166	83.88
245.399	72.88
245.633	65.88
245.866	84.88
246.099	77.88
246.333	76.88
246.566	86.88
246.8	81.88
247.033	100.88
247.266	70.88
247.5	73.88
247.733	81.88
247.966	62.88
248.2	70.88
248.433	82.88
248.666	97.88
248.899	74.88
249.133	79.88
249.366	86.88
249.599	85.88
249.832	74.88
250.066	76.88
250.299	87.88
250.532	84.88
250.765	83.88
250.998	81.88
251.231	75.88
251.465	84.88
251.698	76.88
251.931	76.88
252.164	84.88
252.397	89.88
252.63	74.88
252.863	90.88
253.096	77.88
253.329	83.88
253.562	72.88
253.795	72.88
254.028	83.88
254.261	72.88
254.494	90.88
254.727	92.88
254.96	84.88
255.193	92.88
255.426	75.88
255.659	79.88
255.892	82.88
256.124	75.88
256.357	92.88
256.59	85.88
256.823	78.88
257.056	74.88
257.289	83.88
257.521	69.88
257.754	62.88
257.987	76.88
258.22	84.88
258.452	76.88
258.685	75.88
258.918	96.88
259.151	90.88
259.383	87.88
259.616	68.88
259.849	62.88
260.081	88.88
260.314	71.88
260.547	84.88
260.779	74.88
261.012	85.88
261.244	93.88
261.477	84.88
261.71	88.88
261.942	85.88
262.175	94.88
262.407	75.88
262.64	67.88
262.872	72.88
263.105	89.88
263.337	83.88
263.57	80.88
263.802	83.88
264.035	82.88
264.267	83.88
264.499	74.88
264.732	87.88
264.964	92.88
265.197	92.88
265.429	74.88
265.661	98.88
265.894	84.88
266.126	86.88
266.358	86.88
266.591	91.88
266.823	89.88
267.055	76.88
267.287	96.88
267.52	64.88
267.752	80.88
267.984	73.88
268.216	80.88
268.448	106.88
268.681	78.88
268.913	74.88
269.145	72.88
269.377	97.88
269.609	74.88
269.841	101.88
270.073	79.88
270.306	75.88
270.538	75.88
270.77	88.88
271.002	84.88
271.234	84.88
271.466	89.88
271.698	85.88
271.93	92.88
272.162	84.88
272.394	86.88
272.626	79.88
272.858	82.88
273.09	82.88
273.322	86.88
273.553	91.88
273.785	94.88
274.017	83.88
274.249	86.88
274.481	80.88
274.713	76.88
274.945	80.88
275.176	82.88
275.408	83.88
275.64	85.88
275.872	87.88
276.104	82.88
276.335	93.88
276.567	86.88
276.799	92.88
277.031	85.88
277.262	94.88
277.494	97.88
277.726	83.88
277.957	90.88
278.189	73.88
278.421	83.88
278.652	80.88
278.884	80.88
279.115	96.88
279.347	95.88
279.579	95.88
279.81	99.88
280.042	90.88
280.273	85.88
280.505	96.88
280.736	76.88
280.968	83.88
281.199	71.88
281.431	83.88
281.662	84.88
281.894	98.88
282.125	89.88
282.356	97.88
282.588	110.88
282.819	105.88
283.051	89.88
283.282	92.88
283.513	91.88
283.745	66.88
283.976	88.88
284.207	76.88
284.439	86.88
284.67	91.88
284.901	86.88
285.132	79.88
285.364	86.88
285.595	97.88
285.826	94.88
286.057	85.88
286.288	75.88
286.52	92.88
286.751	72.88
286.982	84.88
287.213	87.88
287.444	84.88
287.675	85.88
287.906	86.88
288.138	85.88
288.369	92.88
288.6	76.88
288.831	84.88
289.062	84.88
289.293	88.88
289.524	73.88
289.755	92.88
289.986	79.88
290.217	86.88
290.448	91.88
290.679	77.88
290.91	78.88
291.141	92.88
291.371	82.88
291.602	85.88
291.833	82.88
292.064	96.88
292.295	86.88
292.526	93.88
292.757	85.88
292.987	78.88
293.218	84.88
293.449	72.88
293.68	81.88
293.91	86.88
294.141	97.88
294.372	88.88
294.603	96.88
294.833	90.88
295.064	95.88
295.295	87.88
295.525	96.88
295.756	101.88
295.987	108.88
296.217	110.88
296.448	101.88
296.679	91.88
296.909	90.88
297.14	105.88
297.37	92.88
297.601	91.88
297.831	88.88
298.062	96.88
298.292	75.88
298.523	83.88
298.753	81.88
298.984	88.88
299.214	87.88
299.445	101.88
299.675	99.88
299.905	93.88
300.136	88.88
300.366	76.88
300.597	82.88
300.827	84.88
301.057	94.88
301.288	104.88
301.518	99.88
301.748	80.88
301.979	92.88
302.209	93.88
302.439	101.88
302.669	85.88
302.9	89.88
303.13	76.88
303.36	88.88
303.59	97.88
303.82	100.88
304.051	98.88
304.281	73.88
304.511	106.88
304.741	81.88
304.971	84.88
305.201	78.88
305.431	91.88
305.661	92.88
305.891	86.88
306.121	98.88
306.352	102.88
306.582	101.88
306.812	82.88
307.042	96.88
307.272	72.88
307.502	92.88
307.731	98.88
307.961	87.88
308.191	88.88
308.421	89.88
308.651	88.88
308.881	80.88
309.111	89.88
309.341	97.88
309.571	113.88
309.8	94.88
310.03	109.88
310.26	93.88
310.49	105.88
310.72	106.88
310.949	102.88
311.179	96.88
311.409	94.88
311.639	93.88
311.868	82.88
312.098	97.88
312.328	100.88
312.557	95.88
312.787	100.88
313.017	101.88
313.246	102.88
313.476	83.88
313.706	78.88
313.935	85.88
314.165	96.88
314.394	96.88
314.624	97.88
314.853	86.88
315.083	97.88
315.312	89.88
315.542	84.88
315.771	88.88
316.001	91.88
316.23	90.88
316.46	82.88
316.689	92.88
316.919	91.88
317.148	89.88
317.377	105.88
317.607	87.88
317.836	98.88
318.065	83.88
318.295	91.88
318.524	91.88
318.753	106.88
318.983	99.88
319.212	103.88
319.441	105.88
319.67	99.88
319.9	94.88
320.129	84.88
320.358	94.88
320.587	94.88
320.816	82.88
321.046	96.88
321.275	89.88
321.504	88.88
321.733	98.88
321.962	106.88
322.191	102.88
322.42	116.88
322.649	106.88
322.878	103.88
323.108	104.88
323.337	111.88
323.566	119.88
323.795	145.88
324.024	179.88
324.253	335.88
324.482	652.88
324.71	1319.88
324.939	1698.88
325.168	627.88
325.397	218.88
325.626	138.88
325.855	113.88
326.084	130.88
326.313	122.88
326.542	148.88
326.77	200.88
326.999	373.88
327.228	766.88
327.457	1365.88
327.686	1105.88
327.914	322.88
328.143	172.88
328.372	142.88
328.6	120.88
328.829	104.88
329.058	98.88
329.287	101.88
329.515	105.88
329.744	97.88
329.972	113.88
330.201	106.88
330.43	126.88
330.658	134.88
330.887	130.88
331.115	90.88
331.344	98.88
331.572	94.88
331.801	91.88
332.03	77.88
332.258	96.88
332.486	96.88
332.715	92.88
332.943	89.88
333.172	85.88
333.4	93.88
333.629	84.88
333.857	104.88
334.085	109.88
334.314	105.88
334.542	141.88
334.771	119.88
334.999	96.88
335.227	86.88
335.455	85.88
335.684	102.88
335.912	96.88
336.14	94.88
336.369	100.88
336.597	84.88
336.825	93.88
337.053	88.88
337.281	94.88
337.51	92.88
337.738	100.88
337.966	109.88
338.194	110.88
338.422	93.88
338.65	85.88
338.878	86.88
339.106	87.88
339.334	90.88
339.562	91.88
339.79	93.88
340.018	83.88
340.246	94.88
340.474	101.88
340.702	98.88
340.93	90.88
341.158	88.88
341.386	92.88
341.614	83.88
341.842	105.88
342.07	90.88
342.298	90.88
342.526	93.88
342.754	92.88
342.981	87.88
343.209	95.88
343.437	84.88
343.665	101.88
343.893	89.88
344.12	100.88
344.348	85.88
344.576	89.88
344.804	103.88
345.031	91.88
345.259	89.88
345.487	104.88
345.714	90.88
345.942	94.88
346.17	86.88
346.397	97.88
346.625	86.88
346.853	87.88
347.08	93.88
347.308	99.88
347.535	97.88
347.763	93.88
347.99	97.88
348.218	96.88
348.445	100.88
348.673	98.88
348.9	92.88
349.128	110.88
349.355	97.88
349.583	86.88
349.81	95.88
350.037	103.88
350.265	91.88
350.492	91.88
350.72	88.88
350.947	93.88
351.174	102.88
351.402	107.88
351.629	109.88
351.856	93.88
352.083	104.88
352.311	116.88
352.538	106.88
352.765	101.88
352.992	120.88
353.22	128.88
353.447	102.88
353.674	99.88
353.901	95.88
354.128	95.88
354.355	95.88
354.583	117.88
354.81	100.88
355.037	85.88
355.264	94.88
355.491	80.88
355.718	110.88
355.945	102.88
356.172	95.88
356.399	98.88
356.626	92.88
356.853	72.88
357.08	101.88
357.307	80.88
357.534	92.88
357.761	83.88
357.988	97.88
358.215	93.88
358.441	98.88
358.668	96.88
358.895	94.88
359.122	99.88
359.349	85.88
359.576	87.88
359.802	89.88
360.029	101.88
360.256	101.88
360.483	105.88
360.709	92.88
360.936	101.88
361.163	90.88
361.39	89.88
361.616	93.88
361.843	83.88
362.07	100.88
362.296	74.88
362.523	94.88
362.749	89.88
362.976	104.88
363.203	93.88
363.429	82.88
363.656	96.88
363.882	97.88
364.109	84.88
364.335	107.88
364.562	94.88
364.788	88.88
365.015	76.88
365.241	93.88
365.468	88.88
365.694	62.88
365.92	89.88
366.147	86.88
366.373	80.88
366.599	88.88
366.826	98.88
367.052	95.88
367.278	97.88
367.505	89.88
367.731	90.88
367.957	90.88
368.184	94.88
368.41	84.88
368.636	103.88
368.862	117.88
369.089	109.88
369.315	102.88
369.541	100.88
369.767	83.88
369.993	95.88
370.219	101.88
370.445	91.88
370.672	90.88
370.898	98.88
371.124	85.88
371.35	90.88
371.576	102.88
371.802	98.88
372.028	96.88
372.254	94.88
372.48	88.88
372.706	85.88
372.932	85.88
373.158	98.88
373.384	98.88
373.61	90.88
373.835	94.88
374.061	92.88
374.287	92.88
374.513	87.88
374.739	85.88
374.965	100.88
375.191	100.88
375.416	99.88
375.642	102.88
375.868	100.88
376.094	93.88
376.319	92.88
376.545	86.88
376.771	83.88
376.997	91.88
377.222	93.88
377.448	90.88
377.674	90.88
377.899	89.88
378.125	93.88
378.35	91.88
378.576	91.88
378.802	69.88
379.027	96.88
379.253	107.88
379.478	94.88
379.704	88.88
379.929	81.88
380.155	103.88
380.38	95.88
380.606	85.88
380.831	96.88
381.057	99.88
381.282	94.88
381.507	94.88
381.733	82.88
381.958	93.88
382.184	91.88
382.409	103.88
382.634	93.88
382.86	73.88
383.085	92.88
383.31	86.88
383.535	103.88
383.761	98.88
383.986	110.88
384.211	95.88
384.436	101.88
384.662	103.88
384.887	106.88
385.112	107.88
385.337	100.88
385.562	109.88
385.787	100.88
386.013	113.88
386.238	115.88
386.463	131.88
386.688	112.88
386.913	100.88
387.138	87.88
387.363	104.88
387.588	100.88
387.813	105.88
388.038	105.88
388.263	113.88
388.488	115.88
388.713	92.88
388.938	90.88
389.163	96.88
389.387	105.88
389.612	87.88
389.837	91.88
390.062	100.88
390.287	91.88
390.512	104.88
390.736	83.88
390.961	84.88
391.186	85.88
391.411	81.88
391.636	91.88
391.86	100.88
392.085	93.88
392.31	67.88
392.534	80.88
392.759	92.88
392.984	91.88
393.208	98.88
393.433	100.88
393.658	81.88
393.882	83.88
394.107	93.88
394.331	81.88
394.556	97.88
394.78	83.88
395.005	97.88
395.229	81.88
395.454	92.88
395.678	68.88
395.903	86.88
396.127	83.88
396.352	86.88
396.576	74.88
396.801	81.88
397.025	78.88
397.249	99.88
397.474	90.88
397.698	80.88
397.922	74.88
398.147	71.88
398.371	82.88
398.595	98.88
398.82	85.88
399.044	74.88
399.268	88.88
399.492	93.88
399.717	94.88
399.941	94.88
400.165	90.88
400.389	96.88
400.613	86.88
400.837	78.88
401.062	93.88
401.286	91.88
401.51	91.88
401.734	96.88
401.958	94.88
402.182	109.88
402.406	117.88
402.63	106.88
402.854	104.88
403.078	89.88
403.302	90.88
403.526	99.88
403.75	92.88
403.974	71.88
404.198	88.88
404.422	81.88
404.645	96.88
404.869	90.88
405.093	89.88
405.317	89.88
405.541	101.88
405.765	100.88
405.988	107.88
406.212	160.88
406.436	165.88
406.66	120.88
406.883	86.88
407.107	80.88
407.331	84.88
407.555	97.88
407.778	84.88
408.002	80.88
408.226	88.88
408.449	92.88
408.673	76.88
408.896	97.88
409.12	78.88
409.344	92.88
409.567	93.88
409.791	93.88
410.014	83.88
410.238	87.88
410.461	86.88
410.685	97.88
410.908	97.88
411.132	103.88
411.355	103.88
411.578	86.88
411.802	86.88
412.025	84.88
412.249	78.88
412.472	96.88
412.695	98.88
412.919	83.88
413.142	96.88
413.365	77.88
413.589	85.88
413.812	93.88
414.035	78.88
414.258	86.88
414.482	86.88
414.705	95.88
414.928	78.88
415.151	92.88
415.374	97.88
415.597	96.88
415.821	81.88
416.044	80.88
416.267	94.88
416.49	74.88
416.713	78.88
416.936	90.88
417.159	91.88
417.382	84.88
417.605	99.88
417.828	89.88
418.051	102.88
418.274	99.88
418.497	87.88
418.72	86.88
418.943	93.88
419.166	95.88
419.389	91.88
419.611	94.88
419.834	95.88
420.057	92.88
420.28	100.88
420.503	80.88
420.726	94.88
420.948	89.88
421.171	97.88
421.394	100.88
421.617	86.88
421.839	86.88
422.062	81.88
422.285	87.88
422.507	93.88
422.73	89.88
422.953	100.88
423.175	83.88
423.398	77.88
423.621	100.88
423.843	94.88
424.066	80.88
424.288	82.88
424.511	86.88
424.733	90.88
424.956	94.88
425.178	90.88
425.401	99.88
425.623	107.88
425.846	100.88
426.068	90.88
426.291	80.88
426.513	100.88
426.735	78.88
426.958	97.88
427.18	92.88
427.402	109.88
427.625	133.88
427.847	115.88
428.069	113.88
428.292	89.88
428.514	88.88
428.736	72.88
428.958	58.88
429.181	79.88
429.403	93.88
429.625	89.88
429.847	86.88
430.069	95.88
430.292	107.88
430.514	74.88
430.736	84.88
430.958	91.88
431.18	91.88
431.402	77.88
431.624	73.88
431.846	73.88
432.068	88.88
432.29	84.88
432.512	80.88
432.734	75.88
432.956	99.88
433.178	114.88
433.4	90.88
433.622	80.88
433.844	89.88
434.066	98.88
434.287	91.88
434.509	88.88
434.731	90.88
434.953	110.88
435.175	80.88
435.397	101.88
435.618	85.88
435.84	98.88
436.062	111.88
436.284	110.88
436.505	90.88
436.727	102.88
436.949	95.88
437.17	86.88
437.392	84.88
437.614	99.88
437.835	90.88
438.057	104.88
438.278	102.88
438.5	97.88
438.721	112.88
438.943	98.88
439.165	78.88
439.386	82.88
439.608	98.88
439.829	88.88
440.05	110.88
440.272	125.88
440.493	98.88
440.715	74.88
440.936	75.88
441.158	81.88
441.379	84.88
441.6	94.88
441.822	95.88
442.043	82.88
442.264	103.88
442.486	90.88
442.707	96.88
442.928	94.88
443.149	108.88
443.371	97.88
443.592	94.88
443.813	100.88
444.034	112.88
444.255	80.88
444.476	80.88
444.698	87.88
444.919	88.88
445.14	129.88
445.361	114.88
445.582	113.88
445.803	108.88
446.024	112.88
446.245	107.88
446.466	109.88
446.687	93.88
446.908	89.88
447.129	88.88
447.35	84.88
447.571	77.88
447.792	90.88
448.013	98.88
448.234	94.88
448.455	96.88
448.675	108.88
448.896	111.88
449.117	93.88
449.338	112.88
449.559	120.88
449.779	117.88
450	81.88
450.221	77.88
450.442	87.88
450.662	82.88
450.883	106.88
451.104	104.88
451.324	100.88
451.545	84.88
451.766	94.88
451.986	92.88
452.207	92.88
452.428	96.88
452.648	96.88
452.869	98.88
453.089	90.88
453.31	82.88
453.53	94.88
453.751	93.88
453.971	99.88
454.192	87.88
454.412	86.88
454.633	72.88
454.853	89.88
455.073	75.88
455.294	92.88
455.514	82.88
455.734	94.88
455.955	93.88
456.175	86.88
456.395	93.88
456.616	77.88
456.836	74.88
457.056	86.88
457.276	86.88
457.497	69.88
457.717	86.88
457.937	92.88
458.157	88.88
458.377	83.88
458.598	101.88
458.818	126.88
459.038	125.88
459.258	105.88
459.478	75.88
459.698	84.88
459.918	102.88
460.138	97.88
460.358	89.88
460.578	80.88
460.798	104.88
461.018	95.88
461.238	84.88
461.458	81.88
461.678	82.88
461.898	92.88
462.118	84.88
462.338	75.88
462.558	89.88
462.777	94.88
462.997	80.88
463.217	95.88
463.437	92.88
463.657	84.88
463.876	86.88
464.096	99.88
464.316	92.88
464.536	101.88
464.755	98.88
464.975	100.88
465.195	148.88
465.414	138.88
465.634	108.88
465.854	92.88
466.073	86.88
466.293	94.88
466.512	95.88
466.732	88.88
466.951	92.88
467.171	103.88
467.391	86.88
467.61	76.88
467.829	95.88
468.049	90.88
468.268	97.88
468.488	89.88
468.707	77.88
468.927	90.88
469.146	82.88
469.365	90.88
469.585	76.88
469.804	87.88
470.023	110.88
470.243	90.88
470.462	102.88
470.681	102.88
470.901	88.88
471.12	86.88
471.339	74.88
471.558	87.88
471.777	90.88
471.997	104.88
472.216	102.88
472.435	126.88
472.654	97.88
472.873	88.88
473.092	72.88
473.311	84.88
473.53	67.88
473.749	88.88
473.968	92.88
474.187	85.88
474.406	88.88
474.625	97.88
474.844	80.88
475.063	97.88
475.282	93.88
475.501	78.88
475.72	90.88
475.939	105.88
476.158	89.88
476.377	89.88
476.596	101.88
476.814	88.88
477.033	82.88
477.252	96.88
477.471	90.88
477.69	82.88
477.908	97.88
478.127	93.88
478.346	90.88
478.564	88.88
478.783	96.88
479.002	83.88
479.22	94.88
479.439	85.88
479.658	84.88
479.876	85.88
480.095	88.88
480.313	96.88
480.532	83.88
480.751	99.88
480.969	105.88
481.188	168.88
481.406	148.88
481.624	100.88
481.843	85.88
482.061	79.88
482.28	82.88
482.498	88.88
482.717	82.88
482.935	89.88
483.153	88.88
483.372	88.88
483.59	99.88
483.808	92.88
484.027	98.88
484.245	92.88
484.463	97.88
484.681	92.88
484.9	89.88
485.118	84.88
485.336	96.88
485.554	88.88
485.772	83.88
485.99	92.88
486.209	109.88
486.427	109.88
486.645	91.88
486.863	103.88
487.081	104.88
487.299	95.88
487.517	97.88
487.735	104.88
487.953	82.88
488.171	84.88
488.389	91.88
488.607	108.88
488.825	83.88
489.043	82.88
489.261	99.88
489.479	89.88
489.696	96.88
489.914	84.88
490.132	85.88
490.35	81.88
490.568	89.88
490.786	88.88
491.003	95.88
491.221	85.88
491.439	95.88
491.657	98.88
491.874	90.88
492.092	90.88
492.31	86.88
492.527	84.88
492.745	94.88
492.963	94.88
493.18	98.88
493.398	102.88
493.615	103.88
493.833	83.88
494.05	90.88
494.268	85.88
494.485	92.88
494.703	97.88
494.92	92.88
495.138	84.88
495.355	93.88
495.573	96.88
495.79	94.88
496.008	94.88
496.225	92.88
496.442	84.88
496.66	82.88
496.877	89.88
497.094	92.88
497.312	98.88
497.529	81.88
497.746	86.88
497.963	98.88
498.181	83.88
498.398	82.88
498.615	98.88
498.832	97.88
499.049	92.88
499.267	100.88
499.484	89.88
499.701	95.88
499.918	95.88
500.135	85.88
500.352	90.88
500.569	72.88
500.786	82.88
501.003	97.88
501.22	86.88
501.437	89.88
501.654	99.88
501.871	96.88
502.088	93.88
502.305	86.88
502.522	84.88
502.739	96.88
502.956	101.88
503.172	82.88
503.389	81.88
503.606	86.88
503.823	100.88
504.04	84.88
504.256	91.88
504.473	74.88
504.69	90.88
504.907	84.88
505.123	94.88
505.34	89.88
505.557	89.88
505.773	93.88
505.99	97.88
506.207	103.88
506.423	89.88
506.64	93.88
506.856	85.88
507.073	83.88
507.289	88.88
507.506	102.88
507.722	102.88
507.939	110.88
508.155	87.88
508.372	93.88
508.588	96.88
508.805	95.88
509.021	100.88
509.238	91.88
509.454	98.88
509.67	104.88
509.887	94.88
510.103	125.88
510.319	169.88
510.536	636.88
510.752	1811.88
510.968	504.88
511.184	150.88
511.401	106.88
511.617	100.88
511.833	87.88
512.049	87.88
512.265	81.88
512.481	84.88
512.698	83.88
512.914	98.88
513.13	98.88
513.346	90.88
513.562	91.88
513.778	101.88
513.994	101.88
514.21	94.88
514.426	118.88
514.642	118.88
514.858	119.88
515.074	139.88
515.29	344.88
515.506	1046.88
515.721	420.88
515.937	123.88
516.153	104.88
516.369	109.88
