Data from Uncirc_1982_H10_HRD10591_00048.txt Node
Date: Wed Jan 03 12:29:34 EST 2024
User: Yrep
Spectrometer: HR+D1059
Trigger mode: 1
Integration Time (sec): 1.000000E-1
Scans to average: 1
Electric dark correction enabled: true
Nonlinearity correction enabled: false
Boxcar width: 0
XAxis mode: Wavelengths
Number of Pixels in Spectrum: 2048
>>>>>Begin Spectral Data<<<<<
223.165	-18.38
223.4	-18.38
223.635	-18.38
223.869	-26.38
224.104	-20.38
224.338	-28.38
224.573	-16.38
224.808	-18.38
225.042	1.62
225.277	-10.38
225.511	10.62
225.746	-1.38
225.98	-6.38
226.215	15.62
226.449	22.62
226.683	28.62
226.918	25.62
227.152	41.62
227.387	26.62
227.621	36.62
227.856	29.62
228.09	42.62
228.324	45.62
228.559	56.62
228.793	58.62
229.027	62.62
229.262	78.62
229.496	77.62
229.73	89.62
229.964	65.62
230.199	67.62
230.433	72.62
230.667	71.62
230.901	74.62
231.136	88.62
231.37	72.62
231.604	66.62
231.838	67.62
232.072	72.62
232.306	69.62
232.541	65.62
232.775	73.62
233.009	88.62
233.243	64.62
233.477	77.62
233.711	70.62
233.945	77.62
234.179	84.62
234.413	78.62
234.647	84.62
234.881	86.62
235.115	79.62
235.349	84.62
235.583	72.62
235.817	68.62
236.051	61.62
236.285	66.62
236.519	72.62
236.753	81.62
236.987	68.62
237.221	87.62
237.455	64.62
237.689	76.62
237.922	65.62
238.156	85.62
238.39	81.62
238.624	67.62
238.858	68.62
239.091	77.62
239.325	73.62
239.559	81.62
239.793	79.62
240.027	77.62
240.26	58.62
240.494	74.62
240.728	67.62
240.961	61.62
241.195	70.62
241.429	72.62
241.662	73.62
241.896	81.62
242.13	86.62
242.363	74.62
242.597	81.62
242.83	77.62
243.064	84.62
243.298	77.62
243.531	81.62
243.765	73.62
243.998	70.62
244.232	80.62
244.465	81.62
244.699	74.62
244.932	65.62
245.166	79.62
245.399	69.62
245.633	87.62
245.866	76.62
246.099	83.62
246.333	60.62
246.566	81.62
246.8	73.62
247.033	73.62
247.266	79.62
247.5	73.62
247.733	78.62
247.966	78.62
248.2	91.62
248.433	77.62
248.666	50.62
248.899	78.62
249.133	58.62
249.366	87.62
249.599	84.62
249.832	67.62
250.066	67.62
250.299	81.62
250.532	93.62
250.765	85.62
250.998	70.62
251.231	76.62
251.465	89.62
251.698	63.62
251.931	85.62
252.164	60.62
252.397	77.62
252.63	76.62
252.863	68.62
253.096	86.62
253.329	91.62
253.562	73.62
253.795	83.62
254.028	81.62
254.261	83.62
254.494	80.62
254.727	80.62
254.96	74.62
255.193	85.62
255.426	79.62
255.659	96.62
255.892	73.62
256.124	80.62
256.357	77.62
256.59	65.62
256.823	78.62
257.056	77.62
257.289	73.62
257.521	65.62
257.754	78.62
257.987	78.62
258.22	80.62
258.452	82.62
258.685	79.62
258.918	72.62
259.151	66.62
259.383	81.62
259.616	77.62
259.849	78.62
260.081	90.62
260.314	73.62
260.547	77.62
260.779	81.62
261.012	77.62
261.244	71.62
261.477	90.62
261.71	95.62
261.942	104.62
262.175	95.62
262.407	77.62
262.64	83.62
262.872	69.62
263.105	74.62
263.337	75.62
263.57	82.62
263.802	85.62
264.035	89.62
264.267	90.62
264.499	66.62
264.732	81.62
264.964	86.62
265.197	79.62
265.429	74.62
265.661	78.62
265.894	102.62
266.126	82.62
266.358	69.62
266.591	88.62
266.823	86.62
267.055	79.62
267.287	77.62
267.52	86.62
267.752	95.62
267.984	85.62
268.216	89.62
268.448	83.62
268.681	77.62
268.913	85.62
269.145	91.62
269.377	88.62
269.609	85.62
269.841	79.62
270.073	92.62
270.306	85.62
270.538	81.62
270.77	79.62
271.002	81.62
271.234	86.62
271.466	86.62
271.698	75.62
271.93	77.62
272.162	86.62
272.394	98.62
272.626	89.62
272.858	73.62
273.09	70.62
273.322	72.62
273.553	68.62
273.785	83.62
274.017	78.62
274.249	68.62
274.481	76.62
274.713	77.62
274.945	81.62
275.176	89.62
275.408	67.62
275.64	71.62
275.872	96.62
276.104	86.62
276.335	90.62
276.567	82.62
276.799	106.62
277.031	93.62
277.262	73.62
277.494	81.62
277.726	91.62
277.957	87.62
278.189	80.62
278.421	77.62
278.652	94.62
278.884	78.62
279.115	81.62
279.347	91.62
279.579	65.62
279.81	86.62
280.042	83.62
280.273	75.62
280.505	78.62
280.736	87.62
280.968	82.62
281.199	89.62
281.431	78.62
281.662	77.62
281.894	83.62
282.125	98.62
282.356	107.62
282.588	112.62
282.819	105.62
283.051	80.62
283.282	81.62
283.513	84.62
283.745	78.62
283.976	89.62
284.207	85.62
284.439	81.62
284.67	87.62
284.901	73.62
285.132	85.62
285.364	70.62
285.595	79.62
285.826	85.62
286.057	83.62
286.288	77.62
286.52	88.62
286.751	74.62
286.982	85.62
287.213	91.62
287.444	83.62
287.675	78.62
287.906	82.62
288.138	85.62
288.369	83.62
288.6	82.62
288.831	78.62
289.062	84.62
289.293	87.62
289.524	79.62
289.755	91.62
289.986	70.62
290.217	86.62
290.448	85.62
290.679	79.62
290.91	97.62
291.141	78.62
291.371	97.62
291.602	87.62
291.833	91.62
292.064	81.62
292.295	87.62
292.526	94.62
292.757	97.62
292.987	98.62
293.218	83.62
293.449	85.62
293.68	81.62
293.91	86.62
294.141	89.62
294.372	75.62
294.603	112.62
294.833	77.62
295.064	89.62
295.295	79.62
295.525	101.62
295.756	97.62
295.987	101.62
296.217	124.62
296.448	88.62
296.679	85.62
296.909	90.62
297.14	92.62
297.37	97.62
297.601	89.62
297.831	71.62
298.062	106.62
298.292	89.62
298.523	88.62
298.753	88.62
298.984	77.62
299.214	87.62
299.445	81.62
299.675	91.62
299.905	83.62
300.136	83.62
300.366	86.62
300.597	89.62
300.827	78.62
301.057	94.62
301.288	90.62
301.518	98.62
301.748	102.62
301.979	91.62
302.209	91.62
302.439	95.62
302.669	84.62
302.9	88.62
303.13	96.62
303.36	82.62
303.59	99.62
303.82	97.62
304.051	87.62
304.281	109.62
304.511	103.62
304.741	83.62
304.971	76.62
305.201	84.62
305.431	97.62
305.661	79.62
305.891	86.62
306.121	80.62
306.352	87.62
306.582	93.62
306.812	104.62
307.042	89.62
307.272	87.62
307.502	83.62
307.731	86.62
307.961	95.62
308.191	91.62
308.421	81.62
308.651	97.62
308.881	89.62
309.111	80.62
309.341	93.62
309.571	106.62
309.8	92.62
310.03	90.62
310.26	98.62
310.49	77.62
310.72	93.62
310.949	90.62
311.179	91.62
311.409	108.62
311.639	85.62
311.868	89.62
312.098	81.62
312.328	94.62
312.557	96.62
312.787	96.62
313.017	106.62
313.246	87.62
313.476	89.62
313.706	90.62
313.935	82.62
314.165	90.62
314.394	81.62
314.624	99.62
314.853	89.62
315.083	89.62
315.312	95.62
315.542	99.62
315.771	96.62
316.001	86.62
316.23	99.62
316.46	74.62
316.689	82.62
316.919	72.62
317.148	95.62
317.377	102.62
317.607	90.62
317.836	81.62
318.065	83.62
318.295	95.62
318.524	90.62
318.753	98.62
318.983	104.62
319.212	90.62
319.441	87.62
319.67	104.62
319.9	88.62
320.129	84.62
320.358	91.62
320.587	90.62
320.816	86.62
321.046	94.62
321.275	95.62
321.504	96.62
321.733	96.62
321.962	100.62
322.191	105.62
322.42	99.62
322.649	107.62
322.878	110.62
323.108	109.62
323.337	105.62
323.566	118.62
323.795	144.62
324.024	178.62
324.253	343.62
324.482	698.62
324.71	1489.62
324.939	1911.62
325.168	726.62
325.397	219.62
325.626	128.62
325.855	128.62
326.084	109.62
326.313	109.62
326.542	124.62
326.77	192.62
326.999	384.62
327.228	835.62
327.457	1557.62
327.686	1195.62
327.914	337.62
328.143	177.62
328.372	142.62
328.6	111.62
328.829	100.62
329.058	119.62
329.287	118.62
329.515	101.62
329.744	90.62
329.972	85.62
330.201	102.62
330.43	107.62
330.658	118.62
330.887	126.62
331.115	98.62
331.344	89.62
331.572	82.62
331.801	99.62
332.03	96.62
332.258	94.62
332.486	74.62
332.715	87.62
332.943	90.62
333.172	95.62
333.4	99.62
333.629	122.62
333.857	102.62
334.085	110.62
334.314	113.62
334.542	134.62
334.771	104.62
334.999	94.62
335.227	89.62
335.455	92.62
335.684	105.62
335.912	98.62
336.14	106.62
336.369	101.62
336.597	80.62
336.825	93.62
337.053	88.62
337.281	90.62
337.51	91.62
337.738	101.62
337.966	100.62
338.194	90.62
338.422	94.62
338.65	95.62
338.878	94.62
339.106	98.62
339.334	90.62
339.562	88.62
339.79	97.62
340.018	90.62
340.246	79.62
340.474	85.62
340.702	85.62
340.93	78.62
341.158	93.62
341.386	96.62
341.614	107.62
341.842	100.62
342.07	99.62
342.298	73.62
342.526	77.62
342.754	87.62
342.981	91.62
343.209	92.62
343.437	90.62
343.665	87.62
343.893	82.62
344.12	90.62
344.348	81.62
344.576	99.62
344.804	94.62
345.031	100.62
345.259	85.62
345.487	91.62
345.714	98.62
345.942	93.62
346.17	81.62
346.397	80.62
346.625	87.62
346.853	87.62
347.08	95.62
347.308	85.62
347.535	103.62
347.763	90.62
347.99	95.62
348.218	90.62
348.445	94.62
348.673	95.62
348.9	102.62
349.128	88.62
349.355	98.62
349.583	99.62
349.81	98.62
350.037	89.62
350.265	89.62
350.492	78.62
350.72	98.62
350.947	97.62
351.174	97.62
351.402	101.62
351.629	104.62
351.856	95.62
352.083	91.62
352.311	93.62
352.538	89.62
352.765	106.62
352.992	103.62
353.22	113.62
353.447	106.62
353.674	104.62
353.901	93.62
354.128	85.62
354.355	97.62
354.583	90.62
354.81	89.62
355.037	95.62
355.264	89.62
355.491	88.62
355.718	93.62
355.945	89.62
356.172	90.62
356.399	84.62
356.626	80.62
356.853	81.62
357.08	85.62
357.307	85.62
357.534	91.62
357.761	105.62
357.988	95.62
358.215	96.62
358.441	81.62
358.668	90.62
358.895	95.62
359.122	74.62
359.349	91.62
359.576	91.62
359.802	85.62
360.029	96.62
360.256	106.62
360.483	90.62
360.709	70.62
360.936	89.62
361.163	83.62
361.39	91.62
361.616	98.62
361.843	86.62
362.07	90.62
362.296	89.62
362.523	92.62
362.749	82.62
362.976	77.62
363.203	100.62
363.429	110.62
363.656	98.62
363.882	85.62
364.109	99.62
364.335	80.62
364.562	99.62
364.788	85.62
365.015	96.62
365.241	82.62
365.468	110.62
365.694	93.62
365.92	90.62
366.147	93.62
366.373	89.62
366.599	79.62
366.826	95.62
367.052	88.62
367.278	92.62
367.505	93.62
367.731	73.62
367.957	84.62
368.184	88.62
368.41	92.62
368.636	96.62
368.862	120.62
369.089	99.62
369.315	80.62
369.541	81.62
369.767	78.62
369.993	92.62
370.219	81.62
370.445	80.62
370.672	81.62
370.898	77.62
371.124	93.62
371.35	75.62
371.576	77.62
371.802	84.62
372.028	95.62
372.254	91.62
372.48	77.62
372.706	88.62
372.932	79.62
373.158	100.62
373.384	82.62
373.61	93.62
373.835	83.62
374.061	85.62
374.287	81.62
374.513	86.62
374.739	85.62
374.965	83.62
375.191	91.62
375.416	83.62
375.642	93.62
375.868	91.62
376.094	99.62
376.319	90.62
376.545	82.62
376.771	79.62
376.997	90.62
377.222	96.62
377.448	81.62
377.674	86.62
377.899	82.62
378.125	88.62
378.35	73.62
378.576	86.62
378.802	99.62
379.027	90.62
379.253	102.62
379.478	83.62
379.704	99.62
379.929	82.62
380.155	90.62
380.38	105.62
380.606	87.62
380.831	94.62
381.057	92.62
381.282	92.62
381.507	103.62
381.733	92.62
381.958	106.62
382.184	85.62
382.409	106.62
382.634	98.62
382.86	105.62
383.085	100.62
383.31	102.62
383.535	100.62
383.761	103.62
383.986	95.62
384.211	100.62
384.436	97.62
384.662	87.62
384.887	88.62
385.112	97.62
385.337	105.62
385.562	102.62
385.787	96.62
386.013	98.62
386.238	111.62
386.463	112.62
386.688	99.62
386.913	103.62
387.138	101.62
387.363	113.62
387.588	97.62
387.813	88.62
388.038	83.62
388.263	104.62
388.488	113.62
388.713	102.62
388.938	85.62
389.163	103.62
389.387	101.62
389.612	102.62
389.837	94.62
390.062	87.62
390.287	93.62
390.512	86.62
390.736	91.62
390.961	79.62
391.186	85.62
391.411	87.62
391.636	77.62
391.86	86.62
392.085	98.62
392.31	84.62
392.534	86.62
392.759	79.62
392.984	79.62
393.208	86.62
393.433	85.62
393.658	80.62
393.882	78.62
394.107	84.62
394.331	63.62
394.556	85.62
394.78	87.62
395.005	70.62
395.229	84.62
395.454	80.62
395.678	77.62
395.903	82.62
396.127	84.62
396.352	86.62
396.576	89.62
396.801	86.62
397.025	77.62
397.249	81.62
397.474	74.62
397.698	85.62
397.922	66.62
398.147	83.62
398.371	94.62
398.595	75.62
398.82	82.62
399.044	78.62
399.268	79.62
399.492	89.62
399.717	87.62
399.941	87.62
400.165	92.62
400.389	90.62
400.613	69.62
400.837	87.62
401.062	84.62
401.286	84.62
401.51	102.62
401.734	67.62
401.958	79.62
402.182	113.62
402.406	139.62
402.63	90.62
402.854	94.62
403.078	77.62
403.302	77.62
403.526	96.62
403.75	81.62
403.974	69.62
404.198	81.62
404.422	77.62
404.645	86.62
404.869	77.62
405.093	91.62
405.317	88.62
405.541	89.62
405.765	97.62
405.988	100.62
406.212	150.62
406.436	177.62
406.66	115.62
406.883	93.62
407.107	87.62
407.331	88.62
407.555	97.62
407.778	93.62
408.002	83.62
408.226	83.62
408.449	85.62
408.673	74.62
408.896	79.62
409.12	85.62
409.344	78.62
409.567	86.62
409.791	88.62
410.014	82.62
410.238	99.62
410.461	83.62
410.685	89.62
410.908	95.62
411.132	91.62
411.355	90.62
411.578	86.62
411.802	72.62
412.025	87.62
412.249	79.62
412.472	80.62
412.695	82.62
412.919	80.62
413.142	90.62
413.365	82.62
413.589	89.62
413.812	89.62
414.035	96.62
414.258	94.62
414.482	93.62
414.705	90.62
414.928	92.62
415.151	88.62
415.374	101.62
415.597	88.62
415.821	87.62
416.044	77.62
416.267	86.62
416.49	86.62
416.713	85.62
416.936	88.62
417.159	86.62
417.382	70.62
417.605	89.62
417.828	87.62
418.051	81.62
418.274	71.62
418.497	93.62
418.72	82.62
418.943	95.62
419.166	90.62
419.389	92.62
419.611	81.62
419.834	71.62
420.057	74.62
420.28	71.62
420.503	76.62
420.726	79.62
420.948	102.62
421.171	94.62
421.394	89.62
421.617	86.62
421.839	86.62
422.062	81.62
422.285	99.62
422.507	102.62
422.73	82.62
422.953	84.62
423.175	78.62
423.398	98.62
423.621	87.62
423.843	86.62
424.066	83.62
424.288	90.62
424.511	66.62
424.733	91.62
424.956	91.62
425.178	80.62
425.401	92.62
425.623	74.62
425.846	85.62
426.068	86.62
426.291	79.62
426.513	97.62
426.735	78.62
426.958	86.62
427.18	100.62
427.402	113.62
427.625	135.62
427.847	116.62
428.069	97.62
428.292	95.62
428.514	85.62
428.736	88.62
428.958	77.62
429.181	88.62
429.403	71.62
429.625	84.62
429.847	94.62
430.069	91.62
430.292	90.62
430.514	91.62
430.736	87.62
430.958	96.62
431.18	71.62
431.402	82.62
431.624	87.62
431.846	76.62
432.068	86.62
432.29	90.62
432.512	96.62
432.734	90.62
432.956	79.62
433.178	91.62
433.4	88.62
433.622	79.62
433.844	65.62
434.066	82.62
434.287	103.62
434.509	89.62
434.731	84.62
434.953	90.62
435.175	84.62
435.397	84.62
435.618	95.62
435.84	103.62
436.062	98.62
436.284	106.62
436.505	98.62
436.727	83.62
436.949	83.62
437.17	80.62
437.392	89.62
437.614	78.62
437.835	92.62
438.057	93.62
438.278	101.62
438.5	103.62
438.721	96.62
438.943	95.62
439.165	86.62
439.386	79.62
439.608	85.62
439.829	103.62
440.05	136.62
440.272	115.62
440.493	83.62
440.715	87.62
440.936	88.62
441.158	90.62
441.379	87.62
441.6	70.62
441.822	73.62
442.043	85.62
442.264	102.62
442.486	84.62
442.707	97.62
442.928	89.62
443.149	122.62
443.371	112.62
443.592	98.62
443.813	87.62
444.034	95.62
444.255	94.62
444.476	88.62
444.698	83.62
444.919	72.62
445.14	121.62
445.361	120.62
445.582	99.62
445.803	127.62
446.024	121.62
446.245	118.62
446.466	94.62
446.687	83.62
446.908	79.62
447.129	84.62
447.35	86.62
447.571	84.62
447.792	84.62
448.013	73.62
448.234	89.62
448.455	80.62
448.675	97.62
448.896	115.62
449.117	85.62
449.338	89.62
449.559	120.62
449.779	123.62
450	83.62
450.221	90.62
450.442	97.62
450.662	85.62
450.883	95.62
451.104	109.62
451.324	89.62
451.545	70.62
451.766	97.62
451.986	74.62
452.207	81.62
452.428	85.62
452.648	86.62
452.869	112.62
453.089	97.62
453.31	121.62
453.53	81.62
453.751	78.62
453.971	97.62
454.192	94.62
454.412	93.62
454.633	85.62
454.853	91.62
455.073	83.62
455.294	69.62
455.514	85.62
455.734	94.62
455.955	79.62
456.175	66.62
456.395	77.62
456.616	75.62
456.836	85.62
457.056	94.62
457.276	84.62
457.497	78.62
457.717	83.62
457.937	85.62
458.157	100.62
458.377	81.62
458.598	109.62
458.818	125.62
459.038	121.62
459.258	96.62
459.478	75.62
459.698	96.62
459.918	91.62
460.138	77.62
460.358	75.62
460.578	88.62
460.798	84.62
461.018	83.62
461.238	83.62
461.458	81.62
461.678	77.62
461.898	98.62
462.118	88.62
462.338	87.62
462.558	86.62
462.777	71.62
462.997	79.62
463.217	81.62
463.437	101.62
463.657	89.62
463.876	91.62
464.096	83.62
464.316	79.62
464.536	89.62
464.755	89.62
464.975	95.62
465.195	145.62
465.414	112.62
465.634	98.62
465.854	79.62
466.073	80.62
466.293	74.62
466.512	87.62
466.732	88.62
466.951	70.62
467.171	91.62
467.391	93.62
467.61	101.62
467.829	98.62
468.049	77.62
468.268	91.62
468.488	79.62
468.707	66.62
468.927	70.62
469.146	70.62
469.365	84.62
469.585	78.62
469.804	86.62
470.023	98.62
470.243	102.62
470.462	89.62
470.681	93.62
470.901	83.62
471.12	82.62
471.339	79.62
471.558	84.62
471.777	95.62
471.997	109.62
472.216	113.62
472.435	138.62
472.654	90.62
472.873	91.62
473.092	95.62
473.311	87.62
473.53	93.62
473.749	87.62
473.968	108.62
474.187	104.62
474.406	94.62
474.625	81.62
474.844	72.62
475.063	69.62
475.282	77.62
475.501	93.62
475.72	86.62
475.939	79.62
476.158	83.62
476.377	79.62
476.596	84.62
476.814	96.62
477.033	90.62
477.252	86.62
477.471	85.62
477.69	91.62
477.908	79.62
478.127	88.62
478.346	90.62
478.564	80.62
478.783	92.62
479.002	92.62
479.22	84.62
479.439	110.62
479.658	93.62
479.876	100.62
480.095	82.62
480.313	95.62
480.532	81.62
480.751	85.62
480.969	117.62
481.188	196.62
481.406	141.62
481.624	89.62
481.843	83.62
482.061	72.62
482.28	89.62
482.498	94.62
482.717	101.62
482.935	90.62
483.153	101.62
483.372	96.62
483.59	85.62
483.808	94.62
484.027	89.62
484.245	86.62
484.463	89.62
484.681	92.62
484.9	91.62
485.118	90.62
485.336	93.62
485.554	100.62
485.772	101.62
485.99	105.62
486.209	82.62
486.427	98.62
486.645	109.62
486.863	97.62
487.081	83.62
487.299	95.62
487.517	86.62
487.735	88.62
487.953	93.62
488.171	87.62
488.389	87.62
488.607	81.62
488.825	88.62
489.043	97.62
489.261	105.62
489.479	100.62
489.696	90.62
489.914	85.62
490.132	92.62
490.35	96.62
490.568	99.62
490.786	96.62
491.003	88.62
491.221	90.62
491.439	92.62
491.657	87.62
491.874	85.62
492.092	78.62
492.31	98.62
492.527	98.62
492.745	97.62
492.963	82.62
493.18	88.62
493.398	91.62
493.615	89.62
493.833	95.62
494.05	78.62
494.268	89.62
494.485	97.62
494.703	87.62
494.92	99.62
495.138	75.62
495.355	100.62
495.573	71.62
495.79	74.62
496.008	88.62
496.225	73.62
496.442	80.62
496.66	99.62
496.877	102.62
497.094	102.62
497.312	91.62
497.529	92.62
497.746	79.62
497.963	87.62
498.181	80.62
498.398	101.62
498.615	96.62
498.832	90.62
499.049	84.62
499.267	78.62
499.484	82.62
499.701	89.62
499.918	92.62
500.135	95.62
500.352	94.62
500.569	85.62
500.786	97.62
501.003	89.62
501.22	77.62
501.437	97.62
501.654	101.62
501.871	104.62
502.088	87.62
502.305	87.62
502.522	95.62
502.739	73.62
502.956	93.62
503.172	79.62
503.389	90.62
503.606	102.62
503.823	105.62
504.04	100.62
504.256	99.62
504.473	87.62
504.69	78.62
504.907	89.62
505.123	81.62
505.34	82.62
505.557	94.62
505.773	74.62
505.99	82.62
506.207	89.62
506.423	87.62
506.64	72.62
506.856	100.62
507.073	105.62
507.289	86.62
507.506	86.62
507.722	126.62
507.939	112.62
508.155	84.62
508.372	87.62
508.588	81.62
508.805	101.62
509.021	90.62
509.238	86.62
509.454	85.62
509.67	95.62
509.887	112.62
510.103	127.62
510.319	195.62
510.536	643.62
510.752	2001.62
510.968	543.62
511.184	144.62
511.401	107.62
511.617	97.62
511.833	82.62
512.049	86.62
512.265	103.62
512.481	93.62
512.698	83.62
512.914	83.62
513.13	89.62
513.346	90.62
513.562	94.62
513.778	108.62
513.994	93.62
514.21	87.62
514.426	102.62
514.642	94.62
514.858	120.62
515.074	151.62
515.29	355.62
515.506	1148.62
515.721	423.62
515.937	133.62
516.153	106.62
516.369	82.62
516.585	84.62
516.801	81.62
517.016	82.62
