Data from TenMicroDelayPb_HRD10591_00010.txt Node
Date: Mon Nov 24 14:58:10 EST 2025
User: Yrep
Spectrometer: HR+D1059
Trigger mode: 5
Integration Time (sec): 5.000000E-1
Scans to average: 1
Electric dark correction enabled: true
Nonlinearity correction enabled: false
Boxcar width: 0
XAxis mode: Wavelengths
Number of Pixels in Spectrum: 2048
>>>>>Begin Spectral Data<<<<<
223.165	-22.5
223.4	-22.5
223.635	-22.5
223.869	-35.5
224.104	-35.5
224.338	-29.5
224.573	-11.5
224.808	-2.5
225.042	1.5
225.277	-2.5
225.511	-4.5
225.746	9.5
225.98	5.5
226.215	22.5
226.449	9.5
226.683	28.5
226.918	34.5
227.152	32.5
227.387	47.5
227.621	48.5
227.856	68.5
228.09	43.5
228.324	55.5
228.559	57.5
228.793	63.5
229.027	60.5
229.262	77.5
229.496	74.5
229.73	80.5
229.964	97.5
230.199	89.5
230.433	81.5
230.667	106.5
230.901	104.5
231.136	82.5
231.37	88.5
231.604	91.5
231.838	96.5
232.072	108.5
232.306	89.5
232.541	90.5
232.775	89.5
233.009	98.5
233.243	92.5
233.477	94.5
233.711	102.5
233.945	91.5
234.179	91.5
234.413	97.5
234.647	96.5
234.881	104.5
235.115	81.5
235.349	84.5
235.583	92.5
235.817	82.5
236.051	88.5
236.285	95.5
236.519	89.5
236.753	76.5
236.987	82.5
237.221	82.5
237.455	100.5
237.689	80.5
237.922	95.5
238.156	90.5
238.39	90.5
238.624	81.5
238.858	106.5
239.091	95.5
239.325	94.5
239.559	99.5
239.793	116.5
240.027	115.5
240.26	97.5
240.494	94.5
240.728	77.5
240.961	95.5
241.195	104.5
241.429	110.5
241.662	88.5
241.896	93.5
242.13	80.5
242.363	92.5
242.597	84.5
242.83	94.5
243.064	89.5
243.298	100.5
243.531	87.5
243.765	97.5
243.998	99.5
244.232	114.5
244.465	96.5
244.699	88.5
244.932	78.5
245.166	104.5
245.399	94.5
245.633	98.5
245.866	101.5
246.099	81.5
246.333	89.5
246.566	83.5
246.8	82.5
247.033	89.5
247.266	94.5
247.5	91.5
247.733	94.5
247.966	98.5
248.2	115.5
248.433	112.5
248.666	81.5
248.899	93.5
249.133	90.5
249.366	109.5
249.599	97.5
249.832	92.5
250.066	106.5
250.299	104.5
250.532	90.5
250.765	85.5
250.998	89.5
251.231	82.5
251.465	108.5
251.698	104.5
251.931	110.5
252.164	108.5
252.397	105.5
252.63	110.5
252.863	115.5
253.096	94.5
253.329	110.5
253.562	109.5
253.795	105.5
254.028	108.5
254.261	106.5
254.494	107.5
254.727	115.5
254.96	113.5
255.193	101.5
255.426	104.5
255.659	108.5
255.892	119.5
256.124	121.5
256.357	106.5
256.59	114.5
256.823	104.5
257.056	96.5
257.289	106.5
257.521	118.5
257.754	98.5
257.987	106.5
258.22	143.5
258.452	128.5
258.685	112.5
258.918	101.5
259.151	100.5
259.383	122.5
259.616	107.5
259.849	122.5
260.081	111.5
260.314	106.5
260.547	110.5
260.779	124.5
261.012	142.5
261.244	132.5
261.477	166.5
261.71	156.5
261.942	137.5
262.175	126.5
262.407	114.5
262.64	111.5
262.872	123.5
263.105	107.5
263.337	128.5
263.57	124.5
263.802	107.5
264.035	110.5
264.267	122.5
264.499	109.5
264.732	129.5
264.964	122.5
265.197	129.5
265.429	124.5
265.661	132.5
265.894	124.5
266.126	144.5
266.358	136.5
266.591	114.5
266.823	132.5
267.055	125.5
267.287	118.5
267.52	112.5
267.752	118.5
267.984	116.5
268.216	111.5
268.448	128.5
268.681	109.5
268.913	112.5
269.145	121.5
269.377	125.5
269.609	107.5
269.841	105.5
270.073	96.5
270.306	113.5
270.538	114.5
270.77	123.5
271.002	114.5
271.234	112.5
271.466	120.5
271.698	106.5
271.93	106.5
272.162	108.5
272.394	128.5
272.626	113.5
272.858	127.5
273.09	118.5
273.322	112.5
273.553	120.5
273.785	136.5
274.017	114.5
274.249	98.5
274.481	124.5
274.713	120.5
274.945	109.5
275.176	88.5
275.408	110.5
275.64	104.5
275.872	121.5
276.104	129.5
276.335	116.5
276.567	93.5
276.799	112.5
277.031	110.5
277.262	124.5
277.494	142.5
277.726	133.5
277.957	114.5
278.189	124.5
278.421	130.5
278.652	126.5
278.884	126.5
279.115	146.5
279.347	132.5
279.579	145.5
279.81	160.5
280.042	190.5
280.273	206.5
280.505	196.5
280.736	160.5
280.968	140.5
281.199	153.5
281.431	148.5
281.662	136.5
281.894	133.5
282.125	147.5
282.356	148.5
282.588	155.5
282.819	151.5
283.051	149.5
283.282	155.5
283.513	193.5
283.745	172.5
283.976	147.5
284.207	134.5
284.439	134.5
284.67	134.5
284.901	134.5
285.132	128.5
285.364	130.5
285.595	126.5
285.826	121.5
286.057	142.5
286.288	125.5
286.52	134.5
286.751	122.5
286.982	142.5
287.213	157.5
287.444	180.5
287.675	150.5
287.906	148.5
288.138	134.5
288.369	110.5
288.6	134.5
288.831	119.5
289.062	141.5
289.293	133.5
289.524	129.5
289.755	125.5
289.986	120.5
290.217	102.5
290.448	113.5
290.679	121.5
290.91	132.5
291.141	108.5
291.371	133.5
291.602	116.5
291.833	121.5
292.064	122.5
292.295	122.5
292.526	111.5
292.757	116.5
292.987	125.5
293.218	115.5
293.449	137.5
293.68	127.5
293.91	124.5
294.141	139.5
294.372	118.5
294.603	119.5
294.833	138.5
295.064	110.5
295.295	113.5
295.525	130.5
295.756	121.5
295.987	129.5
296.217	125.5
296.448	129.5
296.679	122.5
296.909	115.5
297.14	133.5
297.37	125.5
297.601	136.5
297.831	128.5
298.062	125.5
298.292	132.5
298.523	123.5
298.753	128.5
298.984	111.5
299.214	128.5
299.445	112.5
299.675	122.5
299.905	117.5
300.136	133.5
300.366	130.5
300.597	121.5
300.827	144.5
301.057	125.5
301.288	128.5
301.518	131.5
301.748	122.5
301.979	191.5
302.209	122.5
302.439	133.5
302.669	132.5
302.9	132.5
303.13	130.5
303.36	134.5
303.59	123.5
303.82	120.5
304.051	122.5
304.281	126.5
304.511	142.5
304.741	132.5
304.971	138.5
305.201	134.5
305.431	123.5
305.661	128.5
305.891	121.5
306.121	125.5
306.352	128.5
306.582	133.5
306.812	126.5
307.042	126.5
307.272	133.5
307.502	129.5
307.731	125.5
307.961	117.5
308.191	122.5
308.421	129.5
308.651	128.5
308.881	117.5
309.111	118.5
309.341	127.5
309.571	116.5
309.8	120.5
310.03	130.5
310.26	136.5
310.49	133.5
310.72	120.5
310.949	119.5
311.179	132.5
311.409	132.5
311.639	140.5
311.868	129.5
312.098	148.5
312.328	131.5
312.557	160.5
312.787	144.5
313.017	136.5
313.246	124.5
313.476	144.5
313.706	132.5
313.935	142.5
314.165	149.5
314.394	140.5
314.624	154.5
314.853	149.5
315.083	144.5
315.312	137.5
315.542	143.5
315.771	138.5
316.001	138.5
316.23	158.5
316.46	162.5
316.689	136.5
316.919	154.5
317.148	152.5
317.377	142.5
317.607	141.5
317.836	134.5
318.065	146.5
318.295	127.5
318.524	141.5
318.753	134.5
318.983	130.5
319.212	139.5
319.441	129.5
319.67	123.5
319.9	127.5
320.129	146.5
320.358	142.5
320.587	139.5
320.816	147.5
321.046	139.5
321.275	149.5
321.504	118.5
321.733	135.5
321.962	136.5
322.191	133.5
322.42	131.5
322.649	142.5
322.878	157.5
323.108	141.5
323.337	129.5
323.566	142.5
323.795	139.5
324.024	138.5
324.253	128.5
324.482	137.5
324.71	142.5
324.939	144.5
325.168	140.5
325.397	134.5
325.626	134.5
325.855	142.5
326.084	135.5
326.313	128.5
326.542	135.5
326.77	133.5
326.999	138.5
327.228	139.5
327.457	136.5
327.686	134.5
327.914	122.5
328.143	137.5
328.372	132.5
328.6	139.5
328.829	126.5
329.058	130.5
329.287	132.5
329.515	124.5
329.744	127.5
329.972	136.5
330.201	138.5
330.43	131.5
330.658	120.5
330.887	124.5
331.115	138.5
331.344	131.5
331.572	169.5
331.801	134.5
332.03	141.5
332.258	136.5
332.486	121.5
332.715	119.5
332.943	118.5
333.172	138.5
333.4	140.5
333.629	130.5
333.857	132.5
334.085	123.5
334.314	133.5
334.542	130.5
334.771	134.5
334.999	123.5
335.227	130.5
335.455	133.5
335.684	141.5
335.912	143.5
336.14	140.5
336.369	130.5
336.597	124.5
336.825	142.5
337.053	127.5
337.281	134.5
337.51	138.5
337.738	144.5
337.966	121.5
338.194	122.5
338.422	138.5
338.65	133.5
338.878	154.5
339.106	131.5
339.334	142.5
339.562	144.5
339.79	141.5
340.018	143.5
340.246	121.5
340.474	136.5
340.702	127.5
340.93	130.5
341.158	121.5
341.386	136.5
341.614	124.5
341.842	124.5
342.07	121.5
342.298	132.5
342.526	137.5
342.754	134.5
342.981	134.5
343.209	139.5
343.437	174.5
343.665	141.5
343.893	141.5
344.12	161.5
344.348	125.5
344.576	134.5
344.804	137.5
345.031	137.5
345.259	109.5
345.487	127.5
345.714	126.5
345.942	142.5
346.17	131.5
346.397	137.5
346.625	137.5
346.853	128.5
347.08	132.5
347.308	154.5
347.535	130.5
347.763	123.5
347.99	146.5
348.218	146.5
348.445	138.5
348.673	129.5
348.9	159.5
349.128	156.5
349.355	135.5
349.583	134.5
349.81	131.5
350.037	146.5
350.265	134.5
350.492	131.5
350.72	116.5
350.947	130.5
351.174	136.5
351.402	130.5
351.629	138.5
351.856	133.5
352.083	114.5
352.311	132.5
352.538	123.5
352.765	141.5
352.992	148.5
353.22	140.5
353.447	136.5
353.674	149.5
353.901	151.5
354.128	140.5
354.355	131.5
354.583	135.5
354.81	153.5
355.037	148.5
355.264	149.5
355.491	138.5
355.718	132.5
355.945	154.5
356.172	135.5
356.399	131.5
356.626	146.5
356.853	176.5
357.08	199.5
357.307	240.5
357.534	250.5
357.761	198.5
357.988	183.5
358.215	171.5
358.441	156.5
358.668	134.5
358.895	136.5
359.122	165.5
359.349	146.5
359.576	134.5
359.802	126.5
360.029	152.5
360.256	144.5
360.483	142.5
360.709	137.5
360.936	157.5
361.163	141.5
361.39	141.5
361.616	144.5
361.843	131.5
362.07	154.5
362.296	146.5
362.523	138.5
362.749	126.5
362.976	147.5
363.203	172.5
363.429	168.5
363.656	203.5
363.882	253.5
364.109	284.5
364.335	226.5
364.562	188.5
364.788	164.5
365.015	168.5
365.241	146.5
365.468	160.5
365.694	149.5
365.92	147.5
366.147	142.5
366.373	165.5
366.599	149.5
366.826	155.5
367.052	187.5
367.278	206.5
367.505	185.5
367.731	225.5
367.957	227.5
368.184	269.5
368.41	348.5
368.636	325.5
368.862	219.5
369.089	208.5
369.315	178.5
369.541	181.5
369.767	163.5
369.993	171.5
370.219	146.5
370.445	145.5
370.672	151.5
370.898	153.5
371.124	148.5
371.35	157.5
371.576	148.5
371.802	160.5
372.028	128.5
372.254	141.5
372.48	160.5
372.706	142.5
372.932	138.5
373.158	146.5
373.384	166.5
373.61	195.5
373.835	222.5
374.061	256.5
374.287	225.5
374.513	196.5
374.739	172.5
374.965	170.5
375.191	168.5
375.416	160.5
375.642	148.5
375.868	165.5
376.094	148.5
376.319	144.5
376.545	149.5
376.771	146.5
376.997	151.5
377.222	144.5
377.448	155.5
377.674	144.5
377.899	157.5
378.125	137.5
378.35	139.5
378.576	153.5
378.802	147.5
379.027	133.5
379.253	154.5
379.478	144.5
379.704	152.5
379.929	141.5
380.155	144.5
380.38	133.5
380.606	138.5
380.831	131.5
381.057	144.5
381.282	140.5
381.507	142.5
381.733	156.5
381.958	150.5
382.184	136.5
382.409	153.5
382.634	143.5
382.86	140.5
383.085	145.5
383.31	144.5
383.535	143.5
383.761	141.5
383.986	129.5
384.211	155.5
384.436	134.5
384.662	146.5
384.887	137.5
385.112	145.5
385.337	143.5
385.562	156.5
385.787	151.5
386.013	143.5
386.238	157.5
386.463	152.5
386.688	195.5
386.913	148.5
387.138	142.5
387.363	154.5
387.588	162.5
387.813	149.5
388.038	144.5
388.263	133.5
388.488	129.5
388.713	134.5
388.938	144.5
389.163	148.5
389.387	131.5
389.612	152.5
389.837	146.5
390.062	137.5
390.287	132.5
390.512	144.5
390.736	146.5
390.961	152.5
391.186	146.5
391.411	141.5
391.636	132.5
391.86	137.5
392.085	141.5
392.31	141.5
392.534	144.5
392.759	149.5
392.984	150.5
393.208	160.5
393.433	141.5
393.658	147.5
393.882	150.5
394.107	162.5
394.331	160.5
394.556	143.5
394.78	156.5
395.005	146.5
395.229	141.5
395.454	151.5
395.678	152.5
395.903	156.5
396.127	161.5
396.352	151.5
396.576	149.5
396.801	156.5
397.025	145.5
397.249	156.5
397.474	159.5
397.698	156.5
397.922	142.5
398.147	138.5
398.371	152.5
398.595	148.5
398.82	175.5
399.044	132.5
399.268	157.5
399.492	162.5
399.717	171.5
399.941	148.5
400.165	144.5
400.389	136.5
400.613	146.5
400.837	148.5
401.062	157.5
401.286	168.5
401.51	161.5
401.734	170.5
401.958	196.5
402.182	195.5
402.406	166.5
402.63	143.5
402.854	172.5
403.078	163.5
403.302	152.5
403.526	164.5
403.75	168.5
403.974	170.5
404.198	173.5
404.422	157.5
404.645	169.5
404.869	173.5
405.093	206.5
405.317	255.5
405.541	338.5
405.765	475.5
405.988	474.5
406.212	381.5
406.436	305.5
406.66	245.5
406.883	227.5
407.107	207.5
407.331	183.5
407.555	187.5
407.778	204.5
408.002	195.5
408.226	182.5
408.449	195.5
408.673	178.5
408.896	181.5
409.12	170.5
409.344	178.5
409.567	172.5
409.791	181.5
410.014	171.5
410.238	172.5
410.461	165.5
410.685	176.5
410.908	166.5
411.132	173.5
411.355	158.5
411.578	175.5
411.802	156.5
412.025	178.5
412.249	174.5
412.472	163.5
412.695	163.5
412.919	154.5
413.142	162.5
413.365	190.5
413.589	163.5
413.812	160.5
414.035	164.5
414.258	169.5
414.482	161.5
414.705	167.5
414.928	169.5
415.151	173.5
415.374	161.5
415.597	161.5
415.821	146.5
416.044	163.5
416.267	172.5
416.49	164.5
416.713	158.5
416.936	184.5
417.159	165.5
417.382	173.5
417.605	169.5
417.828	180.5
418.051	150.5
418.274	164.5
418.497	164.5
418.72	163.5
418.943	150.5
419.166	184.5
419.389	181.5
419.611	178.5
419.834	168.5
420.057	160.5
420.28	184.5
420.503	166.5
420.726	160.5
420.948	164.5
421.171	166.5
421.394	172.5
421.617	157.5
421.839	149.5
422.062	156.5
422.285	168.5
422.507	163.5
422.73	170.5
422.953	153.5
423.175	176.5
423.398	177.5
423.621	186.5
423.843	193.5
424.066	201.5
424.288	226.5
424.511	244.5
424.733	250.5
424.956	240.5
425.178	221.5
425.401	210.5
425.623	212.5
425.846	157.5
426.068	187.5
426.291	186.5
426.513	189.5
426.735	189.5
426.958	190.5
427.18	174.5
427.402	181.5
427.625	191.5
427.847	165.5
428.069	187.5
428.292	168.5
428.514	184.5
428.736	198.5
428.958	189.5
429.181	172.5
429.403	177.5
429.625	176.5
429.847	164.5
430.069	161.5
430.292	173.5
430.514	184.5
430.736	160.5
430.958	165.5
431.18	153.5
431.402	171.5
431.624	168.5
431.846	160.5
432.068	156.5
432.29	176.5
432.512	172.5
432.734	153.5
432.956	168.5
433.178	196.5
433.4	184.5
433.622	183.5
433.844	176.5
434.066	184.5
434.287	162.5
434.509	174.5
434.731	150.5
434.953	185.5
435.175	164.5
435.397	182.5
435.618	156.5
435.84	181.5
436.062	172.5
436.284	171.5
436.505	165.5
436.727	182.5
436.949	168.5
437.17	184.5
437.392	153.5
437.614	186.5
437.835	174.5
438.057	181.5
438.278	188.5
438.5	204.5
438.721	235.5
438.943	239.5
439.165	228.5
439.386	225.5
439.608	238.5
439.829	211.5
440.05	216.5
440.272	209.5
440.493	215.5
440.715	202.5
440.936	234.5
441.158	228.5
441.379	217.5
441.6	217.5
441.822	214.5
442.043	205.5
442.264	206.5
442.486	207.5
442.707	188.5
442.928	188.5
443.149	181.5
443.371	198.5
443.592	191.5
443.813	194.5
444.034	189.5
444.255	204.5
444.476	185.5
444.698	180.5
444.919	192.5
445.14	598.5
445.361	388.5
445.582	194.5
445.803	189.5
446.024	191.5
446.245	190.5
446.466	197.5
446.687	179.5
446.908	201.5
447.129	196.5
447.35	182.5
447.571	183.5
447.792	191.5
448.013	187.5
448.234	181.5
448.455	188.5
448.675	164.5
448.896	172.5
449.117	184.5
449.338	174.5
449.559	200.5
449.779	173.5
450	180.5
450.221	177.5
450.442	181.5
450.662	165.5
450.883	171.5
451.104	176.5
451.324	174.5
451.545	150.5
451.766	177.5
451.986	163.5
452.207	174.5
452.428	168.5
452.648	171.5
452.869	158.5
453.089	168.5
453.31	147.5
453.53	165.5
453.751	161.5
453.971	138.5
454.192	145.5
454.412	152.5
454.633	166.5
454.853	161.5
455.073	155.5
455.294	160.5
455.514	169.5
455.734	177.5
455.955	151.5
456.175	163.5
456.395	154.5
456.616	151.5
456.836	156.5
457.056	155.5
457.276	164.5
457.497	143.5
457.717	152.5
457.937	173.5
458.157	140.5
458.377	132.5
458.598	136.5
458.818	139.5
459.038	143.5
459.258	139.5
459.478	149.5
459.698	142.5
459.918	153.5
460.138	160.5
460.358	146.5
460.578	161.5
460.798	163.5
461.018	177.5
461.238	165.5
461.458	175.5
461.678	172.5
461.898	171.5
462.118	147.5
462.338	148.5
462.558	152.5
462.777	149.5
462.997	170.5
463.217	156.5
463.437	161.5
463.657	174.5
463.876	168.5
464.096	158.5
464.316	149.5
464.536	174.5
464.755	166.5
464.975	158.5
465.195	174.5
465.414	168.5
465.634	157.5
465.854	159.5
466.073	148.5
466.293	169.5
466.512	158.5
466.732	153.5
466.951	174.5
467.171	174.5
467.391	174.5
467.61	156.5
467.829	173.5
468.049	153.5
468.268	174.5
468.488	165.5
468.707	148.5
468.927	170.5
469.146	165.5
469.365	164.5
469.585	162.5
469.804	164.5
470.023	154.5
470.243	166.5
470.462	182.5
470.681	192.5
470.901	169.5
471.12	171.5
471.339	189.5
471.558	160.5
471.777	160.5
471.997	161.5
472.216	147.5
472.435	148.5
472.654	152.5
472.873	159.5
473.092	171.5
473.311	180.5
473.53	165.5
473.749	154.5
473.968	169.5
474.187	154.5
474.406	153.5
474.625	161.5
474.844	173.5
475.063	161.5
475.282	179.5
475.501	162.5
475.72	189.5
475.939	157.5
476.158	161.5
476.377	168.5
476.596	156.5
476.814	172.5
477.033	156.5
477.252	156.5
477.471	159.5
477.69	177.5
477.908	192.5
478.127	181.5
478.346	180.5
478.564	188.5
478.783	164.5
479.002	198.5
479.22	166.5
479.439	187.5
479.658	161.5
479.876	162.5
480.095	176.5
480.313	159.5
480.532	180.5
480.751	190.5
480.969	184.5
481.188	166.5
481.406	158.5
481.624	170.5
481.843	152.5
482.061	161.5
482.28	169.5
482.498	172.5
482.717	168.5
482.935	168.5
483.153	173.5
483.372	195.5
483.59	189.5
483.808	163.5
484.027	184.5
484.245	161.5
484.463	165.5
484.681	192.5
484.9	188.5
485.118	182.5
485.336	168.5
485.554	163.5
485.772	161.5
485.99	165.5
486.209	191.5
486.427	170.5
486.645	174.5
486.863	190.5
487.081	187.5
487.299	172.5
487.517	180.5
487.735	176.5
487.953	203.5
488.171	204.5
488.389	180.5
488.607	175.5
488.825	165.5
489.043	153.5
489.261	188.5
489.479	185.5
489.696	195.5
489.914	185.5
490.132	187.5
490.35	205.5
490.568	192.5
490.786	192.5
491.003	197.5
491.221	183.5
491.439	192.5
491.657	199.5
491.874	218.5
492.092	231.5
492.31	234.5
492.527	199.5
492.745	205.5
492.963	220.5
493.18	207.5
493.398	209.5
493.615	207.5
493.833	203.5
494.05	197.5
494.268	206.5
494.485	200.5
494.703	199.5
494.92	200.5
495.138	184.5
495.355	209.5
495.573	204.5
495.79	203.5
496.008	202.5
496.225	213.5
496.442	195.5
496.66	229.5
496.877	208.5
497.094	211.5
497.312	178.5
497.529	203.5
497.746	196.5
497.963	200.5
498.181	174.5
498.398	209.5
498.615	189.5
498.832	199.5
499.049	187.5
499.267	200.5
499.484	198.5
499.701	194.5
499.918	214.5
500.135	222.5
500.352	229.5
500.569	249.5
500.786	278.5
501.003	257.5
501.22	231.5
501.437	237.5
501.654	204.5
501.871	197.5
502.088	212.5
502.305	200.5
502.522	213.5
502.739	189.5
502.956	200.5
503.172	195.5
503.389	198.5
503.606	186.5
503.823	201.5
504.04	204.5
504.256	206.5
504.473	197.5
504.69	208.5
504.907	210.5
505.123	178.5
505.34	188.5
505.557	196.5
505.773	202.5
505.99	194.5
506.207	195.5
506.423	175.5
506.64	194.5
506.856	170.5
507.073	184.5
507.289	176.5
507.506	171.5
507.722	192.5
507.939	184.5
508.155	178.5
508.372	184.5
508.588	162.5
508.805	195.5
509.021	182.5
509.238	178.5
509.454	187.5
509.67	160.5
509.887	156.5
510.103	165.5
510.319	171.5
510.536	177.5
510.752	156.5
510.968	168.5
511.184	161.5
511.401	151.5
511.617	161.5
511.833	143.5
512.049	158.5
512.265	161.5
512.481	168.5
512.698	155.5
512.914	174.5
513.13	170.5
513.346	154.5
513.562	182.5
513.778	173.5
513.994	147.5
514.21	172.5
514.426	163.5
514.642	162.5
514.858	168.5
515.074	165.5
515.29	178.5
515.506	170.5
515.721	183.5
515.937	173.5
516.153	156.5
516.369	152.5
516.585	164.5
516.801	170.5
517.016	165.5
517.232	167.5
517.448	160.5
517.664	172.5
517.879	161.5
518.095	165.5
518.311	183.5
518.527	175.5
518.742	162.5
518.958	164.5
519.173	173.5
519.389	176.5
519.605	149.5
519.82	153.5
520.036	163.5
520.251	184.5
520.467	192.5
520.682	170.5
520.898	144.5
521.113	166.5
521.329	174.5
521.544	141.5
521.76	164.5
