Data from TenMicroDelayPb_HRD10591_00002.txt Node
Date: Mon Nov 24 14:58:06 EST 2025
User: Yrep
Spectrometer: HR+D1059
Trigger mode: 5
Integration Time (sec): 5.000000E-1
Scans to average: 1
Electric dark correction enabled: true
Nonlinearity correction enabled: false
Boxcar width: 0
XAxis mode: Wavelengths
Number of Pixels in Spectrum: 2048
>>>>>Begin Spectral Data<<<<<
223.165	-19.12
223.4	-19.12
223.635	-19.12
223.869	-11.12
224.104	-42.12
224.338	-15.12
224.573	-21.12
224.808	-20.12
225.042	-9.12
225.277	6.88
225.511	-4.12
225.746	11.88
225.98	16.88
226.215	10.88
226.449	9.88
226.683	18.88
226.918	20.88
227.152	45.88
227.387	37.88
227.621	34.88
227.856	41.88
228.09	32.88
228.324	43.88
228.559	59.88
228.793	73.88
229.027	79.88
229.262	91.88
229.496	65.88
229.73	73.88
229.964	81.88
230.199	82.88
230.433	76.88
230.667	73.88
230.901	74.88
231.136	91.88
231.37	92.88
231.604	100.88
231.838	81.88
232.072	85.88
232.306	98.88
232.541	94.88
232.775	85.88
233.009	87.88
233.243	90.88
233.477	90.88
233.711	91.88
233.945	85.88
234.179	93.88
234.413	92.88
234.647	93.88
234.881	91.88
235.115	87.88
235.349	82.88
235.583	88.88
235.817	87.88
236.051	94.88
236.285	74.88
236.519	93.88
236.753	89.88
236.987	84.88
237.221	81.88
237.455	101.88
237.689	97.88
237.922	79.88
238.156	80.88
238.39	98.88
238.624	84.88
238.858	96.88
239.091	85.88
239.325	105.88
239.559	100.88
239.793	111.88
240.027	109.88
240.26	91.88
240.494	90.88
240.728	98.88
240.961	90.88
241.195	113.88
241.429	96.88
241.662	103.88
241.896	101.88
242.13	105.88
242.363	79.88
242.597	95.88
242.83	91.88
243.064	89.88
243.298	91.88
243.531	88.88
243.765	83.88
243.998	105.88
244.232	112.88
244.465	97.88
244.699	101.88
244.932	91.88
245.166	95.88
245.399	108.88
245.633	96.88
245.866	101.88
246.099	93.88
246.333	96.88
246.566	85.88
246.8	87.88
247.033	97.88
247.266	98.88
247.5	102.88
247.733	104.88
247.966	105.88
248.2	89.88
248.433	91.88
248.666	113.88
248.899	99.88
249.133	109.88
249.366	114.88
249.599	96.88
249.832	95.88
250.066	106.88
250.299	99.88
250.532	119.88
250.765	89.88
250.998	107.88
251.231	97.88
251.465	91.88
251.698	88.88
251.931	116.88
252.164	115.88
252.397	106.88
252.63	104.88
252.863	107.88
253.096	111.88
253.329	119.88
253.562	117.88
253.795	111.88
254.028	116.88
254.261	116.88
254.494	112.88
254.727	103.88
254.96	104.88
255.193	109.88
255.426	117.88
255.659	109.88
255.892	122.88
256.124	115.88
256.357	122.88
256.59	108.88
256.823	126.88
257.056	120.88
257.289	120.88
257.521	105.88
257.754	130.88
257.987	119.88
258.22	130.88
258.452	123.88
258.685	115.88
258.918	110.88
259.151	115.88
259.383	119.88
259.616	128.88
259.849	113.88
260.081	117.88
260.314	130.88
260.547	123.88
260.779	154.88
261.012	123.88
261.244	130.88
261.477	175.88
261.71	149.88
261.942	125.88
262.175	140.88
262.407	122.88
262.64	122.88
262.872	127.88
263.105	131.88
263.337	129.88
263.57	109.88
263.802	131.88
264.035	105.88
264.267	112.88
264.499	117.88
264.732	138.88
264.964	146.88
265.197	131.88
265.429	146.88
265.661	127.88
265.894	126.88
266.126	147.88
266.358	142.88
266.591	147.88
266.823	138.88
267.055	120.88
267.287	125.88
267.52	120.88
267.752	124.88
267.984	131.88
268.216	101.88
268.448	122.88
268.681	119.88
268.913	117.88
269.145	126.88
269.377	130.88
269.609	118.88
269.841	123.88
270.073	120.88
270.306	112.88
270.538	116.88
270.77	118.88
271.002	106.88
271.234	123.88
271.466	123.88
271.698	113.88
271.93	117.88
272.162	117.88
272.394	129.88
272.626	110.88
272.858	120.88
273.09	123.88
273.322	113.88
273.553	112.88
273.785	124.88
274.017	118.88
274.249	115.88
274.481	111.88
274.713	94.88
274.945	123.88
275.176	128.88
275.408	125.88
275.64	124.88
275.872	120.88
276.104	117.88
276.335	120.88
276.567	115.88
276.799	109.88
277.031	124.88
277.262	120.88
277.494	117.88
277.726	116.88
277.957	113.88
278.189	119.88
278.421	134.88
278.652	127.88
278.884	126.88
279.115	160.88
279.347	138.88
279.579	159.88
279.81	180.88
280.042	193.88
280.273	203.88
280.505	193.88
280.736	169.88
280.968	149.88
281.199	159.88
281.431	150.88
281.662	150.88
281.894	152.88
282.125	144.88
282.356	156.88
282.588	159.88
282.819	138.88
283.051	153.88
283.282	190.88
283.513	207.88
283.745	179.88
283.976	158.88
284.207	155.88
284.439	145.88
284.67	139.88
284.901	137.88
285.132	144.88
285.364	124.88
285.595	144.88
285.826	128.88
286.057	136.88
286.288	133.88
286.52	142.88
286.751	128.88
286.982	157.88
287.213	175.88
287.444	196.88
287.675	150.88
287.906	173.88
288.138	140.88
288.369	139.88
288.6	127.88
288.831	116.88
289.062	142.88
289.293	128.88
289.524	121.88
289.755	125.88
289.986	122.88
290.217	130.88
290.448	127.88
290.679	125.88
290.91	128.88
291.141	133.88
291.371	132.88
291.602	136.88
291.833	126.88
292.064	129.88
292.295	128.88
292.526	115.88
292.757	124.88
292.987	138.88
293.218	107.88
293.449	117.88
293.68	127.88
293.91	146.88
294.141	140.88
294.372	130.88
294.603	124.88
294.833	129.88
295.064	126.88
295.295	125.88
295.525	123.88
295.756	140.88
295.987	129.88
296.217	130.88
296.448	133.88
296.679	141.88
296.909	136.88
297.14	145.88
297.37	155.88
297.601	132.88
297.831	119.88
298.062	135.88
298.292	118.88
298.523	124.88
298.753	139.88
298.984	115.88
299.214	124.88
299.445	110.88
299.675	131.88
299.905	138.88
300.136	121.88
300.366	136.88
300.597	127.88
300.827	132.88
301.057	140.88
301.288	139.88
301.518	136.88
301.748	130.88
301.979	187.88
302.209	141.88
302.439	126.88
302.669	127.88
302.9	138.88
303.13	127.88
303.36	139.88
303.59	127.88
303.82	139.88
304.051	133.88
304.281	132.88
304.511	143.88
304.741	140.88
304.971	114.88
305.201	137.88
305.431	130.88
305.661	143.88
305.891	132.88
306.121	149.88
306.352	134.88
306.582	140.88
306.812	138.88
307.042	131.88
307.272	123.88
307.502	125.88
307.731	130.88
307.961	130.88
308.191	123.88
308.421	127.88
308.651	142.88
308.881	133.88
309.111	122.88
309.341	123.88
309.571	131.88
309.8	111.88
310.03	127.88
310.26	126.88
310.49	133.88
310.72	134.88
310.949	138.88
311.179	134.88
311.409	130.88
311.639	135.88
311.868	137.88
312.098	139.88
312.328	143.88
312.557	157.88
312.787	145.88
313.017	154.88
313.246	133.88
313.476	142.88
313.706	145.88
313.935	157.88
314.165	145.88
314.394	158.88
314.624	157.88
314.853	151.88
315.083	131.88
315.312	144.88
315.542	144.88
315.771	157.88
316.001	140.88
316.23	147.88
316.46	132.88
316.689	125.88
316.919	138.88
317.148	146.88
317.377	175.88
317.607	165.88
317.836	143.88
318.065	156.88
318.295	134.88
318.524	135.88
318.753	139.88
318.983	138.88
319.212	151.88
319.441	151.88
319.67	138.88
319.9	139.88
320.129	145.88
320.358	129.88
320.587	136.88
320.816	126.88
321.046	137.88
321.275	157.88
321.504	148.88
321.733	129.88
321.962	135.88
322.191	129.88
322.42	135.88
322.649	143.88
322.878	154.88
323.108	144.88
323.337	132.88
323.566	131.88
323.795	129.88
324.024	139.88
324.253	142.88
324.482	136.88
324.71	129.88
324.939	151.88
325.168	140.88
325.397	141.88
325.626	147.88
325.855	146.88
326.084	143.88
326.313	131.88
326.542	145.88
326.77	155.88
326.999	147.88
327.228	119.88
327.457	132.88
327.686	143.88
327.914	148.88
328.143	161.88
328.372	126.88
328.6	134.88
328.829	138.88
329.058	138.88
329.287	140.88
329.515	139.88
329.744	130.88
329.972	133.88
330.201	140.88
330.43	123.88
330.658	130.88
330.887	140.88
331.115	148.88
331.344	137.88
331.572	147.88
331.801	146.88
332.03	138.88
332.258	141.88
332.486	146.88
332.715	136.88
332.943	141.88
333.172	154.88
333.4	129.88
333.629	129.88
333.857	144.88
334.085	130.88
334.314	128.88
334.542	140.88
334.771	140.88
334.999	136.88
335.227	138.88
335.455	147.88
335.684	148.88
335.912	138.88
336.14	143.88
336.369	141.88
336.597	139.88
336.825	141.88
337.053	152.88
337.281	153.88
337.51	140.88
337.738	148.88
337.966	138.88
338.194	141.88
338.422	152.88
338.65	156.88
338.878	148.88
339.106	141.88
339.334	170.88
339.562	129.88
339.79	137.88
340.018	142.88
340.246	138.88
340.474	140.88
340.702	137.88
340.93	132.88
341.158	124.88
341.386	130.88
341.614	137.88
341.842	132.88
342.07	148.88
342.298	148.88
342.526	132.88
342.754	144.88
342.981	148.88
343.209	146.88
343.437	191.88
343.665	135.88
343.893	152.88
344.12	140.88
344.348	145.88
344.576	147.88
344.804	153.88
345.031	140.88
345.259	134.88
345.487	139.88
345.714	130.88
345.942	130.88
346.17	140.88
346.397	141.88
346.625	142.88
346.853	132.88
347.08	133.88
347.308	149.88
347.535	148.88
347.763	127.88
347.99	155.88
348.218	140.88
348.445	127.88
348.673	132.88
348.9	160.88
349.128	155.88
349.355	124.88
349.583	145.88
349.81	137.88
350.037	123.88
350.265	145.88
350.492	131.88
350.72	134.88
350.947	141.88
351.174	129.88
351.402	140.88
351.629	137.88
351.856	146.88
352.083	131.88
352.311	143.88
352.538	128.88
352.765	147.88
352.992	178.88
353.22	132.88
353.447	133.88
353.674	154.88
353.901	156.88
354.128	143.88
354.355	124.88
354.583	130.88
354.81	143.88
355.037	153.88
355.264	140.88
355.491	164.88
355.718	135.88
355.945	159.88
356.172	141.88
356.399	164.88
356.626	155.88
356.853	180.88
357.08	219.88
357.307	274.88
357.534	261.88
357.761	201.88
357.988	199.88
358.215	180.88
358.441	179.88
358.668	163.88
358.895	181.88
359.122	169.88
359.349	159.88
359.576	151.88
359.802	157.88
360.029	173.88
360.256	149.88
360.483	133.88
360.709	136.88
360.936	187.88
361.163	149.88
361.39	151.88
361.616	155.88
361.843	164.88
362.07	154.88
362.296	167.88
362.523	139.88
362.749	144.88
362.976	159.88
363.203	194.88
363.429	183.88
363.656	220.88
363.882	314.88
364.109	302.88
364.335	251.88
364.562	187.88
364.788	171.88
365.015	183.88
365.241	169.88
365.468	187.88
365.694	153.88
365.92	155.88
366.147	162.88
366.373	143.88
366.599	156.88
366.826	169.88
367.052	175.88
367.278	210.88
367.505	201.88
367.731	243.88
367.957	237.88
368.184	309.88
368.41	371.88
368.636	332.88
368.862	247.88
369.089	207.88
369.315	202.88
369.541	190.88
369.767	174.88
369.993	185.88
370.219	165.88
370.445	151.88
370.672	170.88
370.898	158.88
371.124	152.88
371.35	156.88
371.576	141.88
371.802	143.88
372.028	144.88
372.254	153.88
372.48	151.88
372.706	145.88
372.932	161.88
373.158	175.88
373.384	188.88
373.61	198.88
373.835	235.88
374.061	283.88
374.287	250.88
374.513	203.88
374.739	177.88
374.965	173.88
375.191	154.88
375.416	169.88
375.642	167.88
375.868	159.88
376.094	167.88
376.319	162.88
376.545	136.88
376.771	135.88
376.997	141.88
377.222	136.88
377.448	152.88
377.674	163.88
377.899	156.88
378.125	149.88
378.35	154.88
378.576	153.88
378.802	148.88
379.027	157.88
379.253	149.88
379.478	146.88
379.704	133.88
379.929	138.88
380.155	144.88
380.38	157.88
380.606	140.88
380.831	148.88
381.057	167.88
381.282	146.88
381.507	153.88
381.733	171.88
381.958	147.88
382.184	137.88
382.409	152.88
382.634	145.88
382.86	159.88
383.085	147.88
383.31	146.88
383.535	149.88
383.761	161.88
383.986	136.88
384.211	147.88
384.436	143.88
384.662	147.88
384.887	144.88
385.112	134.88
385.337	165.88
385.562	143.88
385.787	156.88
386.013	157.88
386.238	149.88
386.463	140.88
386.688	207.88
386.913	161.88
387.138	140.88
387.363	152.88
387.588	164.88
387.813	154.88
388.038	153.88
388.263	181.88
388.488	157.88
388.713	147.88
388.938	146.88
389.163	145.88
389.387	159.88
389.612	161.88
389.837	136.88
390.062	148.88
390.287	160.88
390.512	162.88
390.736	141.88
390.961	155.88
391.186	164.88
391.411	157.88
391.636	156.88
391.86	152.88
392.085	150.88
392.31	155.88
392.534	154.88
392.759	163.88
392.984	146.88
393.208	148.88
393.433	157.88
393.658	155.88
393.882	165.88
394.107	151.88
394.331	158.88
394.556	171.88
394.78	165.88
395.005	152.88
395.229	149.88
395.454	157.88
395.678	146.88
395.903	155.88
396.127	169.88
396.352	168.88
396.576	145.88
396.801	158.88
397.025	148.88
397.249	167.88
397.474	179.88
397.698	155.88
397.922	155.88
398.147	161.88
398.371	157.88
398.595	151.88
398.82	163.88
399.044	153.88
399.268	150.88
399.492	169.88
399.717	172.88
399.941	176.88
400.165	187.88
400.389	181.88
400.613	163.88
400.837	183.88
401.062	168.88
401.286	170.88
401.51	172.88
401.734	194.88
401.958	215.88
402.182	191.88
402.406	161.88
402.63	171.88
402.854	170.88
403.078	183.88
403.302	162.88
403.526	176.88
403.75	155.88
403.974	187.88
404.198	205.88
404.422	194.88
404.645	196.88
404.869	205.88
405.093	235.88
405.317	260.88
405.541	364.88
405.765	497.88
405.988	555.88
406.212	412.88
406.436	315.88
406.66	271.88
406.883	241.88
407.107	220.88
407.331	213.88
407.555	213.88
407.778	204.88
408.002	193.88
408.226	187.88
408.449	178.88
408.673	186.88
408.896	185.88
409.12	179.88
409.344	175.88
409.567	170.88
409.791	184.88
410.014	193.88
410.238	179.88
410.461	164.88
410.685	179.88
410.908	171.88
411.132	199.88
411.355	161.88
411.578	188.88
411.802	179.88
412.025	175.88
412.249	181.88
412.472	173.88
412.695	181.88
412.919	157.88
413.142	171.88
413.365	156.88
413.589	157.88
413.812	185.88
414.035	191.88
414.258	176.88
414.482	164.88
414.705	180.88
414.928	181.88
415.151	178.88
415.374	177.88
415.597	163.88
415.821	175.88
416.044	164.88
416.267	156.88
416.49	177.88
416.713	181.88
416.936	186.88
417.159	190.88
417.382	161.88
417.605	159.88
417.828	183.88
418.051	178.88
418.274	153.88
418.497	160.88
418.72	176.88
418.943	190.88
419.166	185.88
419.389	181.88
419.611	183.88
419.834	158.88
420.057	175.88
420.28	179.88
420.503	183.88
420.726	172.88
420.948	169.88
421.171	170.88
421.394	175.88
421.617	177.88
421.839	172.88
422.062	203.88
422.285	174.88
422.507	172.88
422.73	187.88
422.953	169.88
423.175	184.88
423.398	183.88
423.621	223.88
423.843	193.88
424.066	205.88
424.288	224.88
424.511	250.88
424.733	263.88
424.956	248.88
425.178	229.88
425.401	226.88
425.623	217.88
425.846	194.88
426.068	207.88
426.291	196.88
426.513	188.88
426.735	206.88
426.958	184.88
427.18	203.88
427.402	199.88
427.625	188.88
427.847	191.88
428.069	185.88
428.292	175.88
428.514	191.88
428.736	189.88
428.958	187.88
429.181	183.88
429.403	193.88
429.625	189.88
429.847	183.88
430.069	190.88
430.292	183.88
430.514	175.88
430.736	183.88
430.958	175.88
431.18	184.88
431.402	185.88
431.624	179.88
431.846	151.88
432.068	167.88
432.29	172.88
432.512	188.88
432.734	186.88
432.956	192.88
433.178	190.88
433.4	189.88
433.622	196.88
433.844	182.88
434.066	185.88
434.287	176.88
434.509	158.88
434.731	173.88
434.953	181.88
435.175	163.88
435.397	186.88
435.618	179.88
435.84	167.88
436.062	184.88
436.284	193.88
436.505	193.88
436.727	184.88
436.949	196.88
437.17	187.88
437.392	183.88
437.614	188.88
437.835	169.88
438.057	197.88
438.278	204.88
438.5	218.88
438.721	235.88
438.943	267.88
439.165	253.88
439.386	247.88
439.608	225.88
439.829	242.88
440.05	225.88
440.272	217.88
440.493	215.88
440.715	234.88
440.936	238.88
441.158	241.88
441.379	196.88
441.6	208.88
441.822	200.88
442.043	201.88
442.264	204.88
442.486	207.88
442.707	207.88
442.928	203.88
443.149	191.88
443.371	194.88
443.592	190.88
443.813	209.88
444.034	182.88
444.255	203.88
444.476	196.88
444.698	192.88
444.919	197.88
445.14	603.88
445.361	376.88
445.582	213.88
445.803	189.88
446.024	193.88
446.245	207.88
446.466	209.88
446.687	177.88
446.908	207.88
447.129	196.88
447.35	207.88
447.571	185.88
447.792	174.88
448.013	187.88
448.234	177.88
448.455	171.88
448.675	189.88
448.896	184.88
449.117	186.88
449.338	180.88
449.559	202.88
449.779	188.88
450	197.88
450.221	191.88
450.442	170.88
450.662	187.88
450.883	176.88
451.104	209.88
451.324	184.88
451.545	191.88
451.766	187.88
451.986	173.88
452.207	164.88
452.428	180.88
452.648	180.88
452.869	170.88
453.089	151.88
453.31	132.88
453.53	160.88
453.751	173.88
453.971	143.88
454.192	156.88
454.412	155.88
454.633	164.88
454.853	190.88
455.073	178.88
455.294	163.88
455.514	169.88
455.734	167.88
455.955	165.88
456.175	154.88
456.395	160.88
456.616	171.88
456.836	173.88
457.056	168.88
457.276	154.88
457.497	157.88
457.717	163.88
457.937	148.88
458.157	161.88
458.377	152.88
458.598	161.88
458.818	169.88
459.038	153.88
459.258	170.88
459.478	149.88
459.698	157.88
459.918	159.88
460.138	177.88
460.358	159.88
460.578	186.88
460.798	183.88
461.018	160.88
461.238	185.88
461.458	171.88
461.678	173.88
461.898	164.88
462.118	170.88
462.338	160.88
462.558	175.88
462.777	175.88
462.997	164.88
463.217	182.88
463.437	174.88
463.657	159.88
463.876	177.88
464.096	164.88
464.316	180.88
464.536	175.88
464.755	176.88
464.975	176.88
465.195	169.88
465.414	181.88
465.634	177.88
465.854	162.88
466.073	160.88
466.293	169.88
466.512	168.88
466.732	180.88
466.951	170.88
467.171	172.88
467.391	177.88
467.61	161.88
467.829	169.88
468.049	169.88
468.268	176.88
468.488	170.88
468.707	163.88
468.927	171.88
469.146	171.88
469.365	170.88
469.585	159.88
469.804	172.88
470.023	179.88
470.243	168.88
470.462	179.88
470.681	169.88
470.901	175.88
471.12	199.88
471.339	182.88
471.558	162.88
471.777	173.88
471.997	163.88
472.216	172.88
472.435	153.88
472.654	163.88
472.873	159.88
473.092	180.88
473.311	163.88
473.53	162.88
473.749	170.88
473.968	188.88
474.187	161.88
474.406	193.88
474.625	184.88
474.844	167.88
475.063	170.88
475.282	170.88
475.501	161.88
475.72	201.88
475.939	171.88
476.158	166.88
476.377	181.88
476.596	191.88
476.814	165.88
477.033	173.88
477.252	182.88
477.471	175.88
477.69	190.88
477.908	196.88
478.127	203.88
478.346	188.88
478.564	183.88
478.783	199.88
479.002	195.88
479.22	202.88
479.439	196.88
479.658	189.88
479.876	172.88
480.095	164.88
480.313	187.88
480.532	183.88
480.751	174.88
480.969	158.88
481.188	177.88
481.406	178.88
481.624	178.88
481.843	172.88
482.061	178.88
482.28	175.88
482.498	194.88
482.717	182.88
482.935	185.88
483.153	205.88
483.372	201.88
483.59	196.88
483.808	178.88
484.027	189.88
484.245	179.88
484.463	189.88
484.681	226.88
484.9	176.88
485.118	195.88
485.336	176.88
485.554	179.88
485.772	175.88
485.99	177.88
486.209	173.88
486.427	181.88
486.645	183.88
486.863	189.88
487.081	198.88
487.299	186.88
487.517	191.88
487.735	207.88
487.953	215.88
488.171	213.88
488.389	192.88
488.607	204.88
488.825	187.88
489.043	175.88
489.261	190.88
489.479	203.88
489.696	188.88
489.914	190.88
490.132	188.88
490.35	219.88
490.568	196.88
490.786	203.88
491.003	213.88
491.221	196.88
491.439	217.88
491.657	220.88
491.874	221.88
492.092	232.88
492.31	218.88
492.527	217.88
492.745	200.88
492.963	244.88
493.18	217.88
493.398	202.88
493.615	194.88
493.833	197.88
494.05	182.88
494.268	203.88
494.485	218.88
494.703	218.88
494.92	207.88
495.138	204.88
495.355	215.88
495.573	216.88
495.79	211.88
496.008	226.88
496.225	195.88
496.442	217.88
496.66	225.88
496.877	192.88
497.094	235.88
497.312	207.88
497.529	205.88
497.746	210.88
497.963	174.88
498.181	209.88
498.398	201.88
498.615	202.88
498.832	215.88
499.049	209.88
499.267	210.88
499.484	192.88
499.701	223.88
499.918	231.88
500.135	228.88
500.352	233.88
500.569	247.88
500.786	292.88
501.003	255.88
501.22	210.88
501.437	233.88
501.654	247.88
501.871	242.88
502.088	211.88
502.305	221.88
502.522	217.88
502.739	207.88
502.956	198.88
503.172	205.88
503.389	205.88
503.606	205.88
