Data from TenMicroDelayPb_HRD10591_00004.txt Node
Date: Mon Nov 24 14:58:07 EST 2025
User: Yrep
Spectrometer: HR+D1059
Trigger mode: 5
Integration Time (sec): 5.000000E-1
Scans to average: 1
Electric dark correction enabled: true
Nonlinearity correction enabled: false
Boxcar width: 0
XAxis mode: Wavelengths
Number of Pixels in Spectrum: 2048
>>>>>Begin Spectral Data<<<<<
223.165	-23.62
223.4	-23.62
223.635	-23.62
223.869	-28.62
224.104	-22.62
224.338	-15.62
224.573	-20.62
224.808	-1.62
225.042	-6.62
225.277	-11.62
225.511	-6.62
225.746	10.38
225.98	9.38
226.215	11.38
226.449	33.38
226.683	7.38
226.918	25.38
227.152	40.38
227.387	38.38
227.621	31.38
227.856	51.38
228.09	45.38
228.324	39.38
228.559	65.38
228.793	71.38
229.027	74.38
229.262	77.38
229.496	68.38
229.73	86.38
229.964	103.38
230.199	77.38
230.433	86.38
230.667	98.38
230.901	94.38
231.136	89.38
231.37	70.38
231.604	89.38
231.838	95.38
232.072	101.38
232.306	94.38
232.541	88.38
232.775	85.38
233.009	106.38
233.243	93.38
233.477	101.38
233.711	89.38
233.945	90.38
234.179	87.38
234.413	104.38
234.647	97.38
234.881	85.38
235.115	87.38
235.349	88.38
235.583	78.38
235.817	84.38
236.051	97.38
236.285	92.38
236.519	98.38
236.753	77.38
236.987	87.38
237.221	71.38
237.455	86.38
237.689	70.38
237.922	97.38
238.156	87.38
238.39	75.38
238.624	76.38
238.858	103.38
239.091	101.38
239.325	93.38
239.559	104.38
239.793	96.38
240.027	109.38
240.26	113.38
240.494	90.38
240.728	86.38
240.961	78.38
241.195	106.38
241.429	94.38
241.662	81.38
241.896	90.38
242.13	79.38
242.363	90.38
242.597	91.38
242.83	90.38
243.064	105.38
243.298	86.38
243.531	84.38
243.765	103.38
243.998	90.38
244.232	94.38
244.465	85.38
244.699	90.38
244.932	94.38
245.166	76.38
245.399	91.38
245.633	104.38
245.866	89.38
246.099	93.38
246.333	98.38
246.566	91.38
246.8	93.38
247.033	82.38
247.266	96.38
247.5	99.38
247.733	91.38
247.966	115.38
248.2	94.38
248.433	106.38
248.666	89.38
248.899	93.38
249.133	94.38
249.366	122.38
249.599	107.38
249.832	97.38
250.066	117.38
250.299	91.38
250.532	88.38
250.765	92.38
250.998	103.38
251.231	89.38
251.465	99.38
251.698	91.38
251.931	107.38
252.164	106.38
252.397	83.38
252.63	90.38
252.863	86.38
253.096	93.38
253.329	105.38
253.562	109.38
253.795	98.38
254.028	116.38
254.261	101.38
254.494	106.38
254.727	101.38
254.96	100.38
255.193	103.38
255.426	85.38
255.659	109.38
255.892	113.38
256.124	110.38
256.357	110.38
256.59	108.38
256.823	103.38
257.056	98.38
257.289	100.38
257.521	107.38
257.754	109.38
257.987	120.38
258.22	123.38
258.452	107.38
258.685	117.38
258.918	100.38
259.151	107.38
259.383	111.38
259.616	104.38
259.849	105.38
260.081	108.38
260.314	111.38
260.547	106.38
260.779	120.38
261.012	118.38
261.244	126.38
261.477	156.38
261.71	147.38
261.942	118.38
262.175	112.38
262.407	122.38
262.64	116.38
262.872	127.38
263.105	110.38
263.337	122.38
263.57	106.38
263.802	113.38
264.035	109.38
264.267	109.38
264.499	112.38
264.732	118.38
264.964	112.38
265.197	125.38
265.429	107.38
265.661	114.38
265.894	114.38
266.126	132.38
266.358	125.38
266.591	132.38
266.823	115.38
267.055	117.38
267.287	119.38
267.52	128.38
267.752	113.38
267.984	98.38
268.216	104.38
268.448	113.38
268.681	109.38
268.913	115.38
269.145	101.38
269.377	94.38
269.609	95.38
269.841	105.38
270.073	108.38
270.306	123.38
270.538	101.38
270.77	112.38
271.002	108.38
271.234	123.38
271.466	125.38
271.698	103.38
271.93	104.38
272.162	109.38
272.394	101.38
272.626	114.38
272.858	115.38
273.09	131.38
273.322	105.38
273.553	97.38
273.785	125.38
274.017	108.38
274.249	118.38
274.481	115.38
274.713	105.38
274.945	112.38
275.176	99.38
275.408	125.38
275.64	109.38
275.872	108.38
276.104	106.38
276.335	125.38
276.567	103.38
276.799	115.38
277.031	107.38
277.262	121.38
277.494	101.38
277.726	116.38
277.957	110.38
278.189	113.38
278.421	119.38
278.652	126.38
278.884	118.38
279.115	133.38
279.347	145.38
279.579	157.38
279.81	155.38
280.042	181.38
280.273	185.38
280.505	185.38
280.736	155.38
280.968	149.38
281.199	140.38
281.431	134.38
281.662	132.38
281.894	114.38
282.125	130.38
282.356	151.38
282.588	141.38
282.819	135.38
283.051	153.38
283.282	131.38
283.513	185.38
283.745	165.38
283.976	141.38
284.207	127.38
284.439	130.38
284.67	121.38
284.901	136.38
285.132	123.38
285.364	127.38
285.595	135.38
285.826	128.38
286.057	144.38
286.288	128.38
286.52	126.38
286.751	128.38
286.982	153.38
287.213	159.38
287.444	153.38
287.675	142.38
287.906	157.38
288.138	125.38
288.369	130.38
288.6	119.38
288.831	114.38
289.062	120.38
289.293	133.38
289.524	117.38
289.755	121.38
289.986	112.38
290.217	119.38
290.448	109.38
290.679	136.38
290.91	125.38
291.141	120.38
291.371	132.38
291.602	117.38
291.833	128.38
292.064	100.38
292.295	130.38
292.526	111.38
292.757	117.38
292.987	125.38
293.218	97.38
293.449	119.38
293.68	129.38
293.91	116.38
294.141	125.38
294.372	122.38
294.603	124.38
294.833	104.38
295.064	108.38
295.295	117.38
295.525	116.38
295.756	113.38
295.987	116.38
296.217	123.38
296.448	114.38
296.679	123.38
296.909	139.38
297.14	128.38
297.37	125.38
297.601	118.38
297.831	110.38
298.062	138.38
298.292	128.38
298.523	128.38
298.753	106.38
298.984	113.38
299.214	125.38
299.445	126.38
299.675	128.38
299.905	113.38
300.136	105.38
300.366	128.38
300.597	120.38
300.827	122.38
301.057	118.38
301.288	115.38
301.518	124.38
301.748	109.38
301.979	176.38
302.209	129.38
302.439	134.38
302.669	113.38
302.9	111.38
303.13	129.38
303.36	134.38
303.59	129.38
303.82	121.38
304.051	141.38
304.281	131.38
304.511	137.38
304.741	126.38
304.971	129.38
305.201	129.38
305.431	150.38
305.661	128.38
305.891	126.38
306.121	118.38
306.352	119.38
306.582	114.38
306.812	101.38
307.042	103.38
307.272	129.38
307.502	125.38
307.731	127.38
307.961	114.38
308.191	126.38
308.421	114.38
308.651	120.38
308.881	115.38
309.111	128.38
309.341	113.38
309.571	121.38
309.8	119.38
310.03	137.38
310.26	133.38
310.49	117.38
310.72	118.38
310.949	125.38
311.179	117.38
311.409	121.38
311.639	120.38
311.868	136.38
312.098	134.38
312.328	126.38
312.557	135.38
312.787	129.38
313.017	133.38
313.246	141.38
313.476	143.38
313.706	138.38
313.935	132.38
314.165	139.38
314.394	151.38
314.624	143.38
314.853	146.38
315.083	138.38
315.312	159.38
315.542	138.38
315.771	133.38
316.001	120.38
316.23	131.38
316.46	138.38
316.689	136.38
316.919	122.38
317.148	149.38
317.377	138.38
317.607	127.38
317.836	125.38
318.065	123.38
318.295	136.38
318.524	143.38
318.753	131.38
318.983	145.38
319.212	135.38
319.441	143.38
319.67	124.38
319.9	126.38
320.129	135.38
320.358	146.38
320.587	128.38
320.816	130.38
321.046	128.38
321.275	121.38
321.504	121.38
321.733	126.38
321.962	126.38
322.191	145.38
322.42	117.38
322.649	130.38
322.878	122.38
323.108	131.38
323.337	134.38
323.566	131.38
323.795	131.38
324.024	128.38
324.253	127.38
324.482	132.38
324.71	114.38
324.939	121.38
325.168	121.38
325.397	133.38
325.626	126.38
325.855	120.38
326.084	125.38
326.313	125.38
326.542	131.38
326.77	133.38
326.999	128.38
327.228	120.38
327.457	130.38
327.686	126.38
327.914	137.38
328.143	126.38
328.372	124.38
328.6	123.38
328.829	121.38
329.058	127.38
329.287	109.38
329.515	129.38
329.744	143.38
329.972	119.38
330.201	115.38
330.43	123.38
330.658	121.38
330.887	138.38
331.115	138.38
331.344	134.38
331.572	150.38
331.801	125.38
332.03	133.38
332.258	143.38
332.486	132.38
332.715	130.38
332.943	125.38
333.172	129.38
333.4	122.38
333.629	134.38
333.857	125.38
334.085	129.38
334.314	135.38
334.542	128.38
334.771	150.38
334.999	139.38
335.227	122.38
335.455	131.38
335.684	123.38
335.912	126.38
336.14	127.38
336.369	151.38
336.597	137.38
336.825	129.38
337.053	147.38
337.281	129.38
337.51	110.38
337.738	133.38
337.966	119.38
338.194	141.38
338.422	138.38
338.65	133.38
338.878	137.38
339.106	138.38
339.334	136.38
339.562	129.38
339.79	130.38
340.018	118.38
340.246	119.38
340.474	128.38
340.702	128.38
340.93	125.38
341.158	115.38
341.386	135.38
341.614	126.38
341.842	112.38
342.07	130.38
342.298	116.38
342.526	133.38
342.754	139.38
342.981	147.38
343.209	130.38
343.437	177.38
343.665	142.38
343.893	125.38
344.12	139.38
344.348	128.38
344.576	146.38
344.804	130.38
345.031	137.38
345.259	125.38
345.487	123.38
345.714	126.38
345.942	114.38
346.17	131.38
346.397	130.38
346.625	139.38
346.853	119.38
347.08	121.38
347.308	127.38
347.535	132.38
347.763	129.38
347.99	137.38
348.218	141.38
348.445	127.38
348.673	148.38
348.9	141.38
349.128	143.38
349.355	127.38
349.583	128.38
349.81	123.38
350.037	131.38
350.265	120.38
350.492	127.38
350.72	119.38
350.947	127.38
351.174	123.38
351.402	124.38
351.629	121.38
351.856	128.38
352.083	119.38
352.311	137.38
352.538	119.38
352.765	131.38
352.992	170.38
353.22	131.38
353.447	127.38
353.674	127.38
353.901	140.38
354.128	122.38
354.355	132.38
354.583	145.38
354.81	137.38
355.037	128.38
355.264	143.38
355.491	117.38
355.718	124.38
355.945	136.38
356.172	156.38
356.399	152.38
356.626	145.38
356.853	165.38
357.08	197.38
357.307	226.38
357.534	226.38
357.761	200.38
357.988	171.38
358.215	164.38
358.441	151.38
358.668	149.38
358.895	145.38
359.122	137.38
359.349	158.38
359.576	132.38
359.802	128.38
360.029	144.38
360.256	156.38
360.483	132.38
360.709	137.38
360.936	153.38
361.163	156.38
361.39	124.38
361.616	145.38
361.843	142.38
362.07	141.38
362.296	153.38
362.523	126.38
362.749	139.38
362.976	129.38
363.203	156.38
363.429	168.38
363.656	209.38
363.882	242.38
364.109	282.38
364.335	224.38
364.562	171.38
364.788	155.38
365.015	161.38
365.241	166.38
365.468	163.38
365.694	146.38
365.92	134.38
366.147	136.38
366.373	140.38
366.599	162.38
366.826	152.38
367.052	175.38
367.278	179.38
367.505	169.38
367.731	215.38
367.957	213.38
368.184	273.38
368.41	319.38
368.636	271.38
368.862	220.38
369.089	184.38
369.315	167.38
369.541	166.38
369.767	168.38
369.993	146.38
370.219	150.38
370.445	139.38
370.672	154.38
370.898	141.38
371.124	159.38
371.35	138.38
371.576	132.38
371.802	137.38
372.028	146.38
372.254	153.38
372.48	141.38
372.706	135.38
372.932	146.38
373.158	137.38
373.384	158.38
373.61	208.38
373.835	225.38
374.061	234.38
374.287	234.38
374.513	191.38
374.739	161.38
374.965	154.38
375.191	157.38
375.416	151.38
375.642	160.38
375.868	157.38
376.094	144.38
376.319	137.38
376.545	141.38
376.771	130.38
376.997	151.38
377.222	132.38
377.448	133.38
377.674	138.38
377.899	132.38
378.125	121.38
378.35	152.38
378.576	142.38
378.802	134.38
379.027	144.38
379.253	146.38
379.478	141.38
379.704	145.38
379.929	121.38
380.155	137.38
380.38	145.38
380.606	143.38
380.831	154.38
381.057	141.38
381.282	135.38
381.507	136.38
381.733	134.38
381.958	146.38
382.184	130.38
382.409	124.38
382.634	155.38
382.86	139.38
383.085	135.38
383.31	140.38
383.535	152.38
383.761	148.38
383.986	144.38
384.211	136.38
384.436	130.38
384.662	135.38
384.887	131.38
385.112	135.38
385.337	154.38
385.562	142.38
385.787	136.38
386.013	140.38
386.238	136.38
386.463	143.38
386.688	187.38
386.913	149.38
387.138	133.38
387.363	145.38
387.588	152.38
387.813	133.38
388.038	150.38
388.263	142.38
388.488	146.38
388.713	138.38
388.938	142.38
389.163	119.38
389.387	149.38
389.612	149.38
389.837	138.38
390.062	152.38
390.287	154.38
390.512	134.38
390.736	138.38
390.961	142.38
391.186	142.38
391.411	125.38
391.636	146.38
391.86	142.38
392.085	146.38
392.31	135.38
392.534	153.38
392.759	148.38
392.984	153.38
393.208	149.38
393.433	158.38
393.658	158.38
393.882	134.38
394.107	158.38
394.331	139.38
394.556	144.38
394.78	139.38
395.005	141.38
395.229	137.38
395.454	156.38
395.678	121.38
395.903	138.38
396.127	146.38
396.352	146.38
396.576	152.38
396.801	149.38
397.025	144.38
397.249	146.38
397.474	155.38
397.698	131.38
397.922	137.38
398.147	138.38
398.371	150.38
398.595	161.38
398.82	160.38
399.044	159.38
399.268	163.38
399.492	163.38
399.717	169.38
399.941	144.38
400.165	169.38
400.389	149.38
400.613	157.38
400.837	157.38
401.062	154.38
401.286	152.38
401.51	152.38
401.734	157.38
401.958	173.38
402.182	170.38
402.406	155.38
402.63	154.38
402.854	161.38
403.078	165.38
403.302	159.38
403.526	169.38
403.75	159.38
403.974	170.38
404.198	184.38
404.422	172.38
404.645	173.38
404.869	189.38
405.093	203.38
405.317	231.38
405.541	297.38
405.765	411.38
405.988	444.38
406.212	357.38
406.436	279.38
406.66	241.38
406.883	214.38
407.107	199.38
407.331	175.38
407.555	195.38
407.778	185.38
408.002	161.38
408.226	193.38
408.449	170.38
408.673	187.38
408.896	177.38
409.12	159.38
409.344	157.38
409.567	190.38
409.791	167.38
410.014	166.38
410.238	164.38
410.461	160.38
410.685	156.38
410.908	160.38
411.132	158.38
411.355	149.38
411.578	153.38
411.802	162.38
412.025	155.38
412.249	158.38
412.472	159.38
412.695	151.38
412.919	148.38
413.142	153.38
413.365	151.38
413.589	162.38
413.812	142.38
414.035	173.38
414.258	159.38
414.482	161.38
414.705	149.38
414.928	156.38
415.151	169.38
415.374	151.38
415.597	158.38
415.821	158.38
416.044	136.38
416.267	162.38
416.49	173.38
416.713	177.38
416.936	157.38
417.159	172.38
417.382	147.38
417.605	172.38
417.828	151.38
418.051	143.38
418.274	154.38
418.497	168.38
418.72	177.38
418.943	174.38
419.166	169.38
419.389	186.38
419.611	166.38
419.834	165.38
420.057	158.38
420.28	162.38
420.503	159.38
420.726	146.38
420.948	151.38
421.171	159.38
421.394	161.38
421.617	169.38
421.839	170.38
422.062	144.38
422.285	164.38
422.507	166.38
422.73	160.38
422.953	152.38
423.175	178.38
423.398	149.38
423.621	192.38
423.843	171.38
424.066	166.38
424.288	205.38
424.511	235.38
424.733	241.38
424.956	230.38
425.178	209.38
425.401	210.38
425.623	198.38
425.846	201.38
426.068	191.38
426.291	203.38
426.513	175.38
426.735	189.38
426.958	185.38
427.18	191.38
427.402	185.38
427.625	159.38
427.847	159.38
428.069	163.38
428.292	194.38
428.514	169.38
428.736	174.38
428.958	176.38
429.181	177.38
429.403	174.38
429.625	181.38
429.847	166.38
430.069	162.38
430.292	185.38
430.514	160.38
430.736	154.38
430.958	176.38
431.18	159.38
431.402	159.38
431.624	172.38
431.846	148.38
432.068	161.38
432.29	166.38
432.512	170.38
432.734	178.38
432.956	178.38
433.178	185.38
433.4	185.38
433.622	167.38
433.844	160.38
434.066	165.38
434.287	169.38
434.509	177.38
434.731	159.38
434.953	157.38
435.175	184.38
435.397	173.38
435.618	153.38
435.84	163.38
436.062	161.38
436.284	176.38
436.505	173.38
436.727	179.38
436.949	166.38
437.17	172.38
437.392	168.38
437.614	170.38
437.835	185.38
438.057	183.38
438.278	203.38
438.5	209.38
438.721	231.38
438.943	223.38
439.165	216.38
439.386	204.38
439.608	205.38
439.829	200.38
440.05	198.38
440.272	212.38
440.493	200.38
440.715	211.38
440.936	233.38
441.158	218.38
441.379	197.38
441.6	209.38
441.822	179.38
442.043	198.38
442.264	201.38
442.486	184.38
442.707	194.38
442.928	189.38
443.149	186.38
443.371	193.38
443.592	173.38
443.813	187.38
444.034	185.38
444.255	194.38
444.476	198.38
444.698	189.38
444.919	193.38
445.14	563.38
445.361	378.38
445.582	189.38
445.803	173.38
446.024	178.38
446.245	201.38
446.466	183.38
446.687	162.38
446.908	178.38
447.129	194.38
447.35	176.38
447.571	192.38
447.792	175.38
448.013	169.38
448.234	181.38
448.455	167.38
448.675	172.38
448.896	173.38
449.117	197.38
449.338	152.38
449.559	179.38
449.779	173.38
450	173.38
450.221	165.38
450.442	172.38
450.662	155.38
450.883	156.38
451.104	201.38
451.324	161.38
451.545	153.38
451.766	174.38
451.986	162.38
452.207	156.38
452.428	159.38
452.648	173.38
452.869	157.38
453.089	152.38
453.31	146.38
453.53	144.38
453.751	162.38
453.971	149.38
454.192	156.38
454.412	151.38
454.633	157.38
454.853	150.38
455.073	153.38
455.294	165.38
455.514	166.38
455.734	170.38
455.955	154.38
456.175	165.38
456.395	152.38
456.616	163.38
456.836	168.38
457.056	139.38
457.276	143.38
457.497	141.38
457.717	128.38
457.937	146.38
458.157	151.38
458.377	136.38
458.598	148.38
458.818	148.38
459.038	138.38
459.258	141.38
459.478	149.38
459.698	149.38
459.918	141.38
460.138	161.38
460.358	141.38
460.578	180.38
460.798	169.38
461.018	160.38
461.238	161.38
461.458	153.38
461.678	161.38
461.898	161.38
462.118	162.38
462.338	161.38
462.558	170.38
462.777	159.38
462.997	152.38
463.217	169.38
463.437	156.38
463.657	145.38
463.876	163.38
464.096	163.38
464.316	145.38
464.536	162.38
464.755	163.38
464.975	149.38
465.195	149.38
465.414	171.38
465.634	167.38
465.854	154.38
466.073	141.38
466.293	159.38
466.512	162.38
466.732	161.38
466.951	158.38
467.171	148.38
467.391	156.38
467.61	154.38
467.829	158.38
468.049	159.38
468.268	174.38
468.488	164.38
468.707	151.38
468.927	162.38
469.146	160.38
469.365	155.38
469.585	157.38
469.804	169.38
470.023	167.38
470.243	153.38
470.462	167.38
470.681	181.38
470.901	172.38
471.12	171.38
471.339	173.38
471.558	168.38
471.777	175.38
471.997	175.38
472.216	159.38
472.435	171.38
472.654	155.38
472.873	158.38
473.092	155.38
473.311	170.38
473.53	170.38
473.749	176.38
473.968	181.38
474.187	152.38
474.406	141.38
474.625	184.38
474.844	164.38
475.063	160.38
475.282	163.38
475.501	155.38
475.72	179.38
475.939	159.38
476.158	171.38
476.377	157.38
476.596	171.38
476.814	143.38
477.033	146.38
477.252	152.38
477.471	155.38
477.69	165.38
477.908	163.38
478.127	187.38
478.346	160.38
478.564	167.38
478.783	185.38
479.002	181.38
479.22	177.38
479.439	177.38
479.658	164.38
479.876	151.38
480.095	174.38
480.313	163.38
480.532	173.38
480.751	166.38
480.969	153.38
481.188	150.38
481.406	152.38
481.624	154.38
481.843	154.38
482.061	160.38
482.28	168.38
482.498	151.38
482.717	167.38
482.935	178.38
483.153	175.38
483.372	170.38
483.59	166.38
483.808	155.38
484.027	181.38
484.245	181.38
484.463	170.38
484.681	198.38
484.9	169.38
485.118	200.38
485.336	176.38
485.554	172.38
485.772	149.38
485.99	150.38
486.209	172.38
486.427	139.38
486.645	171.38
486.863	177.38
487.081	162.38
487.299	173.38
487.517	191.38
487.735	203.38
487.953	201.38
488.171	195.38
488.389	170.38
488.607	177.38
488.825	172.38
489.043	161.38
489.261	191.38
489.479	187.38
489.696	180.38
489.914	174.38
490.132	177.38
490.35	193.38
490.568	174.38
490.786	200.38
491.003	203.38
491.221	201.38
491.439	185.38
491.657	201.38
491.874	206.38
492.092	234.38
492.31	226.38
492.527	222.38
492.745	214.38
492.963	218.38
493.18	192.38
493.398	208.38
493.615	193.38
493.833	186.38
494.05	193.38
494.268	201.38
494.485	212.38
494.703	193.38
494.92	197.38
495.138	189.38
495.355	198.38
495.573	211.38
495.79	194.38
496.008	201.38
496.225	217.38
496.442	189.38
496.66	214.38
496.877	183.38
497.094	207.38
497.312	197.38
497.529	216.38
497.746	189.38
497.963	181.38
498.181	174.38
498.398	173.38
498.615	178.38
498.832	194.38
499.049	198.38
499.267	207.38
499.484	203.38
499.701	222.38
499.918	235.38
500.135	199.38
500.352	204.38
500.569	240.38
500.786	279.38
501.003	229.38
501.22	229.38
501.437	218.38
501.654	206.38
501.871	200.38
502.088	196.38
502.305	206.38
502.522	192.38
502.739	209.38
502.956	194.38
503.172	185.38
503.389	207.38
503.606	188.38
503.823	199.38
