Data from TenMicroDelayPb_HRD10591_00007.txt Node
Date: Mon Nov 24 14:58:09 EST 2025
User: Yrep
Spectrometer: HR+D1059
Trigger mode: 5
Integration Time (sec): 5.000000E-1
Scans to average: 1
Electric dark correction enabled: true
Nonlinearity correction enabled: false
Boxcar width: 0
XAxis mode: Wavelengths
Number of Pixels in Spectrum: 2048
>>>>>Begin Spectral Data<<<<<
223.165	-17.12
223.4	-17.12
223.635	-17.12
223.869	-26.12
224.104	-24.12
224.338	0.88
224.573	-21.12
224.808	-15.12
225.042	19.88
225.277	-11.12
225.511	-7.12
225.746	17.88
225.98	18.88
226.215	15.88
226.449	-0.12
226.683	14.88
226.918	6.88
227.152	26.88
227.387	35.88
227.621	58.88
227.856	62.88
228.09	53.88
228.324	45.88
228.559	70.88
228.793	62.88
229.027	67.88
229.262	63.88
229.496	79.88
229.73	79.88
229.964	79.88
230.199	74.88
230.433	86.88
230.667	82.88
230.901	75.88
231.136	78.88
231.37	83.88
231.604	90.88
231.838	79.88
232.072	78.88
232.306	75.88
232.541	74.88
232.775	86.88
233.009	84.88
233.243	73.88
233.477	100.88
233.711	85.88
233.945	73.88
234.179	86.88
234.413	86.88
234.647	93.88
234.881	97.88
235.115	93.88
235.349	70.88
235.583	61.88
235.817	72.88
236.051	82.88
236.285	80.88
236.519	80.88
236.753	83.88
236.987	90.88
237.221	82.88
237.455	96.88
237.689	93.88
237.922	86.88
238.156	94.88
238.39	78.88
238.624	84.88
238.858	93.88
239.091	77.88
239.325	84.88
239.559	92.88
239.793	87.88
240.027	100.88
240.26	89.88
240.494	102.88
240.728	84.88
240.961	69.88
241.195	93.88
241.429	91.88
241.662	92.88
241.896	78.88
242.13	81.88
242.363	79.88
242.597	79.88
242.83	84.88
243.064	85.88
243.298	104.88
243.531	78.88
243.765	67.88
243.998	81.88
244.232	91.88
244.465	78.88
244.699	100.88
244.932	98.88
245.166	85.88
245.399	99.88
245.633	100.88
245.866	97.88
246.099	91.88
246.333	87.88
246.566	75.88
246.8	87.88
247.033	86.88
247.266	82.88
247.5	102.88
247.733	97.88
247.966	97.88
248.2	96.88
248.433	88.88
248.666	89.88
248.899	100.88
249.133	84.88
249.366	100.88
249.599	91.88
249.832	92.88
250.066	94.88
250.299	82.88
250.532	98.88
250.765	93.88
250.998	88.88
251.231	106.88
251.465	87.88
251.698	88.88
251.931	97.88
252.164	79.88
252.397	89.88
252.63	99.88
252.863	103.88
253.096	96.88
253.329	114.88
253.562	95.88
253.795	103.88
254.028	100.88
254.261	99.88
254.494	92.88
254.727	109.88
254.96	96.88
255.193	94.88
255.426	104.88
255.659	110.88
255.892	120.88
256.124	94.88
256.357	106.88
256.59	115.88
256.823	101.88
257.056	107.88
257.289	108.88
257.521	105.88
257.754	110.88
257.987	101.88
258.22	123.88
258.452	91.88
258.685	109.88
258.918	109.88
259.151	103.88
259.383	116.88
259.616	99.88
259.849	114.88
260.081	96.88
260.314	108.88
260.547	108.88
260.779	101.88
261.012	121.88
261.244	134.88
261.477	160.88
261.71	145.88
261.942	127.88
262.175	117.88
262.407	100.88
262.64	125.88
262.872	110.88
263.105	103.88
263.337	122.88
263.57	102.88
263.802	106.88
264.035	104.88
264.267	109.88
264.499	102.88
264.732	117.88
264.964	106.88
265.197	115.88
265.429	122.88
265.661	116.88
265.894	119.88
266.126	124.88
266.358	139.88
266.591	133.88
266.823	110.88
267.055	120.88
267.287	108.88
267.52	111.88
267.752	107.88
267.984	104.88
268.216	128.88
268.448	113.88
268.681	102.88
268.913	111.88
269.145	101.88
269.377	118.88
269.609	103.88
269.841	113.88
270.073	108.88
270.306	85.88
270.538	95.88
270.77	104.88
271.002	103.88
271.234	104.88
271.466	108.88
271.698	120.88
271.93	100.88
272.162	107.88
272.394	123.88
272.626	117.88
272.858	102.88
273.09	105.88
273.322	114.88
273.553	90.88
273.785	108.88
274.017	114.88
274.249	111.88
274.481	101.88
274.713	104.88
274.945	106.88
275.176	91.88
275.408	106.88
275.64	114.88
275.872	116.88
276.104	111.88
276.335	108.88
276.567	121.88
276.799	125.88
277.031	109.88
277.262	106.88
277.494	119.88
277.726	122.88
277.957	120.88
278.189	98.88
278.421	124.88
278.652	132.88
278.884	128.88
279.115	133.88
279.347	136.88
279.579	146.88
279.81	158.88
280.042	180.88
280.273	206.88
280.505	192.88
280.736	156.88
280.968	146.88
281.199	130.88
281.431	130.88
281.662	122.88
281.894	154.88
282.125	142.88
282.356	143.88
282.588	143.88
282.819	140.88
283.051	155.88
283.282	156.88
283.513	190.88
283.745	154.88
283.976	143.88
284.207	134.88
284.439	132.88
284.67	139.88
284.901	130.88
285.132	133.88
285.364	126.88
285.595	123.88
285.826	135.88
286.057	135.88
286.288	119.88
286.52	120.88
286.751	135.88
286.982	141.88
287.213	148.88
287.444	159.88
287.675	138.88
287.906	142.88
288.138	119.88
288.369	132.88
288.6	124.88
288.831	107.88
289.062	122.88
289.293	116.88
289.524	111.88
289.755	112.88
289.986	111.88
290.217	109.88
290.448	107.88
290.679	128.88
290.91	116.88
291.141	115.88
291.371	132.88
291.602	120.88
291.833	117.88
292.064	111.88
292.295	103.88
292.526	106.88
292.757	112.88
292.987	108.88
293.218	113.88
293.449	112.88
293.68	126.88
293.91	122.88
294.141	131.88
294.372	121.88
294.603	107.88
294.833	110.88
295.064	103.88
295.295	129.88
295.525	124.88
295.756	112.88
295.987	113.88
296.217	118.88
296.448	122.88
296.679	114.88
296.909	142.88
297.14	128.88
297.37	142.88
297.601	119.88
297.831	103.88
298.062	107.88
298.292	107.88
298.523	131.88
298.753	123.88
298.984	122.88
299.214	122.88
299.445	119.88
299.675	124.88
299.905	124.88
300.136	126.88
300.366	121.88
300.597	111.88
300.827	119.88
301.057	115.88
301.288	104.88
301.518	114.88
301.748	98.88
301.979	200.88
302.209	118.88
302.439	123.88
302.669	130.88
302.9	109.88
303.13	128.88
303.36	131.88
303.59	112.88
303.82	125.88
304.051	119.88
304.281	129.88
304.511	136.88
304.741	129.88
304.971	110.88
305.201	122.88
305.431	119.88
305.661	124.88
305.891	106.88
306.121	131.88
306.352	112.88
306.582	117.88
306.812	116.88
307.042	118.88
307.272	123.88
307.502	117.88
307.731	129.88
307.961	112.88
308.191	126.88
308.421	135.88
308.651	132.88
308.881	112.88
309.111	110.88
309.341	127.88
309.571	117.88
309.8	111.88
310.03	123.88
310.26	119.88
310.49	106.88
310.72	114.88
310.949	140.88
311.179	126.88
311.409	133.88
311.639	126.88
311.868	122.88
312.098	128.88
312.328	141.88
312.557	128.88
312.787	122.88
313.017	118.88
313.246	130.88
313.476	134.88
313.706	134.88
313.935	127.88
314.165	131.88
314.394	148.88
314.624	117.88
314.853	137.88
315.083	144.88
315.312	124.88
315.542	141.88
315.771	131.88
316.001	126.88
316.23	140.88
316.46	134.88
316.689	128.88
316.919	128.88
317.148	135.88
317.377	127.88
317.607	124.88
317.836	122.88
318.065	125.88
318.295	135.88
318.524	108.88
318.753	114.88
318.983	143.88
319.212	143.88
319.441	132.88
319.67	138.88
319.9	129.88
320.129	131.88
320.358	119.88
320.587	131.88
320.816	117.88
321.046	128.88
321.275	151.88
321.504	124.88
321.733	101.88
321.962	120.88
322.191	125.88
322.42	120.88
322.649	122.88
322.878	121.88
323.108	119.88
323.337	129.88
323.566	126.88
323.795	130.88
324.024	143.88
324.253	133.88
324.482	118.88
324.71	122.88
324.939	136.88
325.168	138.88
325.397	126.88
325.626	122.88
325.855	147.88
326.084	127.88
326.313	118.88
326.542	119.88
326.77	128.88
326.999	126.88
327.228	130.88
327.457	125.88
327.686	135.88
327.914	132.88
328.143	139.88
328.372	129.88
328.6	119.88
328.829	120.88
329.058	120.88
329.287	124.88
329.515	110.88
329.744	136.88
329.972	117.88
330.201	124.88
330.43	121.88
330.658	108.88
330.887	119.88
331.115	113.88
331.344	130.88
331.572	131.88
331.801	130.88
332.03	130.88
332.258	132.88
332.486	127.88
332.715	114.88
332.943	135.88
333.172	120.88
333.4	127.88
333.629	123.88
333.857	135.88
334.085	121.88
334.314	139.88
334.542	149.88
334.771	115.88
334.999	125.88
335.227	125.88
335.455	147.88
335.684	134.88
335.912	141.88
336.14	144.88
336.369	131.88
336.597	132.88
336.825	131.88
337.053	119.88
337.281	125.88
337.51	125.88
337.738	130.88
337.966	134.88
338.194	106.88
338.422	131.88
338.65	127.88
338.878	144.88
339.106	132.88
339.334	135.88
339.562	131.88
339.79	120.88
340.018	124.88
340.246	112.88
340.474	128.88
340.702	132.88
340.93	133.88
341.158	124.88
341.386	140.88
341.614	130.88
341.842	133.88
342.07	116.88
342.298	119.88
342.526	136.88
342.754	147.88
342.981	130.88
343.209	133.88
343.437	163.88
343.665	126.88
343.893	119.88
344.12	124.88
344.348	136.88
344.576	148.88
344.804	135.88
345.031	128.88
345.259	123.88
345.487	115.88
345.714	123.88
345.942	136.88
346.17	135.88
346.397	147.88
346.625	144.88
346.853	116.88
347.08	133.88
347.308	116.88
347.535	127.88
347.763	126.88
347.99	130.88
348.218	146.88
348.445	134.88
348.673	128.88
348.9	116.88
349.128	134.88
349.355	132.88
349.583	114.88
349.81	118.88
350.037	123.88
350.265	109.88
350.492	122.88
350.72	134.88
350.947	136.88
351.174	135.88
351.402	130.88
351.629	120.88
351.856	132.88
352.083	122.88
352.311	133.88
352.538	132.88
352.765	135.88
352.992	158.88
353.22	126.88
353.447	127.88
353.674	140.88
353.901	150.88
354.128	138.88
354.355	123.88
354.583	135.88
354.81	144.88
355.037	145.88
355.264	141.88
355.491	140.88
355.718	128.88
355.945	146.88
356.172	134.88
356.399	146.88
356.626	128.88
356.853	177.88
357.08	212.88
357.307	254.88
357.534	234.88
357.761	195.88
357.988	192.88
358.215	163.88
358.441	149.88
358.668	162.88
358.895	159.88
359.122	138.88
359.349	156.88
359.576	151.88
359.802	129.88
360.029	146.88
360.256	141.88
360.483	135.88
360.709	127.88
360.936	154.88
361.163	131.88
361.39	139.88
361.616	130.88
361.843	143.88
362.07	140.88
362.296	155.88
362.523	134.88
362.749	139.88
362.976	136.88
363.203	167.88
363.429	178.88
363.656	205.88
363.882	243.88
364.109	288.88
364.335	238.88
364.562	190.88
364.788	171.88
365.015	161.88
365.241	157.88
365.468	178.88
365.694	158.88
365.92	148.88
366.147	142.88
366.373	146.88
366.599	166.88
366.826	152.88
367.052	175.88
367.278	206.88
367.505	200.88
367.731	216.88
367.957	220.88
368.184	278.88
368.41	358.88
368.636	324.88
368.862	221.88
369.089	210.88
369.315	168.88
369.541	180.88
369.767	167.88
369.993	158.88
370.219	156.88
370.445	137.88
370.672	146.88
370.898	138.88
371.124	148.88
371.35	144.88
371.576	142.88
371.802	143.88
372.028	141.88
372.254	138.88
372.48	139.88
372.706	147.88
372.932	146.88
373.158	147.88
373.384	172.88
373.61	178.88
373.835	227.88
374.061	256.88
374.287	249.88
374.513	191.88
374.739	163.88
374.965	160.88
375.191	150.88
375.416	148.88
375.642	150.88
375.868	155.88
376.094	132.88
376.319	142.88
376.545	139.88
376.771	134.88
376.997	134.88
377.222	138.88
377.448	143.88
377.674	125.88
377.899	132.88
378.125	122.88
378.35	140.88
378.576	135.88
378.802	134.88
379.027	150.88
379.253	157.88
379.478	153.88
379.704	136.88
379.929	142.88
380.155	141.88
380.38	133.88
380.606	133.88
380.831	140.88
381.057	160.88
381.282	143.88
381.507	127.88
381.733	151.88
381.958	139.88
382.184	115.88
382.409	144.88
382.634	156.88
382.86	153.88
383.085	160.88
383.31	142.88
383.535	142.88
383.761	143.88
383.986	121.88
384.211	140.88
384.436	129.88
384.662	124.88
384.887	146.88
385.112	131.88
385.337	147.88
385.562	132.88
385.787	117.88
386.013	138.88
386.238	143.88
386.463	154.88
386.688	182.88
386.913	126.88
387.138	118.88
387.363	126.88
387.588	151.88
387.813	140.88
388.038	150.88
388.263	150.88
388.488	138.88
388.713	150.88
388.938	127.88
389.163	135.88
389.387	146.88
389.612	137.88
389.837	136.88
390.062	142.88
390.287	133.88
390.512	132.88
390.736	140.88
390.961	140.88
391.186	140.88
391.411	126.88
391.636	142.88
391.86	142.88
392.085	136.88
392.31	134.88
392.534	149.88
392.759	143.88
392.984	156.88
393.208	148.88
393.433	139.88
393.658	155.88
393.882	132.88
394.107	140.88
394.331	135.88
394.556	127.88
394.78	146.88
395.005	130.88
395.229	144.88
395.454	160.88
395.678	130.88
395.903	139.88
396.127	154.88
396.352	140.88
396.576	146.88
396.801	141.88
397.025	144.88
397.249	148.88
397.474	164.88
397.698	149.88
397.922	144.88
398.147	138.88
398.371	134.88
398.595	151.88
398.82	132.88
399.044	148.88
399.268	143.88
399.492	153.88
399.717	158.88
399.941	162.88
400.165	162.88
400.389	156.88
400.613	158.88
400.837	139.88
401.062	147.88
401.286	155.88
401.51	161.88
401.734	161.88
401.958	175.88
402.182	171.88
402.406	159.88
402.63	163.88
402.854	164.88
403.078	169.88
403.302	146.88
403.526	168.88
403.75	167.88
403.974	159.88
404.198	179.88
404.422	195.88
404.645	179.88
404.869	172.88
405.093	206.88
405.317	242.88
405.541	328.88
405.765	468.88
405.988	497.88
406.212	383.88
406.436	298.88
406.66	253.88
406.883	221.88
407.107	192.88
407.331	182.88
407.555	185.88
407.778	182.88
408.002	182.88
408.226	188.88
408.449	184.88
408.673	162.88
408.896	158.88
409.12	175.88
409.344	170.88
409.567	162.88
409.791	186.88
410.014	163.88
410.238	162.88
410.461	147.88
410.685	162.88
410.908	146.88
411.132	174.88
411.355	172.88
411.578	163.88
411.802	146.88
412.025	155.88
412.249	163.88
412.472	147.88
412.695	166.88
412.919	163.88
413.142	173.88
413.365	168.88
413.589	163.88
413.812	166.88
414.035	179.88
414.258	166.88
414.482	155.88
414.705	159.88
414.928	169.88
415.151	152.88
415.374	168.88
415.597	166.88
415.821	164.88
416.044	155.88
416.267	165.88
416.49	152.88
416.713	176.88
416.936	173.88
417.159	160.88
417.382	166.88
417.605	149.88
417.828	168.88
418.051	147.88
418.274	163.88
418.497	149.88
418.72	154.88
418.943	166.88
419.166	166.88
419.389	161.88
419.611	162.88
419.834	154.88
420.057	162.88
420.28	154.88
420.503	157.88
420.726	169.88
420.948	166.88
421.171	166.88
421.394	158.88
421.617	159.88
421.839	176.88
422.062	163.88
422.285	169.88
422.507	177.88
422.73	171.88
422.953	170.88
423.175	168.88
423.398	166.88
423.621	175.88
423.843	182.88
424.066	174.88
424.288	198.88
424.511	223.88
424.733	230.88
424.956	220.88
425.178	222.88
425.401	215.88
425.623	202.88
425.846	190.88
426.068	184.88
426.291	187.88
426.513	180.88
426.735	176.88
426.958	192.88
427.18	196.88
427.402	175.88
427.625	158.88
427.847	154.88
428.069	158.88
428.292	180.88
428.514	187.88
428.736	170.88
428.958	160.88
429.181	177.88
429.403	182.88
429.625	181.88
429.847	178.88
430.069	148.88
430.292	164.88
430.514	161.88
430.736	158.88
430.958	164.88
431.18	166.88
431.402	144.88
431.624	150.88
431.846	164.88
432.068	139.88
432.29	150.88
432.512	177.88
432.734	149.88
432.956	159.88
433.178	193.88
433.4	178.88
433.622	198.88
433.844	182.88
434.066	157.88
434.287	166.88
434.509	154.88
434.731	167.88
434.953	155.88
435.175	151.88
435.397	186.88
435.618	153.88
435.84	155.88
436.062	170.88
436.284	173.88
436.505	163.88
436.727	167.88
436.949	158.88
437.17	172.88
437.392	151.88
437.614	182.88
437.835	164.88
438.057	188.88
438.278	193.88
438.5	210.88
438.721	221.88
438.943	233.88
439.165	220.88
439.386	209.88
439.608	213.88
439.829	193.88
440.05	215.88
440.272	213.88
440.493	198.88
440.715	203.88
440.936	207.88
441.158	228.88
441.379	203.88
441.6	194.88
441.822	203.88
442.043	193.88
442.264	197.88
442.486	190.88
442.707	195.88
442.928	198.88
443.149	178.88
443.371	200.88
443.592	179.88
443.813	180.88
444.034	174.88
444.255	200.88
444.476	172.88
444.698	176.88
444.919	175.88
445.14	594.88
445.361	392.88
445.582	202.88
445.803	196.88
446.024	171.88
446.245	188.88
446.466	198.88
446.687	186.88
446.908	193.88
447.129	196.88
447.35	178.88
447.571	192.88
447.792	174.88
448.013	182.88
448.234	156.88
448.455	178.88
448.675	160.88
448.896	173.88
449.117	180.88
449.338	162.88
449.559	166.88
449.779	178.88
450	160.88
450.221	156.88
450.442	170.88
450.662	175.88
450.883	156.88
451.104	168.88
451.324	174.88
451.545	169.88
451.766	166.88
451.986	167.88
452.207	156.88
452.428	151.88
452.648	162.88
452.869	158.88
453.089	166.88
453.31	154.88
453.53	152.88
453.751	154.88
453.971	135.88
454.192	137.88
454.412	140.88
454.633	149.88
454.853	142.88
455.073	141.88
455.294	146.88
455.514	165.88
455.734	142.88
455.955	136.88
456.175	144.88
456.395	151.88
456.616	137.88
456.836	144.88
457.056	146.88
457.276	139.88
457.497	152.88
457.717	142.88
457.937	142.88
458.157	156.88
458.377	146.88
458.598	143.88
458.818	147.88
459.038	127.88
459.258	140.88
459.478	127.88
459.698	131.88
459.918	155.88
460.138	147.88
460.358	152.88
460.578	181.88
460.798	152.88
461.018	164.88
461.238	155.88
461.458	172.88
461.678	163.88
461.898	164.88
462.118	140.88
462.338	176.88
462.558	155.88
462.777	156.88
462.997	149.88
463.217	154.88
463.437	148.88
463.657	135.88
463.876	149.88
464.096	172.88
464.316	152.88
464.536	145.88
464.755	160.88
464.975	160.88
465.195	170.88
465.414	142.88
465.634	150.88
465.854	140.88
466.073	152.88
466.293	175.88
466.512	149.88
466.732	151.88
466.951	145.88
467.171	149.88
467.391	144.88
467.61	162.88
467.829	146.88
468.049	163.88
468.268	160.88
468.488	157.88
468.707	156.88
468.927	174.88
469.146	150.88
469.365	165.88
469.585	162.88
469.804	163.88
470.023	158.88
470.243	170.88
470.462	168.88
470.681	168.88
470.901	151.88
471.12	166.88
471.339	153.88
471.558	166.88
471.777	162.88
471.997	165.88
472.216	152.88
472.435	156.88
472.654	143.88
472.873	156.88
473.092	167.88
473.311	162.88
473.53	139.88
473.749	152.88
473.968	184.88
474.187	156.88
474.406	136.88
474.625	166.88
474.844	155.88
475.063	154.88
475.282	141.88
475.501	132.88
475.72	177.88
475.939	159.88
476.158	173.88
476.377	174.88
476.596	155.88
476.814	137.88
477.033	163.88
477.252	170.88
477.471	164.88
477.69	166.88
477.908	153.88
478.127	181.88
478.346	175.88
478.564	175.88
478.783	171.88
479.002	170.88
479.22	166.88
479.439	172.88
479.658	159.88
479.876	152.88
480.095	154.88
480.313	173.88
480.532	169.88
480.751	172.88
480.969	153.88
481.188	144.88
481.406	166.88
481.624	164.88
481.843	163.88
482.061	153.88
482.28	182.88
482.498	153.88
482.717	178.88
482.935	176.88
483.153	168.88
483.372	196.88
483.59	184.88
483.808	180.88
484.027	169.88
484.245	151.88
484.463	174.88
484.681	198.88
484.9	156.88
485.118	181.88
485.336	144.88
485.554	177.88
485.772	154.88
485.99	168.88
486.209	169.88
486.427	168.88
486.645	187.88
486.863	170.88
487.081	165.88
487.299	167.88
487.517	179.88
487.735	175.88
487.953	182.88
488.171	205.88
488.389	179.88
488.607	165.88
488.825	176.88
489.043	174.88
489.261	189.88
489.479	180.88
489.696	201.88
489.914	173.88
490.132	190.88
490.35	192.88
490.568	185.88
490.786	179.88
491.003	193.88
491.221	208.88
491.439	200.88
491.657	206.88
491.874	214.88
492.092	221.88
492.31	219.88
492.527	198.88
492.745	206.88
492.963	215.88
493.18	194.88
493.398	206.88
493.615	203.88
493.833	171.88
494.05	190.88
494.268	182.88
494.485	200.88
494.703	216.88
494.92	189.88
495.138	189.88
495.355	205.88
495.573	212.88
495.79	187.88
496.008	200.88
496.225	200.88
496.442	198.88
496.66	205.88
496.877	199.88
497.094	228.88
497.312	204.88
497.529	199.88
497.746	185.88
497.963	176.88
498.181	194.88
498.398	191.88
498.615	192.88
498.832	181.88
499.049	191.88
499.267	197.88
499.484	196.88
499.701	206.88
499.918	223.88
500.135	204.88
500.352	208.88
500.569	235.88
500.786	290.88
501.003	230.88
501.22	224.88
501.437	218.88
501.654	200.88
501.871	202.88
502.088	202.88
502.305	199.88
502.522	199.88
502.739	191.88
502.956	167.88
503.172	197.88
503.389	170.88
503.606	170.88
503.823	196.88
504.04	204.88
