Data from TenMicroDelayPb_HRD10591_00006.txt Node
Date: Mon Nov 24 14:58:08 EST 2025
User: Yrep
Spectrometer: HR+D1059
Trigger mode: 5
Integration Time (sec): 5.000000E-1
Scans to average: 1
Electric dark correction enabled: true
Nonlinearity correction enabled: false
Boxcar width: 0
XAxis mode: Wavelengths
Number of Pixels in Spectrum: 2048
>>>>>Begin Spectral Data<<<<<
223.165	-18.5
223.4	-18.5
223.635	-18.5
223.869	-25.5
224.104	-17.5
224.338	1.5
224.573	-12.5
224.808	-22.5
225.042	-3.5
225.277	-9.5
225.511	-11.5
225.746	1.5
225.98	7.5
226.215	4.5
226.449	23.5
226.683	22.5
226.918	27.5
227.152	32.5
227.387	38.5
227.621	32.5
227.856	66.5
228.09	35.5
228.324	50.5
228.559	63.5
228.793	51.5
229.027	63.5
229.262	66.5
229.496	65.5
229.73	83.5
229.964	91.5
230.199	72.5
230.433	80.5
230.667	73.5
230.901	88.5
231.136	96.5
231.37	81.5
231.604	76.5
231.838	88.5
232.072	91.5
232.306	89.5
232.541	91.5
232.775	84.5
233.009	88.5
233.243	88.5
233.477	89.5
233.711	81.5
233.945	88.5
234.179	90.5
234.413	87.5
234.647	84.5
234.881	77.5
235.115	85.5
235.349	76.5
235.583	93.5
235.817	100.5
236.051	87.5
236.285	79.5
236.519	87.5
236.753	93.5
236.987	86.5
237.221	89.5
237.455	84.5
237.689	90.5
237.922	87.5
238.156	92.5
238.39	84.5
238.624	76.5
238.858	97.5
239.091	93.5
239.325	81.5
239.559	96.5
239.793	92.5
240.027	97.5
240.26	89.5
240.494	102.5
240.728	87.5
240.961	75.5
241.195	102.5
241.429	95.5
241.662	72.5
241.896	100.5
242.13	93.5
242.363	79.5
242.597	94.5
242.83	85.5
243.064	108.5
243.298	83.5
243.531	87.5
243.765	87.5
243.998	83.5
244.232	103.5
244.465	99.5
244.699	108.5
244.932	96.5
245.166	90.5
245.399	80.5
245.633	87.5
245.866	81.5
246.099	67.5
246.333	80.5
246.566	92.5
246.8	99.5
247.033	97.5
247.266	75.5
247.5	99.5
247.733	88.5
247.966	109.5
248.2	93.5
248.433	107.5
248.666	99.5
248.899	115.5
249.133	95.5
249.366	117.5
249.599	88.5
249.832	89.5
250.066	124.5
250.299	86.5
250.532	85.5
250.765	96.5
250.998	96.5
251.231	90.5
251.465	107.5
251.698	92.5
251.931	96.5
252.164	96.5
252.397	103.5
252.63	102.5
252.863	104.5
253.096	100.5
253.329	97.5
253.562	115.5
253.795	99.5
254.028	118.5
254.261	106.5
254.494	117.5
254.727	108.5
254.96	108.5
255.193	122.5
255.426	111.5
255.659	87.5
255.892	112.5
256.124	101.5
256.357	106.5
256.59	119.5
256.823	118.5
257.056	116.5
257.289	108.5
257.521	126.5
257.754	108.5
257.987	131.5
258.22	121.5
258.452	103.5
258.685	105.5
258.918	109.5
259.151	117.5
259.383	111.5
259.616	114.5
259.849	107.5
260.081	123.5
260.314	118.5
260.547	106.5
260.779	95.5
261.012	122.5
261.244	139.5
261.477	159.5
261.71	160.5
261.942	116.5
262.175	120.5
262.407	112.5
262.64	119.5
262.872	105.5
263.105	117.5
263.337	119.5
263.57	118.5
263.802	100.5
264.035	105.5
264.267	100.5
264.499	101.5
264.732	124.5
264.964	121.5
265.197	128.5
265.429	132.5
265.661	123.5
265.894	122.5
266.126	127.5
266.358	127.5
266.591	131.5
266.823	123.5
267.055	115.5
267.287	119.5
267.52	120.5
267.752	128.5
267.984	117.5
268.216	122.5
268.448	103.5
268.681	129.5
268.913	107.5
269.145	96.5
269.377	113.5
269.609	109.5
269.841	113.5
270.073	117.5
270.306	112.5
270.538	103.5
270.77	92.5
271.002	106.5
271.234	111.5
271.466	111.5
271.698	106.5
271.93	95.5
272.162	111.5
272.394	121.5
272.626	107.5
272.858	100.5
273.09	108.5
273.322	124.5
273.553	111.5
273.785	115.5
274.017	96.5
274.249	113.5
274.481	115.5
274.713	103.5
274.945	132.5
275.176	116.5
275.408	117.5
275.64	111.5
275.872	123.5
276.104	133.5
276.335	111.5
276.567	119.5
276.799	111.5
277.031	117.5
277.262	103.5
277.494	125.5
277.726	123.5
277.957	110.5
278.189	107.5
278.421	112.5
278.652	131.5
278.884	144.5
279.115	119.5
279.347	140.5
279.579	127.5
279.81	148.5
280.042	201.5
280.273	207.5
280.505	195.5
280.736	158.5
280.968	157.5
281.199	147.5
281.431	114.5
281.662	144.5
281.894	144.5
282.125	143.5
282.356	143.5
282.588	161.5
282.819	149.5
283.051	159.5
283.282	165.5
283.513	218.5
283.745	163.5
283.976	142.5
284.207	148.5
284.439	131.5
284.67	134.5
284.901	120.5
285.132	122.5
285.364	129.5
285.595	124.5
285.826	127.5
286.057	135.5
286.288	135.5
286.52	132.5
286.751	135.5
286.982	152.5
287.213	146.5
287.444	173.5
287.675	152.5
287.906	137.5
288.138	132.5
288.369	124.5
288.6	140.5
288.831	141.5
289.062	133.5
289.293	119.5
289.524	110.5
289.755	125.5
289.986	111.5
290.217	116.5
290.448	113.5
290.679	119.5
290.91	137.5
291.141	121.5
291.371	139.5
291.602	124.5
291.833	123.5
292.064	130.5
292.295	143.5
292.526	136.5
292.757	109.5
292.987	136.5
293.218	131.5
293.449	105.5
293.68	131.5
293.91	129.5
294.141	137.5
294.372	125.5
294.603	111.5
294.833	125.5
295.064	125.5
295.295	110.5
295.525	120.5
295.756	139.5
295.987	121.5
296.217	110.5
296.448	133.5
296.679	121.5
296.909	128.5
297.14	134.5
297.37	147.5
297.601	130.5
297.831	114.5
298.062	131.5
298.292	117.5
298.523	115.5
298.753	110.5
298.984	120.5
299.214	125.5
299.445	107.5
299.675	117.5
299.905	120.5
300.136	107.5
300.366	115.5
300.597	140.5
300.827	130.5
301.057	128.5
301.288	129.5
301.518	124.5
301.748	129.5
301.979	179.5
302.209	119.5
302.439	115.5
302.669	130.5
302.9	130.5
303.13	146.5
303.36	123.5
303.59	119.5
303.82	126.5
304.051	132.5
304.281	140.5
304.511	130.5
304.741	115.5
304.971	129.5
305.201	134.5
305.431	125.5
305.661	156.5
305.891	110.5
306.121	131.5
306.352	128.5
306.582	120.5
306.812	127.5
307.042	97.5
307.272	132.5
307.502	121.5
307.731	128.5
307.961	133.5
308.191	139.5
308.421	114.5
308.651	127.5
308.881	132.5
309.111	136.5
309.341	114.5
309.571	124.5
309.8	129.5
310.03	106.5
310.26	125.5
310.49	139.5
310.72	130.5
310.949	121.5
311.179	136.5
311.409	126.5
311.639	137.5
311.868	129.5
312.098	126.5
312.328	135.5
312.557	147.5
312.787	122.5
313.017	150.5
313.246	141.5
313.476	126.5
313.706	151.5
313.935	151.5
314.165	129.5
314.394	141.5
314.624	152.5
314.853	139.5
315.083	139.5
315.312	145.5
315.542	138.5
315.771	142.5
316.001	147.5
316.23	148.5
316.46	121.5
316.689	141.5
316.919	137.5
317.148	138.5
317.377	157.5
317.607	140.5
317.836	142.5
318.065	129.5
318.295	141.5
318.524	131.5
318.753	135.5
318.983	124.5
319.212	154.5
319.441	114.5
319.67	142.5
319.9	144.5
320.129	141.5
320.358	141.5
320.587	142.5
320.816	124.5
321.046	121.5
321.275	144.5
321.504	113.5
321.733	132.5
321.962	133.5
322.191	127.5
322.42	118.5
322.649	131.5
322.878	134.5
323.108	144.5
323.337	129.5
323.566	152.5
323.795	136.5
324.024	138.5
324.253	124.5
324.482	126.5
324.71	137.5
324.939	139.5
325.168	141.5
325.397	128.5
325.626	143.5
325.855	133.5
326.084	136.5
326.313	135.5
326.542	132.5
326.77	149.5
326.999	120.5
327.228	124.5
327.457	140.5
327.686	145.5
327.914	133.5
328.143	126.5
328.372	132.5
328.6	137.5
328.829	133.5
329.058	127.5
329.287	124.5
329.515	149.5
329.744	158.5
329.972	147.5
330.201	138.5
330.43	134.5
330.658	129.5
330.887	133.5
331.115	132.5
331.344	133.5
331.572	140.5
331.801	132.5
332.03	130.5
332.258	141.5
332.486	129.5
332.715	133.5
332.943	141.5
333.172	150.5
333.4	123.5
333.629	135.5
333.857	128.5
334.085	136.5
334.314	141.5
334.542	149.5
334.771	134.5
334.999	138.5
335.227	135.5
335.455	135.5
335.684	159.5
335.912	141.5
336.14	143.5
336.369	151.5
336.597	125.5
336.825	126.5
337.053	136.5
337.281	126.5
337.51	122.5
337.738	164.5
337.966	139.5
338.194	118.5
338.422	139.5
338.65	145.5
338.878	149.5
339.106	125.5
339.334	131.5
339.562	125.5
339.79	126.5
340.018	139.5
340.246	135.5
340.474	144.5
340.702	147.5
340.93	141.5
341.158	134.5
341.386	131.5
341.614	125.5
341.842	135.5
342.07	131.5
342.298	137.5
342.526	146.5
342.754	127.5
342.981	122.5
343.209	121.5
343.437	187.5
343.665	136.5
343.893	144.5
344.12	150.5
344.348	127.5
344.576	133.5
344.804	127.5
345.031	132.5
345.259	144.5
345.487	138.5
345.714	117.5
345.942	125.5
346.17	132.5
346.397	140.5
346.625	143.5
346.853	135.5
347.08	129.5
347.308	147.5
347.535	121.5
347.763	138.5
347.99	134.5
348.218	133.5
348.445	128.5
348.673	125.5
348.9	151.5
349.128	150.5
349.355	137.5
349.583	135.5
349.81	141.5
350.037	123.5
350.265	147.5
350.492	139.5
350.72	140.5
350.947	144.5
351.174	130.5
351.402	124.5
351.629	131.5
351.856	120.5
352.083	125.5
352.311	145.5
352.538	122.5
352.765	126.5
352.992	160.5
353.22	124.5
353.447	128.5
353.674	154.5
353.901	138.5
354.128	125.5
354.355	134.5
354.583	137.5
354.81	138.5
355.037	140.5
355.264	139.5
355.491	146.5
355.718	131.5
355.945	148.5
356.172	153.5
356.399	150.5
356.626	154.5
356.853	170.5
357.08	213.5
357.307	259.5
357.534	244.5
357.761	203.5
357.988	201.5
358.215	167.5
358.441	148.5
358.668	151.5
358.895	166.5
359.122	144.5
359.349	152.5
359.576	151.5
359.802	140.5
360.029	140.5
360.256	151.5
360.483	149.5
360.709	142.5
360.936	149.5
361.163	141.5
361.39	156.5
361.616	138.5
361.843	148.5
362.07	158.5
362.296	146.5
362.523	131.5
362.749	139.5
362.976	132.5
363.203	167.5
363.429	179.5
363.656	219.5
363.882	265.5
364.109	288.5
364.335	262.5
364.562	204.5
364.788	176.5
365.015	157.5
365.241	180.5
365.468	152.5
365.694	157.5
365.92	157.5
366.147	156.5
366.373	145.5
366.599	151.5
366.826	167.5
367.052	173.5
367.278	192.5
367.505	176.5
367.731	204.5
367.957	231.5
368.184	303.5
368.41	365.5
368.636	312.5
368.862	232.5
369.089	206.5
369.315	176.5
369.541	182.5
369.767	172.5
369.993	170.5
370.219	160.5
370.445	155.5
370.672	150.5
370.898	149.5
371.124	134.5
371.35	155.5
371.576	147.5
371.802	142.5
372.028	159.5
372.254	151.5
372.48	152.5
372.706	152.5
372.932	135.5
373.158	150.5
373.384	158.5
373.61	184.5
373.835	235.5
374.061	257.5
374.287	263.5
374.513	199.5
374.739	172.5
374.965	156.5
375.191	171.5
375.416	165.5
375.642	150.5
375.868	179.5
376.094	152.5
376.319	152.5
376.545	149.5
376.771	161.5
376.997	155.5
377.222	140.5
377.448	139.5
377.674	134.5
377.899	135.5
378.125	152.5
378.35	160.5
378.576	135.5
378.802	153.5
379.027	154.5
379.253	138.5
379.478	143.5
379.704	147.5
379.929	145.5
380.155	139.5
380.38	141.5
380.606	139.5
380.831	134.5
381.057	163.5
381.282	131.5
381.507	141.5
381.733	146.5
381.958	131.5
382.184	133.5
382.409	135.5
382.634	156.5
382.86	141.5
383.085	141.5
383.31	144.5
383.535	151.5
383.761	146.5
383.986	157.5
384.211	137.5
384.436	137.5
384.662	145.5
384.887	145.5
385.112	148.5
385.337	138.5
385.562	138.5
385.787	139.5
386.013	135.5
386.238	145.5
386.463	135.5
386.688	189.5
386.913	171.5
387.138	124.5
387.363	135.5
387.588	165.5
387.813	166.5
388.038	152.5
388.263	154.5
388.488	140.5
388.713	148.5
388.938	146.5
389.163	152.5
389.387	135.5
389.612	139.5
389.837	139.5
390.062	134.5
390.287	131.5
390.512	142.5
390.736	139.5
390.961	152.5
391.186	157.5
391.411	139.5
391.636	144.5
391.86	147.5
392.085	140.5
392.31	147.5
392.534	130.5
392.759	155.5
392.984	151.5
393.208	154.5
393.433	153.5
393.658	151.5
393.882	142.5
394.107	167.5
394.331	153.5
394.556	146.5
394.78	141.5
395.005	143.5
395.229	137.5
395.454	142.5
395.678	152.5
395.903	155.5
396.127	156.5
396.352	145.5
396.576	149.5
396.801	149.5
397.025	139.5
397.249	156.5
397.474	153.5
397.698	153.5
397.922	154.5
398.147	151.5
398.371	148.5
398.595	153.5
398.82	150.5
399.044	150.5
399.268	154.5
399.492	166.5
399.717	171.5
399.941	162.5
400.165	151.5
400.389	165.5
400.613	160.5
400.837	149.5
401.062	144.5
401.286	187.5
401.51	167.5
401.734	148.5
401.958	195.5
402.182	183.5
402.406	168.5
402.63	169.5
402.854	163.5
403.078	157.5
403.302	165.5
403.526	164.5
403.75	180.5
403.974	178.5
404.198	164.5
404.422	167.5
404.645	175.5
404.869	204.5
405.093	201.5
405.317	247.5
405.541	341.5
405.765	467.5
405.988	530.5
406.212	393.5
406.436	309.5
406.66	263.5
406.883	219.5
407.107	233.5
407.331	197.5
407.555	200.5
407.778	190.5
408.002	193.5
408.226	182.5
408.449	191.5
408.673	168.5
408.896	194.5
409.12	188.5
409.344	183.5
409.567	169.5
409.791	166.5
410.014	180.5
410.238	182.5
410.461	181.5
410.685	166.5
410.908	160.5
411.132	183.5
411.355	173.5
411.578	174.5
411.802	189.5
412.025	164.5
412.249	169.5
412.472	160.5
412.695	169.5
412.919	159.5
413.142	154.5
413.365	164.5
413.589	171.5
413.812	156.5
414.035	176.5
414.258	171.5
414.482	160.5
414.705	159.5
414.928	169.5
415.151	158.5
415.374	158.5
415.597	145.5
415.821	167.5
416.044	153.5
416.267	166.5
416.49	156.5
416.713	161.5
416.936	174.5
417.159	163.5
417.382	176.5
417.605	166.5
417.828	184.5
418.051	180.5
418.274	163.5
418.497	158.5
418.72	160.5
418.943	176.5
419.166	158.5
419.389	181.5
419.611	151.5
419.834	161.5
420.057	171.5
420.28	166.5
420.503	164.5
420.726	153.5
420.948	160.5
421.171	184.5
421.394	171.5
421.617	197.5
421.839	179.5
422.062	176.5
422.285	154.5
422.507	170.5
422.73	172.5
422.953	173.5
423.175	177.5
423.398	164.5
423.621	187.5
423.843	187.5
424.066	213.5
424.288	208.5
424.511	250.5
424.733	245.5
424.956	237.5
425.178	232.5
425.401	199.5
425.623	192.5
425.846	200.5
426.068	203.5
426.291	185.5
426.513	193.5
426.735	192.5
426.958	188.5
427.18	187.5
427.402	181.5
427.625	197.5
427.847	169.5
428.069	175.5
428.292	172.5
428.514	174.5
428.736	169.5
428.958	176.5
429.181	176.5
429.403	177.5
429.625	161.5
429.847	172.5
430.069	181.5
430.292	177.5
430.514	167.5
430.736	183.5
430.958	180.5
431.18	165.5
431.402	185.5
431.624	157.5
431.846	166.5
432.068	149.5
432.29	171.5
432.512	169.5
432.734	161.5
432.956	189.5
433.178	211.5
433.4	193.5
433.622	170.5
433.844	175.5
434.066	183.5
434.287	175.5
434.509	154.5
434.731	173.5
434.953	183.5
435.175	172.5
435.397	188.5
435.618	189.5
435.84	158.5
436.062	172.5
436.284	185.5
436.505	183.5
436.727	177.5
436.949	177.5
437.17	186.5
437.392	187.5
437.614	174.5
437.835	183.5
438.057	190.5
438.278	194.5
438.5	210.5
438.721	223.5
438.943	277.5
439.165	217.5
439.386	221.5
439.608	208.5
439.829	218.5
440.05	224.5
440.272	217.5
440.493	217.5
440.715	223.5
440.936	235.5
441.158	239.5
441.379	216.5
441.6	209.5
441.822	200.5
442.043	200.5
442.264	197.5
442.486	200.5
442.707	183.5
442.928	197.5
443.149	188.5
443.371	209.5
443.592	164.5
443.813	183.5
444.034	187.5
444.255	199.5
444.476	170.5
444.698	181.5
444.919	184.5
445.14	604.5
445.361	378.5
445.582	192.5
445.803	183.5
446.024	194.5
446.245	210.5
446.466	209.5
446.687	185.5
446.908	197.5
447.129	193.5
447.35	177.5
447.571	188.5
447.792	168.5
448.013	187.5
448.234	175.5
448.455	188.5
448.675	181.5
448.896	181.5
449.117	174.5
449.338	167.5
449.559	206.5
449.779	181.5
450	187.5
450.221	183.5
450.442	157.5
450.662	181.5
450.883	167.5
451.104	165.5
451.324	184.5
451.545	176.5
451.766	159.5
451.986	168.5
452.207	175.5
452.428	166.5
452.648	184.5
452.869	152.5
453.089	158.5
453.31	162.5
453.53	154.5
453.751	167.5
453.971	142.5
454.192	159.5
454.412	157.5
454.633	147.5
454.853	175.5
455.073	171.5
455.294	164.5
455.514	155.5
455.734	158.5
455.955	158.5
456.175	159.5
456.395	160.5
456.616	147.5
456.836	174.5
457.056	171.5
457.276	150.5
457.497	146.5
457.717	152.5
457.937	140.5
458.157	149.5
458.377	151.5
458.598	151.5
458.818	143.5
459.038	142.5
459.258	157.5
459.478	141.5
459.698	153.5
459.918	159.5
460.138	157.5
460.358	153.5
460.578	167.5
460.798	177.5
461.018	176.5
461.238	153.5
461.458	165.5
461.678	163.5
461.898	159.5
462.118	155.5
462.338	166.5
462.558	165.5
462.777	176.5
462.997	170.5
463.217	167.5
463.437	145.5
463.657	149.5
463.876	168.5
464.096	160.5
464.316	167.5
464.536	139.5
464.755	178.5
464.975	165.5
465.195	163.5
465.414	187.5
465.634	165.5
465.854	153.5
466.073	157.5
466.293	160.5
466.512	159.5
466.732	166.5
466.951	155.5
467.171	160.5
467.391	166.5
467.61	168.5
467.829	169.5
468.049	184.5
468.268	165.5
468.488	166.5
468.707	164.5
468.927	165.5
469.146	149.5
469.365	150.5
469.585	150.5
469.804	168.5
470.023	168.5
470.243	168.5
470.462	179.5
470.681	160.5
470.901	157.5
471.12	156.5
471.339	176.5
471.558	163.5
471.777	184.5
471.997	162.5
472.216	154.5
472.435	158.5
472.654	161.5
472.873	172.5
473.092	165.5
473.311	169.5
473.53	154.5
473.749	171.5
473.968	165.5
474.187	151.5
474.406	167.5
474.625	182.5
474.844	163.5
475.063	170.5
475.282	176.5
475.501	169.5
475.72	176.5
475.939	169.5
476.158	161.5
476.377	165.5
476.596	167.5
476.814	156.5
477.033	154.5
477.252	167.5
477.471	179.5
477.69	172.5
477.908	170.5
478.127	192.5
478.346	172.5
478.564	189.5
478.783	196.5
479.002	184.5
479.22	180.5
479.439	191.5
479.658	152.5
479.876	167.5
480.095	173.5
480.313	177.5
480.532	171.5
480.751	171.5
480.969	143.5
481.188	169.5
481.406	152.5
481.624	168.5
481.843	169.5
482.061	157.5
482.28	168.5
482.498	155.5
482.717	157.5
482.935	187.5
483.153	188.5
483.372	179.5
483.59	183.5
483.808	180.5
484.027	186.5
484.245	178.5
484.463	174.5
484.681	209.5
484.9	171.5
485.118	187.5
485.336	175.5
485.554	177.5
485.772	183.5
485.99	163.5
486.209	180.5
486.427	177.5
486.645	166.5
486.863	169.5
487.081	182.5
487.299	164.5
487.517	206.5
487.735	198.5
487.953	220.5
488.171	200.5
488.389	210.5
488.607	194.5
488.825	173.5
489.043	183.5
489.261	197.5
489.479	189.5
489.696	190.5
489.914	187.5
490.132	178.5
490.35	175.5
490.568	196.5
490.786	194.5
491.003	204.5
491.221	190.5
491.439	202.5
491.657	229.5
491.874	213.5
492.092	209.5
492.31	243.5
492.527	216.5
492.745	199.5
492.963	208.5
493.18	211.5
493.398	216.5
493.615	213.5
493.833	204.5
494.05	206.5
494.268	199.5
494.485	218.5
494.703	196.5
494.92	192.5
495.138	209.5
495.355	233.5
495.573	225.5
495.79	188.5
496.008	221.5
496.225	201.5
496.442	207.5
496.66	215.5
496.877	192.5
497.094	220.5
497.312	193.5
497.529	203.5
497.746	221.5
497.963	193.5
498.181	198.5
498.398	198.5
498.615	198.5
498.832	191.5
499.049	212.5
499.267	219.5
499.484	228.5
499.701	220.5
499.918	233.5
500.135	231.5
500.352	251.5
500.569	241.5
500.786	296.5
501.003	251.5
501.22	217.5
501.437	228.5
501.654	227.5
501.871	218.5
502.088	211.5
502.305	206.5
502.522	205.5
502.739	201.5
502.956	194.5
503.172	228.5
503.389	197.5
503.606	198.5
503.823	201.5
504.04	207.5
504.256	204.5
504.473	195.5
504.69	212.5
504.907	216.5
505.123	221.5
505.34	211.5
505.557	220.5
505.773	205.5
505.99	185.5
506.207	191.5
506.423	167.5
506.64	191.5
506.856	200.5
507.073	181.5
507.289	197.5
507.506	181.5
507.722	176.5
507.939	192.5
508.155	192.5
508.372	186.5
508.588	185.5
508.805	165.5
509.021	175.5
509.238	170.5
509.454	164.5
509.67	163.5
509.887	166.5
510.103	150.5
510.319	161.5
510.536	191.5
510.752	161.5
510.968	168.5
511.184	165.5
511.401	155.5
511.617	160.5
511.833	152.5
512.049	158.5
512.265	180.5
512.481	165.5
512.698	188.5
512.914	165.5
513.13	158.5
513.346	165.5
513.562	164.5
513.778	195.5
513.994	164.5
514.21	167.5
514.426	168.5
514.642	166.5
514.858	156.5
515.074	175.5
515.29	187.5
515.506	176.5
515.721	166.5
515.937	183.5
516.153	169.5
516.369	161.5
516.585	178.5
516.801	165.5
517.016	185.5
517.232	147.5
517.448	173.5
517.664	161.5
517.879	153.5
518.095	167.5
518.311	169.5
518.527	181.5
518.742	161.5
518.958	159.5
519.173	181.5
519.389	145.5
519.605	161.5
519.82	157.5
520.036	174.5
520.251	184.5
520.467	172.5
520.682	169.5
520.898	167.5
521.113	141.5
521.329	176.5
521.544	161.5
521.76	171.5
521.975	160.5
