Data from TenMicroDelayPb_HRD10591_00009.txt Node
Date: Mon Nov 24 14:58:10 EST 2025
User: Yrep
Spectrometer: HR+D1059
Trigger mode: 5
Integration Time (sec): 5.000000E-1
Scans to average: 1
Electric dark correction enabled: true
Nonlinearity correction enabled: false
Boxcar width: 0
XAxis mode: Wavelengths
Number of Pixels in Spectrum: 2048
>>>>>Begin Spectral Data<<<<<
223.165	-29
223.4	-29
223.635	-29
223.869	-34
224.104	-43
224.338	-13
224.573	-18
224.808	-7
225.042	1
225.277	-3
225.511	-15
225.746	22
225.98	9
226.215	16
226.449	16
226.683	29
226.918	23
227.152	46
227.387	46
227.621	47
227.856	56
228.09	38
228.324	57
228.559	68
228.793	67
229.027	63
229.262	77
229.496	74
229.73	88
229.964	80
230.199	78
230.433	95
230.667	94
230.901	87
231.136	80
231.37	81
231.604	76
231.838	77
232.072	74
232.306	85
232.541	75
232.775	97
233.009	95
233.243	89
233.477	91
233.711	113
233.945	94
234.179	105
234.413	81
234.647	95
234.881	78
235.115	77
235.349	93
235.583	78
235.817	85
236.051	91
236.285	89
236.519	85
236.753	98
236.987	102
237.221	82
237.455	81
237.689	107
237.922	95
238.156	70
238.39	75
238.624	83
238.858	93
239.091	116
239.325	89
239.559	85
239.793	94
240.027	100
240.26	98
240.494	108
240.728	92
240.961	89
241.195	95
241.429	106
241.662	81
241.896	91
242.13	81
242.363	92
242.597	84
242.83	108
243.064	90
243.298	95
243.531	79
243.765	100
243.998	100
244.232	106
244.465	101
244.699	81
244.932	90
245.166	94
245.399	91
245.633	92
245.866	87
246.099	92
246.333	90
246.566	89
246.8	91
247.033	92
247.266	89
247.5	89
247.733	103
247.966	102
248.2	99
248.433	96
248.666	99
248.899	107
249.133	101
249.366	115
249.599	85
249.832	93
250.066	102
250.299	100
250.532	109
250.765	90
250.998	110
251.231	113
251.465	105
251.698	104
251.931	106
252.164	102
252.397	107
252.63	119
252.863	90
253.096	95
253.329	112
253.562	99
253.795	105
254.028	136
254.261	118
254.494	116
254.727	119
254.96	108
255.193	104
255.426	100
255.659	98
255.892	122
256.124	115
256.357	120
256.59	114
256.823	97
257.056	103
257.289	111
257.521	123
257.754	134
257.987	113
258.22	116
258.452	102
258.685	110
258.918	110
259.151	106
259.383	118
259.616	118
259.849	117
260.081	110
260.314	111
260.547	124
260.779	116
261.012	133
261.244	129
261.477	177
261.71	148
261.942	129
262.175	132
262.407	106
262.64	107
262.872	119
263.105	127
263.337	116
263.57	115
263.802	125
264.035	129
264.267	121
264.499	119
264.732	123
264.964	121
265.197	129
265.429	118
265.661	122
265.894	110
266.126	133
266.358	134
266.591	147
266.823	120
267.055	128
267.287	120
267.52	108
267.752	111
267.984	119
268.216	120
268.448	121
268.681	109
268.913	113
269.145	107
269.377	113
269.609	105
269.841	110
270.073	101
270.306	115
270.538	103
270.77	119
271.002	128
271.234	115
271.466	127
271.698	102
271.93	124
272.162	119
272.394	125
272.626	113
272.858	107
273.09	117
273.322	106
273.553	107
273.785	127
274.017	122
274.249	122
274.481	106
274.713	128
274.945	113
275.176	109
275.408	124
275.64	109
275.872	116
276.104	126
276.335	121
276.567	119
276.799	114
277.031	125
277.262	125
277.494	123
277.726	125
277.957	128
278.189	118
278.421	129
278.652	118
278.884	133
279.115	139
279.347	137
279.579	151
279.81	170
280.042	174
280.273	184
280.505	181
280.736	158
280.968	135
281.199	142
281.431	126
281.662	130
281.894	145
282.125	142
282.356	145
282.588	143
282.819	140
283.051	152
283.282	161
283.513	173
283.745	174
283.976	141
284.207	122
284.439	147
284.67	139
284.901	118
285.132	127
285.364	124
285.595	125
285.826	121
286.057	145
286.288	126
286.52	142
286.751	131
286.982	154
287.213	146
287.444	162
287.675	162
287.906	158
288.138	124
288.369	118
288.6	116
288.831	123
289.062	130
289.293	125
289.524	128
289.755	123
289.986	106
290.217	117
290.448	121
290.679	127
290.91	131
291.141	123
291.371	126
291.602	127
291.833	110
292.064	115
292.295	118
292.526	103
292.757	120
292.987	133
293.218	111
293.449	124
293.68	130
293.91	114
294.141	122
294.372	125
294.603	126
294.833	121
295.064	129
295.295	137
295.525	116
295.756	138
295.987	121
296.217	138
296.448	127
296.679	129
296.909	140
297.14	129
297.37	128
297.601	120
297.831	116
298.062	135
298.292	116
298.523	147
298.753	114
298.984	114
299.214	139
299.445	119
299.675	128
299.905	129
300.136	113
300.366	119
300.597	123
300.827	126
301.057	127
301.288	116
301.518	123
301.748	135
301.979	198
302.209	141
302.439	126
302.669	124
302.9	122
303.13	127
303.36	129
303.59	127
303.82	132
304.051	127
304.281	132
304.511	129
304.741	132
304.971	122
305.201	131
305.431	143
305.661	125
305.891	128
306.121	126
306.352	121
306.582	119
306.812	112
307.042	132
307.272	128
307.502	124
307.731	133
307.961	115
308.191	127
308.421	140
308.651	138
308.881	131
309.111	116
309.341	125
309.571	128
309.8	132
310.03	123
310.26	126
310.49	137
310.72	138
310.949	123
311.179	131
311.409	121
311.639	137
311.868	145
312.098	133
312.328	129
312.557	141
312.787	134
313.017	145
313.246	143
313.476	139
313.706	140
313.935	129
314.165	145
314.394	141
314.624	157
314.853	153
315.083	133
315.312	133
315.542	128
315.771	142
316.001	152
316.23	143
316.46	121
316.689	130
316.919	121
317.148	129
317.377	160
317.607	153
317.836	127
318.065	133
318.295	143
318.524	136
318.753	122
318.983	131
319.212	144
319.441	135
319.67	137
319.9	140
320.129	148
320.358	138
320.587	131
320.816	138
321.046	126
321.275	143
321.504	125
321.733	140
321.962	133
322.191	142
322.42	125
322.649	143
322.878	155
323.108	138
323.337	122
323.566	131
323.795	133
324.024	129
324.253	117
324.482	134
324.71	149
324.939	134
325.168	129
325.397	139
325.626	147
325.855	141
326.084	120
326.313	123
326.542	135
326.77	140
326.999	127
327.228	141
327.457	142
327.686	129
327.914	135
328.143	163
328.372	143
328.6	129
328.829	126
329.058	123
329.287	118
329.515	139
329.744	133
329.972	128
330.201	133
330.43	132
330.658	130
330.887	122
331.115	135
331.344	131
331.572	137
331.801	115
332.03	141
332.258	127
332.486	125
332.715	142
332.943	124
333.172	150
333.4	134
333.629	142
333.857	137
334.085	132
334.314	132
334.542	129
334.771	130
334.999	135
335.227	134
335.455	133
335.684	156
335.912	127
336.14	147
336.369	138
336.597	137
336.825	143
337.053	126
337.281	126
337.51	133
337.738	131
337.966	142
338.194	126
338.422	135
338.65	145
338.878	133
339.106	141
339.334	148
339.562	121
339.79	129
340.018	127
340.246	137
340.474	135
340.702	143
340.93	134
341.158	131
341.386	144
341.614	133
341.842	127
342.07	136
342.298	134
342.526	147
342.754	138
342.981	139
343.209	133
343.437	178
343.665	136
343.893	117
344.12	154
344.348	143
344.576	118
344.804	126
345.031	140
345.259	145
345.487	142
345.714	125
345.942	130
346.17	149
346.397	148
346.625	133
346.853	132
347.08	123
347.308	142
347.535	129
347.763	145
347.99	144
348.218	142
348.445	127
348.673	117
348.9	131
349.128	146
349.355	129
349.583	145
349.81	146
350.037	140
350.265	133
350.492	142
350.72	143
350.947	130
351.174	132
351.402	121
351.629	138
351.856	125
352.083	134
352.311	145
352.538	138
352.765	138
352.992	160
353.22	127
353.447	126
353.674	136
353.901	146
354.128	126
354.355	132
354.583	135
354.81	144
355.037	147
355.264	138
355.491	143
355.718	138
355.945	144
356.172	138
356.399	164
356.626	147
356.853	162
357.08	204
357.307	232
357.534	241
357.761	198
357.988	183
358.215	172
358.441	173
358.668	159
358.895	154
359.122	163
359.349	141
359.576	139
359.802	126
360.029	154
360.256	155
360.483	156
360.709	151
360.936	160
361.163	145
361.39	143
361.616	128
361.843	155
362.07	161
362.296	143
362.523	131
362.749	144
362.976	147
363.203	180
363.429	161
363.656	205
363.882	244
364.109	301
364.335	245
364.562	184
364.788	186
365.015	167
365.241	158
365.468	165
365.694	151
365.92	165
366.147	141
366.373	138
366.599	165
366.826	149
367.052	183
367.278	195
367.505	180
367.731	221
367.957	219
368.184	265
368.41	307
368.636	309
368.862	242
369.089	205
369.315	185
369.541	177
369.767	170
369.993	159
370.219	150
370.445	153
370.672	131
370.898	148
371.124	145
371.35	155
371.576	145
371.802	138
372.028	138
372.254	149
372.48	147
372.706	139
372.932	143
373.158	157
373.384	158
373.61	187
373.835	227
374.061	257
374.287	254
374.513	194
374.739	170
374.965	154
375.191	154
375.416	153
375.642	154
375.868	179
376.094	166
376.319	142
376.545	140
376.771	140
376.997	134
377.222	141
377.448	154
377.674	132
377.899	150
378.125	125
378.35	153
378.576	137
378.802	129
379.027	144
379.253	148
379.478	142
379.704	126
379.929	147
380.155	132
380.38	141
380.606	134
380.831	134
381.057	179
381.282	146
381.507	138
381.733	138
381.958	135
382.184	142
382.409	136
382.634	159
382.86	146
383.085	146
383.31	140
383.535	134
383.761	140
383.986	157
384.211	147
384.436	143
384.662	139
384.887	140
385.112	135
385.337	154
385.562	146
385.787	135
386.013	135
386.238	161
386.463	139
386.688	197
386.913	148
387.138	144
387.363	140
387.588	156
387.813	160
388.038	148
388.263	154
388.488	153
388.713	135
388.938	153
389.163	143
389.387	149
389.612	133
389.837	146
390.062	151
390.287	146
390.512	139
390.736	146
390.961	150
391.186	161
391.411	156
391.636	144
391.86	151
392.085	141
392.31	138
392.534	127
392.759	155
392.984	166
393.208	141
393.433	147
393.658	149
393.882	146
394.107	153
394.331	144
394.556	134
394.78	171
395.005	156
395.229	167
395.454	151
395.678	140
395.903	162
396.127	165
396.352	154
396.576	161
396.801	151
397.025	152
397.249	148
397.474	160
397.698	154
397.922	156
398.147	148
398.371	135
398.595	146
398.82	155
399.044	153
399.268	151
399.492	165
399.717	159
399.941	153
400.165	161
400.389	163
400.613	159
400.837	154
401.062	164
401.286	173
401.51	163
401.734	169
401.958	201
402.182	190
402.406	155
402.63	159
402.854	161
403.078	169
403.302	162
403.526	162
403.75	164
403.974	161
404.198	174
404.422	176
404.645	195
404.869	207
405.093	219
405.317	242
405.541	327
405.765	444
405.988	490
406.212	387
406.436	291
406.66	249
406.883	227
407.107	200
407.331	197
407.555	189
407.778	188
408.002	183
408.226	197
408.449	197
408.673	166
408.896	178
409.12	176
409.344	182
409.567	174
409.791	177
410.014	173
410.238	182
410.461	175
410.685	164
410.908	152
411.132	192
411.355	174
411.578	171
411.802	179
412.025	175
412.249	160
412.472	159
412.695	162
412.919	156
413.142	154
413.365	173
413.589	166
413.812	172
414.035	165
414.258	147
414.482	161
414.705	169
414.928	183
415.151	178
415.374	169
415.597	147
415.821	146
416.044	163
416.267	172
416.49	181
416.713	180
416.936	190
417.159	164
417.382	141
417.605	170
417.828	162
418.051	161
418.274	153
418.497	163
418.72	155
418.943	174
419.166	164
419.389	172
419.611	166
419.834	176
420.057	175
420.28	167
420.503	169
420.726	165
420.948	157
421.171	174
421.394	176
421.617	169
421.839	178
422.062	185
422.285	171
422.507	179
422.73	178
422.953	187
423.175	192
423.398	185
423.621	178
423.843	186
424.066	205
424.288	225
424.511	230
424.733	254
424.956	242
425.178	233
425.401	210
425.623	210
425.846	197
426.068	195
426.291	200
426.513	179
426.735	191
426.958	198
427.18	191
427.402	175
427.625	172
427.847	187
428.069	178
428.292	164
428.514	173
428.736	161
428.958	187
429.181	196
429.403	174
429.625	156
429.847	145
430.069	176
430.292	171
430.514	167
430.736	170
430.958	177
431.18	161
431.402	178
431.624	160
431.846	171
432.068	163
432.29	166
432.512	162
432.734	159
432.956	179
433.178	180
433.4	181
433.622	183
433.844	190
434.066	181
434.287	173
434.509	148
434.731	181
434.953	167
435.175	162
435.397	188
435.618	184
435.84	164
436.062	163
436.284	178
436.505	159
436.727	177
436.949	175
437.17	164
437.392	167
437.614	190
437.835	179
438.057	178
438.278	202
438.5	202
438.721	228
438.943	268
439.165	227
439.386	221
439.608	219
439.829	208
440.05	226
440.272	218
440.493	198
440.715	208
440.936	227
441.158	226
441.379	220
441.6	201
441.822	198
442.043	192
442.264	181
442.486	190
442.707	201
442.928	196
443.149	173
443.371	212
443.592	187
443.813	177
444.034	179
444.255	192
444.476	167
444.698	207
444.919	187
445.14	602
445.361	386
445.582	211
445.803	169
446.024	194
446.245	187
446.466	193
446.687	166
446.908	203
447.129	191
447.35	195
447.571	193
447.792	174
448.013	174
448.234	180
448.455	177
448.675	183
448.896	197
449.117	178
449.338	175
449.559	203
449.779	190
450	174
450.221	173
450.442	178
450.662	185
450.883	147
451.104	171
451.324	181
451.545	159
451.766	174
451.986	169
452.207	174
452.428	165
452.648	163
452.869	169
453.089	142
453.31	174
453.53	166
453.751	146
453.971	162
454.192	161
454.412	151
454.633	154
454.853	167
455.073	151
455.294	161
455.514	163
455.734	168
455.955	158
456.175	147
456.395	138
456.616	150
456.836	155
457.056	143
457.276	145
457.497	150
457.717	142
457.937	148
458.157	147
458.377	139
458.598	146
458.818	154
459.038	141
459.258	147
459.478	145
459.698	153
459.918	144
460.138	143
460.358	170
460.578	174
460.798	189
461.018	169
461.238	165
461.458	173
461.678	155
461.898	153
462.118	175
462.338	169
462.558	171
462.777	157
462.997	159
463.217	166
463.437	181
463.657	159
463.876	157
464.096	158
464.316	149
464.536	152
464.755	171
464.975	149
465.195	159
465.414	169
465.634	150
465.854	180
466.073	157
466.293	145
466.512	163
466.732	174
466.951	166
467.171	189
467.391	177
467.61	157
467.829	150
468.049	169
468.268	167
468.488	159
468.707	169
468.927	164
469.146	161
469.365	161
469.585	169
469.804	165
470.023	158
470.243	171
470.462	169
470.681	181
470.901	167
471.12	177
471.339	185
471.558	163
471.777	168
471.997	164
472.216	171
472.435	157
472.654	160
472.873	156
473.092	174
473.311	176
473.53	162
473.749	176
473.968	163
474.187	160
474.406	158
474.625	166
474.844	169
475.063	151
475.282	169
475.501	156
475.72	178
475.939	165
476.158	158
476.377	160
476.596	146
476.814	153
477.033	153
477.252	155
477.471	166
477.69	176
477.908	190
478.127	181
478.346	185
478.564	175
478.783	185
479.002	204
479.22	165
479.439	178
479.658	169
479.876	170
480.095	179
480.313	185
480.532	182
480.751	173
480.969	160
481.188	145
481.406	163
481.624	163
481.843	156
482.061	164
482.28	177
482.498	166
482.717	175
482.935	177
483.153	195
483.372	192
483.59	174
483.808	193
484.027	174
484.245	192
484.463	177
484.681	214
484.9	169
485.118	185
485.336	164
485.554	159
485.772	161
485.99	169
486.209	179
486.427	157
486.645	189
486.863	187
487.081	182
487.299	174
487.517	194
487.735	198
487.953	200
488.171	197
488.389	191
488.607	186
488.825	160
489.043	180
489.261	190
489.479	188
489.696	181
489.914	185
490.132	186
490.35	209
490.568	185
490.786	190
491.003	193
491.221	199
491.439	201
491.657	203
491.874	227
492.092	227
492.31	225
492.527	206
492.745	192
492.963	215
493.18	198
493.398	183
493.615	173
493.833	217
494.05	208
494.268	202
494.485	214
494.703	211
494.92	209
495.138	206
495.355	227
495.573	221
495.79	191
496.008	203
496.225	208
496.442	176
496.66	223
496.877	185
497.094	204
497.312	188
497.529	209
497.746	200
497.963	179
498.181	190
498.398	184
498.615	202
498.832	197
499.049	192
499.267	198
499.484	209
499.701	222
499.918	223
500.135	214
500.352	234
500.569	237
500.786	298
501.003	245
501.22	224
501.437	218
501.654	204
501.871	199
502.088	203
502.305	203
502.522	196
502.739	199
502.956	217
503.172	204
503.389	207
503.606	186
503.823	196
504.04	211
504.256	204
504.473	177
504.69	196
504.907	212
505.123	196
505.34	202
505.557	194
505.773	188
505.99	191
506.207	197
506.423	195
506.64	213
506.856	184
507.073	188
507.289	188
507.506	173
507.722	187
507.939	178
508.155	188
508.372	167
508.588	177
508.805	171
509.021	183
509.238	186
509.454	170
509.67	164
509.887	175
510.103	166
510.319	157
510.536	164
510.752	161
510.968	169
511.184	155
511.401	159
511.617	170
511.833	164
512.049	164
512.265	160
512.481	153
512.698	171
512.914	187
513.13	167
513.346	163
513.562	164
513.778	171
513.994	146
514.21	151
514.426	165
514.642	154
514.858	169
515.074	165
515.29	182
515.506	166
515.721	169
515.937	191
516.153	163
516.369	155
516.585	185
516.801	151
517.016	161
517.232	156
517.448	184
517.664	163
517.879	162
518.095	178
518.311	162
518.527	171
518.742	171
518.958	175
519.173	177
519.389	167
519.605	162
519.82	170
520.036	159
520.251	175
520.467	174
520.682	159
520.898	154
521.113	156
521.329	157
521.544	151
521.76	160
521.975	162
522.19	162
522.406	170
522.621	174
522.836	164
523.052	192
523.267	169
523.482	170
523.698	157
523.913	146
524.128	164
524.343	161
524.559	161
524.774	160
524.989	155
525.204	168
525.419	159
525.634	163
525.849	160
526.064	162
526.28	178
526.495	144
526.71	158
526.925	147
527.14	156
527.355	153
527.57	154
527.785	146
527.999	135
528.214	162
528.429	152
528.644	165
528.859	158
529.074	171
529.289	177
529.503	158
529.718	154
529.933	163
530.148	164
530.363	159
530.577	140
530.792	161
531.007	145
531.221	134
531.436	144
531.651	153
531.865	167
532.08	151
532.295	162
532.509	151
532.724	136
532.938	172
533.153	159
533.367	154
533.582	148
533.796	170
534.011	143
534.225	155
534.44	147
534.654	173
534.868	140
535.083	143
535.297	166
535.511	169
535.726	160
535.94	147
536.154	156
536.369	154
536.583	158
536.797	175
537.011	169
537.225	182
537.44	178
537.654	192
537.868	173
538.082	158
538.296	166
538.51	176
538.724	171
538.938	178
539.153	175
539.367	181
539.581	157
539.795	157
540.009	150
540.222	149
540.436	158
540.65	158
540.864	150
541.078	156
541.292	161
541.506	172
541.72	160
541.934	162
542.147	171
542.361	165
542.575	143
542.789	163
543.002	153
543.216	159
543.43	157
543.644	169
543.857	170
544.071	142
544.285	160
544.498	146
544.712	167
544.925	164
545.139	146
545.352	162
545.566	145
545.779	152
545.993	157
546.206	153
546.42	161
546.633	161
546.847	196
547.06	160
547.274	160
547.487	159
547.7	165
547.914	144
548.127	160
548.34	163
548.554	149
548.767	151
548.98	172
549.193	148
549.407	151
549.62	132
549.833	140
550.046	142
550.259	150
550.473	154
550.686	152
550.899	148
551.112	144
551.325	148
551.538	148
551.751	163
551.964	149
552.177	161
552.39	133
552.603	158
552.816	171
553.029	158
553.242	145
553.455	172
553.667	175
553.88	167
554.093	166
554.306	162
554.519	153
554.732	173
554.944	155
555.157	154
555.37	163
555.583	155
555.795	170
556.008	154
556.221	149
556.433	164
556.646	152
556.859	152
557.071	166
557.284	141
557.496	171
557.709	169
557.921	157
558.134	149
558.346	170
558.559	159
558.771	154
558.984	170
559.196	165
559.409	167
559.621	174
559.833	181
560.046	185
560.258	179
560.47	209
560.683	231
560.895	256
561.107	267
561.32	235
561.532	203
561.744	183
561.956	202
562.168	185
562.381	169
562.593	163
562.805	155
563.017	156
563.229	166
563.441	148
563.653	153
563.865	127
564.077	135
564.289	158
564.501	160
564.713	153
564.925	148
565.137	150
565.349	155
565.561	148
