Data from TenMicroDelayPb_HRD10591_00005.txt Node
Date: Mon Nov 24 14:58:08 EST 2025
User: Yrep
Spectrometer: HR+D1059
Trigger mode: 5
Integration Time (sec): 5.000000E-1
Scans to average: 1
Electric dark correction enabled: true
Nonlinearity correction enabled: false
Boxcar width: 0
XAxis mode: Wavelengths
Number of Pixels in Spectrum: 2048
>>>>>Begin Spectral Data<<<<<
223.165	-30.06
223.4	-30.06
223.635	-30.06
223.869	-31.06
224.104	-26.06
224.338	-14.06
224.573	-19.06
224.808	-16.06
225.042	2.94
225.277	-0.06
225.511	-6.06
225.746	6.94
225.98	5.94
226.215	28.94
226.449	17.94
226.683	12.94
226.918	25.94
227.152	40.94
227.387	23.94
227.621	43.94
227.856	60.94
228.09	50.94
228.324	37.94
228.559	74.94
228.793	67.94
229.027	73.94
229.262	77.94
229.496	75.94
229.73	81.94
229.964	93.94
230.199	76.94
230.433	66.94
230.667	77.94
230.901	86.94
231.136	73.94
231.37	87.94
231.604	79.94
231.838	101.94
232.072	95.94
232.306	100.94
232.541	86.94
232.775	95.94
233.009	92.94
233.243	82.94
233.477	76.94
233.711	84.94
233.945	91.94
234.179	88.94
234.413	90.94
234.647	101.94
234.881	89.94
235.115	84.94
235.349	93.94
235.583	74.94
235.817	58.94
236.051	77.94
236.285	70.94
236.519	79.94
236.753	87.94
236.987	79.94
237.221	85.94
237.455	80.94
237.689	102.94
237.922	86.94
238.156	79.94
238.39	68.94
238.624	78.94
238.858	94.94
239.091	97.94
239.325	91.94
239.559	105.94
239.793	90.94
240.027	88.94
240.26	98.94
240.494	107.94
240.728	84.94
240.961	83.94
241.195	91.94
241.429	88.94
241.662	88.94
241.896	83.94
242.13	80.94
242.363	84.94
242.597	86.94
242.83	96.94
243.064	107.94
243.298	102.94
243.531	87.94
243.765	94.94
243.998	85.94
244.232	98.94
244.465	106.94
244.699	87.94
244.932	93.94
245.166	94.94
245.399	97.94
245.633	91.94
245.866	87.94
246.099	82.94
246.333	95.94
246.566	82.94
246.8	92.94
247.033	88.94
247.266	95.94
247.5	90.94
247.733	106.94
247.966	108.94
248.2	81.94
248.433	86.94
248.666	102.94
248.899	101.94
249.133	84.94
249.366	113.94
249.599	70.94
249.832	81.94
250.066	115.94
250.299	97.94
250.532	108.94
250.765	106.94
250.998	110.94
251.231	108.94
251.465	98.94
251.698	106.94
251.931	99.94
252.164	94.94
252.397	86.94
252.63	94.94
252.863	116.94
253.096	120.94
253.329	110.94
253.562	130.94
253.795	112.94
254.028	110.94
254.261	102.94
254.494	105.94
254.727	116.94
254.96	126.94
255.193	110.94
255.426	111.94
255.659	105.94
255.892	117.94
256.124	100.94
256.357	116.94
256.59	108.94
256.823	108.94
257.056	112.94
257.289	111.94
257.521	135.94
257.754	131.94
257.987	107.94
258.22	120.94
258.452	100.94
258.685	134.94
258.918	100.94
259.151	107.94
259.383	112.94
259.616	113.94
259.849	131.94
260.081	118.94
260.314	116.94
260.547	123.94
260.779	104.94
261.012	125.94
261.244	145.94
261.477	171.94
261.71	147.94
261.942	153.94
262.175	125.94
262.407	115.94
262.64	108.94
262.872	109.94
263.105	110.94
263.337	137.94
263.57	118.94
263.802	126.94
264.035	119.94
264.267	112.94
264.499	112.94
264.732	135.94
264.964	125.94
265.197	124.94
265.429	140.94
265.661	118.94
265.894	125.94
266.126	136.94
266.358	124.94
266.591	126.94
266.823	124.94
267.055	130.94
267.287	113.94
267.52	108.94
267.752	97.94
267.984	114.94
268.216	112.94
268.448	116.94
268.681	105.94
268.913	109.94
269.145	118.94
269.377	102.94
269.609	125.94
269.841	120.94
270.073	118.94
270.306	120.94
270.538	96.94
270.77	125.94
271.002	116.94
271.234	113.94
271.466	126.94
271.698	103.94
271.93	114.94
272.162	117.94
272.394	125.94
272.626	109.94
272.858	85.94
273.09	93.94
273.322	106.94
273.553	113.94
273.785	109.94
274.017	110.94
274.249	108.94
274.481	115.94
274.713	124.94
274.945	116.94
275.176	105.94
275.408	119.94
275.64	112.94
275.872	114.94
276.104	117.94
276.335	112.94
276.567	122.94
276.799	107.94
277.031	102.94
277.262	117.94
277.494	130.94
277.726	136.94
277.957	125.94
278.189	120.94
278.421	133.94
278.652	133.94
278.884	125.94
279.115	129.94
279.347	145.94
279.579	142.94
279.81	165.94
280.042	189.94
280.273	205.94
280.505	191.94
280.736	153.94
280.968	142.94
281.199	139.94
281.431	122.94
281.662	136.94
281.894	130.94
282.125	142.94
282.356	140.94
282.588	167.94
282.819	158.94
283.051	148.94
283.282	150.94
283.513	193.94
283.745	161.94
283.976	146.94
284.207	142.94
284.439	131.94
284.67	148.94
284.901	119.94
285.132	121.94
285.364	133.94
285.595	125.94
285.826	116.94
286.057	149.94
286.288	130.94
286.52	135.94
286.751	125.94
286.982	154.94
287.213	161.94
287.444	184.94
287.675	160.94
287.906	139.94
288.138	110.94
288.369	135.94
288.6	127.94
288.831	124.94
289.062	141.94
289.293	129.94
289.524	129.94
289.755	124.94
289.986	108.94
290.217	118.94
290.448	114.94
290.679	134.94
290.91	118.94
291.141	119.94
291.371	125.94
291.602	131.94
291.833	136.94
292.064	110.94
292.295	116.94
292.526	121.94
292.757	119.94
292.987	135.94
293.218	122.94
293.449	125.94
293.68	120.94
293.91	121.94
294.141	157.94
294.372	126.94
294.603	117.94
294.833	123.94
295.064	122.94
295.295	130.94
295.525	124.94
295.756	123.94
295.987	135.94
296.217	134.94
296.448	141.94
296.679	134.94
296.909	121.94
297.14	122.94
297.37	133.94
297.601	138.94
297.831	115.94
298.062	139.94
298.292	126.94
298.523	133.94
298.753	126.94
298.984	134.94
299.214	125.94
299.445	119.94
299.675	122.94
299.905	136.94
300.136	136.94
300.366	117.94
300.597	120.94
300.827	119.94
301.057	121.94
301.288	128.94
301.518	124.94
301.748	134.94
301.979	177.94
302.209	127.94
302.439	130.94
302.669	125.94
302.9	135.94
303.13	133.94
303.36	139.94
303.59	116.94
303.82	137.94
304.051	137.94
304.281	130.94
304.511	149.94
304.741	138.94
304.971	144.94
305.201	142.94
305.431	142.94
305.661	128.94
305.891	140.94
306.121	133.94
306.352	130.94
306.582	134.94
306.812	130.94
307.042	127.94
307.272	121.94
307.502	132.94
307.731	133.94
307.961	120.94
308.191	130.94
308.421	134.94
308.651	134.94
308.881	144.94
309.111	126.94
309.341	129.94
309.571	127.94
309.8	127.94
310.03	136.94
310.26	120.94
310.49	127.94
310.72	119.94
310.949	135.94
311.179	138.94
311.409	127.94
311.639	131.94
311.868	125.94
312.098	129.94
312.328	141.94
312.557	146.94
312.787	144.94
313.017	139.94
313.246	142.94
313.476	143.94
313.706	143.94
313.935	155.94
314.165	148.94
314.394	147.94
314.624	145.94
314.853	151.94
315.083	157.94
315.312	150.94
315.542	142.94
315.771	152.94
316.001	146.94
316.23	139.94
316.46	154.94
316.689	148.94
316.919	165.94
317.148	160.94
317.377	142.94
317.607	154.94
317.836	132.94
318.065	145.94
318.295	155.94
318.524	126.94
318.753	141.94
318.983	144.94
319.212	155.94
319.441	150.94
319.67	143.94
319.9	123.94
320.129	112.94
320.358	132.94
320.587	141.94
320.816	121.94
321.046	133.94
321.275	156.94
321.504	127.94
321.733	137.94
321.962	141.94
322.191	140.94
322.42	140.94
322.649	138.94
322.878	167.94
323.108	145.94
323.337	124.94
323.566	126.94
323.795	148.94
324.024	150.94
324.253	121.94
324.482	121.94
324.71	129.94
324.939	146.94
325.168	143.94
325.397	148.94
325.626	133.94
325.855	139.94
326.084	141.94
326.313	153.94
326.542	129.94
326.77	135.94
326.999	118.94
327.228	138.94
327.457	154.94
327.686	135.94
327.914	143.94
328.143	151.94
328.372	127.94
328.6	145.94
328.829	126.94
329.058	136.94
329.287	150.94
329.515	127.94
329.744	134.94
329.972	137.94
330.201	143.94
330.43	143.94
330.658	132.94
330.887	136.94
331.115	132.94
331.344	134.94
331.572	145.94
331.801	139.94
332.03	144.94
332.258	137.94
332.486	139.94
332.715	126.94
332.943	144.94
333.172	149.94
333.4	141.94
333.629	150.94
333.857	137.94
334.085	127.94
334.314	133.94
334.542	140.94
334.771	135.94
334.999	138.94
335.227	126.94
335.455	142.94
335.684	145.94
335.912	148.94
336.14	147.94
336.369	122.94
336.597	128.94
336.825	150.94
337.053	127.94
337.281	130.94
337.51	130.94
337.738	158.94
337.966	135.94
338.194	128.94
338.422	144.94
338.65	151.94
338.878	150.94
339.106	132.94
339.334	158.94
339.562	136.94
339.79	118.94
340.018	151.94
340.246	136.94
340.474	145.94
340.702	128.94
340.93	134.94
341.158	120.94
341.386	146.94
341.614	140.94
341.842	135.94
342.07	122.94
342.298	121.94
342.526	128.94
342.754	125.94
342.981	140.94
343.209	131.94
343.437	205.94
343.665	153.94
343.893	136.94
344.12	160.94
344.348	141.94
344.576	125.94
344.804	131.94
345.031	140.94
345.259	140.94
345.487	137.94
345.714	141.94
345.942	127.94
346.17	139.94
346.397	128.94
346.625	138.94
346.853	132.94
347.08	134.94
347.308	158.94
347.535	140.94
347.763	119.94
347.99	138.94
348.218	145.94
348.445	134.94
348.673	132.94
348.9	117.94
349.128	136.94
349.355	124.94
349.583	120.94
349.81	121.94
350.037	150.94
350.265	148.94
350.492	131.94
350.72	127.94
350.947	140.94
351.174	144.94
351.402	138.94
351.629	150.94
351.856	126.94
352.083	139.94
352.311	127.94
352.538	134.94
352.765	136.94
352.992	160.94
353.22	138.94
353.447	124.94
353.674	150.94
353.901	146.94
354.128	135.94
354.355	144.94
354.583	132.94
354.81	133.94
355.037	157.94
355.264	149.94
355.491	136.94
355.718	130.94
355.945	134.94
356.172	144.94
356.399	143.94
356.626	144.94
356.853	184.94
357.08	210.94
357.307	268.94
357.534	238.94
357.761	216.94
357.988	191.94
358.215	183.94
358.441	162.94
358.668	148.94
358.895	168.94
359.122	153.94
359.349	159.94
359.576	123.94
359.802	163.94
360.029	150.94
360.256	137.94
360.483	151.94
360.709	144.94
360.936	187.94
361.163	159.94
361.39	151.94
361.616	150.94
361.843	159.94
362.07	129.94
362.296	151.94
362.523	136.94
362.749	151.94
362.976	156.94
363.203	191.94
363.429	173.94
363.656	220.94
363.882	265.94
364.109	296.94
364.335	248.94
364.562	195.94
364.788	161.94
365.015	159.94
365.241	155.94
365.468	172.94
365.694	151.94
365.92	155.94
366.147	162.94
366.373	159.94
366.599	155.94
366.826	168.94
367.052	186.94
367.278	203.94
367.505	202.94
367.731	229.94
367.957	240.94
368.184	283.94
368.41	360.94
368.636	308.94
368.862	247.94
369.089	200.94
369.315	173.94
369.541	184.94
369.767	177.94
369.993	173.94
370.219	151.94
370.445	147.94
370.672	156.94
370.898	151.94
371.124	156.94
371.35	157.94
371.576	170.94
371.802	153.94
372.028	140.94
372.254	157.94
372.48	154.94
372.706	154.94
372.932	169.94
373.158	155.94
373.384	186.94
373.61	204.94
373.835	225.94
374.061	261.94
374.287	250.94
374.513	202.94
374.739	191.94
374.965	164.94
375.191	153.94
375.416	159.94
375.642	155.94
375.868	176.94
376.094	166.94
376.319	140.94
376.545	139.94
376.771	140.94
376.997	140.94
377.222	154.94
377.448	164.94
377.674	148.94
377.899	128.94
378.125	144.94
378.35	178.94
378.576	152.94
378.802	140.94
379.027	138.94
379.253	162.94
379.478	158.94
379.704	160.94
379.929	165.94
380.155	150.94
380.38	143.94
380.606	127.94
380.831	141.94
381.057	169.94
381.282	148.94
381.507	147.94
381.733	143.94
381.958	140.94
382.184	144.94
382.409	132.94
382.634	167.94
382.86	161.94
383.085	154.94
383.31	153.94
383.535	158.94
383.761	150.94
383.986	155.94
384.211	134.94
384.436	128.94
384.662	146.94
384.887	136.94
385.112	144.94
385.337	152.94
385.562	150.94
385.787	129.94
386.013	146.94
386.238	140.94
386.463	152.94
386.688	199.94
386.913	150.94
387.138	142.94
387.363	143.94
387.588	156.94
387.813	147.94
388.038	153.94
388.263	155.94
388.488	141.94
388.713	162.94
388.938	150.94
389.163	141.94
389.387	146.94
389.612	137.94
389.837	159.94
390.062	170.94
390.287	153.94
390.512	153.94
390.736	141.94
390.961	134.94
391.186	152.94
391.411	148.94
391.636	144.94
391.86	164.94
392.085	142.94
392.31	134.94
392.534	139.94
392.759	158.94
392.984	160.94
393.208	164.94
393.433	159.94
393.658	168.94
393.882	137.94
394.107	139.94
394.331	145.94
394.556	152.94
394.78	149.94
395.005	161.94
395.229	152.94
395.454	162.94
395.678	149.94
395.903	146.94
396.127	164.94
396.352	148.94
396.576	144.94
396.801	150.94
397.025	155.94
397.249	163.94
397.474	164.94
397.698	149.94
397.922	149.94
398.147	161.94
398.371	166.94
398.595	174.94
398.82	158.94
399.044	148.94
399.268	142.94
399.492	167.94
399.717	174.94
399.941	160.94
400.165	180.94
400.389	161.94
400.613	168.94
400.837	162.94
401.062	173.94
401.286	159.94
401.51	174.94
401.734	171.94
401.958	207.94
402.182	184.94
402.406	166.94
402.63	176.94
402.854	181.94
403.078	151.94
403.302	155.94
403.526	161.94
403.75	166.94
403.974	170.94
404.198	170.94
404.422	192.94
404.645	171.94
404.869	203.94
405.093	214.94
405.317	267.94
405.541	347.94
405.765	460.94
405.988	522.94
406.212	399.94
406.436	314.94
406.66	251.94
406.883	231.94
407.107	220.94
407.331	185.94
407.555	203.94
407.778	204.94
408.002	188.94
408.226	208.94
408.449	184.94
408.673	180.94
408.896	185.94
409.12	185.94
409.344	198.94
409.567	176.94
409.791	185.94
410.014	192.94
410.238	174.94
410.461	184.94
410.685	172.94
410.908	174.94
411.132	180.94
411.355	171.94
411.578	166.94
411.802	160.94
412.025	160.94
412.249	170.94
412.472	178.94
412.695	153.94
412.919	176.94
413.142	165.94
413.365	180.94
413.589	156.94
413.812	172.94
414.035	192.94
414.258	168.94
414.482	179.94
414.705	184.94
414.928	172.94
415.151	163.94
415.374	154.94
415.597	162.94
415.821	166.94
416.044	176.94
416.267	166.94
416.49	170.94
416.713	173.94
416.936	182.94
417.159	182.94
417.382	160.94
417.605	144.94
417.828	168.94
418.051	172.94
418.274	190.94
418.497	160.94
418.72	166.94
418.943	172.94
419.166	199.94
419.389	167.94
419.611	160.94
419.834	156.94
420.057	167.94
420.28	178.94
420.503	169.94
420.726	154.94
420.948	166.94
421.171	170.94
421.394	183.94
421.617	189.94
421.839	179.94
422.062	189.94
422.285	176.94
422.507	188.94
422.73	166.94
422.953	170.94
423.175	198.94
423.398	182.94
423.621	195.94
423.843	203.94
424.066	204.94
424.288	241.94
424.511	269.94
424.733	293.94
424.956	254.94
425.178	220.94
425.401	226.94
425.623	210.94
425.846	190.94
426.068	203.94
426.291	196.94
426.513	202.94
426.735	192.94
426.958	197.94
427.18	198.94
427.402	195.94
427.625	196.94
427.847	183.94
428.069	182.94
428.292	178.94
428.514	199.94
428.736	182.94
428.958	167.94
429.181	176.94
429.403	169.94
429.625	186.94
429.847	175.94
430.069	176.94
430.292	171.94
430.514	183.94
430.736	167.94
430.958	172.94
431.18	151.94
431.402	178.94
431.624	169.94
431.846	165.94
432.068	149.94
432.29	179.94
432.512	180.94
432.734	167.94
432.956	169.94
433.178	191.94
433.4	166.94
433.622	184.94
433.844	177.94
434.066	174.94
434.287	169.94
434.509	154.94
434.731	156.94
434.953	190.94
435.175	172.94
435.397	178.94
435.618	165.94
435.84	182.94
436.062	183.94
436.284	184.94
436.505	192.94
436.727	179.94
436.949	168.94
437.17	183.94
437.392	174.94
437.614	178.94
437.835	169.94
438.057	178.94
438.278	187.94
438.5	228.94
438.721	221.94
438.943	249.94
439.165	250.94
439.386	248.94
439.608	226.94
439.829	207.94
440.05	235.94
440.272	238.94
440.493	219.94
440.715	209.94
440.936	240.94
441.158	234.94
441.379	203.94
441.6	237.94
441.822	225.94
442.043	207.94
442.264	188.94
442.486	198.94
442.707	201.94
442.928	202.94
443.149	178.94
443.371	192.94
443.592	192.94
443.813	194.94
444.034	190.94
444.255	206.94
444.476	195.94
444.698	196.94
444.919	181.94
445.14	593.94
445.361	386.94
445.582	216.94
445.803	196.94
446.024	181.94
446.245	182.94
446.466	203.94
446.687	193.94
446.908	184.94
447.129	193.94
447.35	186.94
447.571	184.94
447.792	194.94
448.013	195.94
448.234	178.94
448.455	172.94
448.675	186.94
448.896	170.94
449.117	185.94
449.338	175.94
449.559	196.94
449.779	180.94
450	193.94
450.221	173.94
450.442	153.94
450.662	178.94
450.883	158.94
451.104	172.94
451.324	176.94
451.545	183.94
451.766	165.94
451.986	175.94
452.207	162.94
452.428	174.94
452.648	189.94
452.869	146.94
453.089	166.94
453.31	152.94
453.53	161.94
453.751	166.94
453.971	176.94
454.192	162.94
454.412	144.94
454.633	140.94
454.853	167.94
455.073	171.94
455.294	150.94
455.514	184.94
455.734	156.94
455.955	174.94
456.175	157.94
456.395	154.94
456.616	156.94
456.836	149.94
457.056	156.94
457.276	154.94
457.497	155.94
457.717	157.94
457.937	169.94
458.157	164.94
458.377	156.94
458.598	161.94
458.818	153.94
459.038	153.94
459.258	151.94
459.478	164.94
459.698	154.94
459.918	151.94
460.138	156.94
460.358	178.94
460.578	177.94
460.798	159.94
461.018	168.94
461.238	166.94
461.458	184.94
461.678	160.94
461.898	155.94
462.118	170.94
462.338	169.94
462.558	189.94
462.777	178.94
462.997	174.94
463.217	169.94
463.437	166.94
463.657	178.94
463.876	158.94
464.096	165.94
464.316	154.94
464.536	176.94
464.755	161.94
464.975	190.94
465.195	170.94
465.414	173.94
465.634	158.94
465.854	173.94
466.073	170.94
466.293	175.94
466.512	162.94
466.732	169.94
466.951	178.94
467.171	183.94
467.391	166.94
467.61	188.94
467.829	173.94
468.049	175.94
468.268	170.94
468.488	164.94
468.707	170.94
468.927	161.94
469.146	162.94
469.365	172.94
469.585	174.94
469.804	182.94
470.023	159.94
470.243	191.94
470.462	177.94
470.681	168.94
470.901	182.94
471.12	173.94
471.339	181.94
471.558	183.94
471.777	168.94
471.997	153.94
472.216	166.94
472.435	138.94
472.654	144.94
472.873	156.94
473.092	163.94
473.311	176.94
473.53	151.94
473.749	167.94
473.968	173.94
474.187	157.94
474.406	173.94
474.625	168.94
474.844	186.94
475.063	175.94
475.282	159.94
475.501	174.94
475.72	195.94
475.939	170.94
476.158	156.94
476.377	166.94
476.596	178.94
476.814	154.94
477.033	165.94
477.252	172.94
477.471	179.94
477.69	190.94
477.908	179.94
478.127	197.94
478.346	175.94
478.564	178.94
478.783	188.94
479.002	194.94
479.22	183.94
479.439	194.94
479.658	170.94
479.876	164.94
480.095	161.94
480.313	173.94
480.532	178.94
480.751	170.94
480.969	161.94
481.188	175.94
481.406	168.94
481.624	178.94
481.843	157.94
482.061	180.94
482.28	174.94
482.498	175.94
482.717	177.94
482.935	174.94
483.153	173.94
483.372	170.94
483.59	184.94
483.808	179.94
484.027	187.94
484.245	201.94
484.463	172.94
484.681	188.94
484.9	184.94
485.118	197.94
485.336	164.94
485.554	180.94
485.772	155.94
485.99	168.94
486.209	176.94
486.427	181.94
486.645	189.94
486.863	199.94
487.081	174.94
487.299	180.94
487.517	197.94
487.735	210.94
487.953	204.94
488.171	199.94
488.389	189.94
488.607	194.94
488.825	175.94
489.043	178.94
489.261	190.94
489.479	181.94
489.696	209.94
489.914	188.94
490.132	189.94
490.35	200.94
490.568	200.94
490.786	206.94
491.003	189.94
491.221	202.94
491.439	213.94
491.657	212.94
491.874	239.94
492.092	224.94
492.31	231.94
492.527	206.94
492.745	198.94
492.963	223.94
493.18	224.94
493.398	215.94
493.615	205.94
493.833	190.94
494.05	214.94
494.268	205.94
494.485	204.94
494.703	213.94
494.92	203.94
495.138	201.94
495.355	233.94
495.573	216.94
495.79	198.94
496.008	215.94
496.225	205.94
496.442	208.94
496.66	217.94
496.877	216.94
497.094	194.94
497.312	214.94
497.529	208.94
497.746	194.94
497.963	210.94
498.181	190.94
498.398	202.94
498.615	196.94
498.832	188.94
499.049	215.94
499.267	208.94
499.484	208.94
499.701	215.94
499.918	216.94
500.135	222.94
500.352	225.94
500.569	251.94
500.786	280.94
501.003	254.94
501.22	253.94
501.437	218.94
501.654	219.94
501.871	214.94
502.088	218.94
502.305	220.94
502.522	220.94
502.739	208.94
502.956	195.94
503.172	228.94
503.389	205.94
503.606	199.94
503.823	203.94
