Data from TenMicroDelayPb_HRD10591_00001.txt Node
Date: Mon Nov 24 14:58:06 EST 2025
User: Yrep
Spectrometer: HR+D1059
Trigger mode: 5
Integration Time (sec): 5.000000E-1
Scans to average: 1
Electric dark correction enabled: true
Nonlinearity correction enabled: false
Boxcar width: 0
XAxis mode: Wavelengths
Number of Pixels in Spectrum: 2048
>>>>>Begin Spectral Data<<<<<
223.165	-32.25
223.4	-32.25
223.635	-32.25
223.869	-15.25
224.104	-35.25
224.338	2.75
224.573	-3.25
224.808	-14.25
225.042	-5.25
225.277	-4.25
225.511	-18.25
225.746	14.75
225.98	23.75
226.215	6.75
226.449	10.75
226.683	13.75
226.918	33.75
227.152	21.75
227.387	39.75
227.621	51.75
227.856	51.75
228.09	54.75
228.324	56.75
228.559	67.75
228.793	62.75
229.027	55.75
229.262	85.75
229.496	68.75
229.73	53.75
229.964	75.75
230.199	79.75
230.433	77.75
230.667	102.75
230.901	95.75
231.136	71.75
231.37	92.75
231.604	86.75
231.838	95.75
232.072	77.75
232.306	95.75
232.541	75.75
232.775	89.75
233.009	98.75
233.243	89.75
233.477	74.75
233.711	116.75
233.945	94.75
234.179	110.75
234.413	105.75
234.647	106.75
234.881	83.75
235.115	84.75
235.349	86.75
235.583	88.75
235.817	87.75
236.051	84.75
236.285	91.75
236.519	94.75
236.753	78.75
236.987	81.75
237.221	90.75
237.455	76.75
237.689	78.75
237.922	85.75
238.156	78.75
238.39	76.75
238.624	94.75
238.858	86.75
239.091	86.75
239.325	71.75
239.559	104.75
239.793	97.75
240.027	108.75
240.26	90.75
240.494	95.75
240.728	104.75
240.961	94.75
241.195	105.75
241.429	94.75
241.662	91.75
241.896	71.75
242.13	102.75
242.363	85.75
242.597	98.75
242.83	90.75
243.064	96.75
243.298	99.75
243.531	98.75
243.765	83.75
243.998	80.75
244.232	105.75
244.465	90.75
244.699	97.75
244.932	100.75
245.166	93.75
245.399	106.75
245.633	88.75
245.866	74.75
246.099	66.75
246.333	99.75
246.566	94.75
246.8	90.75
247.033	98.75
247.266	96.75
247.5	106.75
247.733	102.75
247.966	111.75
248.2	93.75
248.433	86.75
248.666	81.75
248.899	102.75
249.133	85.75
249.366	110.75
249.599	84.75
249.832	83.75
250.066	110.75
250.299	90.75
250.532	91.75
250.765	93.75
250.998	111.75
251.231	95.75
251.465	105.75
251.698	95.75
251.931	102.75
252.164	114.75
252.397	114.75
252.63	106.75
252.863	98.75
253.096	87.75
253.329	106.75
253.562	103.75
253.795	115.75
254.028	124.75
254.261	104.75
254.494	93.75
254.727	116.75
254.96	112.75
255.193	105.75
255.426	95.75
255.659	107.75
255.892	128.75
256.124	99.75
256.357	103.75
256.59	122.75
256.823	106.75
257.056	109.75
257.289	108.75
257.521	121.75
257.754	123.75
257.987	127.75
258.22	129.75
258.452	119.75
258.685	111.75
258.918	81.75
259.151	90.75
259.383	114.75
259.616	120.75
259.849	118.75
260.081	124.75
260.314	106.75
260.547	113.75
260.779	115.75
261.012	117.75
261.244	141.75
261.477	156.75
261.71	154.75
261.942	127.75
262.175	110.75
262.407	113.75
262.64	116.75
262.872	116.75
263.105	113.75
263.337	126.75
263.57	111.75
263.802	122.75
264.035	128.75
264.267	115.75
264.499	109.75
264.732	121.75
264.964	117.75
265.197	125.75
265.429	141.75
265.661	127.75
265.894	123.75
266.126	143.75
266.358	143.75
266.591	144.75
266.823	131.75
267.055	123.75
267.287	124.75
267.52	121.75
267.752	121.75
267.984	126.75
268.216	114.75
268.448	116.75
268.681	120.75
268.913	113.75
269.145	113.75
269.377	123.75
269.609	110.75
269.841	121.75
270.073	123.75
270.306	112.75
270.538	123.75
270.77	128.75
271.002	119.75
271.234	102.75
271.466	110.75
271.698	111.75
271.93	91.75
272.162	117.75
272.394	118.75
272.626	105.75
272.858	114.75
273.09	103.75
273.322	108.75
273.553	97.75
273.785	114.75
274.017	111.75
274.249	108.75
274.481	114.75
274.713	121.75
274.945	121.75
275.176	102.75
275.408	96.75
275.64	110.75
275.872	108.75
276.104	118.75
276.335	130.75
276.567	116.75
276.799	112.75
277.031	115.75
277.262	116.75
277.494	132.75
277.726	135.75
277.957	112.75
278.189	129.75
278.421	124.75
278.652	129.75
278.884	127.75
279.115	144.75
279.347	151.75
279.579	145.75
279.81	177.75
280.042	173.75
280.273	209.75
280.505	189.75
280.736	160.75
280.968	161.75
281.199	128.75
281.431	153.75
281.662	147.75
281.894	158.75
282.125	170.75
282.356	144.75
282.588	141.75
282.819	148.75
283.051	155.75
283.282	166.75
283.513	212.75
283.745	168.75
283.976	175.75
284.207	136.75
284.439	154.75
284.67	134.75
284.901	141.75
285.132	137.75
285.364	123.75
285.595	131.75
285.826	120.75
286.057	156.75
286.288	137.75
286.52	121.75
286.751	142.75
286.982	148.75
287.213	163.75
287.444	184.75
287.675	160.75
287.906	144.75
288.138	134.75
288.369	128.75
288.6	134.75
288.831	143.75
289.062	151.75
289.293	125.75
289.524	132.75
289.755	124.75
289.986	116.75
290.217	135.75
290.448	122.75
290.679	127.75
290.91	129.75
291.141	125.75
291.371	132.75
291.602	119.75
291.833	122.75
292.064	106.75
292.295	127.75
292.526	128.75
292.757	124.75
292.987	136.75
293.218	124.75
293.449	131.75
293.68	114.75
293.91	130.75
294.141	122.75
294.372	126.75
294.603	127.75
294.833	120.75
295.064	126.75
295.295	108.75
295.525	117.75
295.756	120.75
295.987	121.75
296.217	122.75
296.448	129.75
296.679	132.75
296.909	135.75
297.14	137.75
297.37	130.75
297.601	134.75
297.831	124.75
298.062	125.75
298.292	130.75
298.523	132.75
298.753	122.75
298.984	135.75
299.214	124.75
299.445	126.75
299.675	126.75
299.905	138.75
300.136	129.75
300.366	120.75
300.597	124.75
300.827	134.75
301.057	119.75
301.288	126.75
301.518	133.75
301.748	115.75
301.979	171.75
302.209	131.75
302.439	113.75
302.669	126.75
302.9	131.75
303.13	129.75
303.36	128.75
303.59	133.75
303.82	125.75
304.051	127.75
304.281	139.75
304.511	138.75
304.741	116.75
304.971	136.75
305.201	121.75
305.431	125.75
305.661	127.75
305.891	112.75
306.121	125.75
306.352	142.75
306.582	124.75
306.812	128.75
307.042	120.75
307.272	126.75
307.502	125.75
307.731	127.75
307.961	127.75
308.191	130.75
308.421	142.75
308.651	132.75
308.881	137.75
309.111	122.75
309.341	128.75
309.571	131.75
309.8	118.75
310.03	127.75
310.26	107.75
310.49	118.75
310.72	121.75
310.949	127.75
311.179	130.75
311.409	126.75
311.639	137.75
311.868	151.75
312.098	135.75
312.328	168.75
312.557	148.75
312.787	136.75
313.017	142.75
313.246	139.75
313.476	156.75
313.706	134.75
313.935	153.75
314.165	138.75
314.394	138.75
314.624	126.75
314.853	140.75
315.083	148.75
315.312	141.75
315.542	131.75
315.771	142.75
316.001	143.75
316.23	127.75
316.46	129.75
316.689	132.75
316.919	139.75
317.148	148.75
317.377	147.75
317.607	161.75
317.836	143.75
318.065	127.75
318.295	147.75
318.524	116.75
318.753	140.75
318.983	140.75
319.212	145.75
319.441	138.75
319.67	141.75
319.9	132.75
320.129	126.75
320.358	137.75
320.587	136.75
320.816	130.75
321.046	146.75
321.275	151.75
321.504	123.75
321.733	128.75
321.962	113.75
322.191	149.75
322.42	116.75
322.649	131.75
322.878	135.75
323.108	124.75
323.337	132.75
323.566	136.75
323.795	140.75
324.024	138.75
324.253	137.75
324.482	117.75
324.71	126.75
324.939	142.75
325.168	133.75
325.397	127.75
325.626	138.75
325.855	133.75
326.084	137.75
326.313	128.75
326.542	137.75
326.77	142.75
326.999	129.75
327.228	144.75
327.457	140.75
327.686	135.75
327.914	134.75
328.143	151.75
328.372	159.75
328.6	128.75
328.829	144.75
329.058	141.75
329.287	132.75
329.515	138.75
329.744	143.75
329.972	138.75
330.201	134.75
330.43	134.75
330.658	115.75
330.887	153.75
331.115	142.75
331.344	132.75
331.572	142.75
331.801	135.75
332.03	139.75
332.258	136.75
332.486	132.75
332.715	136.75
332.943	135.75
333.172	156.75
333.4	142.75
333.629	141.75
333.857	127.75
334.085	142.75
334.314	146.75
334.542	138.75
334.771	120.75
334.999	139.75
335.227	119.75
335.455	144.75
335.684	136.75
335.912	152.75
336.14	140.75
336.369	136.75
336.597	144.75
336.825	152.75
337.053	137.75
337.281	148.75
337.51	139.75
337.738	150.75
337.966	118.75
338.194	131.75
338.422	145.75
338.65	148.75
338.878	151.75
339.106	139.75
339.334	145.75
339.562	140.75
339.79	137.75
340.018	148.75
340.246	142.75
340.474	132.75
340.702	144.75
340.93	143.75
341.158	145.75
341.386	130.75
341.614	140.75
341.842	136.75
342.07	127.75
342.298	143.75
342.526	123.75
342.754	136.75
342.981	132.75
343.209	125.75
343.437	178.75
343.665	134.75
343.893	147.75
344.12	148.75
344.348	135.75
344.576	140.75
344.804	150.75
345.031	140.75
345.259	139.75
345.487	136.75
345.714	145.75
345.942	129.75
346.17	139.75
346.397	140.75
346.625	118.75
346.853	135.75
347.08	130.75
347.308	144.75
347.535	131.75
347.763	132.75
347.99	139.75
348.218	147.75
348.445	123.75
348.673	126.75
348.9	131.75
349.128	140.75
349.355	127.75
349.583	151.75
349.81	132.75
350.037	140.75
350.265	139.75
350.492	132.75
350.72	129.75
350.947	130.75
351.174	143.75
351.402	132.75
351.629	146.75
351.856	132.75
352.083	135.75
352.311	128.75
352.538	144.75
352.765	135.75
352.992	147.75
353.22	139.75
353.447	130.75
353.674	138.75
353.901	154.75
354.128	144.75
354.355	131.75
354.583	138.75
354.81	134.75
355.037	140.75
355.264	152.75
355.491	130.75
355.718	136.75
355.945	139.75
356.172	143.75
356.399	159.75
356.626	160.75
356.853	166.75
357.08	215.75
357.307	250.75
357.534	247.75
357.761	220.75
357.988	184.75
358.215	154.75
358.441	170.75
358.668	157.75
358.895	161.75
359.122	160.75
359.349	139.75
359.576	149.75
359.802	144.75
360.029	153.75
360.256	140.75
360.483	168.75
360.709	147.75
360.936	158.75
361.163	138.75
361.39	156.75
361.616	143.75
361.843	147.75
362.07	132.75
362.296	141.75
362.523	132.75
362.749	138.75
362.976	138.75
363.203	182.75
363.429	172.75
363.656	217.75
363.882	265.75
364.109	307.75
364.335	238.75
364.562	205.75
364.788	179.75
365.015	172.75
365.241	157.75
365.468	161.75
365.694	166.75
365.92	172.75
366.147	166.75
366.373	168.75
366.599	159.75
366.826	173.75
367.052	196.75
367.278	199.75
367.505	194.75
367.731	214.75
367.957	220.75
368.184	292.75
368.41	353.75
368.636	322.75
368.862	244.75
369.089	204.75
369.315	183.75
369.541	187.75
369.767	163.75
369.993	169.75
370.219	163.75
370.445	168.75
370.672	175.75
370.898	150.75
371.124	144.75
371.35	135.75
371.576	161.75
371.802	142.75
372.028	149.75
372.254	157.75
372.48	144.75
372.706	155.75
372.932	155.75
373.158	159.75
373.384	192.75
373.61	190.75
373.835	235.75
374.061	262.75
374.287	250.75
374.513	204.75
374.739	180.75
374.965	182.75
375.191	147.75
375.416	140.75
375.642	150.75
375.868	170.75
376.094	149.75
376.319	148.75
376.545	128.75
376.771	146.75
376.997	150.75
377.222	147.75
377.448	145.75
377.674	158.75
377.899	146.75
378.125	144.75
378.35	154.75
378.576	153.75
378.802	128.75
379.027	154.75
379.253	153.75
379.478	157.75
379.704	133.75
379.929	146.75
380.155	140.75
380.38	147.75
380.606	128.75
380.831	155.75
381.057	168.75
381.282	149.75
381.507	148.75
381.733	158.75
381.958	151.75
382.184	141.75
382.409	137.75
382.634	152.75
382.86	148.75
383.085	144.75
383.31	154.75
383.535	163.75
383.761	173.75
383.986	154.75
384.211	135.75
384.436	129.75
384.662	138.75
384.887	151.75
385.112	145.75
385.337	162.75
385.562	142.75
385.787	137.75
386.013	138.75
386.238	142.75
386.463	153.75
386.688	211.75
386.913	147.75
387.138	151.75
387.363	136.75
387.588	162.75
387.813	140.75
388.038	135.75
388.263	139.75
388.488	144.75
388.713	151.75
388.938	144.75
389.163	149.75
389.387	141.75
389.612	133.75
389.837	146.75
390.062	147.75
390.287	155.75
390.512	156.75
390.736	140.75
390.961	140.75
391.186	150.75
391.411	159.75
391.636	154.75
391.86	155.75
392.085	166.75
392.31	154.75
392.534	146.75
392.759	147.75
392.984	158.75
393.208	153.75
393.433	145.75
393.658	160.75
393.882	141.75
394.107	151.75
394.331	145.75
394.556	146.75
394.78	159.75
395.005	151.75
395.229	143.75
395.454	149.75
395.678	137.75
395.903	151.75
396.127	158.75
396.352	159.75
396.576	137.75
396.801	149.75
397.025	154.75
397.249	155.75
397.474	151.75
397.698	144.75
397.922	158.75
398.147	147.75
398.371	149.75
398.595	164.75
398.82	140.75
399.044	161.75
399.268	182.75
399.492	168.75
399.717	170.75
399.941	167.75
400.165	175.75
400.389	161.75
400.613	171.75
400.837	188.75
401.062	160.75
401.286	155.75
401.51	172.75
401.734	189.75
401.958	190.75
402.182	178.75
402.406	156.75
402.63	174.75
402.854	169.75
403.078	168.75
403.302	162.75
403.526	180.75
403.75	181.75
403.974	182.75
404.198	200.75
404.422	188.75
404.645	196.75
404.869	196.75
405.093	236.75
405.317	243.75
405.541	352.75
405.765	462.75
405.988	514.75
406.212	399.75
406.436	306.75
406.66	266.75
406.883	234.75
407.107	208.75
407.331	200.75
407.555	202.75
407.778	199.75
408.002	199.75
408.226	191.75
408.449	203.75
408.673	195.75
408.896	194.75
409.12	168.75
409.344	182.75
409.567	176.75
409.791	172.75
410.014	190.75
410.238	172.75
410.461	182.75
410.685	170.75
410.908	153.75
411.132	194.75
411.355	182.75
411.578	186.75
411.802	174.75
412.025	156.75
412.249	170.75
412.472	180.75
412.695	172.75
412.919	158.75
413.142	156.75
413.365	164.75
413.589	162.75
413.812	166.75
414.035	174.75
414.258	167.75
414.482	162.75
414.705	161.75
414.928	168.75
415.151	156.75
415.374	166.75
415.597	160.75
415.821	158.75
416.044	166.75
416.267	178.75
416.49	163.75
416.713	186.75
416.936	186.75
417.159	163.75
417.382	174.75
417.605	158.75
417.828	161.75
418.051	164.75
418.274	169.75
418.497	168.75
418.72	168.75
418.943	175.75
419.166	178.75
419.389	191.75
419.611	158.75
419.834	162.75
420.057	189.75
420.28	175.75
420.503	179.75
420.726	172.75
420.948	183.75
421.171	168.75
421.394	169.75
421.617	159.75
421.839	154.75
422.062	185.75
422.285	181.75
422.507	194.75
422.73	175.75
422.953	186.75
423.175	171.75
423.398	188.75
423.621	209.75
423.843	180.75
424.066	203.75
424.288	223.75
424.511	260.75
424.733	259.75
424.956	248.75
425.178	218.75
425.401	224.75
425.623	209.75
425.846	196.75
426.068	196.75
426.291	190.75
426.513	204.75
426.735	196.75
426.958	185.75
427.18	190.75
427.402	188.75
427.625	184.75
427.847	172.75
428.069	195.75
428.292	169.75
428.514	183.75
428.736	179.75
428.958	188.75
429.181	176.75
429.403	169.75
429.625	182.75
429.847	147.75
430.069	176.75
430.292	186.75
430.514	158.75
430.736	167.75
430.958	181.75
431.18	152.75
431.402	188.75
431.624	151.75
431.846	166.75
432.068	159.75
432.29	182.75
432.512	188.75
432.734	174.75
432.956	182.75
433.178	185.75
433.4	184.75
433.622	202.75
433.844	172.75
434.066	186.75
434.287	175.75
434.509	169.75
434.731	180.75
434.953	166.75
435.175	168.75
435.397	195.75
435.618	181.75
435.84	177.75
436.062	159.75
436.284	201.75
436.505	193.75
436.727	189.75
436.949	187.75
437.17	181.75
437.392	181.75
437.614	162.75
437.835	184.75
438.057	184.75
438.278	217.75
438.5	214.75
438.721	251.75
438.943	254.75
439.165	225.75
439.386	232.75
439.608	230.75
439.829	223.75
440.05	218.75
440.272	220.75
440.493	218.75
440.715	212.75
440.936	235.75
441.158	234.75
441.379	216.75
441.6	216.75
441.822	216.75
442.043	206.75
442.264	194.75
442.486	194.75
442.707	200.75
442.928	206.75
443.149	184.75
443.371	200.75
443.592	193.75
443.813	190.75
444.034	210.75
444.255	200.75
444.476	193.75
444.698	201.75
444.919	204.75
445.14	576.75
445.361	381.75
445.582	204.75
445.803	188.75
446.024	215.75
446.245	202.75
446.466	215.75
446.687	197.75
446.908	200.75
447.129	201.75
447.35	184.75
447.571	183.75
447.792	183.75
448.013	172.75
448.234	186.75
448.455	170.75
448.675	185.75
448.896	179.75
449.117	186.75
449.338	170.75
449.559	166.75
449.779	175.75
450	187.75
450.221	177.75
450.442	182.75
450.662	178.75
450.883	173.75
451.104	186.75
451.324	156.75
451.545	153.75
451.766	177.75
451.986	161.75
452.207	170.75
452.428	159.75
452.648	184.75
452.869	159.75
453.089	168.75
453.31	153.75
453.53	156.75
453.751	159.75
453.971	173.75
454.192	159.75
454.412	160.75
454.633	157.75
454.853	172.75
455.073	166.75
455.294	143.75
455.514	170.75
455.734	163.75
455.955	160.75
456.175	157.75
456.395	147.75
456.616	156.75
456.836	175.75
457.056	155.75
457.276	142.75
457.497	163.75
457.717	151.75
457.937	162.75
458.157	146.75
458.377	152.75
458.598	166.75
458.818	154.75
459.038	141.75
459.258	132.75
459.478	150.75
459.698	148.75
459.918	162.75
460.138	160.75
460.358	172.75
460.578	171.75
460.798	162.75
461.018	161.75
461.238	171.75
461.458	182.75
461.678	161.75
461.898	158.75
462.118	160.75
462.338	175.75
462.558	162.75
462.777	152.75
462.997	156.75
463.217	151.75
463.437	150.75
463.657	158.75
463.876	160.75
464.096	171.75
464.316	172.75
464.536	179.75
464.755	174.75
464.975	159.75
465.195	154.75
465.414	161.75
465.634	170.75
465.854	150.75
466.073	158.75
466.293	166.75
466.512	161.75
466.732	153.75
466.951	166.75
467.171	150.75
467.391	159.75
467.61	160.75
467.829	169.75
468.049	170.75
468.268	162.75
468.488	151.75
468.707	172.75
468.927	170.75
469.146	155.75
469.365	165.75
469.585	163.75
469.804	186.75
470.023	166.75
470.243	169.75
470.462	186.75
470.681	190.75
470.901	183.75
471.12	182.75
471.339	171.75
471.558	174.75
471.777	177.75
471.997	181.75
472.216	174.75
472.435	138.75
472.654	144.75
472.873	167.75
473.092	157.75
473.311	176.75
473.53	166.75
473.749	175.75
473.968	203.75
474.187	152.75
474.406	173.75
474.625	158.75
474.844	170.75
475.063	163.75
475.282	180.75
475.501	145.75
475.72	190.75
475.939	159.75
476.158	169.75
476.377	175.75
476.596	147.75
476.814	173.75
477.033	162.75
477.252	178.75
477.471	168.75
477.69	179.75
477.908	168.75
478.127	191.75
478.346	178.75
478.564	188.75
478.783	181.75
479.002	190.75
479.22	193.75
479.439	192.75
479.658	178.75
479.876	171.75
480.095	162.75
480.313	164.75
480.532	194.75
480.751	174.75
480.969	174.75
481.188	164.75
481.406	180.75
481.624	146.75
481.843	171.75
482.061	179.75
482.28	181.75
482.498	163.75
482.717	157.75
482.935	170.75
483.153	181.75
483.372	196.75
483.59	182.75
483.808	177.75
484.027	185.75
484.245	204.75
484.463	189.75
484.681	209.75
484.9	186.75
485.118	173.75
485.336	178.75
485.554	172.75
485.772	172.75
485.99	165.75
486.209	176.75
486.427	175.75
486.645	185.75
486.863	190.75
487.081	183.75
487.299	174.75
487.517	188.75
487.735	204.75
487.953	203.75
488.171	209.75
488.389	179.75
488.607	187.75
488.825	166.75
489.043	196.75
489.261	202.75
489.479	192.75
489.696	208.75
489.914	186.75
490.132	194.75
490.35	192.75
490.568	206.75
490.786	201.75
491.003	195.75
491.221	216.75
491.439	217.75
491.657	196.75
491.874	217.75
492.092	212.75
492.31	268.75
492.527	227.75
492.745	214.75
492.963	209.75
493.18	207.75
493.398	213.75
493.615	209.75
493.833	204.75
494.05	192.75
494.268	206.75
494.485	205.75
494.703	214.75
494.92	199.75
495.138	201.75
495.355	206.75
495.573	221.75
495.79	211.75
496.008	210.75
496.225	203.75
496.442	200.75
496.66	221.75
496.877	216.75
497.094	215.75
497.312	188.75
497.529	212.75
497.746	206.75
497.963	196.75
498.181	207.75
498.398	204.75
498.615	205.75
498.832	193.75
499.049	201.75
499.267	212.75
499.484	220.75
499.701	222.75
499.918	240.75
500.135	202.75
500.352	241.75
500.569	259.75
500.786	297.75
501.003	255.75
501.22	216.75
501.437	214.75
501.654	230.75
501.871	211.75
502.088	186.75
502.305	214.75
502.522	210.75
502.739	214.75
502.956	225.75
503.172	214.75
503.389	205.75
503.606	195.75
503.823	187.75
