Data from TenMicroDelayPb_HRD10591_00003.txt Node
Date: Mon Nov 24 14:58:07 EST 2025
User: Yrep
Spectrometer: HR+D1059
Trigger mode: 5
Integration Time (sec): 5.000000E-1
Scans to average: 1
Electric dark correction enabled: true
Nonlinearity correction enabled: false
Boxcar width: 0
XAxis mode: Wavelengths
Number of Pixels in Spectrum: 2048
>>>>>Begin Spectral Data<<<<<
223.165	-37.56
223.4	-37.56
223.635	-37.56
223.869	-28.56
224.104	-41.56
224.338	-3.56
224.573	-17.56
224.808	-23.56
225.042	4.44
225.277	3.44
225.511	-1.56
225.746	33.44
225.98	23.44
226.215	-5.56
226.449	13.44
226.683	19.44
226.918	23.44
227.152	38.44
227.387	45.44
227.621	47.44
227.856	45.44
228.09	30.44
228.324	53.44
228.559	71.44
228.793	73.44
229.027	72.44
229.262	75.44
229.496	77.44
229.73	74.44
229.964	83.44
230.199	66.44
230.433	75.44
230.667	87.44
230.901	85.44
231.136	60.44
231.37	83.44
231.604	87.44
231.838	100.44
232.072	97.44
232.306	99.44
232.541	87.44
232.775	94.44
233.009	98.44
233.243	80.44
233.477	80.44
233.711	93.44
233.945	98.44
234.179	93.44
234.413	87.44
234.647	99.44
234.881	80.44
235.115	82.44
235.349	58.44
235.583	98.44
235.817	89.44
236.051	71.44
236.285	83.44
236.519	97.44
236.753	93.44
236.987	87.44
237.221	88.44
237.455	79.44
237.689	97.44
237.922	73.44
238.156	76.44
238.39	92.44
238.624	73.44
238.858	104.44
239.091	113.44
239.325	83.44
239.559	76.44
239.793	91.44
240.027	109.44
240.26	89.44
240.494	98.44
240.728	81.44
240.961	90.44
241.195	95.44
241.429	101.44
241.662	95.44
241.896	99.44
242.13	82.44
242.363	95.44
242.597	83.44
242.83	87.44
243.064	98.44
243.298	93.44
243.531	87.44
243.765	84.44
243.998	94.44
244.232	99.44
244.465	88.44
244.699	91.44
244.932	95.44
245.166	95.44
245.399	96.44
245.633	91.44
245.866	92.44
246.099	95.44
246.333	101.44
246.566	99.44
246.8	88.44
247.033	88.44
247.266	105.44
247.5	91.44
247.733	97.44
247.966	87.44
248.2	100.44
248.433	91.44
248.666	95.44
248.899	104.44
249.133	92.44
249.366	88.44
249.599	99.44
249.832	106.44
250.066	111.44
250.299	85.44
250.532	97.44
250.765	97.44
250.998	77.44
251.231	95.44
251.465	106.44
251.698	98.44
251.931	103.44
252.164	93.44
252.397	96.44
252.63	102.44
252.863	96.44
253.096	120.44
253.329	110.44
253.562	91.44
253.795	125.44
254.028	124.44
254.261	108.44
254.494	108.44
254.727	108.44
254.96	106.44
255.193	103.44
255.426	104.44
255.659	115.44
255.892	119.44
256.124	90.44
256.357	103.44
256.59	115.44
256.823	111.44
257.056	108.44
257.289	94.44
257.521	116.44
257.754	111.44
257.987	104.44
258.22	136.44
258.452	118.44
258.685	116.44
258.918	99.44
259.151	117.44
259.383	129.44
259.616	113.44
259.849	110.44
260.081	119.44
260.314	109.44
260.547	124.44
260.779	118.44
261.012	122.44
261.244	136.44
261.477	160.44
261.71	140.44
261.942	133.44
262.175	114.44
262.407	131.44
262.64	120.44
262.872	119.44
263.105	123.44
263.337	128.44
263.57	101.44
263.802	103.44
264.035	106.44
264.267	117.44
264.499	119.44
264.732	118.44
264.964	138.44
265.197	122.44
265.429	99.44
265.661	130.44
265.894	123.44
266.126	128.44
266.358	133.44
266.591	139.44
266.823	115.44
267.055	106.44
267.287	116.44
267.52	105.44
267.752	107.44
267.984	137.44
268.216	106.44
268.448	115.44
268.681	126.44
268.913	109.44
269.145	121.44
269.377	102.44
269.609	109.44
269.841	113.44
270.073	114.44
270.306	107.44
270.538	101.44
270.77	110.44
271.002	114.44
271.234	123.44
271.466	121.44
271.698	125.44
271.93	115.44
272.162	125.44
272.394	114.44
272.626	122.44
272.858	127.44
273.09	127.44
273.322	101.44
273.553	120.44
273.785	112.44
274.017	116.44
274.249	112.44
274.481	99.44
274.713	111.44
274.945	125.44
275.176	102.44
275.408	119.44
275.64	129.44
275.872	101.44
276.104	129.44
276.335	132.44
276.567	139.44
276.799	128.44
277.031	119.44
277.262	108.44
277.494	134.44
277.726	131.44
277.957	114.44
278.189	123.44
278.421	144.44
278.652	140.44
278.884	126.44
279.115	158.44
279.347	144.44
279.579	145.44
279.81	162.44
280.042	211.44
280.273	203.44
280.505	201.44
280.736	162.44
280.968	154.44
281.199	148.44
281.431	139.44
281.662	135.44
281.894	153.44
282.125	142.44
282.356	145.44
282.588	147.44
282.819	139.44
283.051	152.44
283.282	167.44
283.513	182.44
283.745	167.44
283.976	156.44
284.207	136.44
284.439	131.44
284.67	135.44
284.901	139.44
285.132	117.44
285.364	120.44
285.595	125.44
285.826	134.44
286.057	139.44
286.288	126.44
286.52	140.44
286.751	141.44
286.982	148.44
287.213	138.44
287.444	160.44
287.675	164.44
287.906	139.44
288.138	141.44
288.369	136.44
288.6	129.44
288.831	121.44
289.062	145.44
289.293	102.44
289.524	93.44
289.755	113.44
289.986	128.44
290.217	112.44
290.448	119.44
290.679	113.44
290.91	129.44
291.141	131.44
291.371	117.44
291.602	144.44
291.833	123.44
292.064	99.44
292.295	119.44
292.526	121.44
292.757	119.44
292.987	124.44
293.218	101.44
293.449	105.44
293.68	144.44
293.91	120.44
294.141	120.44
294.372	118.44
294.603	125.44
294.833	133.44
295.064	109.44
295.295	109.44
295.525	119.44
295.756	136.44
295.987	139.44
296.217	126.44
296.448	129.44
296.679	133.44
296.909	124.44
297.14	126.44
297.37	135.44
297.601	121.44
297.831	131.44
298.062	127.44
298.292	129.44
298.523	146.44
298.753	133.44
298.984	121.44
299.214	139.44
299.445	122.44
299.675	128.44
299.905	138.44
300.136	125.44
300.366	123.44
300.597	120.44
300.827	123.44
301.057	116.44
301.288	117.44
301.518	129.44
301.748	122.44
301.979	181.44
302.209	117.44
302.439	119.44
302.669	131.44
302.9	131.44
303.13	132.44
303.36	124.44
303.59	126.44
303.82	114.44
304.051	142.44
304.281	142.44
304.511	128.44
304.741	131.44
304.971	123.44
305.201	132.44
305.431	133.44
305.661	142.44
305.891	135.44
306.121	140.44
306.352	135.44
306.582	119.44
306.812	123.44
307.042	121.44
307.272	134.44
307.502	135.44
307.731	136.44
307.961	142.44
308.191	134.44
308.421	116.44
308.651	124.44
308.881	126.44
309.111	123.44
309.341	127.44
309.571	110.44
309.8	124.44
310.03	139.44
310.26	132.44
310.49	121.44
310.72	130.44
310.949	135.44
311.179	122.44
311.409	129.44
311.639	134.44
311.868	141.44
312.098	140.44
312.328	127.44
312.557	131.44
312.787	145.44
313.017	148.44
313.246	133.44
313.476	130.44
313.706	131.44
313.935	149.44
314.165	147.44
314.394	123.44
314.624	143.44
314.853	151.44
315.083	131.44
315.312	158.44
315.542	139.44
315.771	150.44
316.001	143.44
316.23	135.44
316.46	137.44
316.689	132.44
316.919	148.44
317.148	150.44
317.377	154.44
317.607	142.44
317.836	148.44
318.065	147.44
318.295	136.44
318.524	120.44
318.753	149.44
318.983	132.44
319.212	141.44
319.441	137.44
319.67	146.44
319.9	151.44
320.129	132.44
320.358	140.44
320.587	126.44
320.816	145.44
321.046	133.44
321.275	152.44
321.504	133.44
321.733	144.44
321.962	128.44
322.191	149.44
322.42	142.44
322.649	129.44
322.878	131.44
323.108	116.44
323.337	139.44
323.566	132.44
323.795	130.44
324.024	132.44
324.253	123.44
324.482	141.44
324.71	130.44
324.939	153.44
325.168	129.44
325.397	119.44
325.626	141.44
325.855	132.44
326.084	128.44
326.313	130.44
326.542	135.44
326.77	148.44
326.999	131.44
327.228	136.44
327.457	123.44
327.686	145.44
327.914	144.44
328.143	160.44
328.372	136.44
328.6	125.44
328.829	131.44
329.058	138.44
329.287	143.44
329.515	130.44
329.744	149.44
329.972	142.44
330.201	148.44
330.43	132.44
330.658	129.44
330.887	143.44
331.115	137.44
331.344	121.44
331.572	141.44
331.801	148.44
332.03	133.44
332.258	136.44
332.486	132.44
332.715	123.44
332.943	124.44
333.172	129.44
333.4	123.44
333.629	137.44
333.857	129.44
334.085	138.44
334.314	143.44
334.542	153.44
334.771	145.44
334.999	143.44
335.227	121.44
335.455	143.44
335.684	147.44
335.912	139.44
336.14	149.44
336.369	138.44
336.597	138.44
336.825	143.44
337.053	140.44
337.281	136.44
337.51	134.44
337.738	153.44
337.966	139.44
338.194	125.44
338.422	132.44
338.65	150.44
338.878	159.44
339.106	133.44
339.334	146.44
339.562	143.44
339.79	140.44
340.018	136.44
340.246	139.44
340.474	136.44
340.702	118.44
340.93	135.44
341.158	127.44
341.386	131.44
341.614	115.44
341.842	140.44
342.07	136.44
342.298	134.44
342.526	122.44
342.754	135.44
342.981	138.44
343.209	140.44
343.437	179.44
343.665	139.44
343.893	142.44
344.12	157.44
344.348	123.44
344.576	139.44
344.804	135.44
345.031	137.44
345.259	151.44
345.487	133.44
345.714	127.44
345.942	120.44
346.17	148.44
346.397	142.44
346.625	128.44
346.853	123.44
347.08	142.44
347.308	152.44
347.535	133.44
347.763	141.44
347.99	136.44
348.218	141.44
348.445	123.44
348.673	131.44
348.9	141.44
349.128	152.44
349.355	131.44
349.583	137.44
349.81	134.44
350.037	131.44
350.265	132.44
350.492	137.44
350.72	126.44
350.947	126.44
351.174	144.44
351.402	140.44
351.629	137.44
351.856	125.44
352.083	129.44
352.311	140.44
352.538	131.44
352.765	156.44
352.992	155.44
353.22	146.44
353.447	132.44
353.674	140.44
353.901	150.44
354.128	139.44
354.355	136.44
354.583	139.44
354.81	141.44
355.037	142.44
355.264	146.44
355.491	151.44
355.718	140.44
355.945	141.44
356.172	146.44
356.399	145.44
356.626	154.44
356.853	143.44
357.08	213.44
357.307	264.44
357.534	251.44
357.761	196.44
357.988	192.44
358.215	175.44
358.441	167.44
358.668	158.44
358.895	158.44
359.122	149.44
359.349	146.44
359.576	140.44
359.802	146.44
360.029	140.44
360.256	146.44
360.483	149.44
360.709	132.44
360.936	170.44
361.163	167.44
361.39	126.44
361.616	134.44
361.843	142.44
362.07	153.44
362.296	167.44
362.523	134.44
362.749	171.44
362.976	151.44
363.203	202.44
363.429	170.44
363.656	210.44
363.882	268.44
364.109	299.44
364.335	249.44
364.562	193.44
364.788	176.44
365.015	164.44
365.241	159.44
365.468	175.44
365.694	152.44
365.92	167.44
366.147	157.44
366.373	148.44
366.599	160.44
366.826	168.44
367.052	187.44
367.278	193.44
367.505	198.44
367.731	217.44
367.957	241.44
368.184	281.44
368.41	330.44
368.636	325.44
368.862	253.44
369.089	212.44
369.315	176.44
369.541	163.44
369.767	167.44
369.993	173.44
370.219	154.44
370.445	149.44
370.672	152.44
370.898	158.44
371.124	155.44
371.35	155.44
371.576	151.44
371.802	153.44
372.028	143.44
372.254	144.44
372.48	145.44
372.706	159.44
372.932	141.44
373.158	156.44
373.384	161.44
373.61	181.44
373.835	225.44
374.061	272.44
374.287	259.44
374.513	205.44
374.739	152.44
374.965	164.44
375.191	153.44
375.416	170.44
375.642	155.44
375.868	157.44
376.094	157.44
376.319	148.44
376.545	140.44
376.771	151.44
376.997	148.44
377.222	127.44
377.448	150.44
377.674	168.44
377.899	146.44
378.125	155.44
378.35	154.44
378.576	159.44
378.802	153.44
379.027	145.44
379.253	144.44
379.478	154.44
379.704	135.44
379.929	138.44
380.155	137.44
380.38	158.44
380.606	153.44
380.831	155.44
381.057	184.44
381.282	138.44
381.507	151.44
381.733	138.44
381.958	152.44
382.184	137.44
382.409	148.44
382.634	158.44
382.86	143.44
383.085	143.44
383.31	130.44
383.535	132.44
383.761	158.44
383.986	134.44
384.211	136.44
384.436	144.44
384.662	153.44
384.887	139.44
385.112	145.44
385.337	132.44
385.562	143.44
385.787	148.44
386.013	150.44
386.238	151.44
386.463	138.44
386.688	200.44
386.913	157.44
387.138	146.44
387.363	146.44
387.588	155.44
387.813	164.44
388.038	158.44
388.263	156.44
388.488	140.44
388.713	146.44
388.938	149.44
389.163	162.44
389.387	142.44
389.612	150.44
389.837	131.44
390.062	158.44
390.287	153.44
390.512	139.44
390.736	141.44
390.961	143.44
391.186	151.44
391.411	148.44
391.636	159.44
391.86	164.44
392.085	139.44
392.31	150.44
392.534	139.44
392.759	155.44
392.984	163.44
393.208	170.44
393.433	157.44
393.658	153.44
393.882	149.44
394.107	151.44
394.331	147.44
394.556	141.44
394.78	137.44
395.005	143.44
395.229	152.44
395.454	154.44
395.678	135.44
395.903	152.44
396.127	175.44
396.352	146.44
396.576	139.44
396.801	156.44
397.025	149.44
397.249	169.44
397.474	196.44
397.698	159.44
397.922	148.44
398.147	145.44
398.371	137.44
398.595	173.44
398.82	151.44
399.044	153.44
399.268	159.44
399.492	165.44
399.717	168.44
399.941	155.44
400.165	172.44
400.389	148.44
400.613	156.44
400.837	162.44
401.062	153.44
401.286	163.44
401.51	167.44
401.734	167.44
401.958	177.44
402.182	200.44
402.406	175.44
402.63	155.44
402.854	168.44
403.078	164.44
403.302	175.44
403.526	173.44
403.75	179.44
403.974	166.44
404.198	179.44
404.422	191.44
404.645	187.44
404.869	191.44
405.093	226.44
405.317	243.44
405.541	301.44
405.765	465.44
405.988	503.44
406.212	388.44
406.436	299.44
406.66	255.44
406.883	235.44
407.107	213.44
407.331	187.44
407.555	189.44
407.778	194.44
408.002	201.44
408.226	193.44
408.449	189.44
408.673	177.44
408.896	193.44
409.12	187.44
409.344	191.44
409.567	177.44
409.791	176.44
410.014	172.44
410.238	161.44
410.461	176.44
410.685	173.44
410.908	178.44
411.132	178.44
411.355	181.44
411.578	160.44
411.802	177.44
412.025	161.44
412.249	175.44
412.472	160.44
412.695	156.44
412.919	156.44
413.142	171.44
413.365	174.44
413.589	170.44
413.812	169.44
414.035	184.44
414.258	161.44
414.482	163.44
414.705	162.44
414.928	168.44
415.151	179.44
415.374	163.44
415.597	171.44
415.821	179.44
416.044	162.44
416.267	176.44
416.49	161.44
416.713	183.44
416.936	196.44
417.159	189.44
417.382	162.44
417.605	153.44
417.828	168.44
418.051	161.44
418.274	165.44
418.497	163.44
418.72	165.44
418.943	167.44
419.166	171.44
419.389	157.44
419.611	177.44
419.834	159.44
420.057	169.44
420.28	173.44
420.503	168.44
420.726	160.44
420.948	168.44
421.171	162.44
421.394	172.44
421.617	172.44
421.839	171.44
422.062	184.44
422.285	180.44
422.507	192.44
422.73	186.44
422.953	189.44
423.175	188.44
423.398	191.44
423.621	215.44
423.843	197.44
424.066	192.44
424.288	226.44
424.511	244.44
424.733	265.44
424.956	237.44
425.178	226.44
425.401	205.44
425.623	213.44
425.846	209.44
426.068	206.44
426.291	191.44
426.513	185.44
426.735	201.44
426.958	204.44
427.18	177.44
427.402	196.44
427.625	192.44
427.847	169.44
428.069	187.44
428.292	176.44
428.514	183.44
428.736	176.44
428.958	178.44
429.181	174.44
429.403	164.44
429.625	172.44
429.847	189.44
430.069	192.44
430.292	201.44
430.514	163.44
430.736	181.44
430.958	176.44
431.18	170.44
431.402	164.44
431.624	181.44
431.846	162.44
432.068	157.44
432.29	176.44
432.512	183.44
432.734	185.44
432.956	175.44
433.178	187.44
433.4	181.44
433.622	187.44
433.844	172.44
434.066	172.44
434.287	168.44
434.509	176.44
434.731	180.44
434.953	162.44
435.175	158.44
435.397	191.44
435.618	170.44
435.84	167.44
436.062	161.44
436.284	162.44
436.505	183.44
436.727	187.44
436.949	195.44
437.17	194.44
437.392	188.44
437.614	191.44
437.835	166.44
438.057	188.44
438.278	196.44
438.5	217.44
438.721	241.44
438.943	259.44
439.165	243.44
439.386	231.44
439.608	210.44
439.829	215.44
440.05	211.44
440.272	213.44
440.493	225.44
440.715	237.44
440.936	245.44
441.158	231.44
441.379	211.44
441.6	215.44
441.822	213.44
442.043	212.44
442.264	210.44
442.486	190.44
442.707	207.44
442.928	204.44
443.149	202.44
443.371	218.44
443.592	197.44
443.813	187.44
444.034	191.44
444.255	196.44
444.476	197.44
444.698	202.44
444.919	199.44
445.14	599.44
445.361	384.44
445.582	213.44
445.803	209.44
446.024	195.44
446.245	212.44
446.466	201.44
446.687	191.44
446.908	189.44
447.129	184.44
447.35	186.44
447.571	195.44
447.792	185.44
448.013	183.44
448.234	194.44
448.455	183.44
448.675	177.44
448.896	180.44
449.117	182.44
449.338	187.44
449.559	189.44
449.779	169.44
450	181.44
450.221	180.44
450.442	180.44
450.662	171.44
450.883	156.44
451.104	185.44
451.324	169.44
451.545	164.44
451.766	171.44
451.986	173.44
452.207	162.44
452.428	157.44
452.648	174.44
452.869	159.44
453.089	168.44
453.31	159.44
453.53	163.44
453.751	171.44
453.971	151.44
454.192	149.44
454.412	160.44
454.633	167.44
454.853	183.44
455.073	141.44
455.294	152.44
455.514	169.44
455.734	161.44
455.955	187.44
456.175	161.44
456.395	163.44
456.616	159.44
456.836	174.44
457.056	164.44
457.276	161.44
457.497	156.44
457.717	141.44
457.937	165.44
458.157	160.44
458.377	155.44
458.598	161.44
458.818	142.44
459.038	131.44
459.258	146.44
459.478	143.44
459.698	141.44
459.918	163.44
460.138	171.44
460.358	169.44
460.578	168.44
460.798	152.44
461.018	167.44
461.238	161.44
461.458	159.44
461.678	166.44
461.898	175.44
462.118	166.44
462.338	175.44
462.558	164.44
462.777	156.44
462.997	171.44
463.217	175.44
463.437	151.44
463.657	154.44
463.876	169.44
464.096	163.44
464.316	163.44
464.536	158.44
464.755	189.44
464.975	160.44
465.195	162.44
465.414	160.44
465.634	160.44
465.854	160.44
466.073	174.44
466.293	164.44
466.512	189.44
466.732	161.44
466.951	175.44
467.171	168.44
467.391	154.44
467.61	172.44
467.829	168.44
468.049	173.44
468.268	157.44
468.488	180.44
468.707	175.44
468.927	172.44
469.146	175.44
469.365	156.44
469.585	163.44
469.804	184.44
470.023	163.44
470.243	185.44
470.462	165.44
470.681	159.44
470.901	170.44
471.12	157.44
471.339	176.44
471.558	156.44
471.777	168.44
471.997	169.44
472.216	169.44
472.435	162.44
472.654	136.44
472.873	185.44
473.092	173.44
473.311	164.44
473.53	159.44
473.749	182.44
473.968	167.44
474.187	160.44
474.406	164.44
474.625	179.44
474.844	171.44
475.063	160.44
475.282	169.44
475.501	163.44
475.72	182.44
475.939	171.44
476.158	170.44
476.377	159.44
476.596	160.44
476.814	164.44
477.033	171.44
477.252	167.44
477.471	170.44
477.69	181.44
477.908	177.44
478.127	179.44
478.346	180.44
478.564	174.44
478.783	174.44
479.002	205.44
479.22	191.44
479.439	185.44
479.658	163.44
479.876	165.44
480.095	169.44
480.313	167.44
480.532	194.44
480.751	178.44
480.969	171.44
481.188	170.44
481.406	179.44
481.624	167.44
481.843	161.44
482.061	169.44
482.28	185.44
482.498	157.44
482.717	160.44
482.935	167.44
483.153	195.44
483.372	189.44
483.59	195.44
483.808	160.44
484.027	170.44
484.245	195.44
484.463	169.44
484.681	194.44
484.9	176.44
485.118	183.44
485.336	157.44
485.554	177.44
485.772	172.44
485.99	158.44
486.209	163.44
486.427	168.44
486.645	179.44
486.863	170.44
487.081	173.44
487.299	178.44
487.517	179.44
487.735	213.44
487.953	215.44
488.171	202.44
488.389	177.44
488.607	180.44
488.825	172.44
489.043	179.44
489.261	194.44
489.479	187.44
489.696	192.44
489.914	175.44
490.132	201.44
490.35	199.44
490.568	207.44
490.786	196.44
491.003	205.44
491.221	182.44
491.439	211.44
491.657	197.44
491.874	233.44
492.092	223.44
492.31	223.44
492.527	206.44
492.745	220.44
492.963	223.44
493.18	221.44
493.398	215.44
493.615	193.44
493.833	212.44
494.05	203.44
494.268	194.44
494.485	217.44
494.703	221.44
494.92	209.44
495.138	196.44
495.355	203.44
495.573	215.44
495.79	199.44
496.008	222.44
496.225	195.44
496.442	200.44
496.66	219.44
496.877	199.44
497.094	212.44
497.312	201.44
497.529	205.44
497.746	191.44
497.963	188.44
498.181	194.44
498.398	180.44
498.615	192.44
498.832	193.44
499.049	201.44
499.267	220.44
499.484	222.44
499.701	215.44
499.918	221.44
500.135	218.44
500.352	223.44
500.569	248.44
500.786	281.44
501.003	254.44
501.22	233.44
501.437	211.44
501.654	207.44
501.871	196.44
502.088	199.44
502.305	218.44
502.522	200.44
502.739	215.44
502.956	201.44
503.172	197.44
503.389	188.44
503.606	192.44
503.823	205.44
