Data from KBr_2_HRD10591_00020.txt Node
Date: Mon Jan 19 13:13:00 EST 2026
User: Yrep
Spectrometer: HR+D1059
Trigger mode: 1
Integration Time (sec): 1.000000E-1
Scans to average: 1
Electric dark correction enabled: true
Nonlinearity correction enabled: false
Boxcar width: 0
XAxis mode: Wavelengths
Number of Pixels in Spectrum: 2048
>>>>>Begin Spectral Data<<<<<
223.165	-14
223.4	-14
223.635	-14
223.869	-16
224.104	-26
224.338	-11
224.573	-14
224.808	-13
225.042	-18
225.277	3
225.511	-5
225.746	2
225.98	2
226.215	17
226.449	9
226.683	23
226.918	31
227.152	30
227.387	42
227.621	38
227.856	42
228.09	41
228.324	75
228.559	58
228.793	48
229.027	60
229.262	77
229.496	56
229.73	74
229.964	73
230.199	77
230.433	84
230.667	80
230.901	86
231.136	80
231.37	81
231.604	94
231.838	79
232.072	76
232.306	79
232.541	86
232.775	86
233.009	89
233.243	103
233.477	79
233.711	77
233.945	92
234.179	86
234.413	68
234.647	71
234.881	80
235.115	67
235.349	102
235.583	79
235.817	75
236.051	71
236.285	74
236.519	83
236.753	92
236.987	77
237.221	78
237.455	61
237.689	74
237.922	81
238.156	69
238.39	68
238.624	71
238.858	74
239.091	74
239.325	68
239.559	62
239.793	63
240.027	73
240.26	76
240.494	87
240.728	87
240.961	83
241.195	98
241.429	76
241.662	71
241.896	80
242.13	72
242.363	88
242.597	87
242.83	87
243.064	91
243.298	79
243.531	75
243.765	74
243.998	91
244.232	70
244.465	84
244.699	80
244.932	91
245.166	98
245.399	95
245.633	83
245.866	87
246.099	73
246.333	86
246.566	93
246.8	79
247.033	68
247.266	78
247.5	92
247.733	75
247.966	80
248.2	86
248.433	63
248.666	83
248.899	73
249.133	77
249.366	91
249.599	91
249.832	80
250.066	92
250.299	84
250.532	79
250.765	89
250.998	84
251.231	81
251.465	80
251.698	91
251.931	84
252.164	82
252.397	76
252.63	75
252.863	88
253.096	72
253.329	85
253.562	79
253.795	68
254.028	89
254.261	83
254.494	74
254.727	82
254.96	75
255.193	77
255.426	84
255.659	77
255.892	99
256.124	89
256.357	89
256.59	78
256.823	87
257.056	85
257.289	77
257.521	94
257.754	77
257.987	75
258.22	72
258.452	88
258.685	76
258.918	88
259.151	94
259.383	87
259.616	78
259.849	88
260.081	81
260.314	79
260.547	75
260.779	82
261.012	63
261.244	92
261.477	83
261.71	79
261.942	85
262.175	86
262.407	88
262.64	83
262.872	84
263.105	79
263.337	85
263.57	80
263.802	72
264.035	90
264.267	86
264.499	91
264.732	79
264.964	75
265.197	76
265.429	83
265.661	88
265.894	82
266.126	95
266.358	74
266.591	83
266.823	83
267.055	99
267.287	92
267.52	69
267.752	85
267.984	83
268.216	95
268.448	82
268.681	82
268.913	93
269.145	86
269.377	79
269.609	83
269.841	80
270.073	83
270.306	92
270.538	83
270.77	77
271.002	76
271.234	82
271.466	79
271.698	69
271.93	92
272.162	88
272.394	84
272.626	76
272.858	93
273.09	81
273.322	85
273.553	78
273.785	79
274.017	86
274.249	89
274.481	86
274.713	86
274.945	83
275.176	84
275.408	91
275.64	80
275.872	80
276.104	87
276.335	92
276.567	98
276.799	82
277.031	84
277.262	99
277.494	87
277.726	94
277.957	71
278.189	81
278.421	81
278.652	86
278.884	80
279.115	84
279.347	102
279.579	90
279.81	96
280.042	83
280.273	103
280.505	87
280.736	99
280.968	93
281.199	78
281.431	83
281.662	87
281.894	97
282.125	87
282.356	84
282.588	99
282.819	79
283.051	82
283.282	74
283.513	83
283.745	88
283.976	87
284.207	88
284.439	88
284.67	95
284.901	88
285.132	77
285.364	78
285.595	98
285.826	82
286.057	93
286.288	86
286.52	83
286.751	82
286.982	89
287.213	94
287.444	84
287.675	88
287.906	83
288.138	83
288.369	76
288.6	94
288.831	80
289.062	78
289.293	89
289.524	66
289.755	81
289.986	74
290.217	95
290.448	82
290.679	88
290.91	82
291.141	91
291.371	80
291.602	74
291.833	91
292.064	80
292.295	88
292.526	84
292.757	88
292.987	86
293.218	83
293.449	87
293.68	80
293.91	89
294.141	76
294.372	83
294.603	81
294.833	90
295.064	96
295.295	78
295.525	89
295.756	102
295.987	84
296.217	84
296.448	85
296.679	83
296.909	94
297.14	82
297.37	89
297.601	90
297.831	82
298.062	109
298.292	80
298.523	96
298.753	88
298.984	99
299.214	106
299.445	92
299.675	86
299.905	83
300.136	92
300.366	90
300.597	81
300.827	86
301.057	87
301.288	89
301.518	80
301.748	81
301.979	116
302.209	74
302.439	82
302.669	87
302.9	91
303.13	81
303.36	84
303.59	70
303.82	89
304.051	83
304.281	94
304.511	114
304.741	80
304.971	86
305.201	82
305.431	79
305.661	86
305.891	78
306.121	72
306.352	90
306.582	71
306.812	86
307.042	82
307.272	83
307.502	91
307.731	84
307.961	82
308.191	91
308.421	95
308.651	82
308.881	87
309.111	92
309.341	96
309.571	77
309.8	92
310.03	83
310.26	95
310.49	82
310.72	65
310.949	80
311.179	87
311.409	77
311.639	73
311.868	95
312.098	98
312.328	78
312.557	89
312.787	98
313.017	91
313.246	88
313.476	89
313.706	84
313.935	90
314.165	84
314.394	84
314.624	89
314.853	86
315.083	82
315.312	99
315.542	72
315.771	89
316.001	89
316.23	97
316.46	84
316.689	80
316.919	88
317.148	85
317.377	99
317.607	76
317.836	95
318.065	81
318.295	83
318.524	75
318.753	86
318.983	92
319.212	97
319.441	104
319.67	89
319.9	84
320.129	86
320.358	86
320.587	84
320.816	89
321.046	86
321.275	92
321.504	104
321.733	87
321.962	91
322.191	95
322.42	88
322.649	91
322.878	90
323.108	85
323.337	93
323.566	88
323.795	88
324.024	89
324.253	102
324.482	87
324.71	102
324.939	91
325.168	102
325.397	83
325.626	89
325.855	89
326.084	97
326.313	110
326.542	88
326.77	79
326.999	94
327.228	79
327.457	80
327.686	80
327.914	71
328.143	92
328.372	85
328.6	91
328.829	92
329.058	79
329.287	78
329.515	88
329.744	92
329.972	85
330.201	87
330.43	100
330.658	94
330.887	81
331.115	81
331.344	63
331.572	79
331.801	95
332.03	80
332.258	99
332.486	95
332.715	84
332.943	84
333.172	91
333.4	91
333.629	78
333.857	89
334.085	102
334.314	90
334.542	88
334.771	82
334.999	82
335.227	90
335.455	89
335.684	107
335.912	80
336.14	87
336.369	101
336.597	72
336.825	78
337.053	76
337.281	84
337.51	90
337.738	94
337.966	95
338.194	92
338.422	76
338.65	85
338.878	102
339.106	93
339.334	79
339.562	83
339.79	80
340.018	93
340.246	83
340.474	84
340.702	80
340.93	90
341.158	102
341.386	81
341.614	82
341.842	91
342.07	95
342.298	86
342.526	78
342.754	85
342.981	92
343.209	94
343.437	102
343.665	79
343.893	87
344.12	95
344.348	79
344.576	85
344.804	99
345.031	94
345.259	82
345.487	99
345.714	82
345.942	83
346.17	86
346.397	72
346.625	86
346.853	88
347.08	91
347.308	93
347.535	79
347.763	88
347.99	86
348.218	76
348.445	104
348.673	102
348.9	87
349.128	78
349.355	87
349.583	93
349.81	66
350.037	86
350.265	81
350.492	86
350.72	92
350.947	85
351.174	76
351.402	88
351.629	74
351.856	86
352.083	80
352.311	89
352.538	86
352.765	85
352.992	92
353.22	98
353.447	93
353.674	95
353.901	93
354.128	82
354.355	97
354.583	76
354.81	104
355.037	91
355.264	81
355.491	83
355.718	94
355.945	85
356.172	81
356.399	77
356.626	87
356.853	89
357.08	88
357.307	88
357.534	88
357.761	87
357.988	96
358.215	91
358.441	87
358.668	81
358.895	93
359.122	101
359.349	81
359.576	92
359.802	78
360.029	91
360.256	83
360.483	84
360.709	102
360.936	86
361.163	65
361.39	91
361.616	84
361.843	81
362.07	92
362.296	89
362.523	88
362.749	88
362.976	82
363.203	92
363.429	94
363.656	83
363.882	81
364.109	100
364.335	89
364.562	84
364.788	82
365.015	87
365.241	69
365.468	85
365.694	79
365.92	79
366.147	81
366.373	82
366.599	89
366.826	86
367.052	82
367.278	78
367.505	92
367.731	97
367.957	84
368.184	73
368.41	89
368.636	80
368.862	86
369.089	85
369.315	84
369.541	82
369.767	93
369.993	102
370.219	93
370.445	92
370.672	79
370.898	85
371.124	86
371.35	88
371.576	89
371.802	87
372.028	94
372.254	81
372.48	88
372.706	81
372.932	81
373.158	81
373.384	99
373.61	93
373.835	91
374.061	78
374.287	82
374.513	91
374.739	86
374.965	76
375.191	93
375.416	88
375.642	75
375.868	88
376.094	82
376.319	79
376.545	89
376.771	77
376.997	88
377.222	103
377.448	88
377.674	87
377.899	80
378.125	87
378.35	85
378.576	81
378.802	88
379.027	84
379.253	104
379.478	98
379.704	87
379.929	88
380.155	101
380.38	69
380.606	100
380.831	83
381.057	99
381.282	93
381.507	86
381.733	92
381.958	83
382.184	92
382.409	86
382.634	87
382.86	84
383.085	92
383.31	86
383.535	88
383.761	80
383.986	82
384.211	80
384.436	74
384.662	91
384.887	87
385.112	78
385.337	85
385.562	90
385.787	67
386.013	93
386.238	76
386.463	80
386.688	100
386.913	80
387.138	92
387.363	103
387.588	90
387.813	92
388.038	97
388.263	87
388.488	88
388.713	93
388.938	86
389.163	94
389.387	90
389.612	90
389.837	88
390.062	84
390.287	90
390.512	98
390.736	77
390.961	84
391.186	87
391.411	83
391.636	94
391.86	84
392.085	80
392.31	79
392.534	86
392.759	96
392.984	81
393.208	81
393.433	85
393.658	78
393.882	86
394.107	82
394.331	94
394.556	86
394.78	95
395.005	87
395.229	88
395.454	94
395.678	90
395.903	82
396.127	82
396.352	110
396.576	74
396.801	85
397.025	87
397.249	90
397.474	83
397.698	89
397.922	77
398.147	91
398.371	77
398.595	90
398.82	78
399.044	87
399.268	91
399.492	95
399.717	89
399.941	90
400.165	88
400.389	83
400.613	80
400.837	78
401.062	79
401.286	93
401.51	94
401.734	91
401.958	82
402.182	89
402.406	90
402.63	86
402.854	88
403.078	94
403.302	82
403.526	93
403.75	108
403.974	104
404.198	159
404.422	217
404.645	268
404.869	213
405.093	132
405.317	92
405.541	100
405.765	104
405.988	93
406.212	88
406.436	72
406.66	100
406.883	89
407.107	86
407.331	78
407.555	81
407.778	81
408.002	95
408.226	94
408.449	89
408.673	87
408.896	90
409.12	88
409.344	97
409.567	107
409.791	82
410.014	80
410.238	94
410.461	98
410.685	79
410.908	83
411.132	99
411.355	76
411.578	82
411.802	96
412.025	87
412.249	76
412.472	77
412.695	66
412.919	80
413.142	90
413.365	98
413.589	88
413.812	94
414.035	87
414.258	99
414.482	87
414.705	87
414.928	81
415.151	78
415.374	75
415.597	90
415.821	84
416.044	97
416.267	94
416.49	81
416.713	76
416.936	88
417.159	78
417.382	86
417.605	87
417.828	91
418.051	92
418.274	91
418.497	99
418.72	91
418.943	75
419.166	86
419.389	83
419.611	84
419.834	90
420.057	94
420.28	88
420.503	90
420.726	86
420.948	86
421.171	77
421.394	82
421.617	84
421.839	80
422.062	91
422.285	81
422.507	87
422.73	91
422.953	113
423.175	96
423.398	94
423.621	78
423.843	84
424.066	84
424.288	82
424.511	87
424.733	82
424.956	104
425.178	94
425.401	90
425.623	92
425.846	88
426.068	76
426.291	83
426.513	94
426.735	89
426.958	80
427.18	85
427.402	85
427.625	83
427.847	83
428.069	97
428.292	90
428.514	86
428.736	88
428.958	86
429.181	73
429.403	94
429.625	80
429.847	98
430.069	88
430.292	97
430.514	80
430.736	85
430.958	74
431.18	70
431.402	84
431.624	84
431.846	71
432.068	89
432.29	95
432.512	85
432.734	74
432.956	78
433.178	77
433.4	71
433.622	96
433.844	95
434.066	99
434.287	88
434.509	103
434.731	83
434.953	78
435.175	88
435.397	92
435.618	86
435.84	97
436.062	93
436.284	97
436.505	87
436.727	78
436.949	82
437.17	87
437.392	91
437.614	84
437.835	86
438.057	84
438.278	106
438.5	76
438.721	102
438.943	85
439.165	89
439.386	88
439.608	81
439.829	97
440.05	90
440.272	91
440.493	77
440.715	74
440.936	86
441.158	87
441.379	83
441.6	96
441.822	85
442.043	84
442.264	82
442.486	92
442.707	80
442.928	85
443.149	90
443.371	87
443.592	74
443.813	91
444.034	110
444.255	108
444.476	93
444.698	74
444.919	79
445.14	176
445.361	131
445.582	83
445.803	86
446.024	90
446.245	91
446.466	83
446.687	96
446.908	84
447.129	98
447.35	94
447.571	91
447.792	83
448.013	82
448.234	97
448.455	79
448.675	82
448.896	76
449.117	75
449.338	91
449.559	95
449.779	79
450	71
450.221	78
450.442	93
450.662	81
450.883	88
451.104	98
451.324	84
451.545	91
451.766	89
451.986	80
452.207	83
452.428	94
452.648	100
452.869	90
453.089	88
453.31	84
453.53	96
453.751	94
453.971	82
454.192	81
454.412	87
454.633	88
454.853	99
455.073	85
455.294	94
455.514	89
455.734	90
455.955	102
456.175	95
456.395	86
456.616	82
456.836	99
457.056	92
457.276	77
457.497	77
457.717	86
457.937	97
458.157	86
458.377	91
458.598	70
458.818	94
459.038	97
459.258	86
459.478	106
459.698	86
459.918	76
460.138	90
460.358	78
460.578	78
460.798	86
461.018	75
461.238	87
461.458	89
461.678	87
461.898	80
462.118	87
462.338	80
462.558	79
462.777	83
462.997	91
463.217	75
463.437	81
463.657	86
463.876	98
464.096	102
464.316	88
464.536	98
464.755	92
464.975	91
465.195	79
465.414	99
465.634	96
465.854	98
466.073	84
466.293	73
466.512	95
466.732	90
466.951	94
467.171	81
467.391	88
467.61	86
467.829	96
468.049	95
468.268	91
468.488	89
468.707	87
468.927	83
469.146	97
469.365	98
469.585	95
469.804	81
470.023	88
470.243	97
470.462	86
470.681	75
470.901	84
471.12	95
471.339	99
471.558	98
471.777	88
471.997	88
472.216	88
472.435	82
472.654	87
472.873	83
473.092	90
473.311	92
473.53	88
473.749	80
473.968	99
474.187	91
474.406	84
474.625	95
474.844	87
475.063	94
475.282	80
475.501	83
475.72	94
475.939	90
476.158	73
476.377	84
476.596	93
476.814	80
477.033	95
477.252	94
477.471	80
477.69	87
477.908	88
478.127	91
478.346	82
478.564	94
478.783	88
479.002	82
479.22	97
479.439	83
479.658	94
479.876	97
480.095	94
480.313	83
480.532	94
480.751	94
480.969	82
481.188	85
481.406	100
481.624	93
481.843	94
482.061	86
482.28	93
482.498	85
482.717	90
482.935	92
483.153	91
483.372	114
483.59	109
483.808	90
484.027	80
484.245	79
484.463	87
484.681	91
484.9	87
485.118	103
485.336	89
485.554	91
485.772	87
485.99	83
486.209	88
486.427	110
486.645	93
486.863	89
487.081	94
487.299	91
487.517	95
487.735	103
487.953	90
488.171	90
488.389	92
488.607	79
488.825	87
489.043	92
489.261	83
489.479	90
489.696	106
489.914	90
490.132	88
490.35	94
490.568	95
490.786	94
491.003	69
491.221	90
491.439	112
491.657	92
491.874	100
492.092	105
492.31	103
492.527	99
492.745	92
492.963	102
493.18	91
493.398	96
493.615	88
493.833	96
494.05	89
494.268	98
494.485	79
494.703	102
494.92	102
495.138	95
495.355	91
495.573	91
495.79	102
496.008	94
496.225	96
496.442	99
496.66	103
496.877	108
497.094	105
497.312	106
497.529	90
497.746	96
497.963	96
498.181	83
498.398	99
498.615	96
498.832	86
499.049	81
499.267	92
499.484	94
499.701	96
499.918	87
500.135	90
500.352	85
500.569	90
500.786	86
501.003	72
501.22	94
501.437	82
501.654	97
501.871	84
502.088	78
502.305	83
502.522	81
502.739	96
502.956	86
503.172	87
503.389	84
503.606	90
503.823	88
504.04	93
504.256	80
504.473	88
504.69	90
504.907	93
505.123	93
505.34	95
505.557	98
505.773	98
505.99	91
506.207	91
506.423	98
506.64	100
506.856	94
507.073	93
507.289	90
507.506	90
507.722	86
507.939	81
508.155	95
508.372	95
508.588	94
508.805	90
509.021	97
509.238	99
509.454	95
509.67	91
509.887	99
510.103	95
510.319	102
510.536	95
510.752	98
510.968	99
511.184	116
511.401	99
511.617	104
511.833	105
512.049	96
512.265	91
512.481	91
512.698	95
512.914	96
513.13	90
513.346	90
513.562	98
513.778	102
513.994	88
514.21	80
514.426	74
514.642	85
514.858	84
515.074	78
515.29	73
515.506	85
515.721	95
515.937	78
516.153	86
516.369	91
516.585	80
516.801	72
517.016	96
517.232	83
517.448	98
517.664	95
517.879	77
518.095	77
518.311	81
518.527	87
518.742	93
518.958	94
519.173	75
519.389	91
519.605	96
519.82	82
520.036	92
520.251	93
520.467	103
520.682	88
520.898	93
521.113	91
521.329	87
521.544	86
521.76	97
521.975	75
522.19	94
522.406	83
522.621	86
522.836	94
523.052	86
523.267	94
523.482	92
523.698	100
523.913	87
524.128	90
524.343	92
524.559	93
524.774	84
524.989	86
525.204	105
525.419	106
525.634	79
525.849	87
526.064	94
526.28	89
526.495	95
526.71	85
526.925	85
527.14	89
527.355	94
527.57	80
527.785	75
527.999	77
528.214	90
528.429	86
528.644	90
528.859	82
529.074	93
529.289	82
529.503	74
529.718	88
529.933	99
530.148	82
530.363	68
530.577	91
530.792	82
531.007	94
531.221	90
531.436	86
531.651	102
531.865	98
532.08	86
532.295	104
532.509	91
532.724	111
532.938	108
533.153	96
533.367	95
533.582	98
533.796	93
534.011	116
534.225	101
534.44	123
534.654	108
534.868	114
535.083	102
535.297	103
535.511	120
535.726	102
535.94	98
536.154	127
536.369	121
536.583	114
536.797	112
537.011	98
537.225	98
537.44	76
537.654	86
537.868	97
538.082	96
538.296	89
538.51	90
538.724	95
538.938	80
539.153	90
539.367	92
539.581	104
539.795	72
540.009	67
540.222	90
540.436	98
540.65	86
540.864	86
541.078	86
541.292	79
541.506	102
541.72	86
541.934	97
542.147	72
542.361	77
542.575	86
542.789	104
543.002	86
543.216	88
543.43	91
543.644	90
543.857	99
544.071	94
544.285	92
544.498	81
544.712	72
544.925	86
545.139	89
545.352	76
545.566	93
545.779	93
545.993	96
546.206	90
546.42	76
546.633	87
546.847	103
547.06	102
547.274	99
547.487	105
547.7	94
547.914	90
548.127	108
548.34	101
548.554	98
548.767	89
548.98	86
549.193	96
549.407	116
549.62	98
549.833	107
550.046	82
550.259	88
550.473	88
550.686	86
550.899	97
551.112	88
551.325	89
551.538	81
551.751	103
551.964	92
552.177	80
552.39	85
552.603	82
552.816	85
553.029	103
553.242	94
553.455	80
553.667	104
553.88	89
554.093	104
554.306	91
554.519	104
554.732	86
554.944	93
555.157	93
555.37	106
555.583	90
555.795	86
556.008	88
556.221	83
556.433	90
556.646	96
556.859	78
557.071	94
557.284	88
557.496	86
557.709	103
557.921	93
558.134	91
558.346	95
558.559	98
558.771	93
558.984	76
559.196	96
559.409	83
559.621	91
559.833	89
560.046	98
560.258	75
560.47	91
560.683	97
560.895	89
561.107	101
561.32	78
561.532	87
561.744	85
561.956	99
562.168	87
562.381	88
562.593	79
562.805	88
563.017	78
563.229	89
563.441	94
563.653	89
563.865	93
564.077	70
564.289	94
564.501	78
564.713	91
564.925	86
565.137	75
565.349	92
565.561	83
565.773	109
565.985	77
566.197	88
566.408	88
566.62	80
566.832	83
567.044	90
567.255	97
567.467	93
567.679	90
567.891	75
568.102	98
568.314	81
568.526	94
568.737	85
568.949	100
569.161	106
569.372	102
569.584	112
569.795	86
570.007	83
570.218	104
570.43	80
570.641	94
570.853	93
571.064	97
571.276	86
571.487	89
571.698	89
571.91	99
572.121	72
572.333	86
572.544	91
572.755	90
572.966	80
573.178	78
573.389	95
573.6	89
573.811	91
574.023	102
574.234	92
574.445	81
574.656	88
574.867	88
575.078	81
575.289	104
575.501	91
575.712	91
575.923	91
576.134	86
576.345	99
576.556	88
576.767	93
576.978	80
577.188	95
577.399	93
577.61	93
577.821	91
578.032	90
578.243	103
578.454	121
578.665	126
578.875	115
579.086	104
579.297	86
579.508	93
579.718	95
579.929	96
580.14	105
580.35	125
580.561	148
580.772	125
580.982	108
581.193	110
581.403	98
581.614	115
581.825	96
582.035	94
582.246	99
582.456	99
582.667	96
582.877	86
583.087	96
583.298	91
583.508	122
583.719	112
583.929	111
584.139	108
584.35	92
584.56	103
584.77	89
584.981	74
585.191	101
585.401	99
585.611	98
585.821	93
586.032	112
586.242	88
586.452	102
586.662	106
586.872	98
587.082	90
587.292	95
587.502	86
587.713	111
587.923	84
588.133	100
588.343	121
