Data from KBr_2_HRD10591_00048.txt Node
Date: Mon Jan 19 13:13:14 EST 2026
User: Yrep
Spectrometer: HR+D1059
Trigger mode: 1
Integration Time (sec): 1.000000E-1
Scans to average: 1
Electric dark correction enabled: true
Nonlinearity correction enabled: false
Boxcar width: 0
XAxis mode: Wavelengths
Number of Pixels in Spectrum: 2048
>>>>>Begin Spectral Data<<<<<
223.165	-6.25
223.4	-6.25
223.635	-6.25
223.869	-17.25
224.104	-25.25
224.338	-17.25
224.573	-24.25
224.808	1.75
225.042	-16.25
225.277	3.75
225.511	3.75
225.746	-10.25
225.98	9.75
226.215	9.75
226.449	9.75
226.683	18.75
226.918	30.75
227.152	28.75
227.387	44.75
227.621	28.75
227.856	48.75
228.09	49.75
228.324	49.75
228.559	45.75
228.793	65.75
229.027	66.75
229.262	57.75
229.496	69.75
229.73	64.75
229.964	59.75
230.199	70.75
230.433	69.75
230.667	63.75
230.901	71.75
231.136	72.75
231.37	83.75
231.604	59.75
231.838	88.75
232.072	77.75
232.306	73.75
232.541	86.75
232.775	66.75
233.009	86.75
233.243	79.75
233.477	67.75
233.711	83.75
233.945	84.75
234.179	66.75
234.413	75.75
234.647	80.75
234.881	80.75
235.115	73.75
235.349	73.75
235.583	77.75
235.817	64.75
236.051	82.75
236.285	71.75
236.519	76.75
236.753	87.75
236.987	77.75
237.221	81.75
237.455	72.75
237.689	61.75
237.922	67.75
238.156	76.75
238.39	79.75
238.624	77.75
238.858	72.75
239.091	62.75
239.325	65.75
239.559	75.75
239.793	72.75
240.027	77.75
240.26	71.75
240.494	76.75
240.728	63.75
240.961	72.75
241.195	75.75
241.429	75.75
241.662	57.75
241.896	67.75
242.13	69.75
242.363	77.75
242.597	60.75
242.83	79.75
243.064	77.75
243.298	87.75
243.531	79.75
243.765	75.75
243.998	85.75
244.232	80.75
244.465	83.75
244.699	80.75
244.932	73.75
245.166	71.75
245.399	80.75
245.633	83.75
245.866	77.75
246.099	82.75
246.333	79.75
246.566	74.75
246.8	78.75
247.033	71.75
247.266	84.75
247.5	85.75
247.733	74.75
247.966	80.75
248.2	81.75
248.433	75.75
248.666	79.75
248.899	74.75
249.133	80.75
249.366	62.75
249.599	78.75
249.832	75.75
250.066	87.75
250.299	63.75
250.532	80.75
250.765	74.75
250.998	74.75
251.231	84.75
251.465	85.75
251.698	75.75
251.931	79.75
252.164	76.75
252.397	77.75
252.63	78.75
252.863	69.75
253.096	74.75
253.329	79.75
253.562	81.75
253.795	78.75
254.028	76.75
254.261	74.75
254.494	81.75
254.727	83.75
254.96	78.75
255.193	79.75
255.426	92.75
255.659	83.75
255.892	84.75
256.124	81.75
256.357	85.75
256.59	80.75
256.823	65.75
257.056	77.75
257.289	72.75
257.521	77.75
257.754	87.75
257.987	78.75
258.22	70.75
258.452	72.75
258.685	91.75
258.918	67.75
259.151	79.75
259.383	76.75
259.616	81.75
259.849	89.75
260.081	65.75
260.314	91.75
260.547	78.75
260.779	69.75
261.012	76.75
261.244	83.75
261.477	92.75
261.71	62.75
261.942	69.75
262.175	71.75
262.407	81.75
262.64	72.75
262.872	71.75
263.105	85.75
263.337	99.75
263.57	77.75
263.802	97.75
264.035	71.75
264.267	73.75
264.499	81.75
264.732	94.75
264.964	70.75
265.197	77.75
265.429	93.75
265.661	84.75
265.894	78.75
266.126	88.75
266.358	83.75
266.591	80.75
266.823	81.75
267.055	80.75
267.287	88.75
267.52	71.75
267.752	86.75
267.984	76.75
268.216	86.75
268.448	88.75
268.681	71.75
268.913	88.75
269.145	83.75
269.377	81.75
269.609	70.75
269.841	87.75
270.073	92.75
270.306	77.75
270.538	61.75
270.77	80.75
271.002	78.75
271.234	86.75
271.466	90.75
271.698	85.75
271.93	77.75
272.162	74.75
272.394	80.75
272.626	79.75
272.858	85.75
273.09	78.75
273.322	87.75
273.553	75.75
273.785	86.75
274.017	63.75
274.249	63.75
274.481	68.75
274.713	87.75
274.945	83.75
275.176	83.75
275.408	87.75
275.64	91.75
275.872	75.75
276.104	77.75
276.335	85.75
276.567	81.75
276.799	83.75
277.031	83.75
277.262	90.75
277.494	77.75
277.726	74.75
277.957	65.75
278.189	79.75
278.421	83.75
278.652	66.75
278.884	80.75
279.115	82.75
279.347	75.75
279.579	95.75
279.81	71.75
280.042	80.75
280.273	79.75
280.505	75.75
280.736	73.75
280.968	72.75
281.199	96.75
281.431	98.75
281.662	77.75
281.894	90.75
282.125	94.75
282.356	75.75
282.588	71.75
282.819	85.75
283.051	72.75
283.282	87.75
283.513	84.75
283.745	91.75
283.976	80.75
284.207	90.75
284.439	95.75
284.67	80.75
284.901	91.75
285.132	80.75
285.364	90.75
285.595	87.75
285.826	74.75
286.057	85.75
286.288	85.75
286.52	94.75
286.751	86.75
286.982	89.75
287.213	72.75
287.444	85.75
287.675	84.75
287.906	83.75
288.138	85.75
288.369	88.75
288.6	83.75
288.831	84.75
289.062	75.75
289.293	85.75
289.524	80.75
289.755	71.75
289.986	80.75
290.217	90.75
290.448	90.75
290.679	87.75
290.91	91.75
291.141	75.75
291.371	67.75
291.602	69.75
291.833	79.75
292.064	73.75
292.295	77.75
292.526	95.75
292.757	79.75
292.987	86.75
293.218	65.75
293.449	88.75
293.68	83.75
293.91	88.75
294.141	101.75
294.372	91.75
294.603	105.75
294.833	95.75
295.064	79.75
295.295	74.75
295.525	80.75
295.756	92.75
295.987	78.75
296.217	89.75
296.448	77.75
296.679	84.75
296.909	67.75
297.14	73.75
297.37	74.75
297.601	78.75
297.831	75.75
298.062	79.75
298.292	68.75
298.523	93.75
298.753	79.75
298.984	87.75
299.214	79.75
299.445	89.75
299.675	72.75
299.905	88.75
300.136	76.75
300.366	80.75
300.597	80.75
300.827	84.75
301.057	74.75
301.288	87.75
301.518	90.75
301.748	86.75
301.979	93.75
302.209	88.75
302.439	82.75
302.669	86.75
302.9	78.75
303.13	84.75
303.36	85.75
303.59	78.75
303.82	69.75
304.051	85.75
304.281	76.75
304.511	94.75
304.741	80.75
304.971	88.75
305.201	85.75
305.431	100.75
305.661	85.75
305.891	84.75
306.121	73.75
306.352	89.75
306.582	71.75
306.812	89.75
307.042	78.75
307.272	91.75
307.502	85.75
307.731	85.75
307.961	84.75
308.191	79.75
308.421	86.75
308.651	94.75
308.881	80.75
309.111	74.75
309.341	75.75
309.571	84.75
309.8	89.75
310.03	74.75
310.26	71.75
310.49	85.75
310.72	82.75
310.949	98.75
311.179	85.75
311.409	80.75
311.639	81.75
311.868	88.75
312.098	83.75
312.328	77.75
312.557	85.75
312.787	72.75
313.017	91.75
313.246	89.75
313.476	74.75
313.706	93.75
313.935	85.75
314.165	85.75
314.394	87.75
314.624	80.75
314.853	73.75
315.083	88.75
315.312	86.75
315.542	75.75
315.771	91.75
316.001	108.75
316.23	79.75
316.46	87.75
316.689	85.75
316.919	84.75
317.148	94.75
317.377	91.75
317.607	91.75
317.836	76.75
318.065	86.75
318.295	91.75
318.524	90.75
318.753	76.75
318.983	91.75
319.212	87.75
319.441	80.75
319.67	84.75
319.9	83.75
320.129	72.75
320.358	99.75
320.587	90.75
320.816	69.75
321.046	78.75
321.275	81.75
321.504	85.75
321.733	99.75
321.962	87.75
322.191	77.75
322.42	76.75
322.649	83.75
322.878	75.75
323.108	83.75
323.337	86.75
323.566	91.75
323.795	80.75
324.024	84.75
324.253	68.75
324.482	71.75
324.71	72.75
324.939	83.75
325.168	75.75
325.397	89.75
325.626	85.75
325.855	84.75
326.084	73.75
326.313	87.75
326.542	90.75
326.77	88.75
326.999	89.75
327.228	82.75
327.457	97.75
327.686	74.75
327.914	83.75
328.143	80.75
328.372	78.75
328.6	90.75
328.829	103.75
329.058	77.75
329.287	79.75
329.515	82.75
329.744	88.75
329.972	72.75
330.201	90.75
330.43	96.75
330.658	96.75
330.887	85.75
331.115	89.75
331.344	86.75
331.572	85.75
331.801	84.75
332.03	80.75
332.258	79.75
332.486	75.75
332.715	76.75
332.943	79.75
333.172	87.75
333.4	76.75
333.629	83.75
333.857	87.75
334.085	82.75
334.314	87.75
334.542	85.75
334.771	91.75
334.999	83.75
335.227	88.75
335.455	66.75
335.684	85.75
335.912	83.75
336.14	76.75
336.369	79.75
336.597	75.75
336.825	83.75
337.053	80.75
337.281	74.75
337.51	91.75
337.738	84.75
337.966	73.75
338.194	78.75
338.422	90.75
338.65	85.75
338.878	75.75
339.106	72.75
339.334	83.75
339.562	80.75
339.79	94.75
340.018	79.75
340.246	77.75
340.474	86.75
340.702	88.75
340.93	79.75
341.158	78.75
341.386	78.75
341.614	79.75
341.842	89.75
342.07	80.75
342.298	84.75
342.526	96.75
342.754	89.75
342.981	81.75
343.209	95.75
343.437	85.75
343.665	72.75
343.893	79.75
344.12	83.75
344.348	83.75
344.576	84.75
344.804	76.75
345.031	87.75
345.259	98.75
345.487	86.75
345.714	78.75
345.942	74.75
346.17	74.75
346.397	81.75
346.625	87.75
346.853	82.75
347.08	91.75
347.308	84.75
347.535	88.75
347.763	86.75
347.99	60.75
348.218	72.75
348.445	96.75
348.673	80.75
348.9	64.75
349.128	86.75
349.355	82.75
349.583	70.75
349.81	60.75
350.037	91.75
350.265	92.75
350.492	70.75
350.72	91.75
350.947	89.75
351.174	86.75
351.402	85.75
351.629	93.75
351.856	81.75
352.083	75.75
352.311	78.75
352.538	76.75
352.765	89.75
352.992	96.75
353.22	87.75
353.447	81.75
353.674	72.75
353.901	91.75
354.128	80.75
354.355	79.75
354.583	75.75
354.81	89.75
355.037	99.75
355.264	91.75
355.491	83.75
355.718	76.75
355.945	77.75
356.172	85.75
356.399	75.75
356.626	77.75
356.853	87.75
357.08	96.75
357.307	91.75
357.534	75.75
357.761	80.75
357.988	80.75
358.215	78.75
358.441	83.75
358.668	80.75
358.895	81.75
359.122	89.75
359.349	94.75
359.576	71.75
359.802	79.75
360.029	90.75
360.256	92.75
360.483	96.75
360.709	86.75
360.936	92.75
361.163	79.75
361.39	65.75
361.616	84.75
361.843	93.75
362.07	84.75
362.296	86.75
362.523	96.75
362.749	84.75
362.976	85.75
363.203	88.75
363.429	76.75
363.656	83.75
363.882	85.75
364.109	90.75
364.335	83.75
364.562	83.75
364.788	77.75
365.015	80.75
365.241	82.75
365.468	96.75
365.694	83.75
365.92	84.75
366.147	79.75
366.373	85.75
366.599	83.75
366.826	85.75
367.052	81.75
367.278	77.75
367.505	89.75
367.731	83.75
367.957	74.75
368.184	85.75
368.41	89.75
368.636	80.75
368.862	91.75
369.089	83.75
369.315	71.75
369.541	63.75
369.767	78.75
369.993	82.75
370.219	76.75
370.445	81.75
370.672	85.75
370.898	71.75
371.124	84.75
371.35	89.75
371.576	77.75
371.802	89.75
372.028	78.75
372.254	90.75
372.48	81.75
372.706	93.75
372.932	84.75
373.158	72.75
373.384	80.75
373.61	91.75
373.835	75.75
374.061	82.75
374.287	78.75
374.513	100.75
374.739	86.75
374.965	77.75
375.191	83.75
375.416	81.75
375.642	75.75
375.868	99.75
376.094	86.75
376.319	88.75
376.545	88.75
376.771	83.75
376.997	80.75
377.222	70.75
377.448	84.75
377.674	78.75
377.899	91.75
378.125	76.75
378.35	89.75
378.576	93.75
378.802	94.75
379.027	73.75
379.253	71.75
379.478	91.75
379.704	75.75
379.929	65.75
380.155	87.75
380.38	84.75
380.606	71.75
380.831	83.75
381.057	91.75
381.282	93.75
381.507	77.75
381.733	89.75
381.958	78.75
382.184	88.75
382.409	75.75
382.634	79.75
382.86	73.75
383.085	96.75
383.31	95.75
383.535	93.75
383.761	93.75
383.986	67.75
384.211	90.75
384.436	82.75
384.662	83.75
384.887	83.75
385.112	73.75
385.337	77.75
385.562	84.75
385.787	83.75
386.013	78.75
386.238	78.75
386.463	84.75
386.688	79.75
386.913	92.75
387.138	94.75
387.363	95.75
387.588	93.75
387.813	86.75
388.038	75.75
388.263	79.75
388.488	95.75
388.713	76.75
388.938	72.75
389.163	82.75
389.387	90.75
389.612	76.75
389.837	76.75
390.062	100.75
390.287	91.75
390.512	69.75
390.736	81.75
390.961	79.75
391.186	68.75
391.411	73.75
391.636	92.75
391.86	99.75
392.085	85.75
392.31	83.75
392.534	79.75
392.759	81.75
392.984	72.75
393.208	80.75
393.433	79.75
393.658	83.75
393.882	74.75
394.107	85.75
394.331	82.75
394.556	89.75
394.78	101.75
395.005	78.75
395.229	86.75
395.454	80.75
395.678	87.75
395.903	88.75
396.127	91.75
396.352	90.75
396.576	78.75
396.801	81.75
397.025	80.75
397.249	92.75
397.474	98.75
397.698	78.75
397.922	74.75
398.147	83.75
398.371	66.75
398.595	68.75
398.82	80.75
399.044	77.75
399.268	73.75
399.492	88.75
399.717	90.75
399.941	83.75
400.165	76.75
400.389	87.75
400.613	77.75
400.837	71.75
401.062	89.75
401.286	74.75
401.51	86.75
401.734	88.75
401.958	91.75
402.182	80.75
402.406	77.75
402.63	76.75
402.854	79.75
403.078	69.75
403.302	88.75
403.526	87.75
403.75	96.75
403.974	89.75
404.198	116.75
404.422	136.75
404.645	150.75
404.869	131.75
405.093	99.75
405.317	90.75
405.541	99.75
405.765	96.75
405.988	85.75
406.212	75.75
406.436	87.75
406.66	89.75
406.883	66.75
407.107	76.75
407.331	77.75
407.555	94.75
407.778	87.75
408.002	76.75
408.226	91.75
408.449	87.75
408.673	70.75
408.896	71.75
409.12	87.75
409.344	86.75
409.567	73.75
409.791	84.75
410.014	86.75
410.238	92.75
410.461	83.75
410.685	87.75
410.908	80.75
411.132	83.75
411.355	84.75
411.578	87.75
411.802	96.75
412.025	90.75
412.249	84.75
412.472	75.75
412.695	88.75
412.919	76.75
413.142	88.75
413.365	85.75
413.589	74.75
413.812	79.75
414.035	88.75
414.258	75.75
414.482	71.75
414.705	80.75
414.928	92.75
415.151	78.75
415.374	90.75
415.597	92.75
415.821	86.75
416.044	93.75
416.267	91.75
416.49	80.75
416.713	92.75
416.936	87.75
417.159	79.75
417.382	84.75
417.605	83.75
417.828	72.75
418.051	66.75
418.274	84.75
418.497	79.75
418.72	91.75
418.943	83.75
419.166	79.75
419.389	77.75
419.611	86.75
419.834	80.75
420.057	87.75
420.28	85.75
420.503	79.75
420.726	79.75
420.948	81.75
421.171	68.75
421.394	79.75
421.617	83.75
421.839	85.75
422.062	81.75
422.285	89.75
422.507	76.75
422.73	86.75
422.953	79.75
423.175	82.75
423.398	80.75
423.621	88.75
423.843	72.75
424.066	79.75
424.288	79.75
424.511	89.75
424.733	77.75
424.956	83.75
425.178	63.75
425.401	96.75
425.623	80.75
425.846	76.75
426.068	83.75
426.291	90.75
426.513	69.75
426.735	77.75
426.958	64.75
427.18	86.75
427.402	87.75
427.625	84.75
427.847	86.75
428.069	75.75
428.292	77.75
428.514	91.75
428.736	96.75
428.958	76.75
429.181	84.75
429.403	77.75
429.625	86.75
429.847	90.75
430.069	81.75
430.292	93.75
430.514	93.75
430.736	65.75
430.958	74.75
431.18	80.75
431.402	90.75
431.624	81.75
431.846	84.75
432.068	97.75
432.29	85.75
432.512	84.75
432.734	84.75
432.956	72.75
433.178	81.75
433.4	73.75
433.622	94.75
433.844	84.75
434.066	78.75
434.287	94.75
434.509	80.75
434.731	73.75
434.953	85.75
435.175	87.75
435.397	83.75
435.618	96.75
435.84	77.75
436.062	85.75
436.284	80.75
436.505	92.75
436.727	77.75
436.949	66.75
437.17	86.75
437.392	88.75
437.614	76.75
437.835	79.75
438.057	84.75
438.278	83.75
438.5	70.75
438.721	75.75
438.943	72.75
439.165	83.75
439.386	85.75
439.608	79.75
439.829	78.75
440.05	79.75
440.272	88.75
440.493	63.75
440.715	78.75
440.936	85.75
441.158	99.75
441.379	94.75
441.6	87.75
441.822	84.75
442.043	94.75
442.264	76.75
442.486	67.75
442.707	85.75
442.928	88.75
443.149	95.75
443.371	80.75
443.592	77.75
443.813	101.75
444.034	80.75
444.255	85.75
444.476	81.75
444.698	93.75
444.919	74.75
445.14	145.75
445.361	135.75
445.582	84.75
445.803	91.75
446.024	83.75
446.245	101.75
446.466	86.75
446.687	89.75
446.908	83.75
447.129	93.75
447.35	82.75
447.571	91.75
447.792	88.75
448.013	83.75
448.234	66.75
448.455	72.75
448.675	92.75
448.896	80.75
449.117	89.75
449.338	100.75
449.559	101.75
449.779	84.75
450	75.75
450.221	87.75
450.442	71.75
450.662	78.75
450.883	79.75
451.104	102.75
451.324	81.75
451.545	90.75
451.766	88.75
451.986	96.75
452.207	82.75
452.428	74.75
452.648	83.75
452.869	70.75
453.089	99.75
453.31	74.75
453.53	86.75
453.751	85.75
453.971	94.75
454.192	87.75
454.412	84.75
454.633	70.75
454.853	93.75
455.073	87.75
455.294	80.75
455.514	82.75
455.734	71.75
455.955	80.75
456.175	97.75
456.395	73.75
456.616	85.75
456.836	77.75
457.056	94.75
457.276	89.75
457.497	86.75
457.717	71.75
457.937	81.75
458.157	75.75
458.377	78.75
458.598	85.75
458.818	87.75
459.038	75.75
459.258	85.75
459.478	94.75
459.698	83.75
459.918	79.75
460.138	85.75
460.358	81.75
460.578	83.75
460.798	92.75
461.018	97.75
461.238	68.75
461.458	79.75
461.678	75.75
461.898	94.75
462.118	83.75
462.338	88.75
462.558	67.75
462.777	83.75
462.997	89.75
463.217	87.75
463.437	90.75
463.657	89.75
463.876	75.75
464.096	81.75
464.316	81.75
464.536	77.75
464.755	81.75
464.975	77.75
465.195	85.75
465.414	82.75
465.634	69.75
465.854	91.75
466.073	102.75
466.293	84.75
466.512	84.75
466.732	76.75
466.951	87.75
467.171	104.75
467.391	78.75
467.61	76.75
467.829	92.75
468.049	89.75
468.268	79.75
468.488	83.75
468.707	83.75
468.927	71.75
469.146	87.75
469.365	81.75
469.585	82.75
469.804	79.75
470.023	89.75
470.243	86.75
470.462	80.75
470.681	86.75
470.901	86.75
471.12	88.75
471.339	78.75
471.558	91.75
471.777	72.75
471.997	83.75
472.216	82.75
472.435	92.75
472.654	75.75
472.873	88.75
473.092	84.75
473.311	90.75
473.53	91.75
473.749	86.75
473.968	90.75
474.187	74.75
474.406	79.75
474.625	92.75
474.844	83.75
475.063	80.75
475.282	87.75
475.501	93.75
475.72	83.75
475.939	89.75
476.158	76.75
476.377	89.75
476.596	80.75
476.814	85.75
477.033	89.75
477.252	83.75
477.471	84.75
477.69	82.75
477.908	86.75
478.127	84.75
478.346	96.75
478.564	88.75
478.783	78.75
479.002	86.75
479.22	83.75
479.439	88.75
479.658	84.75
479.876	85.75
480.095	83.75
480.313	93.75
480.532	83.75
480.751	85.75
480.969	84.75
481.188	81.75
481.406	91.75
481.624	84.75
481.843	84.75
482.061	87.75
482.28	88.75
482.498	91.75
482.717	80.75
482.935	90.75
483.153	95.75
483.372	86.75
483.59	82.75
483.808	80.75
484.027	78.75
484.245	71.75
484.463	91.75
484.681	80.75
484.9	66.75
485.118	86.75
485.336	89.75
485.554	73.75
485.772	79.75
485.99	86.75
486.209	65.75
486.427	79.75
486.645	84.75
486.863	83.75
487.081	97.75
487.299	88.75
487.517	81.75
487.735	74.75
487.953	71.75
488.171	80.75
488.389	74.75
488.607	77.75
488.825	78.75
489.043	90.75
489.261	88.75
489.479	72.75
489.696	87.75
489.914	82.75
490.132	90.75
490.35	76.75
490.568	79.75
490.786	73.75
491.003	90.75
491.221	77.75
491.439	81.75
491.657	88.75
491.874	85.75
492.092	88.75
492.31	82.75
492.527	91.75
492.745	88.75
492.963	74.75
493.18	107.75
493.398	104.75
493.615	100.75
493.833	80.75
494.05	89.75
494.268	87.75
494.485	83.75
494.703	86.75
494.92	82.75
495.138	95.75
495.355	81.75
495.573	92.75
495.79	80.75
496.008	76.75
496.225	80.75
496.442	93.75
496.66	107.75
496.877	87.75
497.094	87.75
497.312	95.75
497.529	95.75
497.746	89.75
497.963	90.75
498.181	88.75
498.398	94.75
498.615	106.75
498.832	90.75
499.049	80.75
499.267	97.75
499.484	59.75
499.701	70.75
499.918	70.75
500.135	88.75
500.352	83.75
500.569	84.75
500.786	79.75
501.003	87.75
501.22	87.75
501.437	86.75
501.654	88.75
501.871	105.75
502.088	103.75
502.305	85.75
502.522	90.75
502.739	98.75
502.956	80.75
503.172	75.75
503.389	91.75
503.606	93.75
503.823	79.75
504.04	72.75
504.256	92.75
504.473	83.75
504.69	83.75
504.907	91.75
505.123	92.75
505.34	87.75
505.557	89.75
505.773	96.75
505.99	81.75
506.207	77.75
506.423	80.75
506.64	83.75
506.856	86.75
507.073	94.75
507.289	77.75
507.506	87.75
507.722	83.75
507.939	66.75
508.155	85.75
508.372	92.75
508.588	92.75
508.805	79.75
509.021	85.75
509.238	92.75
509.454	77.75
509.67	90.75
509.887	81.75
510.103	86.75
510.319	90.75
510.536	90.75
510.752	88.75
510.968	86.75
511.184	85.75
511.401	93.75
511.617	81.75
511.833	91.75
512.049	93.75
512.265	84.75
512.481	77.75
512.698	90.75
512.914	82.75
513.13	82.75
513.346	84.75
513.562	80.75
513.778	105.75
513.994	84.75
514.21	84.75
514.426	79.75
514.642	84.75
514.858	94.75
515.074	103.75
515.29	84.75
515.506	90.75
515.721	85.75
515.937	74.75
516.153	83.75
516.369	72.75
516.585	79.75
516.801	69.75
517.016	87.75
517.232	80.75
517.448	93.75
517.664	90.75
517.879	90.75
518.095	90.75
518.311	75.75
518.527	74.75
518.742	113.75
518.958	75.75
519.173	87.75
519.389	68.75
519.605	80.75
519.82	86.75
520.036	85.75
