Data from KBr_2_HRD10591_00018.txt Node
Date: Mon Jan 19 13:12:59 EST 2026
User: Yrep
Spectrometer: HR+D1059
Trigger mode: 1
Integration Time (sec): 1.000000E-1
Scans to average: 1
Electric dark correction enabled: true
Nonlinearity correction enabled: false
Boxcar width: 0
XAxis mode: Wavelengths
Number of Pixels in Spectrum: 2048
>>>>>Begin Spectral Data<<<<<
223.165	-16.44
223.4	-16.44
223.635	-16.44
223.869	-24.44
224.104	-25.44
224.338	-33.44
224.573	-23.44
224.808	-8.44
225.042	-15.44
225.277	-2.44
225.511	4.56
225.746	-12.44
225.98	9.56
226.215	19.56
226.449	21.56
226.683	31.56
226.918	37.56
227.152	37.56
227.387	30.56
227.621	37.56
227.856	43.56
228.09	50.56
228.324	50.56
228.559	61.56
228.793	58.56
229.027	71.56
229.262	57.56
229.496	66.56
229.73	68.56
229.964	73.56
230.199	62.56
230.433	69.56
230.667	73.56
230.901	69.56
231.136	78.56
231.37	69.56
231.604	85.56
231.838	70.56
232.072	74.56
232.306	78.56
232.541	86.56
232.775	89.56
233.009	72.56
233.243	85.56
233.477	78.56
233.711	71.56
233.945	71.56
234.179	87.56
234.413	81.56
234.647	94.56
234.881	73.56
235.115	75.56
235.349	81.56
235.583	77.56
235.817	78.56
236.051	70.56
236.285	67.56
236.519	86.56
236.753	79.56
236.987	70.56
237.221	82.56
237.455	78.56
237.689	73.56
237.922	78.56
238.156	77.56
238.39	76.56
238.624	64.56
238.858	78.56
239.091	82.56
239.325	94.56
239.559	75.56
239.793	73.56
240.027	79.56
240.26	76.56
240.494	77.56
240.728	80.56
240.961	77.56
241.195	79.56
241.429	81.56
241.662	87.56
241.896	86.56
242.13	86.56
242.363	79.56
242.597	58.56
242.83	83.56
243.064	81.56
243.298	82.56
243.531	65.56
243.765	83.56
243.998	79.56
244.232	83.56
244.465	62.56
244.699	68.56
244.932	82.56
245.166	81.56
245.399	74.56
245.633	80.56
245.866	80.56
246.099	74.56
246.333	68.56
246.566	77.56
246.8	64.56
247.033	65.56
247.266	72.56
247.5	59.56
247.733	91.56
247.966	76.56
248.2	68.56
248.433	79.56
248.666	80.56
248.899	74.56
249.133	79.56
249.366	86.56
249.599	75.56
249.832	75.56
250.066	74.56
250.299	73.56
250.532	81.56
250.765	88.56
250.998	73.56
251.231	73.56
251.465	75.56
251.698	76.56
251.931	83.56
252.164	80.56
252.397	82.56
252.63	92.56
252.863	75.56
253.096	84.56
253.329	85.56
253.562	80.56
253.795	83.56
254.028	90.56
254.261	67.56
254.494	77.56
254.727	90.56
254.96	74.56
255.193	58.56
255.426	75.56
255.659	67.56
255.892	79.56
256.124	83.56
256.357	85.56
256.59	79.56
256.823	86.56
257.056	79.56
257.289	81.56
257.521	83.56
257.754	76.56
257.987	77.56
258.22	78.56
258.452	89.56
258.685	83.56
258.918	80.56
259.151	85.56
259.383	80.56
259.616	88.56
259.849	78.56
260.081	82.56
260.314	87.56
260.547	87.56
260.779	81.56
261.012	75.56
261.244	65.56
261.477	76.56
261.71	88.56
261.942	79.56
262.175	78.56
262.407	82.56
262.64	79.56
262.872	81.56
263.105	80.56
263.337	83.56
263.57	74.56
263.802	77.56
264.035	80.56
264.267	86.56
264.499	87.56
264.732	88.56
264.964	83.56
265.197	90.56
265.429	71.56
265.661	66.56
265.894	90.56
266.126	81.56
266.358	77.56
266.591	76.56
266.823	88.56
267.055	81.56
267.287	82.56
267.52	85.56
267.752	83.56
267.984	74.56
268.216	78.56
268.448	81.56
268.681	81.56
268.913	87.56
269.145	89.56
269.377	80.56
269.609	88.56
269.841	91.56
270.073	87.56
270.306	84.56
270.538	80.56
270.77	95.56
271.002	74.56
271.234	106.56
271.466	78.56
271.698	76.56
271.93	74.56
272.162	81.56
272.394	80.56
272.626	100.56
272.858	88.56
273.09	86.56
273.322	89.56
273.553	81.56
273.785	72.56
274.017	78.56
274.249	77.56
274.481	81.56
274.713	82.56
274.945	92.56
275.176	85.56
275.408	94.56
275.64	95.56
275.872	101.56
276.104	78.56
276.335	87.56
276.567	88.56
276.799	69.56
277.031	85.56
277.262	89.56
277.494	98.56
277.726	81.56
277.957	86.56
278.189	78.56
278.421	81.56
278.652	93.56
278.884	71.56
279.115	105.56
279.347	85.56
279.579	70.56
279.81	71.56
280.042	67.56
280.273	79.56
280.505	82.56
280.736	88.56
280.968	77.56
281.199	87.56
281.431	81.56
281.662	68.56
281.894	74.56
282.125	74.56
282.356	79.56
282.588	77.56
282.819	87.56
283.051	81.56
283.282	91.56
283.513	88.56
283.745	96.56
283.976	97.56
284.207	92.56
284.439	77.56
284.67	82.56
284.901	71.56
285.132	89.56
285.364	92.56
285.595	86.56
285.826	71.56
286.057	86.56
286.288	80.56
286.52	80.56
286.751	86.56
286.982	85.56
287.213	79.56
287.444	85.56
287.675	80.56
287.906	98.56
288.138	94.56
288.369	78.56
288.6	79.56
288.831	88.56
289.062	89.56
289.293	80.56
289.524	76.56
289.755	83.56
289.986	89.56
290.217	98.56
290.448	93.56
290.679	87.56
290.91	92.56
291.141	88.56
291.371	82.56
291.602	85.56
291.833	82.56
292.064	87.56
292.295	90.56
292.526	79.56
292.757	83.56
292.987	87.56
293.218	86.56
293.449	75.56
293.68	75.56
293.91	96.56
294.141	94.56
294.372	82.56
294.603	101.56
294.833	83.56
295.064	89.56
295.295	92.56
295.525	91.56
295.756	84.56
295.987	75.56
296.217	82.56
296.448	87.56
296.679	81.56
296.909	88.56
297.14	82.56
297.37	94.56
297.601	104.56
297.831	96.56
298.062	75.56
298.292	82.56
298.523	84.56
298.753	91.56
298.984	89.56
299.214	82.56
299.445	86.56
299.675	89.56
299.905	91.56
300.136	75.56
300.366	85.56
300.597	81.56
300.827	86.56
301.057	89.56
301.288	93.56
301.518	77.56
301.748	64.56
301.979	104.56
302.209	84.56
302.439	76.56
302.669	89.56
302.9	86.56
303.13	86.56
303.36	87.56
303.59	85.56
303.82	76.56
304.051	73.56
304.281	79.56
304.511	105.56
304.741	77.56
304.971	101.56
305.201	78.56
305.431	88.56
305.661	83.56
305.891	98.56
306.121	82.56
306.352	99.56
306.582	86.56
306.812	103.56
307.042	87.56
307.272	78.56
307.502	87.56
307.731	84.56
307.961	81.56
308.191	83.56
308.421	103.56
308.651	76.56
308.881	82.56
309.111	99.56
309.341	81.56
309.571	84.56
309.8	91.56
310.03	80.56
310.26	82.56
310.49	79.56
310.72	80.56
310.949	82.56
311.179	95.56
311.409	85.56
311.639	91.56
311.868	89.56
312.098	90.56
312.328	96.56
312.557	91.56
312.787	91.56
313.017	81.56
313.246	86.56
313.476	90.56
313.706	81.56
313.935	81.56
314.165	81.56
314.394	84.56
314.624	81.56
314.853	87.56
315.083	101.56
315.312	91.56
315.542	92.56
315.771	93.56
316.001	76.56
316.23	78.56
316.46	95.56
316.689	80.56
316.919	93.56
317.148	79.56
317.377	89.56
317.607	81.56
317.836	79.56
318.065	79.56
318.295	89.56
318.524	90.56
318.753	106.56
318.983	76.56
319.212	81.56
319.441	86.56
319.67	77.56
319.9	70.56
320.129	90.56
320.358	80.56
320.587	86.56
320.816	87.56
321.046	87.56
321.275	99.56
321.504	97.56
321.733	89.56
321.962	90.56
322.191	77.56
322.42	103.56
322.649	79.56
322.878	89.56
323.108	85.56
323.337	95.56
323.566	89.56
323.795	97.56
324.024	83.56
324.253	86.56
324.482	81.56
324.71	85.56
324.939	99.56
325.168	93.56
325.397	98.56
325.626	90.56
325.855	76.56
326.084	83.56
326.313	66.56
326.542	67.56
326.77	96.56
326.999	82.56
327.228	82.56
327.457	86.56
327.686	88.56
327.914	89.56
328.143	87.56
328.372	80.56
328.6	98.56
328.829	79.56
329.058	96.56
329.287	80.56
329.515	97.56
329.744	105.56
329.972	81.56
330.201	104.56
330.43	112.56
330.658	107.56
330.887	92.56
331.115	83.56
331.344	82.56
331.572	83.56
331.801	89.56
332.03	76.56
332.258	88.56
332.486	77.56
332.715	81.56
332.943	77.56
333.172	95.56
333.4	107.56
333.629	80.56
333.857	79.56
334.085	86.56
334.314	91.56
334.542	85.56
334.771	93.56
334.999	80.56
335.227	76.56
335.455	84.56
335.684	93.56
335.912	93.56
336.14	81.56
336.369	86.56
336.597	85.56
336.825	74.56
337.053	87.56
337.281	91.56
337.51	92.56
337.738	84.56
337.966	92.56
338.194	90.56
338.422	92.56
338.65	109.56
338.878	90.56
339.106	85.56
339.334	86.56
339.562	82.56
339.79	79.56
340.018	78.56
340.246	92.56
340.474	85.56
340.702	88.56
340.93	83.56
341.158	92.56
341.386	84.56
341.614	89.56
341.842	82.56
342.07	81.56
342.298	79.56
342.526	92.56
342.754	89.56
342.981	101.56
343.209	93.56
343.437	94.56
343.665	86.56
343.893	103.56
344.12	91.56
344.348	85.56
344.576	102.56
344.804	109.56
345.031	102.56
345.259	94.56
345.487	92.56
345.714	86.56
345.942	83.56
346.17	81.56
346.397	81.56
346.625	74.56
346.853	93.56
347.08	84.56
347.308	85.56
347.535	90.56
347.763	90.56
347.99	87.56
348.218	101.56
348.445	74.56
348.673	88.56
348.9	83.56
349.128	92.56
349.355	75.56
349.583	82.56
349.81	80.56
350.037	85.56
350.265	93.56
350.492	74.56
350.72	91.56
350.947	85.56
351.174	84.56
351.402	90.56
351.629	83.56
351.856	74.56
352.083	95.56
352.311	90.56
352.538	88.56
352.765	89.56
352.992	91.56
353.22	90.56
353.447	94.56
353.674	93.56
353.901	103.56
354.128	103.56
354.355	78.56
354.583	87.56
354.81	87.56
355.037	88.56
355.264	80.56
355.491	86.56
355.718	96.56
355.945	86.56
356.172	85.56
356.399	81.56
356.626	87.56
356.853	74.56
357.08	90.56
357.307	90.56
357.534	84.56
357.761	90.56
357.988	99.56
358.215	95.56
358.441	88.56
358.668	94.56
358.895	96.56
359.122	88.56
359.349	105.56
359.576	99.56
359.802	75.56
360.029	84.56
360.256	87.56
360.483	96.56
360.709	89.56
360.936	98.56
361.163	93.56
361.39	79.56
361.616	71.56
361.843	85.56
362.07	83.56
362.296	88.56
362.523	90.56
362.749	87.56
362.976	103.56
363.203	107.56
363.429	89.56
363.656	91.56
363.882	76.56
364.109	93.56
364.335	94.56
364.562	98.56
364.788	84.56
365.015	89.56
365.241	101.56
365.468	81.56
365.694	89.56
365.92	74.56
366.147	87.56
366.373	89.56
366.599	82.56
366.826	87.56
367.052	89.56
367.278	86.56
367.505	81.56
367.731	98.56
367.957	75.56
368.184	81.56
368.41	95.56
368.636	97.56
368.862	90.56
369.089	80.56
369.315	94.56
369.541	91.56
369.767	87.56
369.993	78.56
370.219	83.56
370.445	96.56
370.672	104.56
370.898	74.56
371.124	102.56
371.35	90.56
371.576	82.56
371.802	88.56
372.028	100.56
372.254	84.56
372.48	90.56
372.706	81.56
372.932	90.56
373.158	85.56
373.384	90.56
373.61	98.56
373.835	81.56
374.061	88.56
374.287	86.56
374.513	90.56
374.739	73.56
374.965	85.56
375.191	78.56
375.416	99.56
375.642	82.56
375.868	97.56
376.094	78.56
376.319	78.56
376.545	81.56
376.771	76.56
376.997	82.56
377.222	88.56
377.448	81.56
377.674	81.56
377.899	85.56
378.125	89.56
378.35	88.56
378.576	71.56
378.802	100.56
379.027	94.56
379.253	81.56
379.478	66.56
379.704	93.56
379.929	87.56
380.155	76.56
380.38	77.56
380.606	84.56
380.831	81.56
381.057	89.56
381.282	92.56
381.507	93.56
381.733	80.56
381.958	83.56
382.184	82.56
382.409	87.56
382.634	91.56
382.86	90.56
383.085	91.56
383.31	84.56
383.535	91.56
383.761	83.56
383.986	88.56
384.211	98.56
384.436	85.56
384.662	90.56
384.887	90.56
385.112	86.56
385.337	89.56
385.562	89.56
385.787	78.56
386.013	89.56
386.238	88.56
386.463	91.56
386.688	84.56
386.913	88.56
387.138	85.56
387.363	86.56
387.588	81.56
387.813	93.56
388.038	78.56
388.263	83.56
388.488	77.56
388.713	94.56
388.938	85.56
389.163	80.56
389.387	85.56
389.612	94.56
389.837	98.56
390.062	91.56
390.287	85.56
390.512	96.56
390.736	85.56
390.961	86.56
391.186	108.56
391.411	79.56
391.636	78.56
391.86	72.56
392.085	85.56
392.31	82.56
392.534	83.56
392.759	108.56
392.984	83.56
393.208	85.56
393.433	86.56
393.658	94.56
393.882	104.56
394.107	89.56
394.331	101.56
394.556	87.56
394.78	93.56
395.005	81.56
395.229	74.56
395.454	90.56
395.678	87.56
395.903	81.56
396.127	88.56
396.352	90.56
396.576	81.56
396.801	99.56
397.025	88.56
397.249	86.56
397.474	93.56
397.698	84.56
397.922	82.56
398.147	80.56
398.371	85.56
398.595	77.56
398.82	89.56
399.044	71.56
399.268	79.56
399.492	87.56
399.717	83.56
399.941	71.56
400.165	78.56
400.389	81.56
400.613	85.56
400.837	77.56
401.062	87.56
401.286	103.56
401.51	90.56
401.734	75.56
401.958	88.56
402.182	98.56
402.406	80.56
402.63	98.56
402.854	82.56
403.078	80.56
403.302	83.56
403.526	85.56
403.75	84.56
403.974	119.56
404.198	140.56
404.422	203.56
404.645	282.56
404.869	239.56
405.093	151.56
405.317	104.56
405.541	94.56
405.765	90.56
405.988	90.56
406.212	87.56
406.436	79.56
406.66	88.56
406.883	77.56
407.107	88.56
407.331	90.56
407.555	81.56
407.778	76.56
408.002	91.56
408.226	90.56
408.449	91.56
408.673	89.56
408.896	77.56
409.12	94.56
409.344	98.56
409.567	98.56
409.791	93.56
410.014	86.56
410.238	81.56
410.461	73.56
410.685	86.56
410.908	85.56
411.132	85.56
411.355	90.56
411.578	87.56
411.802	78.56
412.025	89.56
412.249	89.56
412.472	81.56
412.695	86.56
412.919	86.56
413.142	91.56
413.365	90.56
413.589	92.56
413.812	87.56
414.035	82.56
414.258	85.56
414.482	80.56
414.705	89.56
414.928	90.56
415.151	83.56
415.374	83.56
415.597	76.56
415.821	94.56
416.044	84.56
416.267	83.56
416.49	85.56
416.713	85.56
416.936	106.56
417.159	99.56
417.382	81.56
417.605	85.56
417.828	77.56
418.051	81.56
418.274	92.56
418.497	102.56
418.72	75.56
418.943	88.56
419.166	82.56
419.389	88.56
419.611	87.56
419.834	82.56
420.057	96.56
420.28	81.56
420.503	85.56
420.726	93.56
420.948	82.56
421.171	75.56
421.394	92.56
421.617	82.56
421.839	67.56
422.062	93.56
422.285	81.56
422.507	89.56
422.73	89.56
422.953	104.56
423.175	95.56
423.398	87.56
423.621	96.56
423.843	79.56
424.066	93.56
424.288	91.56
424.511	106.56
424.733	82.56
424.956	96.56
425.178	93.56
425.401	92.56
425.623	75.56
425.846	71.56
426.068	80.56
426.291	83.56
426.513	88.56
426.735	84.56
426.958	91.56
427.18	94.56
427.402	92.56
427.625	85.56
427.847	84.56
428.069	87.56
428.292	81.56
428.514	77.56
428.736	95.56
428.958	82.56
429.181	87.56
429.403	85.56
429.625	76.56
429.847	80.56
430.069	83.56
430.292	93.56
430.514	73.56
430.736	97.56
430.958	78.56
431.18	95.56
431.402	89.56
431.624	93.56
431.846	85.56
432.068	94.56
432.29	91.56
432.512	79.56
432.734	88.56
432.956	98.56
433.178	89.56
433.4	102.56
433.622	80.56
433.844	85.56
434.066	95.56
434.287	78.56
434.509	81.56
434.731	85.56
434.953	85.56
435.175	77.56
435.397	80.56
435.618	99.56
435.84	84.56
436.062	93.56
436.284	96.56
436.505	93.56
436.727	78.56
436.949	94.56
437.17	88.56
437.392	91.56
437.614	87.56
437.835	73.56
438.057	88.56
438.278	73.56
438.5	77.56
438.721	80.56
438.943	109.56
439.165	85.56
439.386	77.56
439.608	89.56
439.829	96.56
440.05	79.56
440.272	94.56
440.493	80.56
440.715	78.56
440.936	88.56
441.158	81.56
441.379	85.56
441.6	95.56
441.822	83.56
442.043	81.56
442.264	78.56
442.486	83.56
442.707	85.56
442.928	90.56
443.149	76.56
443.371	119.56
443.592	97.56
443.813	82.56
444.034	86.56
444.255	78.56
444.476	82.56
444.698	79.56
444.919	95.56
445.14	168.56
445.361	126.56
445.582	89.56
445.803	69.56
446.024	88.56
446.245	92.56
446.466	80.56
446.687	78.56
446.908	90.56
447.129	95.56
447.35	86.56
447.571	94.56
447.792	83.56
448.013	91.56
448.234	102.56
448.455	77.56
448.675	80.56
448.896	101.56
449.117	87.56
449.338	86.56
449.559	92.56
449.779	70.56
450	83.56
450.221	96.56
450.442	87.56
450.662	84.56
450.883	83.56
451.104	82.56
451.324	77.56
451.545	87.56
451.766	86.56
451.986	65.56
452.207	90.56
452.428	98.56
452.648	89.56
452.869	96.56
453.089	87.56
453.31	84.56
453.53	73.56
453.751	103.56
453.971	85.56
454.192	70.56
454.412	83.56
454.633	93.56
454.853	88.56
455.073	93.56
455.294	87.56
455.514	85.56
455.734	84.56
455.955	85.56
456.175	78.56
456.395	94.56
456.616	92.56
456.836	112.56
457.056	78.56
457.276	88.56
457.497	92.56
457.717	92.56
457.937	88.56
458.157	78.56
458.377	84.56
458.598	82.56
458.818	88.56
459.038	74.56
459.258	93.56
459.478	82.56
459.698	81.56
459.918	95.56
460.138	82.56
460.358	81.56
460.578	94.56
460.798	91.56
461.018	79.56
461.238	85.56
461.458	85.56
461.678	80.56
461.898	85.56
462.118	95.56
462.338	95.56
462.558	106.56
462.777	87.56
462.997	83.56
463.217	83.56
463.437	86.56
463.657	83.56
463.876	79.56
464.096	89.56
464.316	77.56
464.536	92.56
464.755	89.56
464.975	81.56
465.195	106.56
465.414	93.56
465.634	85.56
465.854	84.56
466.073	84.56
466.293	85.56
466.512	85.56
466.732	79.56
466.951	79.56
467.171	92.56
467.391	98.56
467.61	89.56
467.829	99.56
468.049	83.56
468.268	102.56
468.488	83.56
468.707	97.56
468.927	86.56
469.146	101.56
469.365	83.56
469.585	89.56
469.804	95.56
470.023	79.56
470.243	86.56
470.462	101.56
470.681	96.56
470.901	97.56
471.12	68.56
471.339	65.56
471.558	87.56
471.777	101.56
471.997	85.56
472.216	86.56
472.435	82.56
472.654	80.56
472.873	82.56
473.092	93.56
473.311	85.56
473.53	78.56
473.749	103.56
473.968	90.56
474.187	79.56
474.406	89.56
474.625	94.56
474.844	86.56
475.063	88.56
475.282	103.56
475.501	101.56
475.72	89.56
475.939	87.56
476.158	95.56
476.377	105.56
476.596	83.56
476.814	83.56
477.033	93.56
477.252	72.56
477.471	91.56
477.69	101.56
477.908	95.56
478.127	84.56
478.346	90.56
478.564	94.56
478.783	97.56
479.002	96.56
479.22	91.56
479.439	92.56
479.658	90.56
479.876	96.56
480.095	96.56
480.313	93.56
480.532	80.56
480.751	91.56
480.969	99.56
481.188	82.56
481.406	75.56
481.624	104.56
481.843	88.56
482.061	85.56
482.28	97.56
482.498	83.56
482.717	80.56
482.935	75.56
483.153	72.56
483.372	86.56
483.59	84.56
483.808	88.56
484.027	101.56
484.245	93.56
484.463	86.56
484.681	90.56
484.9	87.56
485.118	80.56
485.336	77.56
485.554	78.56
485.772	79.56
485.99	80.56
486.209	90.56
486.427	81.56
486.645	83.56
486.863	102.56
487.081	94.56
487.299	90.56
487.517	94.56
487.735	88.56
487.953	89.56
488.171	89.56
488.389	89.56
488.607	88.56
488.825	101.56
489.043	88.56
489.261	80.56
489.479	87.56
489.696	99.56
489.914	88.56
490.132	85.56
490.35	95.56
490.568	91.56
490.786	96.56
491.003	95.56
491.221	89.56
491.439	91.56
491.657	107.56
491.874	87.56
492.092	94.56
492.31	96.56
492.527	91.56
492.745	85.56
492.963	97.56
493.18	85.56
493.398	97.56
493.615	103.56
493.833	85.56
494.05	113.56
494.268	101.56
494.485	79.56
494.703	93.56
494.92	86.56
495.138	87.56
495.355	98.56
495.573	90.56
495.79	90.56
496.008	92.56
496.225	109.56
496.442	101.56
496.66	95.56
496.877	75.56
497.094	99.56
497.312	92.56
497.529	103.56
497.746	101.56
497.963	88.56
498.181	86.56
498.398	89.56
498.615	98.56
498.832	85.56
499.049	97.56
499.267	82.56
499.484	74.56
499.701	91.56
499.918	90.56
500.135	86.56
500.352	96.56
500.569	93.56
500.786	89.56
501.003	79.56
501.22	96.56
501.437	82.56
501.654	85.56
501.871	75.56
502.088	94.56
502.305	77.56
502.522	93.56
502.739	79.56
502.956	78.56
503.172	87.56
503.389	80.56
503.606	79.56
503.823	91.56
504.04	95.56
504.256	93.56
504.473	79.56
504.69	97.56
504.907	91.56
505.123	82.56
505.34	83.56
505.557	84.56
505.773	94.56
505.99	92.56
506.207	85.56
506.423	79.56
506.64	95.56
506.856	83.56
507.073	78.56
507.289	89.56
507.506	93.56
507.722	91.56
507.939	93.56
508.155	83.56
508.372	96.56
508.588	95.56
508.805	96.56
509.021	94.56
509.238	91.56
509.454	88.56
509.67	98.56
509.887	98.56
510.103	99.56
510.319	98.56
510.536	102.56
510.752	88.56
510.968	95.56
511.184	79.56
511.401	80.56
511.617	92.56
511.833	100.56
512.049	104.56
512.265	99.56
512.481	96.56
512.698	89.56
512.914	97.56
513.13	114.56
513.346	93.56
513.562	80.56
513.778	94.56
513.994	85.56
514.21	94.56
514.426	80.56
514.642	75.56
514.858	75.56
515.074	82.56
515.29	86.56
515.506	92.56
515.721	84.56
515.937	98.56
516.153	93.56
516.369	98.56
516.585	89.56
516.801	92.56
517.016	92.56
517.232	86.56
517.448	90.56
517.664	81.56
517.879	90.56
518.095	94.56
518.311	83.56
518.527	89.56
518.742	84.56
518.958	91.56
