Data from KBr_2_HRD10591_00004.txt Node
Date: Mon Jan 19 13:12:52 EST 2026
User: Yrep
Spectrometer: HR+D1059
Trigger mode: 1
Integration Time (sec): 1.000000E-1
Scans to average: 1
Electric dark correction enabled: true
Nonlinearity correction enabled: false
Boxcar width: 0
XAxis mode: Wavelengths
Number of Pixels in Spectrum: 2048
>>>>>Begin Spectral Data<<<<<
223.165	-11.25
223.4	-11.25
223.635	-11.25
223.869	-12.25
224.104	-23.25
224.338	-10.25
224.573	-7.25
224.808	-19.25
225.042	-10.25
225.277	-17.25
225.511	-6.25
225.746	-0.25
225.98	0.75
226.215	6.75
226.449	19.75
226.683	24.75
226.918	35.75
227.152	29.75
227.387	40.75
227.621	47.75
227.856	40.75
228.09	53.75
228.324	49.75
228.559	52.75
228.793	51.75
229.027	64.75
229.262	56.75
229.496	66.75
229.73	75.75
229.964	80.75
230.199	78.75
230.433	73.75
230.667	71.75
230.901	77.75
231.136	84.75
231.37	79.75
231.604	91.75
231.838	75.75
232.072	81.75
232.306	83.75
232.541	68.75
232.775	76.75
233.009	82.75
233.243	86.75
233.477	84.75
233.711	83.75
233.945	93.75
234.179	56.75
234.413	83.75
234.647	87.75
234.881	73.75
235.115	79.75
235.349	83.75
235.583	84.75
235.817	76.75
236.051	71.75
236.285	91.75
236.519	78.75
236.753	87.75
236.987	65.75
237.221	80.75
237.455	76.75
237.689	78.75
237.922	70.75
238.156	79.75
238.39	83.75
238.624	66.75
238.858	71.75
239.091	56.75
239.325	78.75
239.559	72.75
239.793	73.75
240.027	73.75
240.26	74.75
240.494	74.75
240.728	66.75
240.961	70.75
241.195	71.75
241.429	71.75
241.662	79.75
241.896	78.75
242.13	62.75
242.363	69.75
242.597	72.75
242.83	78.75
243.064	74.75
243.298	59.75
243.531	76.75
243.765	87.75
243.998	80.75
244.232	84.75
244.465	73.75
244.699	63.75
244.932	76.75
245.166	63.75
245.399	92.75
245.633	87.75
245.866	68.75
246.099	65.75
246.333	74.75
246.566	72.75
246.8	80.75
247.033	88.75
247.266	93.75
247.5	71.75
247.733	79.75
247.966	87.75
248.2	88.75
248.433	84.75
248.666	59.75
248.899	67.75
249.133	87.75
249.366	86.75
249.599	77.75
249.832	61.75
250.066	96.75
250.299	80.75
250.532	73.75
250.765	83.75
250.998	82.75
251.231	73.75
251.465	78.75
251.698	63.75
251.931	74.75
252.164	70.75
252.397	74.75
252.63	71.75
252.863	72.75
253.096	84.75
253.329	85.75
253.562	89.75
253.795	84.75
254.028	77.75
254.261	93.75
254.494	76.75
254.727	79.75
254.96	71.75
255.193	69.75
255.426	85.75
255.659	77.75
255.892	70.75
256.124	87.75
256.357	84.75
256.59	69.75
256.823	83.75
257.056	80.75
257.289	77.75
257.521	74.75
257.754	83.75
257.987	79.75
258.22	73.75
258.452	77.75
258.685	78.75
258.918	83.75
259.151	78.75
259.383	74.75
259.616	78.75
259.849	76.75
260.081	79.75
260.314	82.75
260.547	76.75
260.779	79.75
261.012	74.75
261.244	66.75
261.477	71.75
261.71	82.75
261.942	91.75
262.175	73.75
262.407	78.75
262.64	78.75
262.872	83.75
263.105	84.75
263.337	87.75
263.57	94.75
263.802	72.75
264.035	78.75
264.267	87.75
264.499	75.75
264.732	84.75
264.964	67.75
265.197	76.75
265.429	90.75
265.661	75.75
265.894	86.75
266.126	76.75
266.358	93.75
266.591	89.75
266.823	87.75
267.055	84.75
267.287	73.75
267.52	79.75
267.752	70.75
267.984	85.75
268.216	91.75
268.448	92.75
268.681	78.75
268.913	71.75
269.145	80.75
269.377	82.75
269.609	88.75
269.841	84.75
270.073	86.75
270.306	81.75
270.538	83.75
270.77	75.75
271.002	81.75
271.234	80.75
271.466	90.75
271.698	92.75
271.93	88.75
272.162	72.75
272.394	79.75
272.626	88.75
272.858	76.75
273.09	75.75
273.322	81.75
273.553	66.75
273.785	84.75
274.017	79.75
274.249	87.75
274.481	75.75
274.713	96.75
274.945	83.75
275.176	85.75
275.408	78.75
275.64	79.75
275.872	80.75
276.104	78.75
276.335	101.75
276.567	99.75
276.799	71.75
277.031	87.75
277.262	85.75
277.494	73.75
277.726	87.75
277.957	77.75
278.189	50.75
278.421	76.75
278.652	78.75
278.884	77.75
279.115	80.75
279.347	76.75
279.579	76.75
279.81	81.75
280.042	84.75
280.273	77.75
280.505	80.75
280.736	83.75
280.968	67.75
281.199	70.75
281.431	80.75
281.662	67.75
281.894	82.75
282.125	75.75
282.356	87.75
282.588	70.75
282.819	84.75
283.051	74.75
283.282	84.75
283.513	96.75
283.745	78.75
283.976	94.75
284.207	98.75
284.439	82.75
284.67	83.75
284.901	73.75
285.132	88.75
285.364	79.75
285.595	85.75
285.826	87.75
286.057	99.75
286.288	79.75
286.52	58.75
286.751	81.75
286.982	78.75
287.213	78.75
287.444	80.75
287.675	77.75
287.906	89.75
288.138	96.75
288.369	86.75
288.6	74.75
288.831	77.75
289.062	71.75
289.293	75.75
289.524	75.75
289.755	70.75
289.986	79.75
290.217	69.75
290.448	81.75
290.679	80.75
290.91	88.75
291.141	93.75
291.371	83.75
291.602	80.75
291.833	71.75
292.064	75.75
292.295	91.75
292.526	90.75
292.757	87.75
292.987	88.75
293.218	82.75
293.449	71.75
293.68	84.75
293.91	86.75
294.141	88.75
294.372	75.75
294.603	76.75
294.833	76.75
295.064	91.75
295.295	81.75
295.525	82.75
295.756	93.75
295.987	86.75
296.217	97.75
296.448	94.75
296.679	101.75
296.909	88.75
297.14	84.75
297.37	88.75
297.601	100.75
297.831	84.75
298.062	92.75
298.292	84.75
298.523	91.75
298.753	89.75
298.984	78.75
299.214	77.75
299.445	85.75
299.675	81.75
299.905	85.75
300.136	89.75
300.366	84.75
300.597	100.75
300.827	78.75
301.057	78.75
301.288	88.75
301.518	91.75
301.748	84.75
301.979	81.75
302.209	87.75
302.439	69.75
302.669	94.75
302.9	79.75
303.13	78.75
303.36	89.75
303.59	102.75
303.82	87.75
304.051	73.75
304.281	74.75
304.511	103.75
304.741	73.75
304.971	82.75
305.201	91.75
305.431	81.75
305.661	86.75
305.891	73.75
306.121	79.75
306.352	93.75
306.582	86.75
306.812	81.75
307.042	75.75
307.272	72.75
307.502	72.75
307.731	67.75
307.961	97.75
308.191	81.75
308.421	79.75
308.651	89.75
308.881	83.75
309.111	75.75
309.341	68.75
309.571	92.75
309.8	93.75
310.03	76.75
310.26	82.75
310.49	94.75
310.72	90.75
310.949	78.75
311.179	80.75
311.409	77.75
311.639	84.75
311.868	86.75
312.098	74.75
312.328	94.75
312.557	91.75
312.787	80.75
313.017	93.75
313.246	89.75
313.476	94.75
313.706	84.75
313.935	84.75
314.165	86.75
314.394	78.75
314.624	72.75
314.853	90.75
315.083	85.75
315.312	69.75
315.542	66.75
315.771	99.75
316.001	92.75
316.23	91.75
316.46	89.75
316.689	84.75
316.919	75.75
317.148	82.75
317.377	87.75
317.607	76.75
317.836	90.75
318.065	88.75
318.295	76.75
318.524	82.75
318.753	84.75
318.983	89.75
319.212	79.75
319.441	79.75
319.67	86.75
319.9	81.75
320.129	77.75
320.358	92.75
320.587	85.75
320.816	93.75
321.046	75.75
321.275	92.75
321.504	85.75
321.733	101.75
321.962	83.75
322.191	85.75
322.42	86.75
322.649	85.75
322.878	103.75
323.108	87.75
323.337	96.75
323.566	94.75
323.795	94.75
324.024	91.75
324.253	82.75
324.482	85.75
324.71	85.75
324.939	81.75
325.168	83.75
325.397	82.75
325.626	88.75
325.855	79.75
326.084	74.75
326.313	85.75
326.542	83.75
326.77	77.75
326.999	77.75
327.228	93.75
327.457	86.75
327.686	83.75
327.914	83.75
328.143	82.75
328.372	91.75
328.6	89.75
328.829	108.75
329.058	83.75
329.287	75.75
329.515	87.75
329.744	94.75
329.972	87.75
330.201	93.75
330.43	85.75
330.658	86.75
330.887	93.75
331.115	91.75
331.344	71.75
331.572	101.75
331.801	80.75
332.03	75.75
332.258	86.75
332.486	85.75
332.715	103.75
332.943	78.75
333.172	99.75
333.4	80.75
333.629	77.75
333.857	85.75
334.085	88.75
334.314	88.75
334.542	91.75
334.771	73.75
334.999	84.75
335.227	91.75
335.455	92.75
335.684	95.75
335.912	86.75
336.14	76.75
336.369	80.75
336.597	83.75
336.825	77.75
337.053	80.75
337.281	83.75
337.51	75.75
337.738	77.75
337.966	76.75
338.194	77.75
338.422	86.75
338.65	95.75
338.878	103.75
339.106	96.75
339.334	90.75
339.562	84.75
339.79	82.75
340.018	78.75
340.246	74.75
340.474	92.75
340.702	81.75
340.93	80.75
341.158	69.75
341.386	92.75
341.614	81.75
341.842	81.75
342.07	71.75
342.298	83.75
342.526	81.75
342.754	84.75
342.981	71.75
343.209	90.75
343.437	93.75
343.665	88.75
343.893	91.75
344.12	87.75
344.348	87.75
344.576	100.75
344.804	95.75
345.031	82.75
345.259	83.75
345.487	84.75
345.714	87.75
345.942	97.75
346.17	79.75
346.397	90.75
346.625	89.75
346.853	74.75
347.08	86.75
347.308	93.75
347.535	74.75
347.763	92.75
347.99	89.75
348.218	85.75
348.445	84.75
348.673	87.75
348.9	82.75
349.128	75.75
349.355	88.75
349.583	88.75
349.81	102.75
350.037	85.75
350.265	77.75
350.492	79.75
350.72	82.75
350.947	85.75
351.174	80.75
351.402	88.75
351.629	75.75
351.856	81.75
352.083	85.75
352.311	79.75
352.538	87.75
352.765	101.75
352.992	71.75
353.22	93.75
353.447	88.75
353.674	87.75
353.901	99.75
354.128	106.75
354.355	85.75
354.583	77.75
354.81	73.75
355.037	75.75
355.264	95.75
355.491	78.75
355.718	89.75
355.945	88.75
356.172	77.75
356.399	70.75
356.626	83.75
356.853	80.75
357.08	96.75
357.307	83.75
357.534	90.75
357.761	87.75
357.988	89.75
358.215	83.75
358.441	81.75
358.668	78.75
358.895	85.75
359.122	75.75
359.349	86.75
359.576	88.75
359.802	73.75
360.029	88.75
360.256	82.75
360.483	62.75
360.709	75.75
360.936	79.75
361.163	85.75
361.39	79.75
361.616	92.75
361.843	86.75
362.07	81.75
362.296	79.75
362.523	73.75
362.749	102.75
362.976	85.75
363.203	81.75
363.429	82.75
363.656	103.75
363.882	70.75
364.109	89.75
364.335	99.75
364.562	83.75
364.788	74.75
365.015	96.75
365.241	59.75
365.468	91.75
365.694	90.75
365.92	99.75
366.147	67.75
366.373	86.75
366.599	90.75
366.826	85.75
367.052	77.75
367.278	85.75
367.505	96.75
367.731	96.75
367.957	81.75
368.184	93.75
368.41	95.75
368.636	66.75
368.862	81.75
369.089	93.75
369.315	81.75
369.541	96.75
369.767	83.75
369.993	79.75
370.219	81.75
370.445	107.75
370.672	92.75
370.898	85.75
371.124	81.75
371.35	97.75
371.576	91.75
371.802	100.75
372.028	76.75
372.254	84.75
372.48	93.75
372.706	88.75
372.932	87.75
373.158	87.75
373.384	73.75
373.61	84.75
373.835	77.75
374.061	83.75
374.287	83.75
374.513	85.75
374.739	80.75
374.965	78.75
375.191	90.75
375.416	81.75
375.642	96.75
375.868	79.75
376.094	75.75
376.319	74.75
376.545	90.75
376.771	83.75
376.997	93.75
377.222	79.75
377.448	85.75
377.674	73.75
377.899	102.75
378.125	87.75
378.35	86.75
378.576	83.75
378.802	75.75
379.027	78.75
379.253	71.75
379.478	84.75
379.704	61.75
379.929	79.75
380.155	84.75
380.38	79.75
380.606	85.75
380.831	84.75
381.057	70.75
381.282	85.75
381.507	77.75
381.733	81.75
381.958	87.75
382.184	95.75
382.409	81.75
382.634	89.75
382.86	85.75
383.085	86.75
383.31	84.75
383.535	76.75
383.761	79.75
383.986	74.75
384.211	77.75
384.436	86.75
384.662	94.75
384.887	74.75
385.112	77.75
385.337	72.75
385.562	72.75
385.787	87.75
386.013	83.75
386.238	90.75
386.463	80.75
386.688	84.75
386.913	90.75
387.138	88.75
387.363	77.75
387.588	88.75
387.813	87.75
388.038	73.75
388.263	88.75
388.488	82.75
388.713	75.75
388.938	88.75
389.163	83.75
389.387	91.75
389.612	79.75
389.837	92.75
390.062	83.75
390.287	78.75
390.512	83.75
390.736	78.75
390.961	75.75
391.186	81.75
391.411	91.75
391.636	91.75
391.86	90.75
392.085	78.75
392.31	88.75
392.534	83.75
392.759	81.75
392.984	93.75
393.208	96.75
393.433	82.75
393.658	94.75
393.882	94.75
394.107	101.75
394.331	82.75
394.556	88.75
394.78	95.75
395.005	88.75
395.229	85.75
395.454	87.75
395.678	93.75
395.903	77.75
396.127	78.75
396.352	90.75
396.576	96.75
396.801	83.75
397.025	79.75
397.249	83.75
397.474	73.75
397.698	95.75
397.922	95.75
398.147	92.75
398.371	84.75
398.595	80.75
398.82	94.75
399.044	78.75
399.268	84.75
399.492	83.75
399.717	86.75
399.941	87.75
400.165	92.75
400.389	78.75
400.613	71.75
400.837	87.75
401.062	91.75
401.286	81.75
401.51	75.75
401.734	87.75
401.958	90.75
402.182	84.75
402.406	80.75
402.63	92.75
402.854	92.75
403.078	84.75
403.302	76.75
403.526	90.75
403.75	99.75
403.974	103.75
404.198	134.75
404.422	185.75
404.645	199.75
404.869	161.75
405.093	142.75
405.317	95.75
405.541	93.75
405.765	96.75
405.988	85.75
406.212	88.75
406.436	89.75
406.66	85.75
406.883	81.75
407.107	96.75
407.331	92.75
407.555	95.75
407.778	76.75
408.002	85.75
408.226	80.75
408.449	75.75
408.673	78.75
408.896	85.75
409.12	63.75
409.344	87.75
409.567	84.75
409.791	83.75
410.014	79.75
410.238	99.75
410.461	73.75
410.685	92.75
410.908	86.75
411.132	74.75
411.355	73.75
411.578	90.75
411.802	87.75
412.025	88.75
412.249	70.75
412.472	93.75
412.695	73.75
412.919	88.75
413.142	84.75
413.365	93.75
413.589	86.75
413.812	71.75
414.035	72.75
414.258	78.75
414.482	96.75
414.705	93.75
414.928	91.75
415.151	85.75
415.374	74.75
415.597	79.75
415.821	71.75
416.044	85.75
416.267	83.75
416.49	79.75
416.713	83.75
416.936	86.75
417.159	93.75
417.382	84.75
417.605	68.75
417.828	75.75
418.051	76.75
418.274	94.75
418.497	96.75
418.72	74.75
418.943	89.75
419.166	101.75
419.389	87.75
419.611	71.75
419.834	79.75
420.057	83.75
420.28	96.75
420.503	73.75
420.726	80.75
420.948	69.75
421.171	78.75
421.394	86.75
421.617	79.75
421.839	82.75
422.062	79.75
422.285	87.75
422.507	73.75
422.73	103.75
422.953	103.75
423.175	92.75
423.398	94.75
423.621	80.75
423.843	89.75
424.066	94.75
424.288	93.75
424.511	92.75
424.733	84.75
424.956	94.75
425.178	85.75
425.401	86.75
425.623	76.75
425.846	90.75
426.068	88.75
426.291	102.75
426.513	88.75
426.735	86.75
426.958	86.75
427.18	71.75
427.402	88.75
427.625	86.75
427.847	81.75
428.069	88.75
428.292	73.75
428.514	92.75
428.736	78.75
428.958	95.75
429.181	86.75
429.403	82.75
429.625	79.75
429.847	71.75
430.069	77.75
430.292	86.75
430.514	82.75
430.736	95.75
430.958	85.75
431.18	74.75
431.402	78.75
431.624	85.75
431.846	82.75
432.068	89.75
432.29	73.75
432.512	82.75
432.734	80.75
432.956	79.75
433.178	97.75
433.4	90.75
433.622	81.75
433.844	85.75
434.066	74.75
434.287	84.75
434.509	85.75
434.731	84.75
434.953	79.75
435.175	79.75
435.397	89.75
435.618	75.75
435.84	79.75
436.062	89.75
436.284	92.75
436.505	82.75
436.727	87.75
436.949	92.75
437.17	82.75
437.392	81.75
437.614	91.75
437.835	85.75
438.057	76.75
438.278	82.75
438.5	77.75
438.721	84.75
438.943	85.75
439.165	87.75
439.386	84.75
439.608	86.75
439.829	72.75
440.05	79.75
440.272	94.75
440.493	78.75
440.715	89.75
440.936	86.75
441.158	80.75
441.379	77.75
441.6	75.75
441.822	80.75
442.043	75.75
442.264	79.75
442.486	68.75
442.707	80.75
442.928	85.75
443.149	83.75
443.371	79.75
443.592	82.75
443.813	83.75
444.034	88.75
444.255	70.75
444.476	103.75
444.698	85.75
444.919	85.75
445.14	170.75
445.361	114.75
445.582	73.75
445.803	78.75
446.024	88.75
446.245	76.75
446.466	88.75
446.687	93.75
446.908	77.75
447.129	79.75
447.35	67.75
447.571	78.75
447.792	87.75
448.013	96.75
448.234	71.75
448.455	88.75
448.675	95.75
448.896	88.75
449.117	91.75
449.338	76.75
449.559	84.75
449.779	71.75
450	89.75
450.221	100.75
450.442	71.75
450.662	84.75
450.883	86.75
451.104	67.75
451.324	72.75
451.545	86.75
451.766	91.75
451.986	82.75
452.207	95.75
452.428	91.75
452.648	89.75
452.869	99.75
453.089	72.75
453.31	83.75
453.53	99.75
453.751	73.75
453.971	96.75
454.192	69.75
454.412	69.75
454.633	74.75
454.853	91.75
455.073	93.75
455.294	76.75
455.514	80.75
455.734	71.75
455.955	78.75
456.175	77.75
456.395	83.75
456.616	86.75
456.836	88.75
457.056	91.75
457.276	73.75
457.497	85.75
457.717	78.75
457.937	97.75
458.157	91.75
458.377	78.75
458.598	90.75
458.818	68.75
459.038	71.75
459.258	73.75
459.478	79.75
459.698	77.75
459.918	80.75
460.138	70.75
460.358	77.75
460.578	92.75
460.798	71.75
461.018	79.75
461.238	93.75
461.458	92.75
461.678	88.75
461.898	83.75
462.118	71.75
462.338	88.75
462.558	95.75
462.777	81.75
462.997	85.75
463.217	91.75
463.437	81.75
463.657	69.75
463.876	72.75
464.096	83.75
464.316	75.75
464.536	76.75
464.755	78.75
464.975	86.75
465.195	86.75
465.414	94.75
465.634	87.75
465.854	85.75
466.073	76.75
466.293	81.75
466.512	90.75
466.732	96.75
466.951	96.75
467.171	97.75
467.391	99.75
467.61	71.75
467.829	83.75
468.049	77.75
468.268	83.75
468.488	88.75
468.707	95.75
468.927	103.75
469.146	79.75
469.365	90.75
469.585	90.75
469.804	85.75
470.023	77.75
470.243	79.75
470.462	94.75
470.681	86.75
470.901	95.75
471.12	77.75
471.339	88.75
471.558	71.75
471.777	73.75
471.997	89.75
472.216	88.75
472.435	78.75
472.654	92.75
472.873	77.75
473.092	72.75
473.311	91.75
473.53	87.75
473.749	96.75
473.968	82.75
474.187	82.75
474.406	85.75
474.625	91.75
474.844	88.75
475.063	88.75
475.282	89.75
475.501	75.75
475.72	88.75
475.939	84.75
476.158	85.75
476.377	90.75
476.596	85.75
476.814	89.75
477.033	88.75
477.252	69.75
477.471	83.75
477.69	74.75
477.908	86.75
478.127	94.75
478.346	78.75
478.564	80.75
478.783	86.75
479.002	85.75
479.22	89.75
479.439	76.75
479.658	96.75
479.876	92.75
480.095	85.75
480.313	84.75
480.532	88.75
480.751	68.75
480.969	91.75
481.188	92.75
481.406	80.75
481.624	77.75
481.843	87.75
482.061	88.75
482.28	75.75
482.498	106.75
482.717	93.75
482.935	83.75
483.153	84.75
483.372	87.75
483.59	89.75
483.808	105.75
484.027	84.75
484.245	89.75
484.463	95.75
484.681	85.75
484.9	104.75
485.118	101.75
485.336	90.75
485.554	85.75
485.772	87.75
485.99	76.75
486.209	89.75
486.427	80.75
486.645	91.75
486.863	88.75
487.081	80.75
487.299	88.75
487.517	85.75
487.735	76.75
487.953	92.75
488.171	93.75
488.389	89.75
488.607	79.75
488.825	95.75
489.043	87.75
489.261	89.75
489.479	93.75
489.696	92.75
489.914	88.75
490.132	74.75
490.35	77.75
490.568	79.75
490.786	92.75
491.003	92.75
491.221	96.75
491.439	87.75
491.657	105.75
491.874	81.75
492.092	89.75
492.31	98.75
492.527	89.75
492.745	91.75
492.963	99.75
493.18	96.75
493.398	80.75
493.615	102.75
493.833	94.75
494.05	90.75
494.268	102.75
494.485	103.75
494.703	94.75
494.92	97.75
495.138	96.75
495.355	101.75
495.573	94.75
495.79	91.75
496.008	87.75
496.225	103.75
496.442	91.75
496.66	103.75
496.877	89.75
497.094	95.75
497.312	91.75
497.529	87.75
497.746	100.75
497.963	101.75
498.181	79.75
498.398	91.75
498.615	81.75
498.832	78.75
499.049	83.75
499.267	84.75
499.484	78.75
499.701	88.75
499.918	80.75
500.135	88.75
500.352	82.75
500.569	69.75
500.786	77.75
501.003	91.75
501.22	70.75
501.437	92.75
501.654	86.75
501.871	95.75
502.088	95.75
502.305	92.75
502.522	95.75
502.739	79.75
502.956	83.75
503.172	85.75
503.389	93.75
503.606	73.75
503.823	92.75
504.04	93.75
504.256	93.75
504.473	96.75
504.69	95.75
504.907	89.75
505.123	99.75
505.34	76.75
505.557	76.75
505.773	93.75
505.99	95.75
506.207	92.75
506.423	86.75
506.64	87.75
506.856	90.75
507.073	85.75
507.289	87.75
507.506	87.75
507.722	95.75
507.939	88.75
508.155	90.75
508.372	87.75
508.588	90.75
508.805	69.75
509.021	77.75
509.238	79.75
509.454	75.75
509.67	92.75
509.887	94.75
510.103	105.75
510.319	81.75
510.536	84.75
510.752	79.75
510.968	85.75
511.184	87.75
511.401	95.75
511.617	99.75
511.833	88.75
512.049	94.75
512.265	95.75
512.481	69.75
512.698	97.75
512.914	87.75
513.13	78.75
513.346	79.75
513.562	84.75
513.778	86.75
513.994	92.75
514.21	86.75
514.426	79.75
514.642	75.75
514.858	75.75
515.074	72.75
515.29	92.75
515.506	93.75
515.721	100.75
515.937	86.75
516.153	99.75
516.369	89.75
516.585	94.75
516.801	88.75
517.016	90.75
517.232	76.75
517.448	89.75
517.664	80.75
517.879	95.75
518.095	86.75
518.311	78.75
518.527	80.75
518.742	89.75
518.958	87.75
519.173	78.75
519.389	85.75
519.605	94.75
