Data from KBr_2_HRD10591_00008.txt Node
Date: Mon Jan 19 13:12:54 EST 2026
User: Yrep
Spectrometer: HR+D1059
Trigger mode: 1
Integration Time (sec): 1.000000E-1
Scans to average: 1
Electric dark correction enabled: true
Nonlinearity correction enabled: false
Boxcar width: 0
XAxis mode: Wavelengths
Number of Pixels in Spectrum: 2048
>>>>>Begin Spectral Data<<<<<
223.165	-27.88
223.4	-27.88
223.635	-27.88
223.869	-21.88
224.104	-13.88
224.338	-12.88
224.573	-15.88
224.808	-23.88
225.042	-14.88
225.277	6.12
225.511	11.12
225.746	-14.88
225.98	14.12
226.215	30.12
226.449	9.12
226.683	21.12
226.918	33.12
227.152	21.12
227.387	32.12
227.621	45.12
227.856	44.12
228.09	68.12
228.324	63.12
228.559	70.12
228.793	41.12
229.027	48.12
229.262	45.12
229.496	69.12
229.73	75.12
229.964	79.12
230.199	70.12
230.433	73.12
230.667	75.12
230.901	79.12
231.136	78.12
231.37	67.12
231.604	73.12
231.838	80.12
232.072	84.12
232.306	87.12
232.541	90.12
232.775	88.12
233.009	87.12
233.243	88.12
233.477	76.12
233.711	90.12
233.945	88.12
234.179	78.12
234.413	77.12
234.647	83.12
234.881	80.12
235.115	85.12
235.349	84.12
235.583	79.12
235.817	79.12
236.051	69.12
236.285	78.12
236.519	86.12
236.753	76.12
236.987	86.12
237.221	73.12
237.455	82.12
237.689	73.12
237.922	71.12
238.156	76.12
238.39	70.12
238.624	67.12
238.858	82.12
239.091	61.12
239.325	75.12
239.559	72.12
239.793	74.12
240.027	84.12
240.26	80.12
240.494	78.12
240.728	78.12
240.961	76.12
241.195	73.12
241.429	84.12
241.662	77.12
241.896	59.12
242.13	68.12
242.363	79.12
242.597	66.12
242.83	81.12
243.064	91.12
243.298	82.12
243.531	65.12
243.765	74.12
243.998	76.12
244.232	86.12
244.465	80.12
244.699	71.12
244.932	67.12
245.166	83.12
245.399	75.12
245.633	74.12
245.866	67.12
246.099	72.12
246.333	67.12
246.566	72.12
246.8	60.12
247.033	70.12
247.266	90.12
247.5	88.12
247.733	94.12
247.966	86.12
248.2	77.12
248.433	69.12
248.666	84.12
248.899	75.12
249.133	82.12
249.366	70.12
249.599	76.12
249.832	86.12
250.066	85.12
250.299	83.12
250.532	74.12
250.765	88.12
250.998	73.12
251.231	77.12
251.465	78.12
251.698	82.12
251.931	78.12
252.164	68.12
252.397	85.12
252.63	80.12
252.863	67.12
253.096	77.12
253.329	70.12
253.562	74.12
253.795	85.12
254.028	90.12
254.261	70.12
254.494	85.12
254.727	80.12
254.96	84.12
255.193	88.12
255.426	78.12
255.659	70.12
255.892	104.12
256.124	77.12
256.357	78.12
256.59	85.12
256.823	82.12
257.056	86.12
257.289	93.12
257.521	85.12
257.754	78.12
257.987	71.12
258.22	83.12
258.452	93.12
258.685	89.12
258.918	79.12
259.151	76.12
259.383	91.12
259.616	87.12
259.849	73.12
260.081	84.12
260.314	90.12
260.547	93.12
260.779	85.12
261.012	86.12
261.244	82.12
261.477	105.12
261.71	83.12
261.942	82.12
262.175	79.12
262.407	76.12
262.64	86.12
262.872	74.12
263.105	60.12
263.337	89.12
263.57	78.12
263.802	96.12
264.035	81.12
264.267	94.12
264.499	84.12
264.732	88.12
264.964	71.12
265.197	85.12
265.429	65.12
265.661	94.12
265.894	88.12
266.126	74.12
266.358	82.12
266.591	75.12
266.823	93.12
267.055	82.12
267.287	79.12
267.52	89.12
267.752	74.12
267.984	86.12
268.216	89.12
268.448	82.12
268.681	84.12
268.913	81.12
269.145	89.12
269.377	87.12
269.609	79.12
269.841	86.12
270.073	87.12
270.306	75.12
270.538	81.12
270.77	72.12
271.002	79.12
271.234	92.12
271.466	82.12
271.698	92.12
271.93	95.12
272.162	80.12
272.394	83.12
272.626	88.12
272.858	82.12
273.09	80.12
273.322	73.12
273.553	78.12
273.785	82.12
274.017	64.12
274.249	82.12
274.481	78.12
274.713	65.12
274.945	80.12
275.176	71.12
275.408	89.12
275.64	79.12
275.872	81.12
276.104	92.12
276.335	95.12
276.567	92.12
276.799	87.12
277.031	85.12
277.262	85.12
277.494	90.12
277.726	91.12
277.957	85.12
278.189	86.12
278.421	83.12
278.652	75.12
278.884	83.12
279.115	79.12
279.347	83.12
279.579	92.12
279.81	82.12
280.042	92.12
280.273	98.12
280.505	91.12
280.736	82.12
280.968	88.12
281.199	87.12
281.431	76.12
281.662	80.12
281.894	87.12
282.125	90.12
282.356	84.12
282.588	76.12
282.819	88.12
283.051	80.12
283.282	96.12
283.513	91.12
283.745	90.12
283.976	82.12
284.207	82.12
284.439	90.12
284.67	90.12
284.901	87.12
285.132	95.12
285.364	73.12
285.595	98.12
285.826	88.12
286.057	84.12
286.288	86.12
286.52	76.12
286.751	94.12
286.982	87.12
287.213	90.12
287.444	89.12
287.675	83.12
287.906	101.12
288.138	88.12
288.369	97.12
288.6	85.12
288.831	89.12
289.062	92.12
289.293	98.12
289.524	90.12
289.755	89.12
289.986	80.12
290.217	85.12
290.448	89.12
290.679	95.12
290.91	95.12
291.141	79.12
291.371	62.12
291.602	90.12
291.833	92.12
292.064	86.12
292.295	87.12
292.526	78.12
292.757	82.12
292.987	89.12
293.218	94.12
293.449	92.12
293.68	83.12
293.91	96.12
294.141	90.12
294.372	82.12
294.603	80.12
294.833	97.12
295.064	100.12
295.295	84.12
295.525	89.12
295.756	86.12
295.987	82.12
296.217	82.12
296.448	75.12
296.679	79.12
296.909	90.12
297.14	95.12
297.37	100.12
297.601	86.12
297.831	83.12
298.062	87.12
298.292	72.12
298.523	94.12
298.753	83.12
298.984	96.12
299.214	89.12
299.445	86.12
299.675	79.12
299.905	93.12
300.136	88.12
300.366	86.12
300.597	107.12
300.827	81.12
301.057	86.12
301.288	90.12
301.518	99.12
301.748	91.12
301.979	103.12
302.209	88.12
302.439	90.12
302.669	90.12
302.9	87.12
303.13	83.12
303.36	88.12
303.59	80.12
303.82	70.12
304.051	96.12
304.281	76.12
304.511	94.12
304.741	85.12
304.971	86.12
305.201	75.12
305.431	89.12
305.661	96.12
305.891	89.12
306.121	92.12
306.352	91.12
306.582	80.12
306.812	82.12
307.042	74.12
307.272	93.12
307.502	112.12
307.731	88.12
307.961	90.12
308.191	83.12
308.421	90.12
308.651	92.12
308.881	93.12
309.111	85.12
309.341	83.12
309.571	90.12
309.8	94.12
310.03	98.12
310.26	95.12
310.49	85.12
310.72	93.12
310.949	94.12
311.179	83.12
311.409	79.12
311.639	74.12
311.868	79.12
312.098	94.12
312.328	85.12
312.557	87.12
312.787	76.12
313.017	105.12
313.246	80.12
313.476	88.12
313.706	100.12
313.935	86.12
314.165	97.12
314.394	94.12
314.624	91.12
314.853	82.12
315.083	99.12
315.312	94.12
315.542	90.12
315.771	80.12
316.001	81.12
316.23	98.12
316.46	90.12
316.689	68.12
316.919	98.12
317.148	83.12
317.377	89.12
317.607	98.12
317.836	91.12
318.065	94.12
318.295	94.12
318.524	103.12
318.753	88.12
318.983	80.12
319.212	98.12
319.441	95.12
319.67	86.12
319.9	91.12
320.129	101.12
320.358	86.12
320.587	98.12
320.816	82.12
321.046	78.12
321.275	104.12
321.504	91.12
321.733	90.12
321.962	87.12
322.191	96.12
322.42	91.12
322.649	92.12
322.878	98.12
323.108	84.12
323.337	89.12
323.566	94.12
323.795	93.12
324.024	98.12
324.253	90.12
324.482	90.12
324.71	89.12
324.939	89.12
325.168	88.12
325.397	79.12
325.626	88.12
325.855	87.12
326.084	99.12
326.313	103.12
326.542	101.12
326.77	87.12
326.999	91.12
327.228	86.12
327.457	88.12
327.686	92.12
327.914	106.12
328.143	100.12
328.372	82.12
328.6	92.12
328.829	79.12
329.058	92.12
329.287	68.12
329.515	87.12
329.744	89.12
329.972	96.12
330.201	89.12
330.43	105.12
330.658	102.12
330.887	90.12
331.115	83.12
331.344	88.12
331.572	88.12
331.801	98.12
332.03	88.12
332.258	86.12
332.486	86.12
332.715	84.12
332.943	83.12
333.172	90.12
333.4	75.12
333.629	89.12
333.857	87.12
334.085	93.12
334.314	85.12
334.542	87.12
334.771	74.12
334.999	98.12
335.227	79.12
335.455	88.12
335.684	86.12
335.912	83.12
336.14	86.12
336.369	75.12
336.597	95.12
336.825	85.12
337.053	84.12
337.281	78.12
337.51	92.12
337.738	89.12
337.966	96.12
338.194	78.12
338.422	96.12
338.65	79.12
338.878	89.12
339.106	84.12
339.334	89.12
339.562	70.12
339.79	92.12
340.018	77.12
340.246	87.12
340.474	106.12
340.702	86.12
340.93	102.12
341.158	79.12
341.386	87.12
341.614	87.12
341.842	94.12
342.07	83.12
342.298	99.12
342.526	93.12
342.754	99.12
342.981	90.12
343.209	70.12
343.437	92.12
343.665	92.12
343.893	78.12
344.12	90.12
344.348	113.12
344.576	106.12
344.804	99.12
345.031	99.12
345.259	103.12
345.487	86.12
345.714	67.12
345.942	96.12
346.17	75.12
346.397	94.12
346.625	102.12
346.853	93.12
347.08	110.12
347.308	92.12
347.535	96.12
347.763	85.12
347.99	98.12
348.218	94.12
348.445	88.12
348.673	90.12
348.9	88.12
349.128	72.12
349.355	100.12
349.583	98.12
349.81	89.12
350.037	89.12
350.265	87.12
350.492	82.12
350.72	99.12
350.947	76.12
351.174	92.12
351.402	96.12
351.629	90.12
351.856	73.12
352.083	86.12
352.311	106.12
352.538	88.12
352.765	86.12
352.992	83.12
353.22	86.12
353.447	94.12
353.674	88.12
353.901	103.12
354.128	93.12
354.355	87.12
354.583	89.12
354.81	78.12
355.037	97.12
355.264	102.12
355.491	93.12
355.718	91.12
355.945	83.12
356.172	90.12
356.399	78.12
356.626	102.12
356.853	83.12
357.08	83.12
357.307	88.12
357.534	87.12
357.761	98.12
357.988	86.12
358.215	105.12
358.441	89.12
358.668	93.12
358.895	88.12
359.122	75.12
359.349	87.12
359.576	84.12
359.802	78.12
360.029	99.12
360.256	86.12
360.483	87.12
360.709	87.12
360.936	99.12
361.163	94.12
361.39	83.12
361.616	84.12
361.843	78.12
362.07	106.12
362.296	94.12
362.523	82.12
362.749	90.12
362.976	80.12
363.203	86.12
363.429	81.12
363.656	86.12
363.882	98.12
364.109	100.12
364.335	89.12
364.562	80.12
364.788	96.12
365.015	91.12
365.241	83.12
365.468	93.12
365.694	106.12
365.92	76.12
366.147	89.12
366.373	103.12
366.599	98.12
366.826	88.12
367.052	90.12
367.278	90.12
367.505	91.12
367.731	81.12
367.957	78.12
368.184	90.12
368.41	71.12
368.636	85.12
368.862	78.12
369.089	82.12
369.315	96.12
369.541	95.12
369.767	97.12
369.993	80.12
370.219	92.12
370.445	89.12
370.672	75.12
370.898	83.12
371.124	79.12
371.35	89.12
371.576	95.12
371.802	106.12
372.028	74.12
372.254	84.12
372.48	91.12
372.706	87.12
372.932	84.12
373.158	75.12
373.384	92.12
373.61	111.12
373.835	86.12
374.061	91.12
374.287	96.12
374.513	89.12
374.739	87.12
374.965	90.12
375.191	91.12
375.416	79.12
375.642	89.12
375.868	89.12
376.094	80.12
376.319	81.12
376.545	85.12
376.771	88.12
376.997	79.12
377.222	100.12
377.448	93.12
377.674	87.12
377.899	87.12
378.125	86.12
378.35	73.12
378.576	100.12
378.802	79.12
379.027	78.12
379.253	84.12
379.478	99.12
379.704	74.12
379.929	90.12
380.155	80.12
380.38	82.12
380.606	83.12
380.831	83.12
381.057	96.12
381.282	77.12
381.507	81.12
381.733	80.12
381.958	88.12
382.184	83.12
382.409	106.12
382.634	92.12
382.86	80.12
383.085	99.12
383.31	96.12
383.535	86.12
383.761	84.12
383.986	94.12
384.211	68.12
384.436	81.12
384.662	81.12
384.887	95.12
385.112	80.12
385.337	79.12
385.562	100.12
385.787	90.12
386.013	88.12
386.238	92.12
386.463	83.12
386.688	100.12
386.913	79.12
387.138	94.12
387.363	104.12
387.588	92.12
387.813	96.12
388.038	86.12
388.263	85.12
388.488	94.12
388.713	84.12
388.938	75.12
389.163	80.12
389.387	87.12
389.612	94.12
389.837	97.12
390.062	92.12
390.287	81.12
390.512	76.12
390.736	81.12
390.961	82.12
391.186	81.12
391.411	76.12
391.636	88.12
391.86	74.12
392.085	81.12
392.31	86.12
392.534	91.12
392.759	75.12
392.984	81.12
393.208	90.12
393.433	88.12
393.658	76.12
393.882	91.12
394.107	88.12
394.331	100.12
394.556	85.12
394.78	88.12
395.005	71.12
395.229	84.12
395.454	84.12
395.678	75.12
395.903	88.12
396.127	86.12
396.352	83.12
396.576	84.12
396.801	102.12
397.025	86.12
397.249	82.12
397.474	85.12
397.698	76.12
397.922	74.12
398.147	94.12
398.371	85.12
398.595	82.12
398.82	100.12
399.044	89.12
399.268	92.12
399.492	103.12
399.717	89.12
399.941	82.12
400.165	95.12
400.389	92.12
400.613	79.12
400.837	96.12
401.062	88.12
401.286	94.12
401.51	91.12
401.734	84.12
401.958	81.12
402.182	91.12
402.406	87.12
402.63	89.12
402.854	95.12
403.078	103.12
403.302	98.12
403.526	108.12
403.75	108.12
403.974	105.12
404.198	154.12
404.422	266.12
404.645	316.12
404.869	238.12
405.093	160.12
405.317	107.12
405.541	107.12
405.765	82.12
405.988	80.12
406.212	99.12
406.436	93.12
406.66	89.12
406.883	80.12
407.107	91.12
407.331	78.12
407.555	86.12
407.778	103.12
408.002	101.12
408.226	92.12
408.449	74.12
408.673	104.12
408.896	102.12
409.12	88.12
409.344	74.12
409.567	90.12
409.791	85.12
410.014	91.12
410.238	78.12
410.461	82.12
410.685	104.12
410.908	87.12
411.132	88.12
411.355	94.12
411.578	90.12
411.802	75.12
412.025	92.12
412.249	74.12
412.472	86.12
412.695	66.12
412.919	78.12
413.142	76.12
413.365	101.12
413.589	82.12
413.812	91.12
414.035	88.12
414.258	93.12
414.482	64.12
414.705	87.12
414.928	97.12
415.151	86.12
415.374	76.12
415.597	87.12
415.821	81.12
416.044	66.12
416.267	88.12
416.49	94.12
416.713	85.12
416.936	95.12
417.159	72.12
417.382	83.12
417.605	76.12
417.828	84.12
418.051	92.12
418.274	94.12
418.497	77.12
418.72	95.12
418.943	92.12
419.166	86.12
419.389	89.12
419.611	115.12
419.834	89.12
420.057	86.12
420.28	104.12
420.503	85.12
420.726	97.12
420.948	91.12
421.171	87.12
421.394	76.12
421.617	91.12
421.839	72.12
422.062	87.12
422.285	90.12
422.507	90.12
422.73	93.12
422.953	110.12
423.175	102.12
423.398	81.12
423.621	80.12
423.843	92.12
424.066	89.12
424.288	83.12
424.511	90.12
424.733	85.12
424.956	77.12
425.178	77.12
425.401	88.12
425.623	83.12
425.846	93.12
426.068	80.12
426.291	86.12
426.513	90.12
426.735	97.12
426.958	91.12
427.18	84.12
427.402	79.12
427.625	83.12
427.847	83.12
428.069	82.12
428.292	96.12
428.514	93.12
428.736	84.12
428.958	94.12
429.181	87.12
429.403	86.12
429.625	90.12
429.847	96.12
430.069	74.12
430.292	95.12
430.514	86.12
430.736	76.12
430.958	98.12
431.18	87.12
431.402	82.12
431.624	90.12
431.846	90.12
432.068	99.12
432.29	88.12
432.512	80.12
432.734	81.12
432.956	95.12
433.178	93.12
433.4	83.12
433.622	95.12
433.844	88.12
434.066	76.12
434.287	86.12
434.509	94.12
434.731	87.12
434.953	95.12
435.175	72.12
435.397	106.12
435.618	97.12
435.84	80.12
436.062	102.12
436.284	88.12
436.505	77.12
436.727	76.12
436.949	82.12
437.17	92.12
437.392	93.12
437.614	72.12
437.835	80.12
438.057	88.12
438.278	96.12
438.5	89.12
438.721	99.12
438.943	118.12
439.165	80.12
439.386	97.12
439.608	81.12
439.829	97.12
440.05	94.12
440.272	93.12
440.493	83.12
440.715	68.12
440.936	96.12
441.158	92.12
441.379	83.12
441.6	89.12
441.822	86.12
442.043	89.12
442.264	83.12
442.486	86.12
442.707	88.12
442.928	83.12
443.149	75.12
443.371	98.12
443.592	88.12
443.813	89.12
444.034	78.12
444.255	108.12
444.476	88.12
444.698	96.12
444.919	80.12
445.14	159.12
445.361	109.12
445.582	99.12
445.803	87.12
446.024	97.12
446.245	102.12
446.466	88.12
446.687	86.12
446.908	99.12
447.129	84.12
447.35	87.12
447.571	96.12
447.792	92.12
448.013	85.12
448.234	82.12
448.455	92.12
448.675	94.12
448.896	102.12
449.117	92.12
449.338	88.12
449.559	80.12
449.779	93.12
450	70.12
450.221	80.12
450.442	89.12
450.662	90.12
450.883	88.12
451.104	89.12
451.324	82.12
451.545	77.12
451.766	92.12
451.986	86.12
452.207	81.12
452.428	94.12
452.648	77.12
452.869	95.12
453.089	87.12
453.31	80.12
453.53	99.12
453.751	80.12
453.971	95.12
454.192	86.12
454.412	94.12
454.633	92.12
454.853	84.12
455.073	74.12
455.294	87.12
455.514	99.12
455.734	82.12
455.955	71.12
456.175	92.12
456.395	83.12
456.616	78.12
456.836	82.12
457.056	92.12
457.276	97.12
457.497	83.12
457.717	92.12
457.937	89.12
458.157	80.12
458.377	96.12
458.598	90.12
458.818	91.12
459.038	79.12
459.258	83.12
459.478	92.12
459.698	97.12
459.918	90.12
460.138	84.12
460.358	90.12
460.578	83.12
460.798	102.12
461.018	83.12
461.238	98.12
461.458	91.12
461.678	87.12
461.898	86.12
462.118	82.12
462.338	89.12
462.558	87.12
462.777	76.12
462.997	88.12
463.217	79.12
463.437	95.12
463.657	91.12
463.876	87.12
464.096	97.12
464.316	87.12
464.536	79.12
464.755	87.12
464.975	76.12
465.195	92.12
465.414	102.12
465.634	94.12
465.854	94.12
466.073	84.12
466.293	95.12
466.512	88.12
466.732	96.12
466.951	93.12
467.171	96.12
467.391	88.12
467.61	86.12
467.829	93.12
468.049	97.12
468.268	105.12
468.488	84.12
468.707	83.12
468.927	83.12
469.146	91.12
469.365	91.12
469.585	103.12
469.804	91.12
470.023	89.12
470.243	81.12
470.462	111.12
470.681	102.12
470.901	85.12
471.12	71.12
471.339	91.12
471.558	89.12
471.777	86.12
471.997	92.12
472.216	94.12
472.435	90.12
472.654	97.12
472.873	81.12
473.092	88.12
473.311	84.12
473.53	87.12
473.749	85.12
473.968	82.12
474.187	93.12
474.406	102.12
474.625	96.12
474.844	88.12
475.063	83.12
475.282	88.12
475.501	88.12
475.72	94.12
475.939	90.12
476.158	87.12
476.377	76.12
476.596	91.12
476.814	79.12
477.033	87.12
477.252	92.12
477.471	77.12
477.69	82.12
477.908	101.12
478.127	91.12
478.346	90.12
478.564	74.12
478.783	81.12
479.002	84.12
479.22	82.12
479.439	88.12
479.658	89.12
479.876	93.12
480.095	103.12
480.313	90.12
480.532	88.12
480.751	99.12
480.969	84.12
481.188	86.12
481.406	90.12
481.624	99.12
481.843	93.12
482.061	96.12
482.28	95.12
482.498	86.12
482.717	84.12
482.935	80.12
483.153	104.12
483.372	87.12
483.59	91.12
483.808	92.12
484.027	99.12
484.245	98.12
484.463	85.12
484.681	84.12
484.9	107.12
485.118	101.12
485.336	90.12
485.554	88.12
485.772	88.12
485.99	97.12
486.209	94.12
486.427	95.12
486.645	88.12
486.863	95.12
487.081	94.12
487.299	89.12
487.517	95.12
487.735	91.12
487.953	80.12
488.171	104.12
488.389	93.12
488.607	89.12
488.825	94.12
489.043	90.12
489.261	107.12
489.479	98.12
489.696	95.12
489.914	94.12
490.132	87.12
490.35	89.12
490.568	88.12
490.786	85.12
491.003	82.12
491.221	103.12
491.439	86.12
491.657	91.12
491.874	95.12
492.092	90.12
492.31	105.12
492.527	115.12
492.745	98.12
492.963	92.12
493.18	102.12
493.398	97.12
493.615	97.12
493.833	97.12
494.05	97.12
494.268	98.12
494.485	92.12
494.703	85.12
494.92	99.12
495.138	111.12
495.355	105.12
495.573	104.12
495.79	95.12
496.008	89.12
496.225	101.12
496.442	90.12
496.66	99.12
496.877	92.12
497.094	91.12
497.312	112.12
497.529	110.12
497.746	99.12
497.963	92.12
498.181	95.12
498.398	99.12
498.615	104.12
498.832	94.12
499.049	96.12
499.267	109.12
499.484	91.12
499.701	85.12
499.918	107.12
500.135	90.12
500.352	95.12
500.569	100.12
500.786	102.12
501.003	93.12
501.22	88.12
501.437	86.12
501.654	87.12
501.871	99.12
502.088	108.12
502.305	86.12
502.522	105.12
502.739	112.12
502.956	108.12
503.172	94.12
503.389	98.12
503.606	95.12
503.823	87.12
504.04	97.12
504.256	90.12
504.473	87.12
504.69	95.12
504.907	113.12
505.123	95.12
505.34	96.12
505.557	92.12
505.773	84.12
505.99	97.12
506.207	74.12
506.423	95.12
506.64	96.12
506.856	99.12
507.073	103.12
507.289	88.12
507.506	90.12
507.722	100.12
507.939	105.12
508.155	89.12
508.372	90.12
508.588	96.12
508.805	92.12
509.021	92.12
509.238	91.12
509.454	95.12
509.67	102.12
509.887	111.12
510.103	94.12
510.319	99.12
510.536	99.12
510.752	104.12
510.968	99.12
511.184	87.12
511.401	95.12
511.617	91.12
511.833	97.12
512.049	99.12
512.265	93.12
512.481	113.12
512.698	84.12
512.914	74.12
513.13	97.12
513.346	90.12
513.562	95.12
513.778	87.12
513.994	86.12
514.21	85.12
514.426	79.12
514.642	95.12
514.858	87.12
515.074	101.12
515.29	79.12
515.506	95.12
515.721	77.12
515.937	82.12
516.153	95.12
516.369	85.12
516.585	87.12
516.801	79.12
517.016	92.12
517.232	88.12
517.448	95.12
517.664	97.12
517.879	84.12
518.095	87.12
518.311	85.12
518.527	73.12
