Data from KBr_2_HRD10591_00001.txt Node
Date: Mon Jan 19 13:12:51 EST 2026
User: Yrep
Spectrometer: HR+D1059
Trigger mode: 1
Integration Time (sec): 1.000000E-1
Scans to average: 1
Electric dark correction enabled: true
Nonlinearity correction enabled: false
Boxcar width: 0
XAxis mode: Wavelengths
Number of Pixels in Spectrum: 2048
>>>>>Begin Spectral Data<<<<<
223.165	-23.38
223.4	-23.38
223.635	-23.38
223.869	-17.38
224.104	-17.38
224.338	-25.38
224.573	-10.38
224.808	-5.38
225.042	-7.38
225.277	-3.38
225.511	0.62
225.746	14.62
225.98	4.62
226.215	14.62
226.449	18.62
226.683	27.62
226.918	8.62
227.152	20.62
227.387	32.62
227.621	32.62
227.856	41.62
228.09	36.62
228.324	48.62
228.559	45.62
228.793	61.62
229.027	52.62
229.262	59.62
229.496	57.62
229.73	70.62
229.964	74.62
230.199	66.62
230.433	68.62
230.667	85.62
230.901	71.62
231.136	81.62
231.37	77.62
231.604	68.62
231.838	83.62
232.072	72.62
232.306	76.62
232.541	90.62
232.775	80.62
233.009	72.62
233.243	97.62
233.477	73.62
233.711	73.62
233.945	62.62
234.179	74.62
234.413	76.62
234.647	86.62
234.881	90.62
235.115	80.62
235.349	82.62
235.583	77.62
235.817	72.62
236.051	60.62
236.285	70.62
236.519	68.62
236.753	65.62
236.987	72.62
237.221	59.62
237.455	84.62
237.689	89.62
237.922	75.62
238.156	72.62
238.39	60.62
238.624	75.62
238.858	62.62
239.091	73.62
239.325	60.62
239.559	77.62
239.793	66.62
240.027	76.62
240.26	73.62
240.494	66.62
240.728	70.62
240.961	65.62
241.195	79.62
241.429	72.62
241.662	72.62
241.896	85.62
242.13	76.62
242.363	68.62
242.597	77.62
242.83	77.62
243.064	81.62
243.298	65.62
243.531	70.62
243.765	73.62
243.998	78.62
244.232	87.62
244.465	84.62
244.699	78.62
244.932	74.62
245.166	74.62
245.399	88.62
245.633	74.62
245.866	80.62
246.099	72.62
246.333	71.62
246.566	60.62
246.8	72.62
247.033	73.62
247.266	81.62
247.5	87.62
247.733	69.62
247.966	76.62
248.2	50.62
248.433	79.62
248.666	71.62
248.899	68.62
249.133	77.62
249.366	85.62
249.599	75.62
249.832	62.62
250.066	80.62
250.299	91.62
250.532	77.62
250.765	65.62
250.998	75.62
251.231	73.62
251.465	62.62
251.698	84.62
251.931	76.62
252.164	63.62
252.397	85.62
252.63	65.62
252.863	81.62
253.096	68.62
253.329	80.62
253.562	71.62
253.795	73.62
254.028	85.62
254.261	80.62
254.494	82.62
254.727	86.62
254.96	76.62
255.193	67.62
255.426	73.62
255.659	78.62
255.892	83.62
256.124	88.62
256.357	82.62
256.59	74.62
256.823	76.62
257.056	70.62
257.289	62.62
257.521	72.62
257.754	80.62
257.987	70.62
258.22	74.62
258.452	77.62
258.685	76.62
258.918	70.62
259.151	77.62
259.383	72.62
259.616	79.62
259.849	88.62
260.081	81.62
260.314	86.62
260.547	88.62
260.779	81.62
261.012	58.62
261.244	60.62
261.477	76.62
261.71	84.62
261.942	78.62
262.175	87.62
262.407	81.62
262.64	82.62
262.872	84.62
263.105	73.62
263.337	74.62
263.57	72.62
263.802	58.62
264.035	68.62
264.267	62.62
264.499	87.62
264.732	84.62
264.964	79.62
265.197	74.62
265.429	68.62
265.661	77.62
265.894	78.62
266.126	90.62
266.358	91.62
266.591	78.62
266.823	74.62
267.055	86.62
267.287	71.62
267.52	75.62
267.752	82.62
267.984	74.62
268.216	84.62
268.448	76.62
268.681	85.62
268.913	74.62
269.145	81.62
269.377	68.62
269.609	77.62
269.841	81.62
270.073	72.62
270.306	77.62
270.538	67.62
270.77	65.62
271.002	75.62
271.234	76.62
271.466	90.62
271.698	62.62
271.93	74.62
272.162	78.62
272.394	76.62
272.626	71.62
272.858	68.62
273.09	92.62
273.322	76.62
273.553	76.62
273.785	67.62
274.017	76.62
274.249	75.62
274.481	74.62
274.713	69.62
274.945	90.62
275.176	88.62
275.408	96.62
275.64	78.62
275.872	88.62
276.104	82.62
276.335	71.62
276.567	70.62
276.799	87.62
277.031	68.62
277.262	78.62
277.494	79.62
277.726	70.62
277.957	80.62
278.189	76.62
278.421	89.62
278.652	82.62
278.884	84.62
279.115	86.62
279.347	86.62
279.579	85.62
279.81	83.62
280.042	62.62
280.273	93.62
280.505	92.62
280.736	81.62
280.968	81.62
281.199	73.62
281.431	66.62
281.662	77.62
281.894	86.62
282.125	84.62
282.356	77.62
282.588	77.62
282.819	78.62
283.051	78.62
283.282	80.62
283.513	83.62
283.745	71.62
283.976	79.62
284.207	67.62
284.439	84.62
284.67	82.62
284.901	89.62
285.132	93.62
285.364	91.62
285.595	78.62
285.826	74.62
286.057	83.62
286.288	80.62
286.52	76.62
286.751	86.62
286.982	80.62
287.213	82.62
287.444	84.62
287.675	75.62
287.906	88.62
288.138	69.62
288.369	69.62
288.6	89.62
288.831	74.62
289.062	89.62
289.293	85.62
289.524	92.62
289.755	82.62
289.986	77.62
290.217	78.62
290.448	75.62
290.679	84.62
290.91	83.62
291.141	75.62
291.371	94.62
291.602	87.62
291.833	93.62
292.064	83.62
292.295	75.62
292.526	84.62
292.757	80.62
292.987	81.62
293.218	84.62
293.449	74.62
293.68	74.62
293.91	82.62
294.141	85.62
294.372	78.62
294.603	85.62
294.833	78.62
295.064	74.62
295.295	90.62
295.525	76.62
295.756	75.62
295.987	80.62
296.217	66.62
296.448	69.62
296.679	84.62
296.909	85.62
297.14	81.62
297.37	77.62
297.601	81.62
297.831	78.62
298.062	85.62
298.292	96.62
298.523	74.62
298.753	74.62
298.984	78.62
299.214	76.62
299.445	89.62
299.675	72.62
299.905	72.62
300.136	86.62
300.366	97.62
300.597	83.62
300.827	86.62
301.057	81.62
301.288	77.62
301.518	81.62
301.748	83.62
301.979	99.62
302.209	82.62
302.439	84.62
302.669	92.62
302.9	81.62
303.13	85.62
303.36	70.62
303.59	78.62
303.82	80.62
304.051	81.62
304.281	93.62
304.511	71.62
304.741	79.62
304.971	78.62
305.201	80.62
305.431	88.62
305.661	72.62
305.891	82.62
306.121	75.62
306.352	84.62
306.582	82.62
306.812	80.62
307.042	68.62
307.272	60.62
307.502	83.62
307.731	78.62
307.961	81.62
308.191	82.62
308.421	87.62
308.651	98.62
308.881	68.62
309.111	72.62
309.341	77.62
309.571	66.62
309.8	72.62
310.03	79.62
310.26	78.62
310.49	75.62
310.72	82.62
310.949	76.62
311.179	76.62
311.409	71.62
311.639	80.62
311.868	88.62
312.098	81.62
312.328	75.62
312.557	92.62
312.787	67.62
313.017	72.62
313.246	91.62
313.476	84.62
313.706	86.62
313.935	76.62
314.165	82.62
314.394	84.62
314.624	80.62
314.853	71.62
315.083	78.62
315.312	91.62
315.542	98.62
315.771	93.62
316.001	81.62
316.23	86.62
316.46	81.62
316.689	83.62
316.919	86.62
317.148	82.62
317.377	69.62
317.607	80.62
317.836	85.62
318.065	81.62
318.295	73.62
318.524	89.62
318.753	73.62
318.983	83.62
319.212	80.62
319.441	75.62
319.67	68.62
319.9	84.62
320.129	68.62
320.358	70.62
320.587	80.62
320.816	74.62
321.046	78.62
321.275	89.62
321.504	91.62
321.733	81.62
321.962	76.62
322.191	64.62
322.42	72.62
322.649	100.62
322.878	82.62
323.108	82.62
323.337	81.62
323.566	68.62
323.795	98.62
324.024	75.62
324.253	80.62
324.482	78.62
324.71	82.62
324.939	70.62
325.168	80.62
325.397	76.62
325.626	81.62
325.855	83.62
326.084	74.62
326.313	84.62
326.542	82.62
326.77	56.62
326.999	81.62
327.228	92.62
327.457	78.62
327.686	77.62
327.914	82.62
328.143	72.62
328.372	83.62
328.6	73.62
328.829	78.62
329.058	72.62
329.287	82.62
329.515	70.62
329.744	70.62
329.972	74.62
330.201	83.62
330.43	96.62
330.658	86.62
330.887	73.62
331.115	76.62
331.344	86.62
331.572	94.62
331.801	76.62
332.03	81.62
332.258	86.62
332.486	71.62
332.715	64.62
332.943	85.62
333.172	91.62
333.4	98.62
333.629	74.62
333.857	80.62
334.085	71.62
334.314	91.62
334.542	81.62
334.771	92.62
334.999	76.62
335.227	74.62
335.455	82.62
335.684	81.62
335.912	77.62
336.14	75.62
336.369	84.62
336.597	73.62
336.825	84.62
337.053	81.62
337.281	86.62
337.51	87.62
337.738	87.62
337.966	78.62
338.194	58.62
338.422	72.62
338.65	87.62
338.878	59.62
339.106	78.62
339.334	96.62
339.562	72.62
339.79	84.62
340.018	66.62
340.246	87.62
340.474	81.62
340.702	72.62
340.93	83.62
341.158	77.62
341.386	85.62
341.614	84.62
341.842	81.62
342.07	77.62
342.298	64.62
342.526	81.62
342.754	88.62
342.981	86.62
343.209	92.62
343.437	85.62
343.665	84.62
343.893	81.62
344.12	85.62
344.348	70.62
344.576	81.62
344.804	94.62
345.031	79.62
345.259	88.62
345.487	93.62
345.714	92.62
345.942	77.62
346.17	101.62
346.397	60.62
346.625	85.62
346.853	73.62
347.08	78.62
347.308	84.62
347.535	82.62
347.763	76.62
347.99	77.62
348.218	76.62
348.445	78.62
348.673	89.62
348.9	86.62
349.128	95.62
349.355	76.62
349.583	72.62
349.81	87.62
350.037	69.62
350.265	78.62
350.492	70.62
350.72	81.62
350.947	81.62
351.174	69.62
351.402	81.62
351.629	75.62
351.856	68.62
352.083	81.62
352.311	88.62
352.538	69.62
352.765	77.62
352.992	80.62
353.22	89.62
353.447	83.62
353.674	75.62
353.901	74.62
354.128	86.62
354.355	76.62
354.583	74.62
354.81	77.62
355.037	74.62
355.264	85.62
355.491	84.62
355.718	74.62
355.945	79.62
356.172	96.62
356.399	76.62
356.626	80.62
356.853	81.62
357.08	78.62
357.307	89.62
357.534	92.62
357.761	86.62
357.988	87.62
358.215	88.62
358.441	66.62
358.668	72.62
358.895	86.62
359.122	62.62
359.349	92.62
359.576	76.62
359.802	78.62
360.029	84.62
360.256	81.62
360.483	81.62
360.709	76.62
360.936	73.62
361.163	79.62
361.39	88.62
361.616	71.62
361.843	72.62
362.07	82.62
362.296	80.62
362.523	79.62
362.749	70.62
362.976	86.62
363.203	78.62
363.429	76.62
363.656	87.62
363.882	88.62
364.109	81.62
364.335	86.62
364.562	75.62
364.788	89.62
365.015	86.62
365.241	81.62
365.468	93.62
365.694	80.62
365.92	82.62
366.147	78.62
366.373	82.62
366.599	76.62
366.826	69.62
367.052	78.62
367.278	84.62
367.505	92.62
367.731	90.62
367.957	103.62
368.184	81.62
368.41	90.62
368.636	75.62
368.862	78.62
369.089	73.62
369.315	85.62
369.541	88.62
369.767	75.62
369.993	83.62
370.219	82.62
370.445	89.62
370.672	73.62
370.898	66.62
371.124	72.62
371.35	67.62
371.576	81.62
371.802	90.62
372.028	76.62
372.254	76.62
372.48	68.62
372.706	78.62
372.932	82.62
373.158	93.62
373.384	63.62
373.61	92.62
373.835	85.62
374.061	78.62
374.287	73.62
374.513	77.62
374.739	85.62
374.965	78.62
375.191	92.62
375.416	78.62
375.642	74.62
375.868	88.62
376.094	88.62
376.319	79.62
376.545	72.62
376.771	74.62
376.997	76.62
377.222	77.62
377.448	105.62
377.674	90.62
377.899	76.62
378.125	77.62
378.35	90.62
378.576	95.62
378.802	85.62
379.027	77.62
379.253	79.62
379.478	79.62
379.704	81.62
379.929	91.62
380.155	73.62
380.38	96.62
380.606	76.62
380.831	84.62
381.057	94.62
381.282	78.62
381.507	75.62
381.733	64.62
381.958	72.62
382.184	96.62
382.409	89.62
382.634	84.62
382.86	75.62
383.085	76.62
383.31	77.62
383.535	89.62
383.761	83.62
383.986	76.62
384.211	83.62
384.436	84.62
384.662	84.62
384.887	77.62
385.112	72.62
385.337	77.62
385.562	75.62
385.787	72.62
386.013	76.62
386.238	76.62
386.463	74.62
386.688	92.62
386.913	85.62
387.138	75.62
387.363	74.62
387.588	83.62
387.813	96.62
388.038	85.62
388.263	79.62
388.488	73.62
388.713	80.62
388.938	89.62
389.163	81.62
389.387	83.62
389.612	79.62
389.837	84.62
390.062	84.62
390.287	67.62
390.512	76.62
390.736	75.62
390.961	85.62
391.186	71.62
391.411	68.62
391.636	67.62
391.86	76.62
392.085	72.62
392.31	86.62
392.534	98.62
392.759	94.62
392.984	82.62
393.208	81.62
393.433	81.62
393.658	81.62
393.882	88.62
394.107	90.62
394.331	68.62
394.556	84.62
394.78	72.62
395.005	68.62
395.229	80.62
395.454	73.62
395.678	72.62
395.903	78.62
396.127	83.62
396.352	72.62
396.576	78.62
396.801	83.62
397.025	78.62
397.249	84.62
397.474	69.62
397.698	66.62
397.922	76.62
398.147	77.62
398.371	87.62
398.595	84.62
398.82	80.62
399.044	80.62
399.268	69.62
399.492	76.62
399.717	74.62
399.941	73.62
400.165	74.62
400.389	75.62
400.613	80.62
400.837	64.62
401.062	83.62
401.286	82.62
401.51	89.62
401.734	82.62
401.958	79.62
402.182	77.62
402.406	86.62
402.63	79.62
402.854	73.62
403.078	82.62
403.302	81.62
403.526	66.62
403.75	90.62
403.974	74.62
404.198	80.62
404.422	103.62
404.645	95.62
404.869	101.62
405.093	63.62
405.317	89.62
405.541	68.62
405.765	71.62
405.988	86.62
406.212	76.62
406.436	96.62
406.66	84.62
406.883	75.62
407.107	73.62
407.331	78.62
407.555	81.62
407.778	91.62
408.002	74.62
408.226	85.62
408.449	77.62
408.673	82.62
408.896	82.62
409.12	90.62
409.344	77.62
409.567	79.62
409.791	85.62
410.014	73.62
410.238	88.62
410.461	61.62
410.685	78.62
410.908	77.62
411.132	66.62
411.355	77.62
411.578	78.62
411.802	70.62
412.025	74.62
412.249	82.62
412.472	77.62
412.695	80.62
412.919	77.62
413.142	72.62
413.365	75.62
413.589	81.62
413.812	82.62
414.035	73.62
414.258	83.62
414.482	76.62
414.705	82.62
414.928	86.62
415.151	86.62
415.374	88.62
415.597	82.62
415.821	87.62
416.044	80.62
416.267	80.62
416.49	84.62
416.713	80.62
416.936	77.62
417.159	78.62
417.382	65.62
417.605	79.62
417.828	79.62
418.051	71.62
418.274	92.62
418.497	76.62
418.72	76.62
418.943	89.62
419.166	104.62
419.389	76.62
419.611	88.62
419.834	90.62
420.057	75.62
420.28	64.62
420.503	80.62
420.726	77.62
420.948	78.62
421.171	92.62
421.394	74.62
421.617	81.62
421.839	84.62
422.062	67.62
422.285	82.62
422.507	91.62
422.73	85.62
422.953	76.62
423.175	94.62
423.398	71.62
423.621	75.62
423.843	76.62
424.066	84.62
424.288	82.62
424.511	71.62
424.733	71.62
424.956	85.62
425.178	58.62
425.401	82.62
425.623	79.62
425.846	58.62
426.068	71.62
426.291	82.62
426.513	80.62
426.735	90.62
426.958	82.62
427.18	81.62
427.402	86.62
427.625	78.62
427.847	70.62
428.069	64.62
428.292	74.62
428.514	87.62
428.736	74.62
428.958	84.62
429.181	72.62
429.403	70.62
429.625	77.62
429.847	75.62
430.069	76.62
430.292	85.62
430.514	83.62
430.736	91.62
430.958	84.62
431.18	79.62
431.402	83.62
431.624	86.62
431.846	73.62
432.068	90.62
432.29	71.62
432.512	92.62
432.734	82.62
432.956	90.62
433.178	81.62
433.4	74.62
433.622	88.62
433.844	74.62
434.066	89.62
434.287	88.62
434.509	78.62
434.731	84.62
434.953	93.62
435.175	92.62
435.397	82.62
435.618	81.62
435.84	64.62
436.062	71.62
436.284	80.62
436.505	79.62
436.727	76.62
436.949	92.62
437.17	92.62
437.392	69.62
437.614	68.62
437.835	72.62
438.057	81.62
438.278	73.62
438.5	84.62
438.721	83.62
438.943	92.62
439.165	73.62
439.386	71.62
439.608	68.62
439.829	75.62
440.05	82.62
440.272	73.62
440.493	81.62
440.715	69.62
440.936	78.62
441.158	83.62
441.379	80.62
441.6	80.62
441.822	77.62
442.043	84.62
442.264	82.62
442.486	72.62
442.707	72.62
442.928	73.62
443.149	79.62
443.371	77.62
443.592	85.62
443.813	89.62
444.034	86.62
444.255	79.62
444.476	83.62
444.698	76.62
444.919	80.62
445.14	167.62
445.361	131.62
445.582	84.62
445.803	74.62
446.024	66.62
446.245	85.62
446.466	76.62
446.687	80.62
446.908	82.62
447.129	78.62
447.35	74.62
447.571	70.62
447.792	76.62
448.013	83.62
448.234	89.62
448.455	93.62
448.675	59.62
448.896	77.62
449.117	84.62
449.338	92.62
449.559	98.62
449.779	86.62
450	93.62
450.221	75.62
450.442	80.62
450.662	82.62
450.883	82.62
451.104	72.62
451.324	72.62
451.545	83.62
451.766	80.62
451.986	84.62
452.207	77.62
452.428	82.62
452.648	70.62
452.869	71.62
453.089	68.62
453.31	79.62
453.53	93.62
453.751	80.62
453.971	72.62
454.192	79.62
454.412	77.62
454.633	78.62
454.853	75.62
455.073	71.62
455.294	77.62
455.514	73.62
455.734	82.62
455.955	73.62
456.175	62.62
456.395	60.62
456.616	78.62
456.836	69.62
457.056	84.62
457.276	82.62
457.497	87.62
457.717	63.62
457.937	65.62
458.157	81.62
458.377	82.62
458.598	82.62
458.818	68.62
459.038	79.62
459.258	68.62
459.478	76.62
459.698	74.62
459.918	74.62
460.138	76.62
460.358	85.62
460.578	78.62
460.798	66.62
461.018	84.62
461.238	78.62
461.458	62.62
461.678	73.62
461.898	78.62
462.118	100.62
462.338	79.62
462.558	83.62
462.777	86.62
462.997	72.62
463.217	74.62
463.437	65.62
463.657	73.62
463.876	75.62
464.096	74.62
464.316	82.62
464.536	67.62
464.755	73.62
464.975	74.62
465.195	75.62
465.414	87.62
465.634	65.62
465.854	72.62
466.073	80.62
466.293	81.62
466.512	67.62
466.732	72.62
466.951	76.62
467.171	76.62
467.391	80.62
467.61	79.62
467.829	87.62
468.049	82.62
468.268	79.62
468.488	69.62
468.707	81.62
468.927	88.62
469.146	77.62
469.365	75.62
469.585	81.62
469.804	72.62
470.023	81.62
470.243	72.62
470.462	89.62
470.681	89.62
470.901	69.62
471.12	63.62
471.339	72.62
471.558	78.62
471.777	75.62
471.997	78.62
472.216	84.62
472.435	69.62
472.654	75.62
472.873	96.62
473.092	70.62
473.311	78.62
473.53	75.62
473.749	74.62
473.968	93.62
474.187	74.62
474.406	87.62
474.625	68.62
474.844	79.62
475.063	80.62
475.282	79.62
475.501	67.62
475.72	86.62
475.939	86.62
476.158	81.62
476.377	82.62
476.596	93.62
476.814	78.62
477.033	77.62
477.252	73.62
477.471	78.62
477.69	81.62
477.908	92.62
478.127	76.62
478.346	74.62
478.564	84.62
478.783	85.62
479.002	70.62
479.22	81.62
479.439	78.62
479.658	63.62
479.876	80.62
480.095	80.62
480.313	73.62
480.532	81.62
480.751	83.62
480.969	87.62
481.188	78.62
481.406	78.62
481.624	83.62
481.843	82.62
482.061	72.62
482.28	80.62
482.498	86.62
482.717	73.62
482.935	80.62
483.153	83.62
483.372	77.62
483.59	73.62
483.808	74.62
484.027	73.62
484.245	79.62
484.463	89.62
484.681	79.62
484.9	72.62
485.118	72.62
485.336	74.62
485.554	70.62
485.772	68.62
485.99	59.62
486.209	83.62
486.427	94.62
486.645	84.62
486.863	91.62
487.081	84.62
487.299	78.62
487.517	71.62
487.735	85.62
487.953	76.62
488.171	81.62
488.389	85.62
488.607	74.62
488.825	76.62
489.043	60.62
489.261	73.62
489.479	76.62
489.696	77.62
489.914	88.62
490.132	82.62
490.35	93.62
490.568	61.62
490.786	74.62
491.003	83.62
491.221	76.62
491.439	81.62
491.657	88.62
491.874	83.62
492.092	79.62
492.31	78.62
492.527	87.62
492.745	81.62
492.963	98.62
493.18	98.62
493.398	66.62
493.615	69.62
493.833	96.62
494.05	76.62
494.268	91.62
494.485	85.62
494.703	81.62
494.92	90.62
495.138	85.62
495.355	75.62
495.573	87.62
495.79	85.62
496.008	80.62
496.225	80.62
496.442	97.62
496.66	91.62
496.877	76.62
497.094	90.62
497.312	81.62
497.529	87.62
497.746	94.62
497.963	86.62
498.181	80.62
498.398	88.62
498.615	69.62
498.832	93.62
499.049	91.62
499.267	83.62
499.484	91.62
499.701	77.62
499.918	72.62
500.135	76.62
500.352	76.62
500.569	79.62
500.786	84.62
501.003	85.62
501.22	95.62
501.437	86.62
501.654	76.62
501.871	80.62
502.088	88.62
502.305	84.62
502.522	74.62
502.739	76.62
502.956	90.62
503.172	87.62
503.389	77.62
503.606	81.62
503.823	73.62
504.04	90.62
504.256	97.62
504.473	87.62
504.69	86.62
504.907	79.62
505.123	78.62
505.34	84.62
505.557	77.62
505.773	80.62
505.99	98.62
506.207	76.62
506.423	70.62
506.64	68.62
506.856	99.62
507.073	81.62
507.289	102.62
507.506	75.62
507.722	92.62
507.939	98.62
508.155	80.62
508.372	77.62
508.588	78.62
508.805	59.62
509.021	76.62
509.238	80.62
509.454	98.62
509.67	74.62
509.887	57.62
510.103	70.62
510.319	82.62
510.536	89.62
510.752	81.62
510.968	78.62
511.184	83.62
511.401	81.62
511.617	87.62
511.833	100.62
512.049	69.62
512.265	82.62
512.481	87.62
512.698	85.62
512.914	73.62
513.13	106.62
513.346	72.62
513.562	67.62
513.778	79.62
513.994	78.62
514.21	72.62
514.426	67.62
514.642	74.62
514.858	68.62
515.074	76.62
515.29	85.62
515.506	86.62
515.721	92.62
515.937	72.62
516.153	71.62
516.369	68.62
516.585	85.62
516.801	90.62
517.016	79.62
517.232	90.62
517.448	82.62
517.664	90.62
517.879	82.62
518.095	77.62
518.311	82.62
518.527	77.62
518.742	78.62
518.958	75.62
519.173	74.62
519.389	85.62
519.605	75.62
519.82	74.62
520.036	72.62
520.251	70.62
