Data from KBr_2_HRD10591_00038.txt Node
Date: Mon Jan 19 13:13:09 EST 2026
User: Yrep
Spectrometer: HR+D1059
Trigger mode: 1
Integration Time (sec): 1.000000E-1
Scans to average: 1
Electric dark correction enabled: true
Nonlinearity correction enabled: false
Boxcar width: 0
XAxis mode: Wavelengths
Number of Pixels in Spectrum: 2048
>>>>>Begin Spectral Data<<<<<
223.165	-8.38
223.4	-8.38
223.635	-8.38
223.869	-22.38
224.104	-20.38
224.338	-17.38
224.573	-16.38
224.808	-12.38
225.042	-7.38
225.277	-15.38
225.511	-1.38
225.746	6.62
225.98	8.62
226.215	0.62
226.449	5.62
226.683	21.62
226.918	26.62
227.152	51.62
227.387	38.62
227.621	36.62
227.856	47.62
228.09	47.62
228.324	55.62
228.559	55.62
228.793	59.62
229.027	70.62
229.262	67.62
229.496	69.62
229.73	75.62
229.964	72.62
230.199	77.62
230.433	72.62
230.667	74.62
230.901	73.62
231.136	71.62
231.37	77.62
231.604	89.62
231.838	81.62
232.072	63.62
232.306	74.62
232.541	65.62
232.775	71.62
233.009	72.62
233.243	72.62
233.477	76.62
233.711	82.62
233.945	78.62
234.179	84.62
234.413	84.62
234.647	57.62
234.881	83.62
235.115	82.62
235.349	68.62
235.583	83.62
235.817	69.62
236.051	88.62
236.285	70.62
236.519	78.62
236.753	68.62
236.987	85.62
237.221	88.62
237.455	84.62
237.689	74.62
237.922	74.62
238.156	73.62
238.39	80.62
238.624	76.62
238.858	72.62
239.091	80.62
239.325	79.62
239.559	80.62
239.793	77.62
240.027	75.62
240.26	84.62
240.494	75.62
240.728	63.62
240.961	65.62
241.195	81.62
241.429	67.62
241.662	67.62
241.896	81.62
242.13	82.62
242.363	73.62
242.597	75.62
242.83	78.62
243.064	81.62
243.298	73.62
243.531	75.62
243.765	84.62
243.998	85.62
244.232	72.62
244.465	79.62
244.699	72.62
244.932	77.62
245.166	75.62
245.399	74.62
245.633	77.62
245.866	78.62
246.099	78.62
246.333	76.62
246.566	85.62
246.8	80.62
247.033	82.62
247.266	69.62
247.5	76.62
247.733	84.62
247.966	82.62
248.2	91.62
248.433	77.62
248.666	72.62
248.899	73.62
249.133	77.62
249.366	87.62
249.599	67.62
249.832	76.62
250.066	87.62
250.299	78.62
250.532	76.62
250.765	87.62
250.998	85.62
251.231	75.62
251.465	60.62
251.698	80.62
251.931	76.62
252.164	78.62
252.397	87.62
252.63	88.62
252.863	80.62
253.096	86.62
253.329	89.62
253.562	77.62
253.795	67.62
254.028	87.62
254.261	82.62
254.494	78.62
254.727	74.62
254.96	89.62
255.193	97.62
255.426	79.62
255.659	87.62
255.892	80.62
256.124	76.62
256.357	85.62
256.59	82.62
256.823	84.62
257.056	84.62
257.289	86.62
257.521	85.62
257.754	85.62
257.987	95.62
258.22	66.62
258.452	87.62
258.685	89.62
258.918	70.62
259.151	78.62
259.383	88.62
259.616	101.62
259.849	72.62
260.081	82.62
260.314	82.62
260.547	77.62
260.779	85.62
261.012	75.62
261.244	72.62
261.477	86.62
261.71	92.62
261.942	84.62
262.175	93.62
262.407	80.62
262.64	72.62
262.872	106.62
263.105	87.62
263.337	83.62
263.57	87.62
263.802	90.62
264.035	73.62
264.267	66.62
264.499	84.62
264.732	82.62
264.964	76.62
265.197	91.62
265.429	80.62
265.661	85.62
265.894	86.62
266.126	91.62
266.358	74.62
266.591	73.62
266.823	88.62
267.055	86.62
267.287	71.62
267.52	86.62
267.752	92.62
267.984	77.62
268.216	60.62
268.448	93.62
268.681	84.62
268.913	77.62
269.145	88.62
269.377	86.62
269.609	83.62
269.841	89.62
270.073	80.62
270.306	80.62
270.538	81.62
270.77	91.62
271.002	79.62
271.234	89.62
271.466	84.62
271.698	79.62
271.93	103.62
272.162	94.62
272.394	78.62
272.626	85.62
272.858	81.62
273.09	75.62
273.322	80.62
273.553	86.62
273.785	72.62
274.017	82.62
274.249	79.62
274.481	81.62
274.713	80.62
274.945	96.62
275.176	86.62
275.408	78.62
275.64	84.62
275.872	93.62
276.104	98.62
276.335	83.62
276.567	78.62
276.799	80.62
277.031	86.62
277.262	89.62
277.494	86.62
277.726	85.62
277.957	89.62
278.189	71.62
278.421	84.62
278.652	80.62
278.884	82.62
279.115	84.62
279.347	80.62
279.579	90.62
279.81	71.62
280.042	87.62
280.273	82.62
280.505	93.62
280.736	77.62
280.968	87.62
281.199	86.62
281.431	59.62
281.662	84.62
281.894	81.62
282.125	78.62
282.356	90.62
282.588	82.62
282.819	86.62
283.051	80.62
283.282	79.62
283.513	81.62
283.745	97.62
283.976	89.62
284.207	82.62
284.439	72.62
284.67	73.62
284.901	84.62
285.132	86.62
285.364	90.62
285.595	95.62
285.826	104.62
286.057	72.62
286.288	79.62
286.52	90.62
286.751	78.62
286.982	89.62
287.213	101.62
287.444	100.62
287.675	88.62
287.906	94.62
288.138	96.62
288.369	82.62
288.6	76.62
288.831	73.62
289.062	86.62
289.293	75.62
289.524	84.62
289.755	90.62
289.986	93.62
290.217	86.62
290.448	79.62
290.679	106.62
290.91	82.62
291.141	91.62
291.371	92.62
291.602	82.62
291.833	91.62
292.064	89.62
292.295	95.62
292.526	89.62
292.757	74.62
292.987	86.62
293.218	79.62
293.449	74.62
293.68	84.62
293.91	85.62
294.141	79.62
294.372	91.62
294.603	78.62
294.833	79.62
295.064	78.62
295.295	96.62
295.525	77.62
295.756	83.62
295.987	72.62
296.217	84.62
296.448	79.62
296.679	74.62
296.909	78.62
297.14	76.62
297.37	80.62
297.601	88.62
297.831	89.62
298.062	69.62
298.292	91.62
298.523	65.62
298.753	72.62
298.984	78.62
299.214	88.62
299.445	97.62
299.675	85.62
299.905	104.62
300.136	92.62
300.366	88.62
300.597	79.62
300.827	91.62
301.057	80.62
301.288	90.62
301.518	85.62
301.748	84.62
301.979	101.62
302.209	100.62
302.439	93.62
302.669	80.62
302.9	92.62
303.13	95.62
303.36	96.62
303.59	86.62
303.82	81.62
304.051	93.62
304.281	88.62
304.511	85.62
304.741	81.62
304.971	97.62
305.201	95.62
305.431	79.62
305.661	94.62
305.891	95.62
306.121	77.62
306.352	86.62
306.582	81.62
306.812	90.62
307.042	99.62
307.272	76.62
307.502	71.62
307.731	90.62
307.961	76.62
308.191	93.62
308.421	75.62
308.651	83.62
308.881	84.62
309.111	93.62
309.341	79.62
309.571	91.62
309.8	81.62
310.03	78.62
310.26	77.62
310.49	93.62
310.72	78.62
310.949	93.62
311.179	80.62
311.409	95.62
311.639	95.62
311.868	97.62
312.098	88.62
312.328	72.62
312.557	79.62
312.787	80.62
313.017	100.62
313.246	93.62
313.476	73.62
313.706	90.62
313.935	97.62
314.165	84.62
314.394	98.62
314.624	78.62
314.853	85.62
315.083	84.62
315.312	88.62
315.542	81.62
315.771	94.62
316.001	88.62
316.23	81.62
316.46	78.62
316.689	81.62
316.919	93.62
317.148	85.62
317.377	93.62
317.607	104.62
317.836	84.62
318.065	86.62
318.295	81.62
318.524	83.62
318.753	96.62
318.983	92.62
319.212	103.62
319.441	86.62
319.67	93.62
319.9	83.62
320.129	83.62
320.358	81.62
320.587	82.62
320.816	78.62
321.046	76.62
321.275	80.62
321.504	78.62
321.733	89.62
321.962	76.62
322.191	105.62
322.42	96.62
322.649	86.62
322.878	83.62
323.108	88.62
323.337	80.62
323.566	96.62
323.795	86.62
324.024	92.62
324.253	89.62
324.482	91.62
324.71	86.62
324.939	96.62
325.168	90.62
325.397	101.62
325.626	69.62
325.855	79.62
326.084	94.62
326.313	84.62
326.542	95.62
326.77	84.62
326.999	94.62
327.228	87.62
327.457	90.62
327.686	86.62
327.914	77.62
328.143	80.62
328.372	86.62
328.6	76.62
328.829	83.62
329.058	86.62
329.287	86.62
329.515	84.62
329.744	94.62
329.972	89.62
330.201	98.62
330.43	82.62
330.658	96.62
330.887	96.62
331.115	101.62
331.344	100.62
331.572	77.62
331.801	88.62
332.03	69.62
332.258	93.62
332.486	90.62
332.715	74.62
332.943	77.62
333.172	70.62
333.4	82.62
333.629	88.62
333.857	96.62
334.085	92.62
334.314	89.62
334.542	75.62
334.771	94.62
334.999	83.62
335.227	83.62
335.455	86.62
335.684	77.62
335.912	85.62
336.14	88.62
336.369	85.62
336.597	84.62
336.825	90.62
337.053	85.62
337.281	77.62
337.51	77.62
337.738	83.62
337.966	82.62
338.194	86.62
338.422	95.62
338.65	80.62
338.878	83.62
339.106	86.62
339.334	82.62
339.562	86.62
339.79	94.62
340.018	95.62
340.246	90.62
340.474	83.62
340.702	83.62
340.93	101.62
341.158	84.62
341.386	86.62
341.614	74.62
341.842	92.62
342.07	75.62
342.298	88.62
342.526	100.62
342.754	79.62
342.981	94.62
343.209	96.62
343.437	104.62
343.665	111.62
343.893	76.62
344.12	100.62
344.348	105.62
344.576	105.62
344.804	103.62
345.031	102.62
345.259	94.62
345.487	90.62
345.714	82.62
345.942	91.62
346.17	84.62
346.397	88.62
346.625	90.62
346.853	89.62
347.08	78.62
347.308	82.62
347.535	87.62
347.763	90.62
347.99	77.62
348.218	91.62
348.445	75.62
348.673	101.62
348.9	92.62
349.128	85.62
349.355	86.62
349.583	83.62
349.81	92.62
350.037	85.62
350.265	79.62
350.492	88.62
350.72	87.62
350.947	96.62
351.174	87.62
351.402	85.62
351.629	85.62
351.856	77.62
352.083	86.62
352.311	102.62
352.538	93.62
352.765	97.62
352.992	84.62
353.22	88.62
353.447	96.62
353.674	93.62
353.901	74.62
354.128	89.62
354.355	78.62
354.583	92.62
354.81	79.62
355.037	96.62
355.264	93.62
355.491	87.62
355.718	83.62
355.945	91.62
356.172	74.62
356.399	90.62
356.626	94.62
356.853	100.62
357.08	96.62
357.307	89.62
357.534	88.62
357.761	82.62
357.988	95.62
358.215	86.62
358.441	83.62
358.668	96.62
358.895	89.62
359.122	84.62
359.349	86.62
359.576	81.62
359.802	84.62
360.029	85.62
360.256	76.62
360.483	83.62
360.709	86.62
360.936	90.62
361.163	80.62
361.39	73.62
361.616	92.62
361.843	72.62
362.07	77.62
362.296	87.62
362.523	84.62
362.749	73.62
362.976	80.62
363.203	84.62
363.429	78.62
363.656	86.62
363.882	76.62
364.109	83.62
364.335	90.62
364.562	83.62
364.788	90.62
365.015	80.62
365.241	90.62
365.468	96.62
365.694	73.62
365.92	88.62
366.147	94.62
366.373	94.62
366.599	89.62
366.826	86.62
367.052	79.62
367.278	85.62
367.505	93.62
367.731	102.62
367.957	82.62
368.184	81.62
368.41	79.62
368.636	74.62
368.862	79.62
369.089	84.62
369.315	65.62
369.541	80.62
369.767	90.62
369.993	87.62
370.219	96.62
370.445	90.62
370.672	84.62
370.898	91.62
371.124	83.62
371.35	88.62
371.576	86.62
371.802	84.62
372.028	77.62
372.254	84.62
372.48	91.62
372.706	78.62
372.932	93.62
373.158	86.62
373.384	94.62
373.61	83.62
373.835	78.62
374.061	88.62
374.287	87.62
374.513	95.62
374.739	90.62
374.965	83.62
375.191	97.62
375.416	89.62
375.642	89.62
375.868	80.62
376.094	97.62
376.319	87.62
376.545	81.62
376.771	73.62
376.997	80.62
377.222	87.62
377.448	79.62
377.674	82.62
377.899	92.62
378.125	82.62
378.35	89.62
378.576	88.62
378.802	90.62
379.027	78.62
379.253	92.62
379.478	76.62
379.704	80.62
379.929	87.62
380.155	102.62
380.38	72.62
380.606	80.62
380.831	88.62
381.057	87.62
381.282	75.62
381.507	80.62
381.733	91.62
381.958	85.62
382.184	69.62
382.409	81.62
382.634	85.62
382.86	84.62
383.085	75.62
383.31	96.62
383.535	88.62
383.761	74.62
383.986	81.62
384.211	91.62
384.436	98.62
384.662	71.62
384.887	82.62
385.112	81.62
385.337	86.62
385.562	92.62
385.787	86.62
386.013	83.62
386.238	80.62
386.463	90.62
386.688	87.62
386.913	89.62
387.138	70.62
387.363	74.62
387.588	92.62
387.813	77.62
388.038	77.62
388.263	86.62
388.488	88.62
388.713	87.62
388.938	77.62
389.163	78.62
389.387	84.62
389.612	90.62
389.837	102.62
390.062	80.62
390.287	80.62
390.512	98.62
390.736	87.62
390.961	96.62
391.186	88.62
391.411	75.62
391.636	85.62
391.86	91.62
392.085	81.62
392.31	97.62
392.534	88.62
392.759	96.62
392.984	100.62
393.208	77.62
393.433	91.62
393.658	81.62
393.882	91.62
394.107	85.62
394.331	78.62
394.556	97.62
394.78	90.62
395.005	104.62
395.229	86.62
395.454	90.62
395.678	93.62
395.903	94.62
396.127	88.62
396.352	76.62
396.576	79.62
396.801	84.62
397.025	74.62
397.249	80.62
397.474	80.62
397.698	86.62
397.922	94.62
398.147	87.62
398.371	94.62
398.595	94.62
398.82	80.62
399.044	95.62
399.268	74.62
399.492	82.62
399.717	81.62
399.941	98.62
400.165	93.62
400.389	80.62
400.613	91.62
400.837	80.62
401.062	87.62
401.286	96.62
401.51	92.62
401.734	76.62
401.958	89.62
402.182	86.62
402.406	76.62
402.63	95.62
402.854	84.62
403.078	85.62
403.302	90.62
403.526	102.62
403.75	111.62
403.974	100.62
404.198	151.62
404.422	233.62
404.645	307.62
404.869	233.62
405.093	156.62
405.317	116.62
405.541	89.62
405.765	90.62
405.988	88.62
406.212	96.62
406.436	103.62
406.66	93.62
406.883	96.62
407.107	94.62
407.331	79.62
407.555	82.62
407.778	89.62
408.002	89.62
408.226	85.62
408.449	97.62
408.673	90.62
408.896	98.62
409.12	83.62
409.344	86.62
409.567	82.62
409.791	90.62
410.014	91.62
410.238	81.62
410.461	95.62
410.685	99.62
410.908	81.62
411.132	92.62
411.355	80.62
411.578	85.62
411.802	84.62
412.025	76.62
412.249	93.62
412.472	98.62
412.695	90.62
412.919	81.62
413.142	72.62
413.365	90.62
413.589	104.62
413.812	80.62
414.035	86.62
414.258	86.62
414.482	90.62
414.705	89.62
414.928	79.62
415.151	89.62
415.374	90.62
415.597	97.62
415.821	78.62
416.044	92.62
416.267	94.62
416.49	91.62
416.713	89.62
416.936	78.62
417.159	86.62
417.382	88.62
417.605	79.62
417.828	78.62
418.051	80.62
418.274	64.62
418.497	78.62
418.72	81.62
418.943	76.62
419.166	77.62
419.389	91.62
419.611	87.62
419.834	91.62
420.057	74.62
420.28	88.62
420.503	74.62
420.726	84.62
420.948	86.62
421.171	87.62
421.394	84.62
421.617	87.62
421.839	75.62
422.062	89.62
422.285	70.62
422.507	80.62
422.73	87.62
422.953	87.62
423.175	87.62
423.398	85.62
423.621	84.62
423.843	84.62
424.066	85.62
424.288	81.62
424.511	89.62
424.733	93.62
424.956	78.62
425.178	73.62
425.401	71.62
425.623	85.62
425.846	77.62
426.068	95.62
426.291	76.62
426.513	81.62
426.735	77.62
426.958	85.62
427.18	94.62
427.402	82.62
427.625	86.62
427.847	96.62
428.069	76.62
428.292	104.62
428.514	83.62
428.736	73.62
428.958	90.62
429.181	65.62
429.403	89.62
429.625	90.62
429.847	89.62
430.069	84.62
430.292	86.62
430.514	90.62
430.736	74.62
430.958	73.62
431.18	86.62
431.402	108.62
431.624	91.62
431.846	97.62
432.068	80.62
432.29	86.62
432.512	75.62
432.734	90.62
432.956	70.62
433.178	80.62
433.4	94.62
433.622	84.62
433.844	76.62
434.066	73.62
434.287	70.62
434.509	86.62
434.731	81.62
434.953	88.62
435.175	81.62
435.397	78.62
435.618	79.62
435.84	90.62
436.062	89.62
436.284	82.62
436.505	92.62
436.727	84.62
436.949	82.62
437.17	88.62
437.392	85.62
437.614	89.62
437.835	89.62
438.057	85.62
438.278	68.62
438.5	84.62
438.721	89.62
438.943	92.62
439.165	76.62
439.386	84.62
439.608	91.62
439.829	79.62
440.05	94.62
440.272	84.62
440.493	92.62
440.715	81.62
440.936	82.62
441.158	89.62
441.379	90.62
441.6	84.62
441.822	79.62
442.043	69.62
442.264	66.62
442.486	88.62
442.707	77.62
442.928	97.62
443.149	101.62
443.371	83.62
443.592	84.62
443.813	69.62
444.034	63.62
444.255	82.62
444.476	92.62
444.698	90.62
444.919	87.62
445.14	146.62
445.361	122.62
445.582	90.62
445.803	93.62
446.024	82.62
446.245	78.62
446.466	78.62
446.687	100.62
446.908	90.62
447.129	83.62
447.35	75.62
447.571	77.62
447.792	86.62
448.013	96.62
448.234	85.62
448.455	92.62
448.675	88.62
448.896	97.62
449.117	93.62
449.338	85.62
449.559	105.62
449.779	76.62
450	84.62
450.221	86.62
450.442	92.62
450.662	81.62
450.883	87.62
451.104	97.62
451.324	96.62
451.545	74.62
451.766	89.62
451.986	87.62
452.207	86.62
452.428	91.62
452.648	83.62
452.869	85.62
453.089	92.62
453.31	87.62
453.53	81.62
453.751	88.62
453.971	86.62
454.192	83.62
454.412	65.62
454.633	85.62
454.853	92.62
455.073	95.62
455.294	91.62
455.514	92.62
455.734	90.62
455.955	90.62
456.175	92.62
456.395	87.62
456.616	88.62
456.836	84.62
457.056	79.62
457.276	79.62
457.497	75.62
457.717	79.62
457.937	84.62
458.157	74.62
458.377	80.62
458.598	75.62
458.818	88.62
459.038	76.62
459.258	76.62
459.478	88.62
459.698	85.62
459.918	89.62
460.138	77.62
460.358	75.62
460.578	96.62
460.798	82.62
461.018	85.62
461.238	77.62
461.458	78.62
461.678	88.62
461.898	69.62
462.118	92.62
462.338	90.62
462.558	76.62
462.777	97.62
462.997	77.62
463.217	92.62
463.437	88.62
463.657	91.62
463.876	73.62
464.096	103.62
464.316	85.62
464.536	80.62
464.755	85.62
464.975	91.62
465.195	85.62
465.414	87.62
465.634	99.62
465.854	95.62
466.073	93.62
466.293	90.62
466.512	95.62
466.732	100.62
466.951	100.62
467.171	92.62
467.391	84.62
467.61	109.62
467.829	88.62
468.049	84.62
468.268	90.62
468.488	94.62
468.707	100.62
468.927	91.62
469.146	81.62
469.365	103.62
469.585	87.62
469.804	84.62
470.023	87.62
470.243	93.62
470.462	83.62
470.681	97.62
470.901	74.62
471.12	88.62
471.339	85.62
471.558	89.62
471.777	87.62
471.997	98.62
472.216	92.62
472.435	96.62
472.654	87.62
472.873	93.62
473.092	88.62
473.311	89.62
473.53	87.62
473.749	93.62
473.968	84.62
474.187	83.62
474.406	81.62
474.625	80.62
474.844	97.62
475.063	94.62
475.282	88.62
475.501	84.62
475.72	89.62
475.939	81.62
476.158	78.62
476.377	85.62
476.596	79.62
476.814	86.62
477.033	87.62
477.252	92.62
477.471	83.62
477.69	92.62
477.908	92.62
478.127	83.62
478.346	83.62
478.564	96.62
478.783	92.62
479.002	106.62
479.22	72.62
479.439	80.62
479.658	80.62
479.876	93.62
480.095	73.62
480.313	76.62
480.532	81.62
480.751	104.62
480.969	80.62
481.188	84.62
481.406	86.62
481.624	85.62
481.843	95.62
482.061	87.62
482.28	81.62
482.498	95.62
482.717	89.62
482.935	97.62
483.153	91.62
483.372	101.62
483.59	93.62
483.808	83.62
484.027	78.62
484.245	94.62
484.463	78.62
484.681	102.62
484.9	85.62
485.118	94.62
485.336	90.62
485.554	93.62
485.772	82.62
485.99	73.62
486.209	80.62
486.427	81.62
486.645	92.62
486.863	85.62
487.081	79.62
487.299	104.62
487.517	80.62
487.735	106.62
487.953	109.62
488.171	90.62
488.389	87.62
488.607	90.62
488.825	82.62
489.043	82.62
489.261	97.62
489.479	88.62
489.696	90.62
489.914	90.62
490.132	104.62
490.35	102.62
490.568	88.62
490.786	92.62
491.003	93.62
491.221	92.62
491.439	107.62
491.657	94.62
491.874	97.62
492.092	112.62
492.31	93.62
492.527	97.62
492.745	89.62
492.963	82.62
493.18	102.62
493.398	108.62
493.615	78.62
493.833	89.62
494.05	82.62
494.268	98.62
494.485	103.62
494.703	85.62
494.92	89.62
495.138	97.62
495.355	77.62
495.573	104.62
495.79	97.62
496.008	102.62
496.225	110.62
496.442	85.62
496.66	102.62
496.877	103.62
497.094	102.62
497.312	82.62
497.529	99.62
497.746	94.62
497.963	97.62
498.181	99.62
498.398	88.62
498.615	84.62
498.832	89.62
499.049	87.62
499.267	100.62
499.484	82.62
499.701	72.62
499.918	81.62
500.135	104.62
500.352	109.62
500.569	96.62
500.786	102.62
501.003	84.62
501.22	91.62
501.437	102.62
501.654	94.62
501.871	81.62
502.088	88.62
502.305	86.62
502.522	81.62
502.739	89.62
502.956	101.62
503.172	92.62
503.389	89.62
503.606	81.62
503.823	82.62
504.04	96.62
504.256	106.62
504.473	96.62
504.69	86.62
504.907	102.62
505.123	94.62
505.34	84.62
505.557	81.62
505.773	85.62
505.99	95.62
506.207	95.62
506.423	87.62
506.64	86.62
506.856	91.62
507.073	96.62
507.289	81.62
507.506	80.62
507.722	97.62
507.939	95.62
508.155	92.62
508.372	84.62
508.588	87.62
508.805	87.62
509.021	90.62
509.238	87.62
509.454	85.62
509.67	88.62
509.887	100.62
510.103	84.62
510.319	93.62
510.536	101.62
510.752	92.62
510.968	95.62
511.184	92.62
511.401	110.62
511.617	87.62
511.833	94.62
512.049	90.62
512.265	98.62
512.481	97.62
512.698	96.62
512.914	81.62
513.13	84.62
513.346	68.62
513.562	86.62
513.778	100.62
513.994	85.62
514.21	97.62
514.426	101.62
514.642	91.62
514.858	95.62
515.074	91.62
515.29	90.62
515.506	81.62
515.721	85.62
515.937	95.62
516.153	80.62
516.369	86.62
516.585	97.62
516.801	98.62
517.016	101.62
517.232	89.62
517.448	84.62
517.664	81.62
517.879	83.62
518.095	93.62
518.311	83.62
518.527	93.62
518.742	86.62
518.958	78.62
