Data from KBr_2_HRD10591_00027.txt Node
Date: Mon Jan 19 13:13:04 EST 2026
User: Yrep
Spectrometer: HR+D1059
Trigger mode: 1
Integration Time (sec): 1.000000E-1
Scans to average: 1
Electric dark correction enabled: true
Nonlinearity correction enabled: false
Boxcar width: 0
XAxis mode: Wavelengths
Number of Pixels in Spectrum: 2048
>>>>>Begin Spectral Data<<<<<
223.165	-19.12
223.4	-19.12
223.635	-19.12
223.869	-18.12
224.104	-17.12
224.338	-5.12
224.573	-2.12
224.808	-5.12
225.042	-16.12
225.277	1.88
225.511	-5.12
225.746	13.88
225.98	9.88
226.215	6.88
226.449	-0.12
226.683	10.88
226.918	25.88
227.152	18.88
227.387	35.88
227.621	35.88
227.856	39.88
228.09	46.88
228.324	38.88
228.559	52.88
228.793	64.88
229.027	67.88
229.262	67.88
229.496	66.88
229.73	63.88
229.964	71.88
230.199	70.88
230.433	78.88
230.667	80.88
230.901	73.88
231.136	75.88
231.37	77.88
231.604	80.88
231.838	77.88
232.072	73.88
232.306	71.88
232.541	75.88
232.775	82.88
233.009	97.88
233.243	75.88
233.477	73.88
233.711	73.88
233.945	69.88
234.179	59.88
234.413	75.88
234.647	91.88
234.881	68.88
235.115	77.88
235.349	81.88
235.583	81.88
235.817	83.88
236.051	77.88
236.285	79.88
236.519	67.88
236.753	67.88
236.987	71.88
237.221	74.88
237.455	83.88
237.689	89.88
237.922	70.88
238.156	71.88
238.39	73.88
238.624	80.88
238.858	76.88
239.091	96.88
239.325	77.88
239.559	81.88
239.793	76.88
240.027	83.88
240.26	70.88
240.494	83.88
240.728	71.88
240.961	74.88
241.195	77.88
241.429	76.88
241.662	61.88
241.896	78.88
242.13	73.88
242.363	68.88
242.597	89.88
242.83	78.88
243.064	69.88
243.298	90.88
243.531	77.88
243.765	66.88
243.998	81.88
244.232	79.88
244.465	76.88
244.699	78.88
244.932	68.88
245.166	75.88
245.399	67.88
245.633	80.88
245.866	80.88
246.099	82.88
246.333	81.88
246.566	71.88
246.8	75.88
247.033	54.88
247.266	79.88
247.5	86.88
247.733	71.88
247.966	71.88
248.2	93.88
248.433	77.88
248.666	69.88
248.899	79.88
249.133	71.88
249.366	72.88
249.599	72.88
249.832	91.88
250.066	80.88
250.299	84.88
250.532	84.88
250.765	81.88
250.998	71.88
251.231	61.88
251.465	80.88
251.698	79.88
251.931	71.88
252.164	83.88
252.397	75.88
252.63	71.88
252.863	87.88
253.096	78.88
253.329	84.88
253.562	77.88
253.795	73.88
254.028	77.88
254.261	67.88
254.494	82.88
254.727	83.88
254.96	85.88
255.193	80.88
255.426	71.88
255.659	71.88
255.892	75.88
256.124	71.88
256.357	75.88
256.59	76.88
256.823	72.88
257.056	69.88
257.289	80.88
257.521	89.88
257.754	74.88
257.987	71.88
258.22	68.88
258.452	78.88
258.685	90.88
258.918	86.88
259.151	87.88
259.383	86.88
259.616	76.88
259.849	77.88
260.081	81.88
260.314	74.88
260.547	79.88
260.779	94.88
261.012	75.88
261.244	83.88
261.477	73.88
261.71	77.88
261.942	83.88
262.175	69.88
262.407	78.88
262.64	77.88
262.872	62.88
263.105	75.88
263.337	73.88
263.57	81.88
263.802	67.88
264.035	79.88
264.267	74.88
264.499	79.88
264.732	75.88
264.964	76.88
265.197	74.88
265.429	82.88
265.661	85.88
265.894	76.88
266.126	85.88
266.358	74.88
266.591	81.88
266.823	82.88
267.055	92.88
267.287	63.88
267.52	77.88
267.752	73.88
267.984	68.88
268.216	72.88
268.448	79.88
268.681	74.88
268.913	71.88
269.145	77.88
269.377	91.88
269.609	71.88
269.841	85.88
270.073	64.88
270.306	76.88
270.538	83.88
270.77	80.88
271.002	81.88
271.234	79.88
271.466	76.88
271.698	73.88
271.93	81.88
272.162	99.88
272.394	76.88
272.626	81.88
272.858	81.88
273.09	62.88
273.322	71.88
273.553	80.88
273.785	91.88
274.017	87.88
274.249	72.88
274.481	81.88
274.713	89.88
274.945	90.88
275.176	79.88
275.408	83.88
275.64	88.88
275.872	81.88
276.104	81.88
276.335	78.88
276.567	89.88
276.799	70.88
277.031	79.88
277.262	68.88
277.494	75.88
277.726	83.88
277.957	86.88
278.189	89.88
278.421	84.88
278.652	79.88
278.884	83.88
279.115	98.88
279.347	78.88
279.579	77.88
279.81	91.88
280.042	65.88
280.273	70.88
280.505	83.88
280.736	71.88
280.968	84.88
281.199	87.88
281.431	68.88
281.662	90.88
281.894	70.88
282.125	81.88
282.356	86.88
282.588	71.88
282.819	75.88
283.051	62.88
283.282	80.88
283.513	80.88
283.745	86.88
283.976	71.88
284.207	72.88
284.439	83.88
284.67	69.88
284.901	81.88
285.132	78.88
285.364	93.88
285.595	71.88
285.826	78.88
286.057	81.88
286.288	81.88
286.52	88.88
286.751	65.88
286.982	85.88
287.213	88.88
287.444	81.88
287.675	81.88
287.906	95.88
288.138	76.88
288.369	81.88
288.6	88.88
288.831	79.88
289.062	75.88
289.293	78.88
289.524	84.88
289.755	78.88
289.986	92.88
290.217	90.88
290.448	82.88
290.679	70.88
290.91	80.88
291.141	80.88
291.371	87.88
291.602	69.88
291.833	86.88
292.064	91.88
292.295	88.88
292.526	95.88
292.757	97.88
292.987	75.88
293.218	80.88
293.449	84.88
293.68	87.88
293.91	88.88
294.141	93.88
294.372	84.88
294.603	73.88
294.833	84.88
295.064	80.88
295.295	87.88
295.525	83.88
295.756	72.88
295.987	92.88
296.217	86.88
296.448	75.88
296.679	99.88
296.909	89.88
297.14	78.88
297.37	71.88
297.601	87.88
297.831	84.88
298.062	88.88
298.292	71.88
298.523	82.88
298.753	92.88
298.984	80.88
299.214	52.88
299.445	76.88
299.675	89.88
299.905	77.88
300.136	84.88
300.366	91.88
300.597	84.88
300.827	88.88
301.057	95.88
301.288	80.88
301.518	77.88
301.748	88.88
301.979	87.88
302.209	77.88
302.439	84.88
302.669	89.88
302.9	105.88
303.13	87.88
303.36	65.88
303.59	64.88
303.82	77.88
304.051	87.88
304.281	78.88
304.511	83.88
304.741	80.88
304.971	63.88
305.201	83.88
305.431	79.88
305.661	86.88
305.891	92.88
306.121	92.88
306.352	88.88
306.582	91.88
306.812	81.88
307.042	88.88
307.272	75.88
307.502	69.88
307.731	105.88
307.961	88.88
308.191	77.88
308.421	76.88
308.651	80.88
308.881	73.88
309.111	83.88
309.341	80.88
309.571	95.88
309.8	87.88
310.03	89.88
310.26	73.88
310.49	81.88
310.72	76.88
310.949	87.88
311.179	81.88
311.409	74.88
311.639	70.88
311.868	88.88
312.098	80.88
312.328	83.88
312.557	75.88
312.787	81.88
313.017	76.88
313.246	79.88
313.476	88.88
313.706	84.88
313.935	78.88
314.165	85.88
314.394	73.88
314.624	96.88
314.853	97.88
315.083	65.88
315.312	75.88
315.542	78.88
315.771	83.88
316.001	85.88
316.23	95.88
316.46	63.88
316.689	79.88
316.919	86.88
317.148	81.88
317.377	90.88
317.607	87.88
317.836	76.88
318.065	81.88
318.295	83.88
318.524	82.88
318.753	66.88
318.983	75.88
319.212	75.88
319.441	83.88
319.67	71.88
319.9	78.88
320.129	95.88
320.358	103.88
320.587	86.88
320.816	84.88
321.046	80.88
321.275	92.88
321.504	90.88
321.733	77.88
321.962	79.88
322.191	91.88
322.42	72.88
322.649	87.88
322.878	89.88
323.108	87.88
323.337	73.88
323.566	75.88
323.795	86.88
324.024	84.88
324.253	73.88
324.482	85.88
324.71	87.88
324.939	83.88
325.168	76.88
325.397	86.88
325.626	89.88
325.855	71.88
326.084	84.88
326.313	81.88
326.542	77.88
326.77	79.88
326.999	91.88
327.228	72.88
327.457	89.88
327.686	87.88
327.914	84.88
328.143	65.88
328.372	87.88
328.6	89.88
328.829	90.88
329.058	80.88
329.287	89.88
329.515	83.88
329.744	82.88
329.972	90.88
330.201	84.88
330.43	91.88
330.658	83.88
330.887	81.88
331.115	88.88
331.344	70.88
331.572	80.88
331.801	88.88
332.03	87.88
332.258	81.88
332.486	75.88
332.715	92.88
332.943	78.88
333.172	85.88
333.4	81.88
333.629	95.88
333.857	83.88
334.085	97.88
334.314	95.88
334.542	69.88
334.771	87.88
334.999	76.88
335.227	87.88
335.455	75.88
335.684	79.88
335.912	82.88
336.14	86.88
336.369	93.88
336.597	95.88
336.825	79.88
337.053	82.88
337.281	87.88
337.51	85.88
337.738	77.88
337.966	91.88
338.194	69.88
338.422	89.88
338.65	91.88
338.878	79.88
339.106	78.88
339.334	79.88
339.562	79.88
339.79	90.88
340.018	83.88
340.246	85.88
340.474	87.88
340.702	89.88
340.93	89.88
341.158	91.88
341.386	87.88
341.614	102.88
341.842	80.88
342.07	103.88
342.298	79.88
342.526	80.88
342.754	82.88
342.981	87.88
343.209	82.88
343.437	92.88
343.665	94.88
343.893	89.88
344.12	99.88
344.348	74.88
344.576	68.88
344.804	110.88
345.031	97.88
345.259	79.88
345.487	93.88
345.714	79.88
345.942	78.88
346.17	91.88
346.397	69.88
346.625	85.88
346.853	77.88
347.08	83.88
347.308	80.88
347.535	76.88
347.763	85.88
347.99	85.88
348.218	78.88
348.445	88.88
348.673	78.88
348.9	77.88
349.128	83.88
349.355	81.88
349.583	76.88
349.81	73.88
350.037	84.88
350.265	91.88
350.492	90.88
350.72	99.88
350.947	103.88
351.174	83.88
351.402	79.88
351.629	73.88
351.856	75.88
352.083	92.88
352.311	93.88
352.538	79.88
352.765	77.88
352.992	88.88
353.22	84.88
353.447	73.88
353.674	85.88
353.901	77.88
354.128	84.88
354.355	87.88
354.583	95.88
354.81	95.88
355.037	74.88
355.264	91.88
355.491	84.88
355.718	81.88
355.945	83.88
356.172	79.88
356.399	77.88
356.626	65.88
356.853	75.88
357.08	73.88
357.307	79.88
357.534	87.88
357.761	76.88
357.988	95.88
358.215	92.88
358.441	83.88
358.668	87.88
358.895	75.88
359.122	85.88
359.349	92.88
359.576	85.88
359.802	88.88
360.029	88.88
360.256	94.88
360.483	92.88
360.709	69.88
360.936	73.88
361.163	81.88
361.39	82.88
361.616	71.88
361.843	78.88
362.07	85.88
362.296	75.88
362.523	82.88
362.749	87.88
362.976	87.88
363.203	89.88
363.429	85.88
363.656	76.88
363.882	89.88
364.109	89.88
364.335	80.88
364.562	85.88
364.788	66.88
365.015	88.88
365.241	89.88
365.468	84.88
365.694	75.88
365.92	88.88
366.147	86.88
366.373	88.88
366.599	83.88
366.826	81.88
367.052	81.88
367.278	78.88
367.505	79.88
367.731	87.88
367.957	90.88
368.184	84.88
368.41	93.88
368.636	75.88
368.862	78.88
369.089	72.88
369.315	81.88
369.541	70.88
369.767	83.88
369.993	77.88
370.219	85.88
370.445	75.88
370.672	76.88
370.898	90.88
371.124	95.88
371.35	94.88
371.576	84.88
371.802	76.88
372.028	72.88
372.254	75.88
372.48	82.88
372.706	70.88
372.932	85.88
373.158	76.88
373.384	72.88
373.61	77.88
373.835	81.88
374.061	84.88
374.287	81.88
374.513	71.88
374.739	92.88
374.965	81.88
375.191	81.88
375.416	94.88
375.642	93.88
375.868	86.88
376.094	96.88
376.319	69.88
376.545	77.88
376.771	84.88
376.997	82.88
377.222	88.88
377.448	85.88
377.674	83.88
377.899	85.88
378.125	86.88
378.35	75.88
378.576	87.88
378.802	82.88
379.027	94.88
379.253	71.88
379.478	68.88
379.704	85.88
379.929	85.88
380.155	86.88
380.38	76.88
380.606	73.88
380.831	81.88
381.057	71.88
381.282	83.88
381.507	75.88
381.733	81.88
381.958	79.88
382.184	86.88
382.409	85.88
382.634	96.88
382.86	84.88
383.085	84.88
383.31	96.88
383.535	87.88
383.761	69.88
383.986	76.88
384.211	73.88
384.436	83.88
384.662	85.88
384.887	69.88
385.112	85.88
385.337	88.88
385.562	70.88
385.787	87.88
386.013	85.88
386.238	71.88
386.463	71.88
386.688	99.88
386.913	79.88
387.138	92.88
387.363	77.88
387.588	73.88
387.813	97.88
388.038	87.88
388.263	67.88
388.488	73.88
388.713	99.88
388.938	83.88
389.163	77.88
389.387	92.88
389.612	65.88
389.837	79.88
390.062	83.88
390.287	84.88
390.512	84.88
390.736	80.88
390.961	84.88
391.186	85.88
391.411	78.88
391.636	87.88
391.86	78.88
392.085	94.88
392.31	88.88
392.534	95.88
392.759	84.88
392.984	82.88
393.208	85.88
393.433	88.88
393.658	83.88
393.882	68.88
394.107	74.88
394.331	87.88
394.556	92.88
394.78	80.88
395.005	88.88
395.229	80.88
395.454	91.88
395.678	83.88
395.903	81.88
396.127	86.88
396.352	97.88
396.576	97.88
396.801	85.88
397.025	89.88
397.249	86.88
397.474	81.88
397.698	78.88
397.922	92.88
398.147	78.88
398.371	87.88
398.595	87.88
398.82	78.88
399.044	81.88
399.268	79.88
399.492	85.88
399.717	81.88
399.941	81.88
400.165	90.88
400.389	80.88
400.613	71.88
400.837	95.88
401.062	103.88
401.286	87.88
401.51	71.88
401.734	84.88
401.958	89.88
402.182	80.88
402.406	87.88
402.63	84.88
402.854	91.88
403.078	87.88
403.302	80.88
403.526	85.88
403.75	95.88
403.974	98.88
404.198	128.88
404.422	175.88
404.645	205.88
404.869	182.88
405.093	125.88
405.317	97.88
405.541	84.88
405.765	81.88
405.988	81.88
406.212	80.88
406.436	79.88
406.66	76.88
406.883	88.88
407.107	95.88
407.331	74.88
407.555	80.88
407.778	92.88
408.002	73.88
408.226	83.88
408.449	95.88
408.673	73.88
408.896	80.88
409.12	74.88
409.344	77.88
409.567	90.88
409.791	78.88
410.014	89.88
410.238	85.88
410.461	88.88
410.685	74.88
410.908	75.88
411.132	79.88
411.355	94.88
411.578	89.88
411.802	71.88
412.025	65.88
412.249	77.88
412.472	95.88
412.695	78.88
412.919	73.88
413.142	90.88
413.365	69.88
413.589	67.88
413.812	65.88
414.035	85.88
414.258	67.88
414.482	89.88
414.705	80.88
414.928	75.88
415.151	73.88
415.374	71.88
415.597	78.88
415.821	68.88
416.044	88.88
416.267	85.88
416.49	93.88
416.713	76.88
416.936	99.88
417.159	95.88
417.382	89.88
417.605	79.88
417.828	92.88
418.051	69.88
418.274	86.88
418.497	77.88
418.72	81.88
418.943	85.88
419.166	83.88
419.389	94.88
419.611	76.88
419.834	90.88
420.057	91.88
420.28	94.88
420.503	89.88
420.726	92.88
420.948	75.88
421.171	85.88
421.394	80.88
421.617	85.88
421.839	99.88
422.062	83.88
422.285	76.88
422.507	75.88
422.73	88.88
422.953	103.88
423.175	83.88
423.398	76.88
423.621	80.88
423.843	79.88
424.066	72.88
424.288	78.88
424.511	88.88
424.733	88.88
424.956	80.88
425.178	76.88
425.401	75.88
425.623	80.88
425.846	80.88
426.068	92.88
426.291	78.88
426.513	89.88
426.735	72.88
426.958	81.88
427.18	88.88
427.402	90.88
427.625	88.88
427.847	85.88
428.069	70.88
428.292	81.88
428.514	86.88
428.736	85.88
428.958	82.88
429.181	86.88
429.403	86.88
429.625	71.88
429.847	81.88
430.069	77.88
430.292	87.88
430.514	87.88
430.736	71.88
430.958	94.88
431.18	81.88
431.402	92.88
431.624	89.88
431.846	67.88
432.068	78.88
432.29	94.88
432.512	87.88
432.734	91.88
432.956	84.88
433.178	92.88
433.4	82.88
433.622	82.88
433.844	83.88
434.066	91.88
434.287	86.88
434.509	87.88
434.731	90.88
434.953	75.88
435.175	86.88
435.397	77.88
435.618	69.88
435.84	73.88
436.062	94.88
436.284	75.88
436.505	67.88
436.727	85.88
436.949	84.88
437.17	84.88
437.392	81.88
437.614	85.88
437.835	72.88
438.057	77.88
438.278	91.88
438.5	76.88
438.721	89.88
438.943	65.88
439.165	82.88
439.386	87.88
439.608	84.88
439.829	79.88
440.05	83.88
440.272	81.88
440.493	92.88
440.715	91.88
440.936	79.88
441.158	94.88
441.379	83.88
441.6	79.88
441.822	81.88
442.043	76.88
442.264	65.88
442.486	75.88
442.707	83.88
442.928	73.88
443.149	73.88
443.371	81.88
443.592	85.88
443.813	76.88
444.034	73.88
444.255	83.88
444.476	84.88
444.698	84.88
444.919	79.88
445.14	153.88
445.361	96.88
445.582	92.88
445.803	82.88
446.024	84.88
446.245	90.88
446.466	95.88
446.687	97.88
446.908	82.88
447.129	84.88
447.35	81.88
447.571	81.88
447.792	95.88
448.013	93.88
448.234	86.88
448.455	88.88
448.675	80.88
448.896	77.88
449.117	96.88
449.338	90.88
449.559	100.88
449.779	88.88
450	94.88
450.221	83.88
450.442	92.88
450.662	79.88
450.883	78.88
451.104	79.88
451.324	89.88
451.545	71.88
451.766	77.88
451.986	84.88
452.207	92.88
452.428	87.88
452.648	94.88
452.869	90.88
453.089	85.88
453.31	78.88
453.53	88.88
453.751	87.88
453.971	97.88
454.192	93.88
454.412	87.88
454.633	73.88
454.853	76.88
455.073	87.88
455.294	85.88
455.514	81.88
455.734	89.88
455.955	75.88
456.175	66.88
456.395	83.88
456.616	76.88
456.836	73.88
457.056	85.88
457.276	99.88
457.497	74.88
457.717	78.88
457.937	77.88
458.157	80.88
458.377	79.88
458.598	84.88
458.818	96.88
459.038	90.88
459.258	87.88
459.478	79.88
459.698	76.88
459.918	70.88
460.138	82.88
460.358	78.88
460.578	86.88
460.798	75.88
461.018	80.88
461.238	88.88
461.458	94.88
461.678	81.88
461.898	88.88
462.118	93.88
462.338	78.88
462.558	71.88
462.777	79.88
462.997	79.88
463.217	83.88
463.437	80.88
463.657	73.88
463.876	87.88
464.096	92.88
464.316	81.88
464.536	89.88
464.755	78.88
464.975	85.88
465.195	87.88
465.414	89.88
465.634	80.88
465.854	85.88
466.073	101.88
466.293	81.88
466.512	73.88
466.732	85.88
466.951	104.88
467.171	95.88
467.391	73.88
467.61	89.88
467.829	79.88
468.049	88.88
468.268	77.88
468.488	100.88
468.707	87.88
468.927	75.88
469.146	81.88
469.365	89.88
469.585	71.88
469.804	81.88
470.023	74.88
470.243	78.88
470.462	96.88
470.681	86.88
470.901	83.88
471.12	89.88
471.339	78.88
471.558	90.88
471.777	71.88
471.997	74.88
472.216	78.88
472.435	92.88
472.654	86.88
472.873	84.88
473.092	90.88
473.311	83.88
473.53	81.88
473.749	81.88
473.968	85.88
474.187	77.88
474.406	84.88
474.625	73.88
474.844	83.88
475.063	94.88
475.282	87.88
475.501	81.88
475.72	75.88
475.939	73.88
476.158	75.88
476.377	87.88
476.596	80.88
476.814	86.88
477.033	85.88
477.252	82.88
477.471	88.88
477.69	81.88
477.908	83.88
478.127	97.88
478.346	78.88
478.564	71.88
478.783	80.88
479.002	87.88
479.22	87.88
479.439	87.88
479.658	87.88
479.876	78.88
480.095	78.88
480.313	81.88
480.532	86.88
480.751	75.88
480.969	80.88
481.188	86.88
481.406	86.88
481.624	88.88
481.843	95.88
482.061	90.88
482.28	91.88
482.498	90.88
482.717	89.88
482.935	72.88
483.153	92.88
483.372	81.88
483.59	77.88
483.808	79.88
484.027	80.88
484.245	93.88
484.463	88.88
484.681	89.88
484.9	91.88
485.118	88.88
485.336	81.88
485.554	77.88
485.772	83.88
485.99	76.88
486.209	107.88
486.427	79.88
486.645	84.88
486.863	87.88
487.081	77.88
487.299	88.88
487.517	79.88
487.735	63.88
487.953	73.88
488.171	83.88
488.389	84.88
488.607	92.88
488.825	79.88
489.043	91.88
489.261	99.88
489.479	83.88
489.696	91.88
489.914	67.88
490.132	75.88
490.35	91.88
490.568	94.88
490.786	103.88
491.003	90.88
491.221	81.88
491.439	79.88
491.657	109.88
491.874	76.88
492.092	90.88
492.31	105.88
492.527	89.88
492.745	95.88
492.963	102.88
493.18	92.88
493.398	70.88
493.615	96.88
493.833	87.88
494.05	92.88
494.268	75.88
494.485	77.88
494.703	81.88
494.92	92.88
495.138	78.88
495.355	86.88
495.573	91.88
495.79	80.88
496.008	87.88
496.225	109.88
496.442	91.88
496.66	102.88
496.877	99.88
497.094	91.88
497.312	71.88
497.529	88.88
497.746	87.88
497.963	90.88
498.181	95.88
498.398	91.88
498.615	99.88
498.832	93.88
499.049	93.88
499.267	81.88
499.484	73.88
499.701	88.88
499.918	85.88
500.135	81.88
500.352	85.88
500.569	78.88
500.786	84.88
501.003	88.88
501.22	83.88
501.437	97.88
501.654	87.88
501.871	85.88
502.088	84.88
502.305	88.88
502.522	84.88
502.739	93.88
502.956	93.88
503.172	75.88
503.389	75.88
503.606	86.88
503.823	79.88
504.04	90.88
504.256	80.88
504.473	93.88
504.69	99.88
504.907	88.88
505.123	83.88
505.34	88.88
505.557	98.88
505.773	88.88
505.99	96.88
506.207	83.88
506.423	85.88
506.64	84.88
506.856	69.88
507.073	80.88
507.289	91.88
507.506	86.88
507.722	80.88
507.939	95.88
508.155	86.88
508.372	89.88
508.588	101.88
508.805	78.88
509.021	90.88
509.238	84.88
509.454	73.88
509.67	85.88
509.887	101.88
510.103	83.88
510.319	86.88
510.536	75.88
510.752	80.88
510.968	78.88
511.184	83.88
511.401	92.88
511.617	78.88
511.833	88.88
512.049	81.88
512.265	80.88
512.481	91.88
512.698	75.88
512.914	96.88
513.13	102.88
513.346	85.88
513.562	93.88
513.778	80.88
513.994	98.88
514.21	82.88
514.426	81.88
514.642	83.88
514.858	73.88
515.074	89.88
515.29	83.88
515.506	79.88
515.721	81.88
515.937	78.88
516.153	88.88
516.369	79.88
516.585	86.88
516.801	87.88
517.016	78.88
517.232	83.88
517.448	88.88
517.664	83.88
517.879	78.88
518.095	69.88
518.311	90.88
518.527	86.88
518.742	70.88
518.958	79.88
519.173	84.88
519.389	84.88
519.605	74.88
519.82	86.88
520.036	65.88
