Data from KBr_2_HRD10591_00030.txt Node
Date: Mon Jan 19 13:13:05 EST 2026
User: Yrep
Spectrometer: HR+D1059
Trigger mode: 1
Integration Time (sec): 1.000000E-1
Scans to average: 1
Electric dark correction enabled: true
Nonlinearity correction enabled: false
Boxcar width: 0
XAxis mode: Wavelengths
Number of Pixels in Spectrum: 2048
>>>>>Begin Spectral Data<<<<<
223.165	-15.56
223.4	-15.56
223.635	-15.56
223.869	-20.56
224.104	-24.56
224.338	-17.56
224.573	-8.56
224.808	-5.56
225.042	-34.56
225.277	-15.56
225.511	12.44
225.746	2.44
225.98	11.44
226.215	13.44
226.449	24.44
226.683	22.44
226.918	19.44
227.152	36.44
227.387	36.44
227.621	45.44
227.856	41.44
228.09	50.44
228.324	52.44
228.559	55.44
228.793	63.44
229.027	70.44
229.262	77.44
229.496	71.44
229.73	60.44
229.964	52.44
230.199	71.44
230.433	87.44
230.667	79.44
230.901	78.44
231.136	96.44
231.37	68.44
231.604	74.44
231.838	79.44
232.072	81.44
232.306	73.44
232.541	78.44
232.775	82.44
233.009	78.44
233.243	70.44
233.477	75.44
233.711	90.44
233.945	68.44
234.179	76.44
234.413	87.44
234.647	87.44
234.881	97.44
235.115	73.44
235.349	81.44
235.583	95.44
235.817	85.44
236.051	78.44
236.285	80.44
236.519	82.44
236.753	73.44
236.987	79.44
237.221	75.44
237.455	83.44
237.689	93.44
237.922	76.44
238.156	77.44
238.39	69.44
238.624	73.44
238.858	84.44
239.091	81.44
239.325	71.44
239.559	81.44
239.793	65.44
240.027	82.44
240.26	69.44
240.494	74.44
240.728	80.44
240.961	79.44
241.195	92.44
241.429	82.44
241.662	92.44
241.896	79.44
242.13	76.44
242.363	68.44
242.597	64.44
242.83	82.44
243.064	69.44
243.298	90.44
243.531	90.44
243.765	96.44
243.998	73.44
244.232	88.44
244.465	70.44
244.699	73.44
244.932	79.44
245.166	81.44
245.399	83.44
245.633	94.44
245.866	70.44
246.099	74.44
246.333	91.44
246.566	77.44
246.8	68.44
247.033	82.44
247.266	91.44
247.5	86.44
247.733	75.44
247.966	68.44
248.2	84.44
248.433	93.44
248.666	83.44
248.899	84.44
249.133	82.44
249.366	88.44
249.599	87.44
249.832	90.44
250.066	80.44
250.299	79.44
250.532	82.44
250.765	66.44
250.998	67.44
251.231	77.44
251.465	88.44
251.698	78.44
251.931	73.44
252.164	83.44
252.397	85.44
252.63	99.44
252.863	89.44
253.096	104.44
253.329	82.44
253.562	69.44
253.795	92.44
254.028	89.44
254.261	92.44
254.494	87.44
254.727	84.44
254.96	98.44
255.193	74.44
255.426	67.44
255.659	99.44
255.892	74.44
256.124	88.44
256.357	69.44
256.59	70.44
256.823	82.44
257.056	84.44
257.289	75.44
257.521	86.44
257.754	71.44
257.987	67.44
258.22	81.44
258.452	71.44
258.685	79.44
258.918	80.44
259.151	81.44
259.383	80.44
259.616	63.44
259.849	82.44
260.081	89.44
260.314	87.44
260.547	76.44
260.779	82.44
261.012	101.44
261.244	87.44
261.477	79.44
261.71	79.44
261.942	80.44
262.175	89.44
262.407	75.44
262.64	87.44
262.872	76.44
263.105	89.44
263.337	78.44
263.57	81.44
263.802	83.44
264.035	88.44
264.267	85.44
264.499	77.44
264.732	72.44
264.964	88.44
265.197	88.44
265.429	78.44
265.661	73.44
265.894	90.44
266.126	75.44
266.358	87.44
266.591	89.44
266.823	94.44
267.055	75.44
267.287	93.44
267.52	81.44
267.752	73.44
267.984	85.44
268.216	74.44
268.448	83.44
268.681	85.44
268.913	89.44
269.145	79.44
269.377	88.44
269.609	87.44
269.841	93.44
270.073	77.44
270.306	91.44
270.538	84.44
270.77	94.44
271.002	82.44
271.234	99.44
271.466	89.44
271.698	71.44
271.93	92.44
272.162	92.44
272.394	83.44
272.626	88.44
272.858	89.44
273.09	103.44
273.322	91.44
273.553	88.44
273.785	88.44
274.017	70.44
274.249	71.44
274.481	83.44
274.713	83.44
274.945	89.44
275.176	85.44
275.408	95.44
275.64	76.44
275.872	78.44
276.104	96.44
276.335	75.44
276.567	80.44
276.799	71.44
277.031	77.44
277.262	104.44
277.494	91.44
277.726	87.44
277.957	93.44
278.189	82.44
278.421	96.44
278.652	76.44
278.884	81.44
279.115	86.44
279.347	83.44
279.579	101.44
279.81	85.44
280.042	96.44
280.273	82.44
280.505	87.44
280.736	89.44
280.968	91.44
281.199	109.44
281.431	87.44
281.662	89.44
281.894	95.44
282.125	85.44
282.356	77.44
282.588	87.44
282.819	84.44
283.051	75.44
283.282	100.44
283.513	93.44
283.745	93.44
283.976	90.44
284.207	93.44
284.439	66.44
284.67	88.44
284.901	73.44
285.132	84.44
285.364	90.44
285.595	87.44
285.826	79.44
286.057	89.44
286.288	69.44
286.52	81.44
286.751	96.44
286.982	85.44
287.213	84.44
287.444	96.44
287.675	103.44
287.906	75.44
288.138	91.44
288.369	91.44
288.6	82.44
288.831	76.44
289.062	76.44
289.293	93.44
289.524	98.44
289.755	100.44
289.986	76.44
290.217	91.44
290.448	93.44
290.679	93.44
290.91	96.44
291.141	77.44
291.371	91.44
291.602	97.44
291.833	98.44
292.064	96.44
292.295	94.44
292.526	97.44
292.757	97.44
292.987	84.44
293.218	95.44
293.449	85.44
293.68	89.44
293.91	88.44
294.141	92.44
294.372	84.44
294.603	88.44
294.833	106.44
295.064	75.44
295.295	75.44
295.525	99.44
295.756	95.44
295.987	97.44
296.217	85.44
296.448	86.44
296.679	95.44
296.909	80.44
297.14	88.44
297.37	93.44
297.601	78.44
297.831	78.44
298.062	97.44
298.292	88.44
298.523	81.44
298.753	98.44
298.984	74.44
299.214	83.44
299.445	86.44
299.675	84.44
299.905	91.44
300.136	92.44
300.366	88.44
300.597	71.44
300.827	88.44
301.057	75.44
301.288	81.44
301.518	90.44
301.748	84.44
301.979	118.44
302.209	87.44
302.439	87.44
302.669	89.44
302.9	96.44
303.13	76.44
303.36	95.44
303.59	73.44
303.82	89.44
304.051	87.44
304.281	82.44
304.511	77.44
304.741	92.44
304.971	81.44
305.201	80.44
305.431	87.44
305.661	79.44
305.891	85.44
306.121	91.44
306.352	91.44
306.582	88.44
306.812	79.44
307.042	96.44
307.272	95.44
307.502	72.44
307.731	85.44
307.961	75.44
308.191	83.44
308.421	91.44
308.651	90.44
308.881	89.44
309.111	81.44
309.341	88.44
309.571	88.44
309.8	88.44
310.03	77.44
310.26	90.44
310.49	88.44
310.72	79.44
310.949	85.44
311.179	95.44
311.409	69.44
311.639	88.44
311.868	95.44
312.098	87.44
312.328	94.44
312.557	77.44
312.787	91.44
313.017	91.44
313.246	78.44
313.476	84.44
313.706	84.44
313.935	90.44
314.165	98.44
314.394	94.44
314.624	93.44
314.853	98.44
315.083	97.44
315.312	82.44
315.542	90.44
315.771	91.44
316.001	83.44
316.23	80.44
316.46	83.44
316.689	77.44
316.919	92.44
317.148	92.44
317.377	97.44
317.607	86.44
317.836	99.44
318.065	79.44
318.295	91.44
318.524	92.44
318.753	77.44
318.983	79.44
319.212	91.44
319.441	85.44
319.67	90.44
319.9	89.44
320.129	79.44
320.358	88.44
320.587	90.44
320.816	82.44
321.046	94.44
321.275	96.44
321.504	85.44
321.733	74.44
321.962	88.44
322.191	95.44
322.42	84.44
322.649	95.44
322.878	92.44
323.108	98.44
323.337	91.44
323.566	87.44
323.795	81.44
324.024	82.44
324.253	93.44
324.482	84.44
324.71	87.44
324.939	91.44
325.168	97.44
325.397	94.44
325.626	83.44
325.855	67.44
326.084	102.44
326.313	85.44
326.542	87.44
326.77	91.44
326.999	81.44
327.228	90.44
327.457	91.44
327.686	92.44
327.914	83.44
328.143	79.44
328.372	89.44
328.6	83.44
328.829	95.44
329.058	90.44
329.287	87.44
329.515	91.44
329.744	83.44
329.972	88.44
330.201	112.44
330.43	108.44
330.658	106.44
330.887	93.44
331.115	76.44
331.344	83.44
331.572	87.44
331.801	89.44
332.03	91.44
332.258	76.44
332.486	88.44
332.715	96.44
332.943	100.44
333.172	89.44
333.4	89.44
333.629	87.44
333.857	89.44
334.085	83.44
334.314	98.44
334.542	89.44
334.771	101.44
334.999	93.44
335.227	67.44
335.455	87.44
335.684	87.44
335.912	99.44
336.14	110.44
336.369	89.44
336.597	92.44
336.825	90.44
337.053	87.44
337.281	95.44
337.51	71.44
337.738	96.44
337.966	71.44
338.194	81.44
338.422	105.44
338.65	76.44
338.878	92.44
339.106	86.44
339.334	90.44
339.562	88.44
339.79	89.44
340.018	86.44
340.246	81.44
340.474	83.44
340.702	94.44
340.93	83.44
341.158	92.44
341.386	89.44
341.614	83.44
341.842	86.44
342.07	100.44
342.298	85.44
342.526	79.44
342.754	93.44
342.981	85.44
343.209	83.44
343.437	104.44
343.665	85.44
343.893	91.44
344.12	100.44
344.348	91.44
344.576	105.44
344.804	88.44
345.031	86.44
345.259	93.44
345.487	76.44
345.714	83.44
345.942	90.44
346.17	75.44
346.397	76.44
346.625	98.44
346.853	92.44
347.08	91.44
347.308	87.44
347.535	81.44
347.763	90.44
347.99	91.44
348.218	80.44
348.445	91.44
348.673	81.44
348.9	85.44
349.128	87.44
349.355	82.44
349.583	75.44
349.81	93.44
350.037	109.44
350.265	78.44
350.492	82.44
350.72	91.44
350.947	73.44
351.174	90.44
351.402	96.44
351.629	89.44
351.856	79.44
352.083	96.44
352.311	84.44
352.538	95.44
352.765	92.44
352.992	81.44
353.22	94.44
353.447	107.44
353.674	107.44
353.901	86.44
354.128	90.44
354.355	80.44
354.583	94.44
354.81	105.44
355.037	77.44
355.264	86.44
355.491	88.44
355.718	82.44
355.945	79.44
356.172	102.44
356.399	89.44
356.626	92.44
356.853	93.44
357.08	84.44
357.307	84.44
357.534	89.44
357.761	95.44
357.988	91.44
358.215	82.44
358.441	92.44
358.668	93.44
358.895	69.44
359.122	85.44
359.349	84.44
359.576	95.44
359.802	101.44
360.029	102.44
360.256	83.44
360.483	81.44
360.709	69.44
360.936	94.44
361.163	95.44
361.39	85.44
361.616	83.44
361.843	94.44
362.07	103.44
362.296	85.44
362.523	88.44
362.749	85.44
362.976	91.44
363.203	97.44
363.429	87.44
363.656	94.44
363.882	83.44
364.109	101.44
364.335	95.44
364.562	84.44
364.788	84.44
365.015	84.44
365.241	89.44
365.468	100.44
365.694	72.44
365.92	99.44
366.147	93.44
366.373	82.44
366.599	88.44
366.826	79.44
367.052	84.44
367.278	90.44
367.505	88.44
367.731	87.44
367.957	89.44
368.184	83.44
368.41	88.44
368.636	100.44
368.862	86.44
369.089	79.44
369.315	88.44
369.541	88.44
369.767	81.44
369.993	91.44
370.219	89.44
370.445	92.44
370.672	94.44
370.898	77.44
371.124	84.44
371.35	86.44
371.576	84.44
371.802	92.44
372.028	92.44
372.254	83.44
372.48	96.44
372.706	66.44
372.932	75.44
373.158	80.44
373.384	90.44
373.61	74.44
373.835	92.44
374.061	103.44
374.287	90.44
374.513	86.44
374.739	101.44
374.965	86.44
375.191	81.44
375.416	93.44
375.642	97.44
375.868	94.44
376.094	71.44
376.319	79.44
376.545	75.44
376.771	100.44
376.997	85.44
377.222	96.44
377.448	92.44
377.674	82.44
377.899	80.44
378.125	81.44
378.35	82.44
378.576	88.44
378.802	96.44
379.027	87.44
379.253	85.44
379.478	89.44
379.704	94.44
379.929	99.44
380.155	97.44
380.38	88.44
380.606	99.44
380.831	93.44
381.057	89.44
381.282	92.44
381.507	87.44
381.733	96.44
381.958	80.44
382.184	92.44
382.409	82.44
382.634	86.44
382.86	98.44
383.085	100.44
383.31	89.44
383.535	82.44
383.761	91.44
383.986	86.44
384.211	83.44
384.436	91.44
384.662	72.44
384.887	81.44
385.112	72.44
385.337	90.44
385.562	82.44
385.787	80.44
386.013	101.44
386.238	96.44
386.463	86.44
386.688	90.44
386.913	89.44
387.138	96.44
387.363	93.44
387.588	93.44
387.813	85.44
388.038	86.44
388.263	95.44
388.488	85.44
388.713	83.44
388.938	92.44
389.163	89.44
389.387	78.44
389.612	79.44
389.837	79.44
390.062	83.44
390.287	88.44
390.512	87.44
390.736	94.44
390.961	84.44
391.186	84.44
391.411	71.44
391.636	99.44
391.86	78.44
392.085	89.44
392.31	105.44
392.534	89.44
392.759	89.44
392.984	96.44
393.208	97.44
393.433	81.44
393.658	69.44
393.882	91.44
394.107	82.44
394.331	94.44
394.556	98.44
394.78	92.44
395.005	85.44
395.229	93.44
395.454	96.44
395.678	102.44
395.903	108.44
396.127	91.44
396.352	95.44
396.576	89.44
396.801	83.44
397.025	90.44
397.249	73.44
397.474	93.44
397.698	84.44
397.922	95.44
398.147	87.44
398.371	96.44
398.595	110.44
398.82	99.44
399.044	98.44
399.268	90.44
399.492	76.44
399.717	91.44
399.941	103.44
400.165	91.44
400.389	85.44
400.613	81.44
400.837	78.44
401.062	88.44
401.286	97.44
401.51	87.44
401.734	83.44
401.958	85.44
402.182	93.44
402.406	77.44
402.63	77.44
402.854	93.44
403.078	87.44
403.302	82.44
403.526	96.44
403.75	97.44
403.974	108.44
404.198	159.44
404.422	209.44
404.645	259.44
404.869	218.44
405.093	153.44
405.317	93.44
405.541	96.44
405.765	97.44
405.988	104.44
406.212	97.44
406.436	83.44
406.66	98.44
406.883	90.44
407.107	90.44
407.331	88.44
407.555	79.44
407.778	84.44
408.002	96.44
408.226	73.44
408.449	76.44
408.673	102.44
408.896	75.44
409.12	96.44
409.344	89.44
409.567	81.44
409.791	73.44
410.014	88.44
410.238	91.44
410.461	89.44
410.685	83.44
410.908	91.44
411.132	89.44
411.355	78.44
411.578	92.44
411.802	83.44
412.025	76.44
412.249	93.44
412.472	95.44
412.695	87.44
412.919	91.44
413.142	88.44
413.365	94.44
413.589	85.44
413.812	90.44
414.035	97.44
414.258	88.44
414.482	72.44
414.705	78.44
414.928	86.44
415.151	77.44
415.374	99.44
415.597	96.44
415.821	90.44
416.044	94.44
416.267	87.44
416.49	84.44
416.713	85.44
416.936	83.44
417.159	92.44
417.382	93.44
417.605	91.44
417.828	73.44
418.051	92.44
418.274	100.44
418.497	84.44
418.72	102.44
418.943	89.44
419.166	89.44
419.389	86.44
419.611	106.44
419.834	85.44
420.057	95.44
420.28	88.44
420.503	83.44
420.726	95.44
420.948	96.44
421.171	92.44
421.394	95.44
421.617	90.44
421.839	96.44
422.062	77.44
422.285	88.44
422.507	84.44
422.73	109.44
422.953	115.44
423.175	96.44
423.398	88.44
423.621	95.44
423.843	98.44
424.066	84.44
424.288	87.44
424.511	92.44
424.733	83.44
424.956	92.44
425.178	92.44
425.401	89.44
425.623	73.44
425.846	81.44
426.068	97.44
426.291	77.44
426.513	87.44
426.735	93.44
426.958	92.44
427.18	107.44
427.402	94.44
427.625	85.44
427.847	93.44
428.069	105.44
428.292	103.44
428.514	87.44
428.736	81.44
428.958	90.44
429.181	92.44
429.403	90.44
429.625	98.44
429.847	77.44
430.069	85.44
430.292	84.44
430.514	84.44
430.736	93.44
430.958	91.44
431.18	77.44
431.402	84.44
431.624	94.44
431.846	87.44
432.068	92.44
432.29	84.44
432.512	87.44
432.734	95.44
432.956	100.44
433.178	95.44
433.4	92.44
433.622	93.44
433.844	86.44
434.066	93.44
434.287	90.44
434.509	73.44
434.731	81.44
434.953	76.44
435.175	71.44
435.397	86.44
435.618	75.44
435.84	87.44
436.062	90.44
436.284	90.44
436.505	83.44
436.727	80.44
436.949	93.44
437.17	85.44
437.392	88.44
437.614	94.44
437.835	84.44
438.057	84.44
438.278	82.44
438.5	91.44
438.721	91.44
438.943	92.44
439.165	88.44
439.386	80.44
439.608	84.44
439.829	94.44
440.05	91.44
440.272	94.44
440.493	97.44
440.715	92.44
440.936	76.44
441.158	75.44
441.379	95.44
441.6	85.44
441.822	76.44
442.043	77.44
442.264	75.44
442.486	81.44
442.707	80.44
442.928	92.44
443.149	90.44
443.371	89.44
443.592	84.44
443.813	93.44
444.034	80.44
444.255	82.44
444.476	82.44
444.698	90.44
444.919	85.44
445.14	164.44
445.361	127.44
445.582	95.44
445.803	75.44
446.024	89.44
446.245	69.44
446.466	94.44
446.687	74.44
446.908	83.44
447.129	83.44
447.35	86.44
447.571	80.44
447.792	86.44
448.013	95.44
448.234	100.44
448.455	90.44
448.675	80.44
448.896	87.44
449.117	83.44
449.338	92.44
449.559	81.44
449.779	89.44
450	97.44
450.221	83.44
450.442	91.44
450.662	86.44
450.883	88.44
451.104	81.44
451.324	82.44
451.545	89.44
451.766	91.44
451.986	92.44
452.207	93.44
452.428	82.44
452.648	98.44
452.869	92.44
453.089	94.44
453.31	89.44
453.53	91.44
453.751	78.44
453.971	89.44
454.192	93.44
454.412	85.44
454.633	87.44
454.853	94.44
455.073	98.44
455.294	85.44
455.514	91.44
455.734	104.44
455.955	100.44
456.175	90.44
456.395	85.44
456.616	95.44
456.836	91.44
457.056	85.44
457.276	85.44
457.497	84.44
457.717	89.44
457.937	89.44
458.157	87.44
458.377	93.44
458.598	78.44
458.818	88.44
459.038	87.44
459.258	97.44
459.478	95.44
459.698	83.44
459.918	97.44
460.138	80.44
460.358	75.44
460.578	88.44
460.798	100.44
461.018	95.44
461.238	99.44
461.458	82.44
461.678	85.44
461.898	97.44
462.118	90.44
462.338	90.44
462.558	96.44
462.777	91.44
462.997	85.44
463.217	87.44
463.437	95.44
463.657	89.44
463.876	99.44
464.096	87.44
464.316	88.44
464.536	95.44
464.755	80.44
464.975	91.44
465.195	84.44
465.414	95.44
465.634	86.44
465.854	81.44
466.073	86.44
466.293	99.44
466.512	90.44
466.732	94.44
466.951	87.44
467.171	83.44
467.391	84.44
467.61	99.44
467.829	100.44
468.049	98.44
468.268	81.44
468.488	89.44
468.707	94.44
468.927	89.44
469.146	96.44
469.365	77.44
469.585	80.44
469.804	104.44
470.023	83.44
470.243	83.44
470.462	94.44
470.681	92.44
470.901	98.44
471.12	85.44
471.339	81.44
471.558	87.44
471.777	86.44
471.997	86.44
472.216	100.44
472.435	93.44
472.654	91.44
472.873	92.44
473.092	99.44
473.311	89.44
473.53	80.44
473.749	85.44
473.968	88.44
474.187	100.44
474.406	93.44
474.625	92.44
474.844	95.44
475.063	96.44
475.282	91.44
475.501	85.44
475.72	102.44
475.939	92.44
476.158	77.44
476.377	81.44
476.596	76.44
476.814	105.44
477.033	93.44
477.252	86.44
477.471	95.44
477.69	93.44
477.908	93.44
478.127	90.44
478.346	85.44
478.564	90.44
478.783	70.44
479.002	93.44
479.22	89.44
479.439	95.44
479.658	84.44
479.876	92.44
480.095	92.44
480.313	99.44
480.532	86.44
480.751	91.44
480.969	79.44
481.188	81.44
481.406	89.44
481.624	95.44
481.843	85.44
482.061	89.44
482.28	101.44
482.498	78.44
482.717	89.44
482.935	89.44
483.153	72.44
483.372	110.44
483.59	95.44
483.808	83.44
484.027	96.44
484.245	98.44
484.463	94.44
484.681	107.44
484.9	101.44
485.118	103.44
485.336	90.44
485.554	93.44
485.772	88.44
485.99	89.44
486.209	95.44
486.427	85.44
486.645	97.44
486.863	101.44
487.081	87.44
487.299	85.44
487.517	83.44
487.735	105.44
487.953	92.44
488.171	100.44
488.389	107.44
488.607	87.44
488.825	105.44
489.043	105.44
489.261	76.44
489.479	91.44
489.696	74.44
489.914	97.44
490.132	89.44
490.35	101.44
490.568	91.44
490.786	94.44
491.003	99.44
491.221	86.44
491.439	96.44
491.657	100.44
491.874	93.44
492.092	106.44
492.31	91.44
492.527	87.44
492.745	97.44
492.963	93.44
493.18	95.44
493.398	82.44
493.615	97.44
493.833	90.44
494.05	101.44
494.268	95.44
494.485	83.44
494.703	85.44
494.92	94.44
495.138	98.44
495.355	111.44
495.573	82.44
495.79	79.44
496.008	97.44
496.225	99.44
496.442	99.44
496.66	96.44
496.877	95.44
497.094	109.44
497.312	81.44
497.529	87.44
497.746	95.44
497.963	103.44
498.181	93.44
498.398	99.44
498.615	93.44
498.832	74.44
499.049	89.44
499.267	88.44
499.484	93.44
499.701	108.44
499.918	93.44
500.135	97.44
500.352	95.44
500.569	96.44
500.786	105.44
501.003	101.44
501.22	91.44
501.437	81.44
501.654	89.44
501.871	86.44
502.088	88.44
502.305	106.44
502.522	96.44
502.739	95.44
502.956	74.44
503.172	84.44
503.389	88.44
503.606	80.44
503.823	97.44
504.04	103.44
504.256	83.44
504.473	96.44
504.69	99.44
504.907	96.44
505.123	88.44
505.34	100.44
505.557	85.44
505.773	86.44
505.99	88.44
506.207	99.44
506.423	106.44
506.64	94.44
506.856	91.44
507.073	84.44
507.289	96.44
507.506	97.44
507.722	80.44
507.939	80.44
508.155	87.44
508.372	86.44
508.588	98.44
508.805	101.44
509.021	93.44
509.238	87.44
509.454	100.44
509.67	73.44
509.887	92.44
510.103	99.44
510.319	106.44
510.536	93.44
510.752	103.44
510.968	103.44
511.184	97.44
511.401	94.44
511.617	104.44
511.833	111.44
512.049	98.44
512.265	91.44
512.481	90.44
512.698	101.44
512.914	88.44
513.13	93.44
513.346	96.44
513.562	90.44
513.778	87.44
513.994	87.44
514.21	84.44
514.426	76.44
514.642	95.44
514.858	83.44
515.074	87.44
515.29	81.44
515.506	75.44
515.721	79.44
515.937	100.44
516.153	90.44
516.369	85.44
516.585	80.44
516.801	81.44
517.016	82.44
517.232	86.44
517.448	98.44
517.664	101.44
517.879	79.44
518.095	87.44
518.311	91.44
518.527	72.44
518.742	99.44
