Data from KBr_2_HRD10591_00036.txt Node
Date: Mon Jan 19 13:13:08 EST 2026
User: Yrep
Spectrometer: HR+D1059
Trigger mode: 1
Integration Time (sec): 1.000000E-1
Scans to average: 1
Electric dark correction enabled: true
Nonlinearity correction enabled: false
Boxcar width: 0
XAxis mode: Wavelengths
Number of Pixels in Spectrum: 2048
>>>>>Begin Spectral Data<<<<<
223.165	-18.69
223.4	-18.69
223.635	-18.69
223.869	-32.69
224.104	-12.69
224.338	-9.69
224.573	-23.69
224.808	-21.69
225.042	-4.69
225.277	-8.69
225.511	5.31
225.746	0.31
225.98	6.31
226.215	24.31
226.449	16.31
226.683	20.31
226.918	22.31
227.152	37.31
227.387	40.31
227.621	45.31
227.856	34.31
228.09	44.31
228.324	53.31
228.559	44.31
228.793	62.31
229.027	57.31
229.262	72.31
229.496	50.31
229.73	58.31
229.964	75.31
230.199	65.31
230.433	79.31
230.667	65.31
230.901	81.31
231.136	71.31
231.37	83.31
231.604	73.31
231.838	81.31
232.072	75.31
232.306	87.31
232.541	75.31
232.775	85.31
233.009	63.31
233.243	72.31
233.477	66.31
233.711	95.31
233.945	99.31
234.179	84.31
234.413	72.31
234.647	78.31
234.881	84.31
235.115	74.31
235.349	79.31
235.583	75.31
235.817	75.31
236.051	77.31
236.285	78.31
236.519	75.31
236.753	84.31
236.987	69.31
237.221	78.31
237.455	73.31
237.689	72.31
237.922	82.31
238.156	91.31
238.39	66.31
238.624	78.31
238.858	67.31
239.091	78.31
239.325	82.31
239.559	73.31
239.793	68.31
240.027	67.31
240.26	88.31
240.494	86.31
240.728	77.31
240.961	77.31
241.195	80.31
241.429	77.31
241.662	92.31
241.896	80.31
242.13	81.31
242.363	65.31
242.597	77.31
242.83	82.31
243.064	77.31
243.298	76.31
243.531	68.31
243.765	69.31
243.998	84.31
244.232	80.31
244.465	82.31
244.699	76.31
244.932	72.31
245.166	74.31
245.399	83.31
245.633	76.31
245.866	80.31
246.099	67.31
246.333	69.31
246.566	79.31
246.8	78.31
247.033	70.31
247.266	75.31
247.5	78.31
247.733	80.31
247.966	69.31
248.2	74.31
248.433	80.31
248.666	79.31
248.899	69.31
249.133	89.31
249.366	92.31
249.599	86.31
249.832	86.31
250.066	82.31
250.299	71.31
250.532	87.31
250.765	88.31
250.998	76.31
251.231	64.31
251.465	93.31
251.698	78.31
251.931	77.31
252.164	77.31
252.397	79.31
252.63	80.31
252.863	83.31
253.096	87.31
253.329	85.31
253.562	74.31
253.795	82.31
254.028	90.31
254.261	72.31
254.494	80.31
254.727	94.31
254.96	68.31
255.193	68.31
255.426	70.31
255.659	70.31
255.892	91.31
256.124	86.31
256.357	76.31
256.59	80.31
256.823	62.31
257.056	92.31
257.289	82.31
257.521	80.31
257.754	85.31
257.987	80.31
258.22	78.31
258.452	77.31
258.685	90.31
258.918	76.31
259.151	74.31
259.383	77.31
259.616	76.31
259.849	82.31
260.081	74.31
260.314	71.31
260.547	70.31
260.779	70.31
261.012	72.31
261.244	80.31
261.477	85.31
261.71	84.31
261.942	84.31
262.175	70.31
262.407	70.31
262.64	75.31
262.872	76.31
263.105	80.31
263.337	86.31
263.57	82.31
263.802	75.31
264.035	77.31
264.267	85.31
264.499	74.31
264.732	83.31
264.964	63.31
265.197	75.31
265.429	88.31
265.661	79.31
265.894	70.31
266.126	95.31
266.358	86.31
266.591	87.31
266.823	85.31
267.055	91.31
267.287	87.31
267.52	69.31
267.752	83.31
267.984	72.31
268.216	71.31
268.448	83.31
268.681	74.31
268.913	77.31
269.145	70.31
269.377	75.31
269.609	86.31
269.841	86.31
270.073	78.31
270.306	88.31
270.538	79.31
270.77	65.31
271.002	79.31
271.234	92.31
271.466	91.31
271.698	82.31
271.93	82.31
272.162	78.31
272.394	79.31
272.626	77.31
272.858	84.31
273.09	91.31
273.322	94.31
273.553	75.31
273.785	81.31
274.017	73.31
274.249	67.31
274.481	85.31
274.713	81.31
274.945	86.31
275.176	80.31
275.408	68.31
275.64	80.31
275.872	75.31
276.104	76.31
276.335	83.31
276.567	100.31
276.799	84.31
277.031	75.31
277.262	81.31
277.494	91.31
277.726	77.31
277.957	80.31
278.189	90.31
278.421	82.31
278.652	94.31
278.884	77.31
279.115	87.31
279.347	90.31
279.579	85.31
279.81	90.31
280.042	81.31
280.273	89.31
280.505	67.31
280.736	82.31
280.968	88.31
281.199	86.31
281.431	75.31
281.662	72.31
281.894	65.31
282.125	84.31
282.356	82.31
282.588	90.31
282.819	79.31
283.051	83.31
283.282	94.31
283.513	78.31
283.745	86.31
283.976	69.31
284.207	86.31
284.439	88.31
284.67	86.31
284.901	94.31
285.132	83.31
285.364	82.31
285.595	73.31
285.826	76.31
286.057	79.31
286.288	93.31
286.52	81.31
286.751	78.31
286.982	96.31
287.213	93.31
287.444	85.31
287.675	92.31
287.906	77.31
288.138	98.31
288.369	83.31
288.6	73.31
288.831	81.31
289.062	90.31
289.293	90.31
289.524	76.31
289.755	87.31
289.986	80.31
290.217	80.31
290.448	79.31
290.679	89.31
290.91	100.31
291.141	91.31
291.371	83.31
291.602	78.31
291.833	77.31
292.064	89.31
292.295	87.31
292.526	88.31
292.757	90.31
292.987	81.31
293.218	86.31
293.449	90.31
293.68	84.31
293.91	84.31
294.141	79.31
294.372	86.31
294.603	70.31
294.833	75.31
295.064	95.31
295.295	87.31
295.525	83.31
295.756	86.31
295.987	71.31
296.217	84.31
296.448	83.31
296.679	86.31
296.909	77.31
297.14	96.31
297.37	88.31
297.601	83.31
297.831	85.31
298.062	92.31
298.292	83.31
298.523	77.31
298.753	87.31
298.984	87.31
299.214	75.31
299.445	83.31
299.675	86.31
299.905	85.31
300.136	93.31
300.366	90.31
300.597	80.31
300.827	75.31
301.057	72.31
301.288	70.31
301.518	71.31
301.748	79.31
301.979	91.31
302.209	89.31
302.439	78.31
302.669	84.31
302.9	86.31
303.13	87.31
303.36	89.31
303.59	83.31
303.82	82.31
304.051	79.31
304.281	94.31
304.511	88.31
304.741	89.31
304.971	80.31
305.201	83.31
305.431	93.31
305.661	87.31
305.891	80.31
306.121	78.31
306.352	75.31
306.582	75.31
306.812	82.31
307.042	74.31
307.272	76.31
307.502	91.31
307.731	83.31
307.961	82.31
308.191	76.31
308.421	84.31
308.651	89.31
308.881	87.31
309.111	94.31
309.341	76.31
309.571	101.31
309.8	82.31
310.03	79.31
310.26	91.31
310.49	82.31
310.72	91.31
310.949	80.31
311.179	78.31
311.409	81.31
311.639	85.31
311.868	87.31
312.098	82.31
312.328	82.31
312.557	86.31
312.787	84.31
313.017	82.31
313.246	82.31
313.476	92.31
313.706	78.31
313.935	87.31
314.165	90.31
314.394	89.31
314.624	79.31
314.853	94.31
315.083	76.31
315.312	78.31
315.542	83.31
315.771	80.31
316.001	81.31
316.23	86.31
316.46	87.31
316.689	76.31
316.919	76.31
317.148	69.31
317.377	87.31
317.607	98.31
317.836	72.31
318.065	98.31
318.295	94.31
318.524	102.31
318.753	79.31
318.983	78.31
319.212	78.31
319.441	72.31
319.67	86.31
319.9	93.31
320.129	84.31
320.358	75.31
320.587	92.31
320.816	72.31
321.046	92.31
321.275	90.31
321.504	90.31
321.733	86.31
321.962	87.31
322.191	89.31
322.42	90.31
322.649	89.31
322.878	85.31
323.108	93.31
323.337	82.31
323.566	87.31
323.795	85.31
324.024	95.31
324.253	83.31
324.482	86.31
324.71	73.31
324.939	89.31
325.168	79.31
325.397	102.31
325.626	78.31
325.855	79.31
326.084	94.31
326.313	92.31
326.542	86.31
326.77	81.31
326.999	88.31
327.228	90.31
327.457	74.31
327.686	92.31
327.914	82.31
328.143	81.31
328.372	72.31
328.6	76.31
328.829	80.31
329.058	84.31
329.287	86.31
329.515	84.31
329.744	84.31
329.972	90.31
330.201	84.31
330.43	84.31
330.658	96.31
330.887	83.31
331.115	94.31
331.344	82.31
331.572	90.31
331.801	97.31
332.03	82.31
332.258	88.31
332.486	84.31
332.715	83.31
332.943	88.31
333.172	78.31
333.4	74.31
333.629	82.31
333.857	91.31
334.085	92.31
334.314	77.31
334.542	84.31
334.771	79.31
334.999	78.31
335.227	75.31
335.455	79.31
335.684	88.31
335.912	79.31
336.14	85.31
336.369	86.31
336.597	85.31
336.825	96.31
337.053	84.31
337.281	80.31
337.51	72.31
337.738	90.31
337.966	80.31
338.194	96.31
338.422	69.31
338.65	87.31
338.878	91.31
339.106	95.31
339.334	90.31
339.562	69.31
339.79	95.31
340.018	77.31
340.246	84.31
340.474	87.31
340.702	100.31
340.93	93.31
341.158	79.31
341.386	91.31
341.614	71.31
341.842	88.31
342.07	90.31
342.298	80.31
342.526	80.31
342.754	93.31
342.981	96.31
343.209	77.31
343.437	90.31
343.665	92.31
343.893	86.31
344.12	92.31
344.348	91.31
344.576	99.31
344.804	95.31
345.031	83.31
345.259	72.31
345.487	79.31
345.714	82.31
345.942	71.31
346.17	91.31
346.397	75.31
346.625	76.31
346.853	86.31
347.08	91.31
347.308	78.31
347.535	90.31
347.763	90.31
347.99	89.31
348.218	92.31
348.445	79.31
348.673	76.31
348.9	76.31
349.128	81.31
349.355	84.31
349.583	75.31
349.81	86.31
350.037	101.31
350.265	85.31
350.492	76.31
350.72	88.31
350.947	100.31
351.174	85.31
351.402	84.31
351.629	84.31
351.856	90.31
352.083	76.31
352.311	85.31
352.538	84.31
352.765	75.31
352.992	85.31
353.22	85.31
353.447	78.31
353.674	96.31
353.901	74.31
354.128	84.31
354.355	80.31
354.583	91.31
354.81	84.31
355.037	92.31
355.264	88.31
355.491	95.31
355.718	85.31
355.945	86.31
356.172	71.31
356.399	85.31
356.626	86.31
356.853	83.31
357.08	90.31
357.307	84.31
357.534	89.31
357.761	93.31
357.988	86.31
358.215	81.31
358.441	78.31
358.668	86.31
358.895	78.31
359.122	76.31
359.349	78.31
359.576	98.31
359.802	80.31
360.029	89.31
360.256	86.31
360.483	78.31
360.709	92.31
360.936	92.31
361.163	91.31
361.39	77.31
361.616	86.31
361.843	75.31
362.07	78.31
362.296	87.31
362.523	90.31
362.749	86.31
362.976	83.31
363.203	81.31
363.429	85.31
363.656	79.31
363.882	87.31
364.109	78.31
364.335	70.31
364.562	79.31
364.788	84.31
365.015	79.31
365.241	87.31
365.468	86.31
365.694	81.31
365.92	90.31
366.147	79.31
366.373	85.31
366.599	78.31
366.826	74.31
367.052	96.31
367.278	93.31
367.505	84.31
367.731	92.31
367.957	87.31
368.184	76.31
368.41	77.31
368.636	82.31
368.862	76.31
369.089	73.31
369.315	93.31
369.541	82.31
369.767	75.31
369.993	94.31
370.219	82.31
370.445	86.31
370.672	78.31
370.898	76.31
371.124	79.31
371.35	70.31
371.576	72.31
371.802	80.31
372.028	80.31
372.254	87.31
372.48	76.31
372.706	92.31
372.932	94.31
373.158	85.31
373.384	100.31
373.61	88.31
373.835	86.31
374.061	77.31
374.287	89.31
374.513	79.31
374.739	91.31
374.965	90.31
375.191	89.31
375.416	72.31
375.642	84.31
375.868	84.31
376.094	102.31
376.319	77.31
376.545	82.31
376.771	76.31
376.997	80.31
377.222	83.31
377.448	83.31
377.674	78.31
377.899	84.31
378.125	90.31
378.35	83.31
378.576	82.31
378.802	76.31
379.027	77.31
379.253	101.31
379.478	78.31
379.704	86.31
379.929	96.31
380.155	71.31
380.38	77.31
380.606	79.31
380.831	78.31
381.057	88.31
381.282	74.31
381.507	86.31
381.733	82.31
381.958	68.31
382.184	95.31
382.409	98.31
382.634	81.31
382.86	87.31
383.085	90.31
383.31	86.31
383.535	85.31
383.761	77.31
383.986	76.31
384.211	80.31
384.436	76.31
384.662	83.31
384.887	86.31
385.112	87.31
385.337	94.31
385.562	90.31
385.787	82.31
386.013	92.31
386.238	92.31
386.463	77.31
386.688	109.31
386.913	90.31
387.138	78.31
387.363	89.31
387.588	90.31
387.813	77.31
388.038	86.31
388.263	89.31
388.488	80.31
388.713	74.31
388.938	88.31
389.163	89.31
389.387	87.31
389.612	72.31
389.837	78.31
390.062	78.31
390.287	78.31
390.512	80.31
390.736	86.31
390.961	82.31
391.186	83.31
391.411	90.31
391.636	85.31
391.86	86.31
392.085	80.31
392.31	72.31
392.534	59.31
392.759	104.31
392.984	87.31
393.208	86.31
393.433	74.31
393.658	74.31
393.882	93.31
394.107	91.31
394.331	85.31
394.556	74.31
394.78	85.31
395.005	82.31
395.229	70.31
395.454	84.31
395.678	78.31
395.903	82.31
396.127	97.31
396.352	90.31
396.576	69.31
396.801	82.31
397.025	88.31
397.249	78.31
397.474	84.31
397.698	75.31
397.922	79.31
398.147	98.31
398.371	82.31
398.595	82.31
398.82	93.31
399.044	80.31
399.268	82.31
399.492	59.31
399.717	72.31
399.941	86.31
400.165	84.31
400.389	80.31
400.613	61.31
400.837	78.31
401.062	80.31
401.286	85.31
401.51	82.31
401.734	81.31
401.958	76.31
402.182	72.31
402.406	90.31
402.63	92.31
402.854	87.31
403.078	94.31
403.302	77.31
403.526	89.31
403.75	91.31
403.974	84.31
404.198	132.31
404.422	193.31
404.645	218.31
404.869	173.31
405.093	127.31
405.317	102.31
405.541	93.31
405.765	86.31
405.988	73.31
406.212	77.31
406.436	84.31
406.66	85.31
406.883	82.31
407.107	88.31
407.331	100.31
407.555	80.31
407.778	73.31
408.002	76.31
408.226	77.31
408.449	74.31
408.673	86.31
408.896	81.31
409.12	83.31
409.344	102.31
409.567	84.31
409.791	92.31
410.014	88.31
410.238	84.31
410.461	90.31
410.685	92.31
410.908	91.31
411.132	88.31
411.355	95.31
411.578	92.31
411.802	65.31
412.025	73.31
412.249	77.31
412.472	85.31
412.695	80.31
412.919	83.31
413.142	87.31
413.365	85.31
413.589	104.31
413.812	93.31
414.035	85.31
414.258	98.31
414.482	92.31
414.705	79.31
414.928	94.31
415.151	62.31
415.374	67.31
415.597	93.31
415.821	103.31
416.044	92.31
416.267	93.31
416.49	84.31
416.713	66.31
416.936	77.31
417.159	87.31
417.382	88.31
417.605	81.31
417.828	94.31
418.051	68.31
418.274	94.31
418.497	82.31
418.72	83.31
418.943	81.31
419.166	95.31
419.389	86.31
419.611	76.31
419.834	75.31
420.057	85.31
420.28	87.31
420.503	79.31
420.726	76.31
420.948	94.31
421.171	78.31
421.394	80.31
421.617	77.31
421.839	85.31
422.062	86.31
422.285	78.31
422.507	80.31
422.73	76.31
422.953	82.31
423.175	83.31
423.398	79.31
423.621	79.31
423.843	85.31
424.066	83.31
424.288	89.31
424.511	75.31
424.733	70.31
424.956	79.31
425.178	93.31
425.401	89.31
425.623	84.31
425.846	89.31
426.068	75.31
426.291	87.31
426.513	81.31
426.735	80.31
426.958	79.31
427.18	95.31
427.402	83.31
427.625	90.31
427.847	106.31
428.069	96.31
428.292	86.31
428.514	86.31
428.736	60.31
428.958	87.31
429.181	89.31
429.403	78.31
429.625	80.31
429.847	71.31
430.069	74.31
430.292	86.31
430.514	70.31
430.736	81.31
430.958	94.31
431.18	79.31
431.402	83.31
431.624	71.31
431.846	67.31
432.068	87.31
432.29	88.31
432.512	87.31
432.734	73.31
432.956	64.31
433.178	87.31
433.4	75.31
433.622	85.31
433.844	83.31
434.066	91.31
434.287	88.31
434.509	80.31
434.731	90.31
434.953	89.31
435.175	94.31
435.397	73.31
435.618	97.31
435.84	86.31
436.062	93.31
436.284	91.31
436.505	84.31
436.727	61.31
436.949	88.31
437.17	89.31
437.392	75.31
437.614	85.31
437.835	87.31
438.057	89.31
438.278	71.31
438.5	83.31
438.721	82.31
438.943	84.31
439.165	87.31
439.386	86.31
439.608	98.31
439.829	78.31
440.05	88.31
440.272	79.31
440.493	83.31
440.715	84.31
440.936	80.31
441.158	87.31
441.379	94.31
441.6	84.31
441.822	72.31
442.043	84.31
442.264	82.31
442.486	88.31
442.707	69.31
442.928	81.31
443.149	91.31
443.371	81.31
443.592	81.31
443.813	76.31
444.034	84.31
444.255	80.31
444.476	82.31
444.698	86.31
444.919	76.31
445.14	149.31
445.361	110.31
445.582	85.31
445.803	93.31
446.024	85.31
446.245	86.31
446.466	77.31
446.687	76.31
446.908	95.31
447.129	93.31
447.35	82.31
447.571	94.31
447.792	85.31
448.013	87.31
448.234	79.31
448.455	76.31
448.675	85.31
448.896	83.31
449.117	80.31
449.338	84.31
449.559	74.31
449.779	86.31
450	76.31
450.221	89.31
450.442	92.31
450.662	88.31
450.883	87.31
451.104	91.31
451.324	76.31
451.545	101.31
451.766	98.31
451.986	100.31
452.207	89.31
452.428	87.31
452.648	88.31
452.869	75.31
453.089	85.31
453.31	98.31
453.53	78.31
453.751	80.31
453.971	80.31
454.192	71.31
454.412	82.31
454.633	75.31
454.853	80.31
455.073	79.31
455.294	86.31
455.514	84.31
455.734	88.31
455.955	99.31
456.175	78.31
456.395	90.31
456.616	90.31
456.836	86.31
457.056	77.31
457.276	88.31
457.497	79.31
457.717	84.31
457.937	72.31
458.157	74.31
458.377	82.31
458.598	86.31
458.818	83.31
459.038	86.31
459.258	61.31
459.478	79.31
459.698	84.31
459.918	79.31
460.138	86.31
460.358	80.31
460.578	79.31
460.798	75.31
461.018	83.31
461.238	91.31
461.458	86.31
461.678	79.31
461.898	99.31
462.118	91.31
462.338	80.31
462.558	84.31
462.777	85.31
462.997	82.31
463.217	83.31
463.437	82.31
463.657	66.31
463.876	85.31
464.096	86.31
464.316	83.31
464.536	78.31
464.755	81.31
464.975	87.31
465.195	93.31
465.414	91.31
465.634	87.31
465.854	84.31
466.073	82.31
466.293	88.31
466.512	87.31
466.732	93.31
466.951	73.31
467.171	89.31
467.391	97.31
467.61	79.31
467.829	91.31
468.049	78.31
468.268	91.31
468.488	58.31
468.707	98.31
468.927	77.31
469.146	82.31
469.365	83.31
469.585	77.31
469.804	82.31
470.023	82.31
470.243	79.31
470.462	92.31
470.681	80.31
470.901	82.31
471.12	94.31
471.339	90.31
471.558	82.31
471.777	80.31
471.997	98.31
472.216	82.31
472.435	77.31
472.654	76.31
472.873	88.31
473.092	65.31
473.311	78.31
473.53	83.31
473.749	87.31
473.968	95.31
474.187	93.31
474.406	82.31
474.625	81.31
474.844	88.31
475.063	72.31
475.282	80.31
475.501	76.31
475.72	86.31
475.939	78.31
476.158	81.31
476.377	84.31
476.596	79.31
476.814	78.31
477.033	80.31
477.252	74.31
477.471	79.31
477.69	74.31
477.908	92.31
478.127	87.31
478.346	95.31
478.564	88.31
478.783	94.31
479.002	86.31
479.22	92.31
479.439	93.31
479.658	82.31
479.876	79.31
480.095	80.31
480.313	98.31
480.532	81.31
480.751	86.31
480.969	89.31
481.188	98.31
481.406	88.31
481.624	66.31
481.843	78.31
482.061	77.31
482.28	86.31
482.498	84.31
482.717	82.31
482.935	83.31
483.153	94.31
483.372	90.31
483.59	98.31
483.808	103.31
484.027	94.31
484.245	82.31
484.463	79.31
484.681	89.31
484.9	79.31
485.118	78.31
485.336	86.31
485.554	79.31
485.772	90.31
485.99	83.31
486.209	90.31
486.427	90.31
486.645	87.31
486.863	104.31
487.081	104.31
487.299	80.31
487.517	77.31
487.735	81.31
487.953	78.31
488.171	89.31
488.389	80.31
488.607	87.31
488.825	95.31
489.043	103.31
489.261	86.31
489.479	78.31
489.696	93.31
489.914	103.31
490.132	85.31
490.35	77.31
490.568	87.31
490.786	75.31
491.003	83.31
491.221	95.31
491.439	82.31
491.657	107.31
491.874	96.31
492.092	88.31
492.31	93.31
492.527	88.31
492.745	83.31
492.963	101.31
493.18	96.31
493.398	105.31
493.615	92.31
493.833	91.31
494.05	87.31
494.268	96.31
494.485	93.31
494.703	99.31
494.92	93.31
495.138	85.31
495.355	83.31
495.573	90.31
495.79	98.31
496.008	85.31
496.225	86.31
496.442	90.31
496.66	87.31
496.877	76.31
497.094	94.31
497.312	102.31
497.529	86.31
497.746	95.31
497.963	77.31
498.181	86.31
498.398	88.31
498.615	76.31
498.832	84.31
499.049	90.31
499.267	80.31
499.484	86.31
499.701	101.31
499.918	101.31
500.135	79.31
500.352	80.31
500.569	80.31
500.786	88.31
501.003	83.31
501.22	91.31
501.437	98.31
501.654	100.31
501.871	86.31
502.088	86.31
502.305	80.31
502.522	88.31
502.739	91.31
502.956	74.31
503.172	82.31
503.389	69.31
503.606	93.31
503.823	78.31
504.04	83.31
504.256	80.31
504.473	80.31
504.69	84.31
504.907	73.31
505.123	84.31
505.34	87.31
505.557	79.31
505.773	95.31
505.99	82.31
506.207	103.31
506.423	86.31
506.64	92.31
506.856	95.31
507.073	68.31
507.289	95.31
507.506	87.31
507.722	82.31
507.939	111.31
508.155	98.31
508.372	95.31
508.588	77.31
508.805	90.31
509.021	93.31
509.238	90.31
509.454	77.31
509.67	95.31
509.887	92.31
510.103	83.31
510.319	95.31
510.536	85.31
510.752	87.31
510.968	86.31
511.184	93.31
511.401	86.31
511.617	102.31
511.833	94.31
512.049	104.31
512.265	95.31
512.481	74.31
512.698	85.31
512.914	84.31
513.13	91.31
513.346	89.31
513.562	87.31
513.778	88.31
513.994	76.31
514.21	85.31
514.426	92.31
514.642	94.31
514.858	90.31
515.074	84.31
515.29	89.31
515.506	92.31
515.721	73.31
515.937	85.31
516.153	80.31
516.369	74.31
516.585	91.31
516.801	90.31
517.016	94.31
517.232	87.31
517.448	89.31
517.664	93.31
517.879	76.31
518.095	89.31
518.311	82.31
518.527	83.31
518.742	84.31
518.958	90.31
519.173	88.31
519.389	73.31
519.605	92.31
519.82	84.31
