Data from KBr_2_HRD10591_00023.txt Node
Date: Mon Jan 19 13:13:02 EST 2026
User: Yrep
Spectrometer: HR+D1059
Trigger mode: 1
Integration Time (sec): 1.000000E-1
Scans to average: 1
Electric dark correction enabled: true
Nonlinearity correction enabled: false
Boxcar width: 0
XAxis mode: Wavelengths
Number of Pixels in Spectrum: 2048
>>>>>Begin Spectral Data<<<<<
223.165	-18.69
223.4	-18.69
223.635	-18.69
223.869	-14.69
224.104	-11.69
224.338	-16.69
224.573	-14.69
224.808	-13.69
225.042	-3.69
225.277	-9.69
225.511	6.31
225.746	0.31
225.98	22.31
226.215	8.31
226.449	20.31
226.683	14.31
226.918	6.31
227.152	25.31
227.387	40.31
227.621	41.31
227.856	43.31
228.09	36.31
228.324	49.31
228.559	47.31
228.793	38.31
229.027	60.31
229.262	71.31
229.496	51.31
229.73	69.31
229.964	69.31
230.199	62.31
230.433	67.31
230.667	81.31
230.901	69.31
231.136	70.31
231.37	88.31
231.604	73.31
231.838	67.31
232.072	71.31
232.306	87.31
232.541	73.31
232.775	71.31
233.009	71.31
233.243	77.31
233.477	91.31
233.711	76.31
233.945	93.31
234.179	76.31
234.413	81.31
234.647	61.31
234.881	78.31
235.115	95.31
235.349	82.31
235.583	61.31
235.817	69.31
236.051	72.31
236.285	75.31
236.519	78.31
236.753	77.31
236.987	75.31
237.221	56.31
237.455	65.31
237.689	71.31
237.922	69.31
238.156	73.31
238.39	77.31
238.624	49.31
238.858	64.31
239.091	67.31
239.325	63.31
239.559	72.31
239.793	81.31
240.027	74.31
240.26	67.31
240.494	75.31
240.728	75.31
240.961	83.31
241.195	78.31
241.429	65.31
241.662	69.31
241.896	76.31
242.13	73.31
242.363	75.31
242.597	64.31
242.83	67.31
243.064	69.31
243.298	71.31
243.531	67.31
243.765	84.31
243.998	86.31
244.232	77.31
244.465	84.31
244.699	81.31
244.932	75.31
245.166	77.31
245.399	56.31
245.633	81.31
245.866	72.31
246.099	85.31
246.333	83.31
246.566	78.31
246.8	82.31
247.033	63.31
247.266	79.31
247.5	55.31
247.733	71.31
247.966	83.31
248.2	91.31
248.433	72.31
248.666	71.31
248.899	74.31
249.133	76.31
249.366	66.31
249.599	82.31
249.832	76.31
250.066	68.31
250.299	89.31
250.532	71.31
250.765	70.31
250.998	84.31
251.231	66.31
251.465	64.31
251.698	82.31
251.931	74.31
252.164	78.31
252.397	67.31
252.63	75.31
252.863	67.31
253.096	81.31
253.329	80.31
253.562	74.31
253.795	67.31
254.028	67.31
254.261	84.31
254.494	75.31
254.727	70.31
254.96	71.31
255.193	80.31
255.426	69.31
255.659	77.31
255.892	86.31
256.124	78.31
256.357	80.31
256.59	69.31
256.823	77.31
257.056	90.31
257.289	73.31
257.521	85.31
257.754	72.31
257.987	60.31
258.22	82.31
258.452	60.31
258.685	83.31
258.918	86.31
259.151	76.31
259.383	78.31
259.616	74.31
259.849	78.31
260.081	93.31
260.314	84.31
260.547	85.31
260.779	78.31
261.012	66.31
261.244	68.31
261.477	79.31
261.71	69.31
261.942	88.31
262.175	70.31
262.407	72.31
262.64	89.31
262.872	79.31
263.105	94.31
263.337	82.31
263.57	70.31
263.802	60.31
264.035	86.31
264.267	85.31
264.499	63.31
264.732	81.31
264.964	72.31
265.197	81.31
265.429	79.31
265.661	74.31
265.894	62.31
266.126	82.31
266.358	79.31
266.591	69.31
266.823	72.31
267.055	77.31
267.287	81.31
267.52	72.31
267.752	84.31
267.984	74.31
268.216	69.31
268.448	76.31
268.681	89.31
268.913	94.31
269.145	93.31
269.377	82.31
269.609	82.31
269.841	90.31
270.073	71.31
270.306	90.31
270.538	88.31
270.77	73.31
271.002	77.31
271.234	92.31
271.466	81.31
271.698	96.31
271.93	87.31
272.162	61.31
272.394	75.31
272.626	86.31
272.858	81.31
273.09	84.31
273.322	75.31
273.553	83.31
273.785	73.31
274.017	88.31
274.249	77.31
274.481	79.31
274.713	78.31
274.945	70.31
275.176	73.31
275.408	63.31
275.64	61.31
275.872	75.31
276.104	90.31
276.335	78.31
276.567	78.31
276.799	70.31
277.031	68.31
277.262	82.31
277.494	77.31
277.726	81.31
277.957	78.31
278.189	78.31
278.421	82.31
278.652	93.31
278.884	63.31
279.115	86.31
279.347	80.31
279.579	102.31
279.81	80.31
280.042	77.31
280.273	77.31
280.505	75.31
280.736	78.31
280.968	72.31
281.199	85.31
281.431	76.31
281.662	90.31
281.894	81.31
282.125	81.31
282.356	81.31
282.588	74.31
282.819	84.31
283.051	76.31
283.282	87.31
283.513	86.31
283.745	83.31
283.976	84.31
284.207	85.31
284.439	81.31
284.67	73.31
284.901	81.31
285.132	77.31
285.364	78.31
285.595	87.31
285.826	74.31
286.057	77.31
286.288	79.31
286.52	86.31
286.751	79.31
286.982	81.31
287.213	73.31
287.444	69.31
287.675	85.31
287.906	75.31
288.138	76.31
288.369	85.31
288.6	81.31
288.831	74.31
289.062	89.31
289.293	86.31
289.524	82.31
289.755	88.31
289.986	88.31
290.217	84.31
290.448	75.31
290.679	89.31
290.91	91.31
291.141	101.31
291.371	79.31
291.602	69.31
291.833	88.31
292.064	92.31
292.295	82.31
292.526	83.31
292.757	81.31
292.987	82.31
293.218	84.31
293.449	89.31
293.68	94.31
293.91	94.31
294.141	83.31
294.372	89.31
294.603	75.31
294.833	92.31
295.064	76.31
295.295	84.31
295.525	73.31
295.756	77.31
295.987	77.31
296.217	91.31
296.448	99.31
296.679	73.31
296.909	88.31
297.14	80.31
297.37	84.31
297.601	77.31
297.831	73.31
298.062	94.31
298.292	86.31
298.523	84.31
298.753	64.31
298.984	67.31
299.214	61.31
299.445	90.31
299.675	87.31
299.905	97.31
300.136	82.31
300.366	87.31
300.597	87.31
300.827	72.31
301.057	79.31
301.288	72.31
301.518	75.31
301.748	75.31
301.979	85.31
302.209	73.31
302.439	81.31
302.669	85.31
302.9	76.31
303.13	91.31
303.36	83.31
303.59	82.31
303.82	78.31
304.051	87.31
304.281	93.31
304.511	81.31
304.741	70.31
304.971	81.31
305.201	81.31
305.431	68.31
305.661	82.31
305.891	73.31
306.121	78.31
306.352	94.31
306.582	78.31
306.812	97.31
307.042	75.31
307.272	90.31
307.502	94.31
307.731	87.31
307.961	77.31
308.191	81.31
308.421	61.31
308.651	87.31
308.881	91.31
309.111	84.31
309.341	86.31
309.571	66.31
309.8	77.31
310.03	83.31
310.26	82.31
310.49	74.31
310.72	69.31
310.949	86.31
311.179	78.31
311.409	76.31
311.639	97.31
311.868	91.31
312.098	79.31
312.328	83.31
312.557	87.31
312.787	77.31
313.017	74.31
313.246	85.31
313.476	90.31
313.706	74.31
313.935	87.31
314.165	92.31
314.394	92.31
314.624	84.31
314.853	82.31
315.083	77.31
315.312	82.31
315.542	77.31
315.771	87.31
316.001	102.31
316.23	74.31
316.46	78.31
316.689	84.31
316.919	79.31
317.148	79.31
317.377	90.31
317.607	97.31
317.836	85.31
318.065	59.31
318.295	68.31
318.524	83.31
318.753	77.31
318.983	86.31
319.212	84.31
319.441	74.31
319.67	94.31
319.9	99.31
320.129	91.31
320.358	82.31
320.587	88.31
320.816	91.31
321.046	88.31
321.275	74.31
321.504	86.31
321.733	82.31
321.962	80.31
322.191	78.31
322.42	78.31
322.649	59.31
322.878	76.31
323.108	80.31
323.337	72.31
323.566	89.31
323.795	85.31
324.024	82.31
324.253	84.31
324.482	80.31
324.71	89.31
324.939	70.31
325.168	83.31
325.397	91.31
325.626	89.31
325.855	93.31
326.084	89.31
326.313	85.31
326.542	81.31
326.77	80.31
326.999	82.31
327.228	85.31
327.457	71.31
327.686	83.31
327.914	94.31
328.143	101.31
328.372	93.31
328.6	85.31
328.829	65.31
329.058	90.31
329.287	90.31
329.515	83.31
329.744	86.31
329.972	79.31
330.201	85.31
330.43	86.31
330.658	85.31
330.887	110.31
331.115	99.31
331.344	83.31
331.572	92.31
331.801	86.31
332.03	81.31
332.258	81.31
332.486	76.31
332.715	73.31
332.943	68.31
333.172	93.31
333.4	77.31
333.629	81.31
333.857	80.31
334.085	83.31
334.314	72.31
334.542	90.31
334.771	81.31
334.999	79.31
335.227	79.31
335.455	91.31
335.684	84.31
335.912	71.31
336.14	87.31
336.369	74.31
336.597	70.31
336.825	91.31
337.053	83.31
337.281	83.31
337.51	85.31
337.738	90.31
337.966	83.31
338.194	81.31
338.422	85.31
338.65	80.31
338.878	89.31
339.106	78.31
339.334	96.31
339.562	80.31
339.79	85.31
340.018	80.31
340.246	83.31
340.474	92.31
340.702	79.31
340.93	73.31
341.158	76.31
341.386	90.31
341.614	83.31
341.842	81.31
342.07	69.31
342.298	86.31
342.526	78.31
342.754	86.31
342.981	89.31
343.209	76.31
343.437	94.31
343.665	90.31
343.893	90.31
344.12	88.31
344.348	82.31
344.576	87.31
344.804	99.31
345.031	69.31
345.259	77.31
345.487	93.31
345.714	76.31
345.942	74.31
346.17	76.31
346.397	91.31
346.625	69.31
346.853	77.31
347.08	77.31
347.308	85.31
347.535	86.31
347.763	89.31
347.99	94.31
348.218	78.31
348.445	93.31
348.673	91.31
348.9	89.31
349.128	86.31
349.355	86.31
349.583	83.31
349.81	82.31
350.037	90.31
350.265	85.31
350.492	81.31
350.72	73.31
350.947	65.31
351.174	74.31
351.402	78.31
351.629	70.31
351.856	88.31
352.083	80.31
352.311	82.31
352.538	84.31
352.765	63.31
352.992	81.31
353.22	81.31
353.447	77.31
353.674	92.31
353.901	99.31
354.128	88.31
354.355	77.31
354.583	71.31
354.81	93.31
355.037	79.31
355.264	77.31
355.491	82.31
355.718	81.31
355.945	84.31
356.172	93.31
356.399	93.31
356.626	79.31
356.853	92.31
357.08	79.31
357.307	76.31
357.534	84.31
357.761	93.31
357.988	90.31
358.215	73.31
358.441	89.31
358.668	74.31
358.895	90.31
359.122	83.31
359.349	78.31
359.576	95.31
359.802	84.31
360.029	94.31
360.256	69.31
360.483	82.31
360.709	90.31
360.936	85.31
361.163	87.31
361.39	88.31
361.616	85.31
361.843	89.31
362.07	86.31
362.296	94.31
362.523	93.31
362.749	88.31
362.976	65.31
363.203	89.31
363.429	74.31
363.656	85.31
363.882	67.31
364.109	77.31
364.335	74.31
364.562	88.31
364.788	72.31
365.015	77.31
365.241	77.31
365.468	100.31
365.694	84.31
365.92	87.31
366.147	82.31
366.373	82.31
366.599	79.31
366.826	84.31
367.052	91.31
367.278	86.31
367.505	83.31
367.731	82.31
367.957	85.31
368.184	78.31
368.41	75.31
368.636	82.31
368.862	88.31
369.089	87.31
369.315	63.31
369.541	83.31
369.767	83.31
369.993	89.31
370.219	76.31
370.445	83.31
370.672	76.31
370.898	81.31
371.124	85.31
371.35	88.31
371.576	81.31
371.802	85.31
372.028	87.31
372.254	87.31
372.48	81.31
372.706	85.31
372.932	95.31
373.158	77.31
373.384	87.31
373.61	83.31
373.835	73.31
374.061	83.31
374.287	86.31
374.513	80.31
374.739	77.31
374.965	79.31
375.191	85.31
375.416	79.31
375.642	78.31
375.868	76.31
376.094	82.31
376.319	92.31
376.545	86.31
376.771	70.31
376.997	91.31
377.222	71.31
377.448	70.31
377.674	93.31
377.899	79.31
378.125	99.31
378.35	97.31
378.576	85.31
378.802	86.31
379.027	67.31
379.253	74.31
379.478	85.31
379.704	83.31
379.929	72.31
380.155	92.31
380.38	88.31
380.606	79.31
380.831	97.31
381.057	75.31
381.282	89.31
381.507	86.31
381.733	79.31
381.958	77.31
382.184	75.31
382.409	99.31
382.634	76.31
382.86	87.31
383.085	71.31
383.31	79.31
383.535	98.31
383.761	69.31
383.986	77.31
384.211	78.31
384.436	77.31
384.662	75.31
384.887	86.31
385.112	80.31
385.337	61.31
385.562	92.31
385.787	94.31
386.013	65.31
386.238	69.31
386.463	79.31
386.688	95.31
386.913	100.31
387.138	77.31
387.363	86.31
387.588	81.31
387.813	74.31
388.038	79.31
388.263	86.31
388.488	78.31
388.713	85.31
388.938	85.31
389.163	81.31
389.387	89.31
389.612	95.31
389.837	85.31
390.062	87.31
390.287	81.31
390.512	80.31
390.736	92.31
390.961	95.31
391.186	94.31
391.411	80.31
391.636	85.31
391.86	79.31
392.085	77.31
392.31	83.31
392.534	74.31
392.759	88.31
392.984	96.31
393.208	76.31
393.433	68.31
393.658	76.31
393.882	84.31
394.107	94.31
394.331	106.31
394.556	72.31
394.78	82.31
395.005	90.31
395.229	89.31
395.454	77.31
395.678	80.31
395.903	91.31
396.127	89.31
396.352	94.31
396.576	83.31
396.801	82.31
397.025	75.31
397.249	85.31
397.474	77.31
397.698	97.31
397.922	83.31
398.147	85.31
398.371	94.31
398.595	86.31
398.82	87.31
399.044	90.31
399.268	85.31
399.492	81.31
399.717	86.31
399.941	76.31
400.165	82.31
400.389	81.31
400.613	90.31
400.837	85.31
401.062	90.31
401.286	78.31
401.51	84.31
401.734	81.31
401.958	74.31
402.182	71.31
402.406	89.31
402.63	75.31
402.854	103.31
403.078	87.31
403.302	89.31
403.526	65.31
403.75	76.31
403.974	74.31
404.198	115.31
404.422	181.31
404.645	210.31
404.869	153.31
405.093	120.31
405.317	103.31
405.541	94.31
405.765	77.31
405.988	69.31
406.212	74.31
406.436	80.31
406.66	71.31
406.883	83.31
407.107	88.31
407.331	81.31
407.555	84.31
407.778	81.31
408.002	96.31
408.226	94.31
408.449	90.31
408.673	84.31
408.896	76.31
409.12	77.31
409.344	82.31
409.567	77.31
409.791	91.31
410.014	90.31
410.238	85.31
410.461	78.31
410.685	76.31
410.908	75.31
411.132	83.31
411.355	86.31
411.578	84.31
411.802	78.31
412.025	81.31
412.249	83.31
412.472	66.31
412.695	91.31
412.919	78.31
413.142	80.31
413.365	80.31
413.589	87.31
413.812	88.31
414.035	101.31
414.258	71.31
414.482	87.31
414.705	65.31
414.928	84.31
415.151	86.31
415.374	81.31
415.597	82.31
415.821	94.31
416.044	84.31
416.267	91.31
416.49	83.31
416.713	81.31
416.936	80.31
417.159	89.31
417.382	89.31
417.605	94.31
417.828	88.31
418.051	90.31
418.274	88.31
418.497	83.31
418.72	78.31
418.943	85.31
419.166	78.31
419.389	73.31
419.611	65.31
419.834	79.31
420.057	68.31
420.28	69.31
420.503	85.31
420.726	89.31
420.948	78.31
421.171	86.31
421.394	84.31
421.617	82.31
421.839	87.31
422.062	78.31
422.285	80.31
422.507	77.31
422.73	86.31
422.953	83.31
423.175	90.31
423.398	68.31
423.621	86.31
423.843	76.31
424.066	87.31
424.288	83.31
424.511	84.31
424.733	77.31
424.956	79.31
425.178	74.31
425.401	71.31
425.623	78.31
425.846	75.31
426.068	84.31
426.291	81.31
426.513	83.31
426.735	92.31
426.958	76.31
427.18	73.31
427.402	88.31
427.625	82.31
427.847	92.31
428.069	78.31
428.292	76.31
428.514	76.31
428.736	77.31
428.958	71.31
429.181	82.31
429.403	75.31
429.625	89.31
429.847	77.31
430.069	87.31
430.292	69.31
430.514	85.31
430.736	78.31
430.958	85.31
431.18	84.31
431.402	92.31
431.624	74.31
431.846	82.31
432.068	84.31
432.29	83.31
432.512	91.31
432.734	90.31
432.956	83.31
433.178	88.31
433.4	79.31
433.622	95.31
433.844	92.31
434.066	77.31
434.287	78.31
434.509	69.31
434.731	83.31
434.953	91.31
435.175	89.31
435.397	85.31
435.618	75.31
435.84	95.31
436.062	90.31
436.284	89.31
436.505	65.31
436.727	84.31
436.949	71.31
437.17	76.31
437.392	77.31
437.614	82.31
437.835	71.31
438.057	57.31
438.278	77.31
438.5	87.31
438.721	85.31
438.943	86.31
439.165	89.31
439.386	83.31
439.608	78.31
439.829	79.31
440.05	91.31
440.272	95.31
440.493	90.31
440.715	77.31
440.936	63.31
441.158	85.31
441.379	78.31
441.6	79.31
441.822	98.31
442.043	85.31
442.264	85.31
442.486	82.31
442.707	77.31
442.928	83.31
443.149	88.31
443.371	92.31
443.592	79.31
443.813	91.31
444.034	77.31
444.255	86.31
444.476	85.31
444.698	98.31
444.919	84.31
445.14	179.31
445.361	121.31
445.582	81.31
445.803	63.31
446.024	76.31
446.245	99.31
446.466	87.31
446.687	91.31
446.908	78.31
447.129	75.31
447.35	87.31
447.571	86.31
447.792	72.31
448.013	76.31
448.234	77.31
448.455	77.31
448.675	93.31
448.896	84.31
449.117	76.31
449.338	84.31
449.559	83.31
449.779	90.31
450	76.31
450.221	77.31
450.442	69.31
450.662	86.31
450.883	94.31
451.104	78.31
451.324	86.31
451.545	89.31
451.766	84.31
451.986	69.31
452.207	74.31
452.428	79.31
452.648	89.31
452.869	76.31
453.089	85.31
453.31	81.31
453.53	72.31
453.751	88.31
453.971	84.31
454.192	85.31
454.412	84.31
454.633	89.31
454.853	86.31
455.073	88.31
455.294	76.31
455.514	82.31
455.734	97.31
455.955	77.31
456.175	81.31
456.395	84.31
456.616	93.31
456.836	94.31
457.056	86.31
457.276	75.31
457.497	87.31
457.717	79.31
457.937	75.31
458.157	81.31
458.377	73.31
458.598	80.31
458.818	79.31
459.038	81.31
459.258	63.31
459.478	77.31
459.698	78.31
459.918	73.31
460.138	69.31
460.358	83.31
460.578	71.31
460.798	91.31
461.018	79.31
461.238	75.31
461.458	76.31
461.678	86.31
461.898	84.31
462.118	95.31
462.338	86.31
462.558	91.31
462.777	94.31
462.997	89.31
463.217	80.31
463.437	81.31
463.657	84.31
463.876	76.31
464.096	92.31
464.316	97.31
464.536	89.31
464.755	86.31
464.975	91.31
465.195	87.31
465.414	93.31
465.634	77.31
465.854	86.31
466.073	75.31
466.293	100.31
466.512	78.31
466.732	90.31
466.951	84.31
467.171	81.31
467.391	82.31
467.61	90.31
467.829	80.31
468.049	82.31
468.268	79.31
468.488	73.31
468.707	80.31
468.927	81.31
469.146	75.31
469.365	83.31
469.585	82.31
469.804	83.31
470.023	69.31
470.243	84.31
470.462	80.31
470.681	88.31
470.901	83.31
471.12	89.31
471.339	88.31
471.558	83.31
471.777	86.31
471.997	72.31
472.216	72.31
472.435	75.31
472.654	90.31
472.873	85.31
473.092	92.31
473.311	77.31
473.53	74.31
473.749	81.31
473.968	81.31
474.187	75.31
474.406	86.31
474.625	88.31
474.844	75.31
475.063	85.31
475.282	88.31
475.501	73.31
475.72	71.31
475.939	68.31
476.158	98.31
476.377	107.31
476.596	93.31
476.814	82.31
477.033	91.31
477.252	80.31
477.471	69.31
477.69	86.31
477.908	80.31
478.127	91.31
478.346	73.31
478.564	74.31
478.783	99.31
479.002	81.31
479.22	69.31
479.439	75.31
479.658	90.31
479.876	89.31
480.095	69.31
480.313	95.31
480.532	82.31
480.751	85.31
480.969	82.31
481.188	78.31
481.406	86.31
481.624	92.31
481.843	85.31
482.061	80.31
482.28	92.31
482.498	105.31
482.717	94.31
482.935	70.31
483.153	107.31
483.372	73.31
483.59	97.31
483.808	101.31
484.027	84.31
484.245	106.31
484.463	85.31
484.681	85.31
484.9	101.31
485.118	81.31
485.336	73.31
485.554	78.31
485.772	80.31
485.99	86.31
486.209	83.31
486.427	82.31
486.645	78.31
486.863	95.31
487.081	99.31
487.299	81.31
487.517	74.31
487.735	78.31
487.953	93.31
488.171	84.31
488.389	82.31
488.607	91.31
488.825	90.31
489.043	87.31
489.261	94.31
489.479	91.31
489.696	88.31
489.914	89.31
490.132	82.31
490.35	89.31
490.568	87.31
490.786	100.31
491.003	72.31
491.221	84.31
491.439	77.31
491.657	91.31
491.874	93.31
492.092	99.31
492.31	73.31
492.527	81.31
492.745	94.31
492.963	87.31
493.18	98.31
493.398	95.31
493.615	99.31
493.833	81.31
494.05	86.31
494.268	86.31
494.485	91.31
494.703	84.31
494.92	85.31
495.138	102.31
495.355	85.31
495.573	94.31
495.79	84.31
496.008	85.31
496.225	84.31
496.442	93.31
496.66	89.31
496.877	102.31
497.094	93.31
497.312	77.31
497.529	89.31
497.746	79.31
497.963	89.31
498.181	81.31
498.398	88.31
498.615	89.31
498.832	75.31
499.049	87.31
499.267	89.31
499.484	81.31
499.701	78.31
499.918	81.31
500.135	90.31
500.352	73.31
500.569	102.31
500.786	95.31
501.003	99.31
501.22	83.31
501.437	86.31
501.654	82.31
501.871	68.31
502.088	74.31
502.305	82.31
502.522	71.31
502.739	92.31
502.956	78.31
503.172	75.31
503.389	81.31
503.606	87.31
503.823	90.31
504.04	96.31
504.256	87.31
504.473	80.31
504.69	82.31
504.907	80.31
505.123	86.31
505.34	77.31
505.557	72.31
505.773	88.31
505.99	79.31
506.207	61.31
506.423	84.31
506.64	76.31
506.856	90.31
507.073	72.31
507.289	91.31
507.506	97.31
507.722	75.31
507.939	79.31
508.155	71.31
508.372	83.31
508.588	82.31
508.805	83.31
509.021	87.31
509.238	84.31
509.454	73.31
509.67	88.31
509.887	84.31
510.103	82.31
510.319	90.31
510.536	82.31
510.752	76.31
510.968	81.31
511.184	96.31
511.401	95.31
511.617	85.31
511.833	91.31
512.049	73.31
512.265	93.31
512.481	71.31
512.698	73.31
512.914	87.31
513.13	76.31
513.346	78.31
513.562	81.31
513.778	80.31
513.994	93.31
514.21	83.31
514.426	95.31
514.642	88.31
514.858	81.31
515.074	81.31
515.29	84.31
515.506	87.31
515.721	67.31
515.937	90.31
516.153	77.31
516.369	86.31
516.585	82.31
516.801	75.31
517.016	79.31
517.232	75.31
517.448	78.31
517.664	92.31
517.879	95.31
518.095	74.31
518.311	84.31
518.527	85.31
518.742	77.31
518.958	85.31
519.173	76.31
519.389	82.31
519.605	86.31
519.82	70.31
520.036	89.31
