Data from KBr_2_HRD10591_00010.txt Node
Date: Mon Jan 19 13:12:55 EST 2026
User: Yrep
Spectrometer: HR+D1059
Trigger mode: 1
Integration Time (sec): 1.000000E-1
Scans to average: 1
Electric dark correction enabled: true
Nonlinearity correction enabled: false
Boxcar width: 0
XAxis mode: Wavelengths
Number of Pixels in Spectrum: 2048
>>>>>Begin Spectral Data<<<<<
223.165	-38.81
223.4	-38.81
223.635	-38.81
223.869	-21.81
224.104	-22.81
224.338	-10.81
224.573	-7.81
224.808	-0.81
225.042	-1.81
225.277	-8.81
225.511	6.19
225.746	2.19
225.98	-3.81
226.215	-8.81
226.449	11.19
226.683	26.19
226.918	30.19
227.152	50.19
227.387	47.19
227.621	57.19
227.856	55.19
228.09	49.19
228.324	46.19
228.559	43.19
228.793	55.19
229.027	60.19
229.262	57.19
229.496	73.19
229.73	71.19
229.964	74.19
230.199	72.19
230.433	67.19
230.667	75.19
230.901	75.19
231.136	93.19
231.37	64.19
231.604	66.19
231.838	74.19
232.072	84.19
232.306	65.19
232.541	89.19
232.775	85.19
233.009	85.19
233.243	72.19
233.477	80.19
233.711	79.19
233.945	89.19
234.179	88.19
234.413	78.19
234.647	69.19
234.881	85.19
235.115	73.19
235.349	80.19
235.583	79.19
235.817	82.19
236.051	84.19
236.285	85.19
236.519	63.19
236.753	70.19
236.987	81.19
237.221	92.19
237.455	76.19
237.689	71.19
237.922	82.19
238.156	62.19
238.39	75.19
238.624	71.19
238.858	71.19
239.091	77.19
239.325	74.19
239.559	85.19
239.793	83.19
240.027	88.19
240.26	91.19
240.494	87.19
240.728	74.19
240.961	83.19
241.195	81.19
241.429	77.19
241.662	79.19
241.896	78.19
242.13	78.19
242.363	81.19
242.597	80.19
242.83	69.19
243.064	63.19
243.298	70.19
243.531	80.19
243.765	72.19
243.998	81.19
244.232	76.19
244.465	75.19
244.699	89.19
244.932	73.19
245.166	86.19
245.399	72.19
245.633	85.19
245.866	79.19
246.099	75.19
246.333	83.19
246.566	58.19
246.8	78.19
247.033	71.19
247.266	75.19
247.5	66.19
247.733	77.19
247.966	74.19
248.2	71.19
248.433	72.19
248.666	66.19
248.899	79.19
249.133	78.19
249.366	87.19
249.599	73.19
249.832	79.19
250.066	77.19
250.299	72.19
250.532	92.19
250.765	75.19
250.998	86.19
251.231	79.19
251.465	79.19
251.698	85.19
251.931	80.19
252.164	79.19
252.397	90.19
252.63	95.19
252.863	80.19
253.096	81.19
253.329	82.19
253.562	77.19
253.795	80.19
254.028	82.19
254.261	70.19
254.494	90.19
254.727	81.19
254.96	74.19
255.193	70.19
255.426	72.19
255.659	82.19
255.892	92.19
256.124	78.19
256.357	80.19
256.59	80.19
256.823	91.19
257.056	83.19
257.289	85.19
257.521	68.19
257.754	72.19
257.987	97.19
258.22	76.19
258.452	81.19
258.685	87.19
258.918	81.19
259.151	65.19
259.383	89.19
259.616	75.19
259.849	86.19
260.081	81.19
260.314	76.19
260.547	87.19
260.779	80.19
261.012	84.19
261.244	81.19
261.477	84.19
261.71	77.19
261.942	81.19
262.175	71.19
262.407	78.19
262.64	83.19
262.872	88.19
263.105	70.19
263.337	74.19
263.57	85.19
263.802	79.19
264.035	75.19
264.267	65.19
264.499	79.19
264.732	80.19
264.964	81.19
265.197	67.19
265.429	79.19
265.661	81.19
265.894	93.19
266.126	91.19
266.358	87.19
266.591	83.19
266.823	80.19
267.055	76.19
267.287	71.19
267.52	83.19
267.752	80.19
267.984	96.19
268.216	66.19
268.448	77.19
268.681	87.19
268.913	96.19
269.145	87.19
269.377	90.19
269.609	64.19
269.841	90.19
270.073	87.19
270.306	87.19
270.538	77.19
270.77	81.19
271.002	78.19
271.234	90.19
271.466	98.19
271.698	85.19
271.93	79.19
272.162	83.19
272.394	85.19
272.626	75.19
272.858	82.19
273.09	73.19
273.322	94.19
273.553	85.19
273.785	81.19
274.017	87.19
274.249	93.19
274.481	80.19
274.713	84.19
274.945	83.19
275.176	86.19
275.408	87.19
275.64	87.19
275.872	87.19
276.104	96.19
276.335	73.19
276.567	88.19
276.799	103.19
277.031	69.19
277.262	81.19
277.494	78.19
277.726	74.19
277.957	81.19
278.189	85.19
278.421	77.19
278.652	80.19
278.884	80.19
279.115	73.19
279.347	82.19
279.579	90.19
279.81	89.19
280.042	77.19
280.273	78.19
280.505	89.19
280.736	83.19
280.968	94.19
281.199	87.19
281.431	90.19
281.662	93.19
281.894	82.19
282.125	99.19
282.356	80.19
282.588	78.19
282.819	74.19
283.051	85.19
283.282	83.19
283.513	87.19
283.745	79.19
283.976	93.19
284.207	96.19
284.439	88.19
284.67	77.19
284.901	82.19
285.132	91.19
285.364	94.19
285.595	89.19
285.826	75.19
286.057	85.19
286.288	81.19
286.52	78.19
286.751	79.19
286.982	84.19
287.213	81.19
287.444	89.19
287.675	84.19
287.906	88.19
288.138	81.19
288.369	94.19
288.6	84.19
288.831	75.19
289.062	89.19
289.293	90.19
289.524	87.19
289.755	82.19
289.986	74.19
290.217	98.19
290.448	84.19
290.679	79.19
290.91	85.19
291.141	78.19
291.371	85.19
291.602	90.19
291.833	91.19
292.064	72.19
292.295	86.19
292.526	89.19
292.757	81.19
292.987	87.19
293.218	74.19
293.449	88.19
293.68	82.19
293.91	91.19
294.141	79.19
294.372	87.19
294.603	89.19
294.833	87.19
295.064	85.19
295.295	75.19
295.525	82.19
295.756	80.19
295.987	88.19
296.217	81.19
296.448	98.19
296.679	80.19
296.909	78.19
297.14	90.19
297.37	85.19
297.601	89.19
297.831	84.19
298.062	85.19
298.292	89.19
298.523	80.19
298.753	80.19
298.984	88.19
299.214	86.19
299.445	93.19
299.675	82.19
299.905	79.19
300.136	85.19
300.366	87.19
300.597	90.19
300.827	76.19
301.057	88.19
301.288	82.19
301.518	78.19
301.748	81.19
301.979	90.19
302.209	86.19
302.439	88.19
302.669	79.19
302.9	79.19
303.13	71.19
303.36	78.19
303.59	77.19
303.82	86.19
304.051	91.19
304.281	96.19
304.511	76.19
304.741	70.19
304.971	79.19
305.201	83.19
305.431	93.19
305.661	75.19
305.891	85.19
306.121	75.19
306.352	81.19
306.582	79.19
306.812	76.19
307.042	81.19
307.272	92.19
307.502	93.19
307.731	72.19
307.961	92.19
308.191	74.19
308.421	93.19
308.651	89.19
308.881	89.19
309.111	86.19
309.341	81.19
309.571	90.19
309.8	81.19
310.03	76.19
310.26	85.19
310.49	78.19
310.72	90.19
310.949	77.19
311.179	81.19
311.409	86.19
311.639	82.19
311.868	90.19
312.098	90.19
312.328	81.19
312.557	82.19
312.787	84.19
313.017	86.19
313.246	82.19
313.476	88.19
313.706	94.19
313.935	84.19
314.165	87.19
314.394	74.19
314.624	81.19
314.853	87.19
315.083	89.19
315.312	89.19
315.542	94.19
315.771	92.19
316.001	94.19
316.23	67.19
316.46	86.19
316.689	84.19
316.919	97.19
317.148	89.19
317.377	81.19
317.607	92.19
317.836	86.19
318.065	82.19
318.295	88.19
318.524	92.19
318.753	85.19
318.983	90.19
319.212	94.19
319.441	95.19
319.67	96.19
319.9	86.19
320.129	82.19
320.358	90.19
320.587	82.19
320.816	86.19
321.046	92.19
321.275	91.19
321.504	93.19
321.733	81.19
321.962	80.19
322.191	86.19
322.42	98.19
322.649	92.19
322.878	86.19
323.108	85.19
323.337	93.19
323.566	88.19
323.795	90.19
324.024	75.19
324.253	77.19
324.482	85.19
324.71	76.19
324.939	110.19
325.168	78.19
325.397	94.19
325.626	82.19
325.855	76.19
326.084	88.19
326.313	97.19
326.542	84.19
326.77	85.19
326.999	79.19
327.228	101.19
327.457	93.19
327.686	90.19
327.914	92.19
328.143	85.19
328.372	81.19
328.6	78.19
328.829	80.19
329.058	81.19
329.287	94.19
329.515	91.19
329.744	109.19
329.972	97.19
330.201	82.19
330.43	91.19
330.658	78.19
330.887	77.19
331.115	93.19
331.344	82.19
331.572	94.19
331.801	92.19
332.03	92.19
332.258	89.19
332.486	83.19
332.715	91.19
332.943	93.19
333.172	88.19
333.4	89.19
333.629	90.19
333.857	88.19
334.085	79.19
334.314	77.19
334.542	99.19
334.771	78.19
334.999	82.19
335.227	92.19
335.455	89.19
335.684	86.19
335.912	82.19
336.14	87.19
336.369	83.19
336.597	92.19
336.825	76.19
337.053	72.19
337.281	84.19
337.51	81.19
337.738	88.19
337.966	99.19
338.194	83.19
338.422	77.19
338.65	77.19
338.878	78.19
339.106	85.19
339.334	102.19
339.562	85.19
339.79	85.19
340.018	93.19
340.246	88.19
340.474	85.19
340.702	86.19
340.93	111.19
341.158	80.19
341.386	80.19
341.614	88.19
341.842	99.19
342.07	85.19
342.298	89.19
342.526	87.19
342.754	74.19
342.981	70.19
343.209	74.19
343.437	88.19
343.665	85.19
343.893	99.19
344.12	92.19
344.348	94.19
344.576	93.19
344.804	112.19
345.031	98.19
345.259	92.19
345.487	105.19
345.714	85.19
345.942	96.19
346.17	85.19
346.397	85.19
346.625	93.19
346.853	84.19
347.08	82.19
347.308	87.19
347.535	85.19
347.763	85.19
347.99	77.19
348.218	86.19
348.445	83.19
348.673	77.19
348.9	77.19
349.128	80.19
349.355	84.19
349.583	85.19
349.81	76.19
350.037	89.19
350.265	89.19
350.492	83.19
350.72	94.19
350.947	81.19
351.174	93.19
351.402	97.19
351.629	94.19
351.856	80.19
352.083	93.19
352.311	77.19
352.538	90.19
352.765	95.19
352.992	71.19
353.22	82.19
353.447	85.19
353.674	75.19
353.901	90.19
354.128	87.19
354.355	86.19
354.583	75.19
354.81	101.19
355.037	86.19
355.264	84.19
355.491	81.19
355.718	95.19
355.945	84.19
356.172	86.19
356.399	78.19
356.626	84.19
356.853	92.19
357.08	102.19
357.307	90.19
357.534	82.19
357.761	102.19
357.988	81.19
358.215	82.19
358.441	87.19
358.668	79.19
358.895	101.19
359.122	85.19
359.349	83.19
359.576	81.19
359.802	81.19
360.029	75.19
360.256	92.19
360.483	82.19
360.709	83.19
360.936	93.19
361.163	87.19
361.39	96.19
361.616	87.19
361.843	88.19
362.07	84.19
362.296	92.19
362.523	73.19
362.749	79.19
362.976	69.19
363.203	87.19
363.429	82.19
363.656	92.19
363.882	80.19
364.109	88.19
364.335	87.19
364.562	86.19
364.788	89.19
365.015	93.19
365.241	90.19
365.468	85.19
365.694	77.19
365.92	77.19
366.147	76.19
366.373	75.19
366.599	96.19
366.826	82.19
367.052	80.19
367.278	93.19
367.505	91.19
367.731	85.19
367.957	94.19
368.184	91.19
368.41	84.19
368.636	82.19
368.862	82.19
369.089	93.19
369.315	81.19
369.541	89.19
369.767	66.19
369.993	90.19
370.219	85.19
370.445	79.19
370.672	69.19
370.898	71.19
371.124	83.19
371.35	97.19
371.576	103.19
371.802	86.19
372.028	82.19
372.254	75.19
372.48	81.19
372.706	90.19
372.932	84.19
373.158	80.19
373.384	93.19
373.61	81.19
373.835	82.19
374.061	93.19
374.287	82.19
374.513	94.19
374.739	78.19
374.965	90.19
375.191	93.19
375.416	78.19
375.642	90.19
375.868	81.19
376.094	97.19
376.319	73.19
376.545	101.19
376.771	93.19
376.997	83.19
377.222	83.19
377.448	74.19
377.674	77.19
377.899	81.19
378.125	87.19
378.35	89.19
378.576	88.19
378.802	85.19
379.027	88.19
379.253	97.19
379.478	74.19
379.704	75.19
379.929	88.19
380.155	76.19
380.38	83.19
380.606	78.19
380.831	83.19
381.057	89.19
381.282	90.19
381.507	96.19
381.733	96.19
381.958	80.19
382.184	96.19
382.409	82.19
382.634	90.19
382.86	77.19
383.085	85.19
383.31	101.19
383.535	78.19
383.761	82.19
383.986	85.19
384.211	83.19
384.436	73.19
384.662	78.19
384.887	98.19
385.112	75.19
385.337	76.19
385.562	74.19
385.787	79.19
386.013	81.19
386.238	93.19
386.463	77.19
386.688	94.19
386.913	80.19
387.138	75.19
387.363	85.19
387.588	93.19
387.813	84.19
388.038	81.19
388.263	87.19
388.488	82.19
388.713	85.19
388.938	80.19
389.163	66.19
389.387	76.19
389.612	69.19
389.837	79.19
390.062	90.19
390.287	95.19
390.512	96.19
390.736	94.19
390.961	77.19
391.186	80.19
391.411	94.19
391.636	85.19
391.86	73.19
392.085	86.19
392.31	95.19
392.534	90.19
392.759	85.19
392.984	101.19
393.208	85.19
393.433	88.19
393.658	77.19
393.882	85.19
394.107	90.19
394.331	103.19
394.556	86.19
394.78	91.19
395.005	79.19
395.229	84.19
395.454	95.19
395.678	84.19
395.903	83.19
396.127	88.19
396.352	77.19
396.576	89.19
396.801	97.19
397.025	90.19
397.249	83.19
397.474	94.19
397.698	80.19
397.922	84.19
398.147	81.19
398.371	81.19
398.595	88.19
398.82	83.19
399.044	78.19
399.268	85.19
399.492	81.19
399.717	79.19
399.941	69.19
400.165	87.19
400.389	90.19
400.613	89.19
400.837	94.19
401.062	82.19
401.286	89.19
401.51	88.19
401.734	85.19
401.958	92.19
402.182	85.19
402.406	87.19
402.63	78.19
402.854	92.19
403.078	83.19
403.302	81.19
403.526	88.19
403.75	98.19
403.974	105.19
404.198	137.19
404.422	222.19
404.645	287.19
404.869	223.19
405.093	157.19
405.317	101.19
405.541	98.19
405.765	73.19
405.988	84.19
406.212	89.19
406.436	91.19
406.66	74.19
406.883	83.19
407.107	98.19
407.331	71.19
407.555	82.19
407.778	96.19
408.002	93.19
408.226	81.19
408.449	95.19
408.673	89.19
408.896	81.19
409.12	89.19
409.344	93.19
409.567	94.19
409.791	79.19
410.014	79.19
410.238	85.19
410.461	81.19
410.685	99.19
410.908	96.19
411.132	91.19
411.355	90.19
411.578	92.19
411.802	77.19
412.025	79.19
412.249	88.19
412.472	96.19
412.695	81.19
412.919	74.19
413.142	81.19
413.365	78.19
413.589	86.19
413.812	88.19
414.035	90.19
414.258	88.19
414.482	84.19
414.705	82.19
414.928	85.19
415.151	81.19
415.374	82.19
415.597	94.19
415.821	79.19
416.044	84.19
416.267	91.19
416.49	90.19
416.713	83.19
416.936	101.19
417.159	87.19
417.382	86.19
417.605	84.19
417.828	80.19
418.051	90.19
418.274	86.19
418.497	88.19
418.72	90.19
418.943	90.19
419.166	83.19
419.389	88.19
419.611	84.19
419.834	85.19
420.057	84.19
420.28	86.19
420.503	75.19
420.726	105.19
420.948	84.19
421.171	87.19
421.394	84.19
421.617	91.19
421.839	79.19
422.062	85.19
422.285	93.19
422.507	88.19
422.73	98.19
422.953	95.19
423.175	83.19
423.398	86.19
423.621	90.19
423.843	70.19
424.066	85.19
424.288	78.19
424.511	82.19
424.733	87.19
424.956	108.19
425.178	89.19
425.401	98.19
425.623	92.19
425.846	76.19
426.068	87.19
426.291	90.19
426.513	87.19
426.735	78.19
426.958	86.19
427.18	75.19
427.402	93.19
427.625	81.19
427.847	80.19
428.069	80.19
428.292	86.19
428.514	83.19
428.736	98.19
428.958	102.19
429.181	88.19
429.403	91.19
429.625	94.19
429.847	77.19
430.069	87.19
430.292	88.19
430.514	81.19
430.736	85.19
430.958	78.19
431.18	91.19
431.402	93.19
431.624	86.19
431.846	86.19
432.068	92.19
432.29	74.19
432.512	92.19
432.734	89.19
432.956	86.19
433.178	94.19
433.4	74.19
433.622	75.19
433.844	82.19
434.066	71.19
434.287	80.19
434.509	82.19
434.731	98.19
434.953	99.19
435.175	87.19
435.397	84.19
435.618	93.19
435.84	99.19
436.062	95.19
436.284	89.19
436.505	75.19
436.727	93.19
436.949	73.19
437.17	78.19
437.392	95.19
437.614	105.19
437.835	85.19
438.057	85.19
438.278	79.19
438.5	89.19
438.721	96.19
438.943	85.19
439.165	79.19
439.386	84.19
439.608	83.19
439.829	88.19
440.05	95.19
440.272	103.19
440.493	80.19
440.715	91.19
440.936	102.19
441.158	91.19
441.379	95.19
441.6	95.19
441.822	87.19
442.043	77.19
442.264	73.19
442.486	86.19
442.707	83.19
442.928	71.19
443.149	94.19
443.371	93.19
443.592	83.19
443.813	94.19
444.034	97.19
444.255	93.19
444.476	79.19
444.698	88.19
444.919	91.19
445.14	182.19
445.361	119.19
445.582	93.19
445.803	81.19
446.024	90.19
446.245	77.19
446.466	102.19
446.687	87.19
446.908	89.19
447.129	87.19
447.35	73.19
447.571	78.19
447.792	86.19
448.013	99.19
448.234	100.19
448.455	96.19
448.675	91.19
448.896	91.19
449.117	91.19
449.338	90.19
449.559	93.19
449.779	83.19
450	95.19
450.221	91.19
450.442	96.19
450.662	90.19
450.883	104.19
451.104	85.19
451.324	86.19
451.545	87.19
451.766	87.19
451.986	91.19
452.207	86.19
452.428	89.19
452.648	90.19
452.869	85.19
453.089	87.19
453.31	82.19
453.53	88.19
453.751	77.19
453.971	82.19
454.192	86.19
454.412	76.19
454.633	97.19
454.853	78.19
455.073	98.19
455.294	93.19
455.514	77.19
455.734	83.19
455.955	88.19
456.175	97.19
456.395	86.19
456.616	87.19
456.836	97.19
457.056	71.19
457.276	77.19
457.497	91.19
457.717	89.19
457.937	92.19
458.157	90.19
458.377	68.19
458.598	87.19
458.818	94.19
459.038	82.19
459.258	81.19
459.478	92.19
459.698	79.19
459.918	89.19
460.138	93.19
460.358	78.19
460.578	93.19
460.798	90.19
461.018	101.19
461.238	82.19
461.458	87.19
461.678	77.19
461.898	81.19
462.118	81.19
462.338	84.19
462.558	91.19
462.777	83.19
462.997	86.19
463.217	88.19
463.437	74.19
463.657	87.19
463.876	76.19
464.096	74.19
464.316	79.19
464.536	88.19
464.755	97.19
464.975	91.19
465.195	88.19
465.414	78.19
465.634	78.19
465.854	88.19
466.073	90.19
466.293	92.19
466.512	90.19
466.732	83.19
466.951	77.19
467.171	85.19
467.391	91.19
467.61	94.19
467.829	97.19
468.049	100.19
468.268	92.19
468.488	79.19
468.707	88.19
468.927	87.19
469.146	94.19
469.365	91.19
469.585	95.19
469.804	89.19
470.023	92.19
470.243	110.19
470.462	90.19
470.681	81.19
470.901	89.19
471.12	94.19
471.339	91.19
471.558	87.19
471.777	85.19
471.997	80.19
472.216	77.19
472.435	94.19
472.654	83.19
472.873	91.19
473.092	98.19
473.311	96.19
473.53	92.19
473.749	93.19
473.968	80.19
474.187	73.19
474.406	86.19
474.625	87.19
474.844	101.19
475.063	75.19
475.282	96.19
475.501	86.19
475.72	92.19
475.939	76.19
476.158	90.19
476.377	94.19
476.596	96.19
476.814	75.19
477.033	77.19
477.252	85.19
477.471	71.19
477.69	85.19
477.908	89.19
478.127	103.19
478.346	99.19
478.564	87.19
478.783	79.19
479.002	94.19
479.22	85.19
479.439	102.19
479.658	59.19
479.876	87.19
480.095	94.19
480.313	90.19
480.532	91.19
480.751	89.19
480.969	93.19
481.188	80.19
481.406	70.19
481.624	95.19
481.843	89.19
482.061	85.19
482.28	97.19
482.498	95.19
482.717	87.19
482.935	93.19
483.153	84.19
483.372	87.19
483.59	85.19
483.808	81.19
484.027	80.19
484.245	83.19
484.463	92.19
484.681	91.19
484.9	81.19
485.118	89.19
485.336	101.19
485.554	93.19
485.772	90.19
485.99	92.19
486.209	101.19
486.427	97.19
486.645	79.19
486.863	83.19
487.081	73.19
487.299	97.19
487.517	102.19
487.735	94.19
487.953	85.19
488.171	97.19
488.389	79.19
488.607	87.19
488.825	97.19
489.043	95.19
489.261	103.19
489.479	89.19
489.696	81.19
489.914	88.19
490.132	92.19
490.35	104.19
490.568	83.19
490.786	107.19
491.003	86.19
491.221	97.19
491.439	98.19
491.657	85.19
491.874	91.19
492.092	94.19
492.31	102.19
492.527	96.19
492.745	111.19
492.963	92.19
493.18	94.19
493.398	86.19
493.615	91.19
493.833	92.19
494.05	101.19
494.268	112.19
494.485	92.19
494.703	105.19
494.92	97.19
495.138	93.19
495.355	104.19
495.573	91.19
495.79	94.19
496.008	103.19
496.225	91.19
496.442	93.19
496.66	103.19
496.877	80.19
497.094	89.19
497.312	97.19
497.529	98.19
497.746	91.19
497.963	98.19
498.181	78.19
498.398	87.19
498.615	92.19
498.832	88.19
499.049	81.19
499.267	82.19
499.484	93.19
499.701	97.19
499.918	88.19
500.135	77.19
500.352	91.19
500.569	95.19
500.786	92.19
501.003	74.19
501.22	94.19
501.437	84.19
501.654	96.19
501.871	98.19
502.088	93.19
502.305	97.19
502.522	75.19
502.739	95.19
502.956	96.19
503.172	89.19
503.389	92.19
503.606	71.19
503.823	86.19
504.04	108.19
504.256	100.19
504.473	99.19
504.69	96.19
504.907	101.19
505.123	85.19
505.34	91.19
505.557	90.19
505.773	96.19
505.99	91.19
506.207	85.19
506.423	90.19
506.64	94.19
506.856	104.19
507.073	91.19
507.289	85.19
507.506	79.19
507.722	85.19
507.939	95.19
508.155	93.19
508.372	101.19
508.588	94.19
508.805	85.19
509.021	97.19
509.238	95.19
509.454	81.19
509.67	85.19
509.887	86.19
510.103	102.19
510.319	115.19
510.536	105.19
510.752	77.19
510.968	93.19
511.184	97.19
511.401	108.19
511.617	101.19
511.833	82.19
512.049	99.19
512.265	104.19
512.481	99.19
512.698	86.19
512.914	95.19
513.13	80.19
513.346	101.19
513.562	78.19
513.778	90.19
513.994	94.19
514.21	92.19
514.426	94.19
514.642	71.19
514.858	83.19
515.074	82.19
515.29	84.19
515.506	86.19
515.721	89.19
515.937	94.19
516.153	75.19
516.369	94.19
516.585	88.19
516.801	96.19
517.016	82.19
517.232	91.19
517.448	91.19
517.664	102.19
517.879	71.19
518.095	83.19
518.311	94.19
518.527	82.19
518.742	79.19
518.958	87.19
519.173	93.19
519.389	98.19
