Data from KBr_2_HRD10591_00006.txt Node
Date: Mon Jan 19 13:12:53 EST 2026
User: Yrep
Spectrometer: HR+D1059
Trigger mode: 1
Integration Time (sec): 1.000000E-1
Scans to average: 1
Electric dark correction enabled: true
Nonlinearity correction enabled: false
Boxcar width: 0
XAxis mode: Wavelengths
Number of Pixels in Spectrum: 2048
>>>>>Begin Spectral Data<<<<<
223.165	-23.19
223.4	-23.19
223.635	-23.19
223.869	-29.19
224.104	-21.19
224.338	-14.19
224.573	-3.19
224.808	-6.19
225.042	-14.19
225.277	-6.19
225.511	1.81
225.746	-14.19
225.98	9.81
226.215	0.81
226.449	16.81
226.683	21.81
226.918	32.81
227.152	47.81
227.387	37.81
227.621	51.81
227.856	48.81
228.09	42.81
228.324	52.81
228.559	66.81
228.793	64.81
229.027	58.81
229.262	48.81
229.496	59.81
229.73	66.81
229.964	72.81
230.199	67.81
230.433	71.81
230.667	69.81
230.901	89.81
231.136	65.81
231.37	89.81
231.604	81.81
231.838	71.81
232.072	79.81
232.306	75.81
232.541	79.81
232.775	80.81
233.009	77.81
233.243	73.81
233.477	76.81
233.711	84.81
233.945	83.81
234.179	83.81
234.413	68.81
234.647	71.81
234.881	71.81
235.115	86.81
235.349	67.81
235.583	86.81
235.817	75.81
236.051	87.81
236.285	78.81
236.519	84.81
236.753	74.81
236.987	79.81
237.221	71.81
237.455	83.81
237.689	75.81
237.922	80.81
238.156	73.81
238.39	80.81
238.624	81.81
238.858	70.81
239.091	67.81
239.325	87.81
239.559	77.81
239.793	86.81
240.027	73.81
240.26	67.81
240.494	86.81
240.728	82.81
240.961	69.81
241.195	75.81
241.429	77.81
241.662	71.81
241.896	82.81
242.13	87.81
242.363	69.81
242.597	61.81
242.83	78.81
243.064	67.81
243.298	66.81
243.531	84.81
243.765	71.81
243.998	77.81
244.232	90.81
244.465	74.81
244.699	56.81
244.932	69.81
245.166	77.81
245.399	81.81
245.633	94.81
245.866	72.81
246.099	63.81
246.333	77.81
246.566	80.81
246.8	81.81
247.033	82.81
247.266	65.81
247.5	75.81
247.733	88.81
247.966	81.81
248.2	74.81
248.433	98.81
248.666	65.81
248.899	74.81
249.133	82.81
249.366	87.81
249.599	79.81
249.832	80.81
250.066	86.81
250.299	85.81
250.532	76.81
250.765	66.81
250.998	67.81
251.231	73.81
251.465	66.81
251.698	76.81
251.931	68.81
252.164	85.81
252.397	73.81
252.63	85.81
252.863	90.81
253.096	83.81
253.329	79.81
253.562	75.81
253.795	76.81
254.028	74.81
254.261	74.81
254.494	86.81
254.727	86.81
254.96	86.81
255.193	85.81
255.426	79.81
255.659	50.81
255.892	80.81
256.124	79.81
256.357	80.81
256.59	87.81
256.823	85.81
257.056	85.81
257.289	82.81
257.521	74.81
257.754	73.81
257.987	96.81
258.22	79.81
258.452	73.81
258.685	67.81
258.918	64.81
259.151	80.81
259.383	83.81
259.616	81.81
259.849	65.81
260.081	67.81
260.314	81.81
260.547	73.81
260.779	85.81
261.012	74.81
261.244	77.81
261.477	92.81
261.71	80.81
261.942	79.81
262.175	86.81
262.407	73.81
262.64	73.81
262.872	73.81
263.105	65.81
263.337	77.81
263.57	75.81
263.802	74.81
264.035	80.81
264.267	71.81
264.499	80.81
264.732	90.81
264.964	68.81
265.197	97.81
265.429	82.81
265.661	89.81
265.894	77.81
266.126	90.81
266.358	90.81
266.591	81.81
266.823	78.81
267.055	85.81
267.287	79.81
267.52	92.81
267.752	87.81
267.984	88.81
268.216	80.81
268.448	92.81
268.681	80.81
268.913	89.81
269.145	92.81
269.377	75.81
269.609	89.81
269.841	83.81
270.073	75.81
270.306	73.81
270.538	94.81
270.77	89.81
271.002	92.81
271.234	86.81
271.466	105.81
271.698	83.81
271.93	77.81
272.162	89.81
272.394	81.81
272.626	72.81
272.858	65.81
273.09	87.81
273.322	75.81
273.553	79.81
273.785	82.81
274.017	90.81
274.249	83.81
274.481	83.81
274.713	74.81
274.945	79.81
275.176	89.81
275.408	84.81
275.64	81.81
275.872	91.81
276.104	88.81
276.335	81.81
276.567	86.81
276.799	91.81
277.031	81.81
277.262	82.81
277.494	98.81
277.726	91.81
277.957	81.81
278.189	98.81
278.421	85.81
278.652	87.81
278.884	93.81
279.115	95.81
279.347	89.81
279.579	88.81
279.81	85.81
280.042	80.81
280.273	83.81
280.505	84.81
280.736	89.81
280.968	86.81
281.199	82.81
281.431	81.81
281.662	83.81
281.894	82.81
282.125	81.81
282.356	86.81
282.588	80.81
282.819	97.81
283.051	91.81
283.282	83.81
283.513	82.81
283.745	90.81
283.976	75.81
284.207	82.81
284.439	74.81
284.67	89.81
284.901	71.81
285.132	80.81
285.364	90.81
285.595	86.81
285.826	85.81
286.057	75.81
286.288	87.81
286.52	85.81
286.751	67.81
286.982	83.81
287.213	78.81
287.444	76.81
287.675	85.81
287.906	78.81
288.138	90.81
288.369	88.81
288.6	89.81
288.831	87.81
289.062	77.81
289.293	90.81
289.524	73.81
289.755	77.81
289.986	74.81
290.217	98.81
290.448	82.81
290.679	94.81
290.91	94.81
291.141	86.81
291.371	98.81
291.602	82.81
291.833	83.81
292.064	98.81
292.295	91.81
292.526	85.81
292.757	86.81
292.987	86.81
293.218	74.81
293.449	85.81
293.68	87.81
293.91	77.81
294.141	80.81
294.372	88.81
294.603	67.81
294.833	72.81
295.064	92.81
295.295	81.81
295.525	79.81
295.756	88.81
295.987	90.81
296.217	96.81
296.448	89.81
296.679	99.81
296.909	86.81
297.14	85.81
297.37	89.81
297.601	89.81
297.831	83.81
298.062	90.81
298.292	87.81
298.523	81.81
298.753	89.81
298.984	84.81
299.214	89.81
299.445	64.81
299.675	79.81
299.905	95.81
300.136	79.81
300.366	86.81
300.597	91.81
300.827	72.81
301.057	74.81
301.288	81.81
301.518	71.81
301.748	82.81
301.979	99.81
302.209	83.81
302.439	73.81
302.669	90.81
302.9	85.81
303.13	91.81
303.36	98.81
303.59	87.81
303.82	87.81
304.051	94.81
304.281	78.81
304.511	96.81
304.741	83.81
304.971	79.81
305.201	98.81
305.431	93.81
305.661	90.81
305.891	83.81
306.121	81.81
306.352	96.81
306.582	80.81
306.812	82.81
307.042	89.81
307.272	84.81
307.502	87.81
307.731	95.81
307.961	89.81
308.191	85.81
308.421	64.81
308.651	98.81
308.881	103.81
309.111	89.81
309.341	91.81
309.571	79.81
309.8	92.81
310.03	74.81
310.26	94.81
310.49	88.81
310.72	86.81
310.949	86.81
311.179	85.81
311.409	83.81
311.639	76.81
311.868	78.81
312.098	92.81
312.328	81.81
312.557	88.81
312.787	80.81
313.017	82.81
313.246	80.81
313.476	93.81
313.706	81.81
313.935	90.81
314.165	90.81
314.394	86.81
314.624	71.81
314.853	78.81
315.083	102.81
315.312	76.81
315.542	96.81
315.771	88.81
316.001	80.81
316.23	72.81
316.46	77.81
316.689	68.81
316.919	91.81
317.148	93.81
317.377	95.81
317.607	99.81
317.836	97.81
318.065	97.81
318.295	87.81
318.524	98.81
318.753	80.81
318.983	89.81
319.212	100.81
319.441	72.81
319.67	86.81
319.9	86.81
320.129	94.81
320.358	105.81
320.587	82.81
320.816	74.81
321.046	93.81
321.275	79.81
321.504	81.81
321.733	94.81
321.962	76.81
322.191	83.81
322.42	85.81
322.649	86.81
322.878	89.81
323.108	87.81
323.337	85.81
323.566	85.81
323.795	79.81
324.024	95.81
324.253	78.81
324.482	97.81
324.71	83.81
324.939	80.81
325.168	90.81
325.397	81.81
325.626	94.81
325.855	99.81
326.084	89.81
326.313	82.81
326.542	88.81
326.77	77.81
326.999	91.81
327.228	92.81
327.457	91.81
327.686	93.81
327.914	90.81
328.143	90.81
328.372	72.81
328.6	103.81
328.829	87.81
329.058	94.81
329.287	95.81
329.515	102.81
329.744	87.81
329.972	95.81
330.201	81.81
330.43	95.81
330.658	93.81
330.887	71.81
331.115	81.81
331.344	93.81
331.572	82.81
331.801	87.81
332.03	79.81
332.258	85.81
332.486	75.81
332.715	82.81
332.943	77.81
333.172	77.81
333.4	80.81
333.629	90.81
333.857	89.81
334.085	82.81
334.314	87.81
334.542	71.81
334.771	81.81
334.999	71.81
335.227	88.81
335.455	95.81
335.684	78.81
335.912	95.81
336.14	79.81
336.369	72.81
336.597	76.81
336.825	83.81
337.053	76.81
337.281	87.81
337.51	81.81
337.738	96.81
337.966	87.81
338.194	91.81
338.422	89.81
338.65	91.81
338.878	84.81
339.106	73.81
339.334	80.81
339.562	75.81
339.79	85.81
340.018	87.81
340.246	90.81
340.474	93.81
340.702	93.81
340.93	89.81
341.158	74.81
341.386	87.81
341.614	80.81
341.842	89.81
342.07	78.81
342.298	87.81
342.526	88.81
342.754	85.81
342.981	97.81
343.209	76.81
343.437	101.81
343.665	92.81
343.893	91.81
344.12	88.81
344.348	88.81
344.576	94.81
344.804	101.81
345.031	96.81
345.259	82.81
345.487	94.81
345.714	91.81
345.942	98.81
346.17	88.81
346.397	90.81
346.625	87.81
346.853	85.81
347.08	79.81
347.308	89.81
347.535	79.81
347.763	100.81
347.99	86.81
348.218	86.81
348.445	89.81
348.673	97.81
348.9	91.81
349.128	95.81
349.355	82.81
349.583	88.81
349.81	91.81
350.037	80.81
350.265	85.81
350.492	86.81
350.72	95.81
350.947	87.81
351.174	83.81
351.402	81.81
351.629	71.81
351.856	79.81
352.083	89.81
352.311	100.81
352.538	101.81
352.765	94.81
352.992	84.81
353.22	88.81
353.447	99.81
353.674	82.81
353.901	96.81
354.128	93.81
354.355	88.81
354.583	90.81
354.81	93.81
355.037	89.81
355.264	87.81
355.491	79.81
355.718	82.81
355.945	80.81
356.172	74.81
356.399	96.81
356.626	94.81
356.853	96.81
357.08	90.81
357.307	86.81
357.534	75.81
357.761	88.81
357.988	81.81
358.215	95.81
358.441	97.81
358.668	90.81
358.895	69.81
359.122	86.81
359.349	89.81
359.576	80.81
359.802	75.81
360.029	86.81
360.256	79.81
360.483	86.81
360.709	95.81
360.936	87.81
361.163	90.81
361.39	76.81
361.616	65.81
361.843	69.81
362.07	81.81
362.296	88.81
362.523	91.81
362.749	77.81
362.976	79.81
363.203	82.81
363.429	80.81
363.656	89.81
363.882	89.81
364.109	93.81
364.335	76.81
364.562	84.81
364.788	83.81
365.015	81.81
365.241	94.81
365.468	91.81
365.694	81.81
365.92	90.81
366.147	74.81
366.373	85.81
366.599	95.81
366.826	90.81
367.052	85.81
367.278	85.81
367.505	90.81
367.731	73.81
367.957	98.81
368.184	88.81
368.41	80.81
368.636	73.81
368.862	89.81
369.089	80.81
369.315	80.81
369.541	84.81
369.767	81.81
369.993	86.81
370.219	82.81
370.445	98.81
370.672	95.81
370.898	91.81
371.124	77.81
371.35	83.81
371.576	90.81
371.802	94.81
372.028	98.81
372.254	78.81
372.48	85.81
372.706	95.81
372.932	79.81
373.158	99.81
373.384	76.81
373.61	85.81
373.835	77.81
374.061	82.81
374.287	103.81
374.513	93.81
374.739	83.81
374.965	99.81
375.191	84.81
375.416	92.81
375.642	77.81
375.868	79.81
376.094	80.81
376.319	81.81
376.545	80.81
376.771	82.81
376.997	74.81
377.222	91.81
377.448	77.81
377.674	93.81
377.899	93.81
378.125	79.81
378.35	73.81
378.576	82.81
378.802	79.81
379.027	103.81
379.253	73.81
379.478	93.81
379.704	80.81
379.929	72.81
380.155	111.81
380.38	90.81
380.606	87.81
380.831	89.81
381.057	98.81
381.282	85.81
381.507	89.81
381.733	78.81
381.958	88.81
382.184	79.81
382.409	78.81
382.634	79.81
382.86	86.81
383.085	83.81
383.31	94.81
383.535	89.81
383.761	75.81
383.986	87.81
384.211	85.81
384.436	90.81
384.662	83.81
384.887	79.81
385.112	96.81
385.337	94.81
385.562	98.81
385.787	90.81
386.013	87.81
386.238	84.81
386.463	81.81
386.688	81.81
386.913	78.81
387.138	89.81
387.363	107.81
387.588	93.81
387.813	94.81
388.038	88.81
388.263	80.81
388.488	89.81
388.713	80.81
388.938	83.81
389.163	95.81
389.387	94.81
389.612	90.81
389.837	75.81
390.062	90.81
390.287	82.81
390.512	83.81
390.736	90.81
390.961	83.81
391.186	87.81
391.411	71.81
391.636	83.81
391.86	79.81
392.085	86.81
392.31	81.81
392.534	80.81
392.759	98.81
392.984	87.81
393.208	102.81
393.433	84.81
393.658	70.81
393.882	73.81
394.107	75.81
394.331	85.81
394.556	90.81
394.78	77.81
395.005	81.81
395.229	99.81
395.454	82.81
395.678	92.81
395.903	101.81
396.127	81.81
396.352	85.81
396.576	98.81
396.801	85.81
397.025	82.81
397.249	84.81
397.474	114.81
397.698	85.81
397.922	88.81
398.147	82.81
398.371	79.81
398.595	89.81
398.82	83.81
399.044	88.81
399.268	85.81
399.492	78.81
399.717	85.81
399.941	86.81
400.165	78.81
400.389	96.81
400.613	83.81
400.837	82.81
401.062	89.81
401.286	81.81
401.51	85.81
401.734	75.81
401.958	96.81
402.182	90.81
402.406	90.81
402.63	94.81
402.854	91.81
403.078	92.81
403.302	94.81
403.526	89.81
403.75	100.81
403.974	115.81
404.198	136.81
404.422	229.81
404.645	245.81
404.869	206.81
405.093	131.81
405.317	112.81
405.541	95.81
405.765	84.81
405.988	83.81
406.212	95.81
406.436	93.81
406.66	85.81
406.883	74.81
407.107	82.81
407.331	80.81
407.555	87.81
407.778	95.81
408.002	86.81
408.226	75.81
408.449	93.81
408.673	95.81
408.896	90.81
409.12	95.81
409.344	88.81
409.567	106.81
409.791	92.81
410.014	71.81
410.238	79.81
410.461	80.81
410.685	83.81
410.908	92.81
411.132	97.81
411.355	89.81
411.578	83.81
411.802	81.81
412.025	94.81
412.249	86.81
412.472	93.81
412.695	86.81
412.919	92.81
413.142	81.81
413.365	91.81
413.589	82.81
413.812	85.81
414.035	95.81
414.258	90.81
414.482	77.81
414.705	88.81
414.928	81.81
415.151	79.81
415.374	85.81
415.597	65.81
415.821	103.81
416.044	90.81
416.267	95.81
416.49	86.81
416.713	101.81
416.936	80.81
417.159	79.81
417.382	89.81
417.605	77.81
417.828	87.81
418.051	106.81
418.274	70.81
418.497	78.81
418.72	86.81
418.943	85.81
419.166	78.81
419.389	80.81
419.611	75.81
419.834	88.81
420.057	89.81
420.28	94.81
420.503	82.81
420.726	92.81
420.948	86.81
421.171	90.81
421.394	84.81
421.617	88.81
421.839	93.81
422.062	85.81
422.285	90.81
422.507	77.81
422.73	93.81
422.953	83.81
423.175	96.81
423.398	86.81
423.621	91.81
423.843	88.81
424.066	78.81
424.288	84.81
424.511	95.81
424.733	77.81
424.956	95.81
425.178	72.81
425.401	94.81
425.623	91.81
425.846	82.81
426.068	96.81
426.291	78.81
426.513	82.81
426.735	98.81
426.958	95.81
427.18	85.81
427.402	99.81
427.625	84.81
427.847	94.81
428.069	95.81
428.292	74.81
428.514	102.81
428.736	87.81
428.958	109.81
429.181	95.81
429.403	87.81
429.625	72.81
429.847	100.81
430.069	91.81
430.292	90.81
430.514	81.81
430.736	82.81
430.958	93.81
431.18	80.81
431.402	101.81
431.624	85.81
431.846	80.81
432.068	87.81
432.29	102.81
432.512	88.81
432.734	82.81
432.956	82.81
433.178	92.81
433.4	86.81
433.622	88.81
433.844	83.81
434.066	71.81
434.287	70.81
434.509	92.81
434.731	96.81
434.953	82.81
435.175	90.81
435.397	94.81
435.618	94.81
435.84	73.81
436.062	83.81
436.284	93.81
436.505	80.81
436.727	73.81
436.949	86.81
437.17	83.81
437.392	79.81
437.614	94.81
437.835	77.81
438.057	86.81
438.278	91.81
438.5	77.81
438.721	79.81
438.943	91.81
439.165	74.81
439.386	99.81
439.608	94.81
439.829	91.81
440.05	89.81
440.272	91.81
440.493	85.81
440.715	89.81
440.936	79.81
441.158	85.81
441.379	85.81
441.6	93.81
441.822	80.81
442.043	90.81
442.264	79.81
442.486	81.81
442.707	94.81
442.928	101.81
443.149	96.81
443.371	92.81
443.592	102.81
443.813	87.81
444.034	101.81
444.255	87.81
444.476	93.81
444.698	80.81
444.919	93.81
445.14	162.81
445.361	137.81
445.582	82.81
445.803	85.81
446.024	91.81
446.245	97.81
446.466	81.81
446.687	89.81
446.908	90.81
447.129	87.81
447.35	100.81
447.571	89.81
447.792	97.81
448.013	77.81
448.234	82.81
448.455	88.81
448.675	80.81
448.896	76.81
449.117	89.81
449.338	91.81
449.559	93.81
449.779	75.81
450	93.81
450.221	85.81
450.442	90.81
450.662	89.81
450.883	82.81
451.104	80.81
451.324	93.81
451.545	79.81
451.766	92.81
451.986	98.81
452.207	71.81
452.428	87.81
452.648	94.81
452.869	88.81
453.089	90.81
453.31	95.81
453.53	101.81
453.751	90.81
453.971	93.81
454.192	77.81
454.412	80.81
454.633	79.81
454.853	92.81
455.073	82.81
455.294	84.81
455.514	95.81
455.734	78.81
455.955	91.81
456.175	85.81
456.395	87.81
456.616	96.81
456.836	74.81
457.056	80.81
457.276	86.81
457.497	83.81
457.717	85.81
457.937	86.81
458.157	76.81
458.377	83.81
458.598	79.81
458.818	90.81
459.038	86.81
459.258	83.81
459.478	71.81
459.698	94.81
459.918	89.81
460.138	85.81
460.358	82.81
460.578	89.81
460.798	93.81
461.018	81.81
461.238	83.81
461.458	81.81
461.678	93.81
461.898	88.81
462.118	82.81
462.338	87.81
462.558	73.81
462.777	97.81
462.997	84.81
463.217	91.81
463.437	89.81
463.657	83.81
463.876	78.81
464.096	73.81
464.316	94.81
464.536	87.81
464.755	95.81
464.975	90.81
465.195	82.81
465.414	76.81
465.634	89.81
465.854	76.81
466.073	81.81
466.293	90.81
466.512	88.81
466.732	94.81
466.951	93.81
467.171	93.81
467.391	87.81
467.61	95.81
467.829	89.81
468.049	79.81
468.268	83.81
468.488	104.81
468.707	83.81
468.927	87.81
469.146	93.81
469.365	91.81
469.585	95.81
469.804	86.81
470.023	82.81
470.243	99.81
470.462	86.81
470.681	94.81
470.901	92.81
471.12	84.81
471.339	81.81
471.558	90.81
471.777	94.81
471.997	81.81
472.216	83.81
472.435	76.81
472.654	86.81
472.873	89.81
473.092	87.81
473.311	77.81
473.53	83.81
473.749	95.81
473.968	87.81
474.187	97.81
474.406	76.81
474.625	97.81
474.844	103.81
475.063	91.81
475.282	94.81
475.501	91.81
475.72	84.81
475.939	96.81
476.158	78.81
476.377	102.81
476.596	85.81
476.814	91.81
477.033	80.81
477.252	82.81
477.471	95.81
477.69	85.81
477.908	74.81
478.127	108.81
478.346	81.81
478.564	98.81
478.783	98.81
479.002	95.81
479.22	93.81
479.439	87.81
479.658	73.81
479.876	78.81
480.095	82.81
480.313	79.81
480.532	84.81
480.751	87.81
480.969	79.81
481.188	83.81
481.406	97.81
481.624	83.81
481.843	78.81
482.061	79.81
482.28	98.81
482.498	73.81
482.717	91.81
482.935	81.81
483.153	86.81
483.372	77.81
483.59	94.81
483.808	105.81
484.027	101.81
484.245	85.81
484.463	87.81
484.681	94.81
484.9	86.81
485.118	86.81
485.336	86.81
485.554	91.81
485.772	75.81
485.99	92.81
486.209	93.81
486.427	84.81
486.645	99.81
486.863	100.81
487.081	87.81
487.299	101.81
487.517	90.81
487.735	94.81
487.953	80.81
488.171	90.81
488.389	83.81
488.607	91.81
488.825	78.81
489.043	88.81
489.261	93.81
489.479	77.81
489.696	90.81
489.914	89.81
490.132	97.81
490.35	99.81
490.568	86.81
490.786	87.81
491.003	92.81
491.221	84.81
491.439	101.81
491.657	82.81
491.874	114.81
492.092	87.81
492.31	93.81
492.527	89.81
492.745	94.81
492.963	96.81
493.18	87.81
493.398	115.81
493.615	113.81
493.833	95.81
494.05	89.81
494.268	90.81
494.485	92.81
494.703	92.81
494.92	101.81
495.138	100.81
495.355	98.81
495.573	97.81
495.79	98.81
496.008	102.81
496.225	101.81
496.442	93.81
496.66	108.81
496.877	105.81
497.094	90.81
497.312	89.81
497.529	95.81
497.746	100.81
497.963	81.81
498.181	108.81
498.398	89.81
498.615	95.81
498.832	87.81
499.049	99.81
499.267	106.81
499.484	91.81
499.701	91.81
499.918	86.81
500.135	93.81
500.352	87.81
500.569	91.81
500.786	90.81
501.003	94.81
501.22	95.81
501.437	85.81
501.654	89.81
501.871	94.81
502.088	76.81
502.305	93.81
502.522	81.81
502.739	87.81
502.956	76.81
503.172	93.81
503.389	99.81
503.606	91.81
503.823	100.81
504.04	85.81
504.256	95.81
504.473	101.81
504.69	99.81
504.907	108.81
505.123	75.81
505.34	90.81
505.557	95.81
505.773	99.81
505.99	91.81
506.207	84.81
506.423	102.81
506.64	78.81
506.856	86.81
507.073	87.81
507.289	81.81
507.506	93.81
507.722	99.81
507.939	86.81
508.155	95.81
508.372	90.81
508.588	99.81
508.805	86.81
509.021	95.81
509.238	91.81
509.454	83.81
509.67	104.81
509.887	95.81
510.103	91.81
510.319	94.81
510.536	96.81
510.752	97.81
510.968	96.81
511.184	98.81
511.401	107.81
511.617	88.81
511.833	91.81
512.049	103.81
512.265	101.81
512.481	94.81
512.698	82.81
512.914	82.81
513.13	80.81
513.346	88.81
513.562	81.81
513.778	82.81
513.994	83.81
514.21	80.81
514.426	86.81
514.642	85.81
514.858	80.81
515.074	88.81
515.29	96.81
515.506	83.81
515.721	92.81
515.937	97.81
516.153	89.81
516.369	89.81
516.585	88.81
516.801	98.81
517.016	83.81
517.232	86.81
517.448	79.81
517.664	78.81
517.879	76.81
518.095	88.81
518.311	79.81
518.527	96.81
518.742	82.81
518.958	81.81
519.173	82.81
519.389	94.81
