Data from KBr_2_HRD10591_00026.txt Node
Date: Mon Jan 19 13:13:03 EST 2026
User: Yrep
Spectrometer: HR+D1059
Trigger mode: 1
Integration Time (sec): 1.000000E-1
Scans to average: 1
Electric dark correction enabled: true
Nonlinearity correction enabled: false
Boxcar width: 0
XAxis mode: Wavelengths
Number of Pixels in Spectrum: 2048
>>>>>Begin Spectral Data<<<<<
223.165	-9.88
223.4	-9.88
223.635	-9.88
223.869	-11.88
224.104	-21.88
224.338	-24.88
224.573	-8.88
224.808	-12.88
225.042	-2.88
225.277	-11.88
225.511	-0.88
225.746	9.12
225.98	-6.88
226.215	5.12
226.449	7.12
226.683	21.12
226.918	33.12
227.152	37.12
227.387	49.12
227.621	43.12
227.856	47.12
228.09	40.12
228.324	53.12
228.559	70.12
228.793	46.12
229.027	64.12
229.262	54.12
229.496	57.12
229.73	77.12
229.964	77.12
230.199	73.12
230.433	50.12
230.667	78.12
230.901	75.12
231.136	71.12
231.37	92.12
231.604	76.12
231.838	80.12
232.072	81.12
232.306	68.12
232.541	76.12
232.775	70.12
233.009	80.12
233.243	81.12
233.477	73.12
233.711	80.12
233.945	73.12
234.179	85.12
234.413	86.12
234.647	59.12
234.881	81.12
235.115	89.12
235.349	64.12
235.583	72.12
235.817	59.12
236.051	79.12
236.285	79.12
236.519	76.12
236.753	78.12
236.987	75.12
237.221	86.12
237.455	68.12
237.689	83.12
237.922	81.12
238.156	77.12
238.39	79.12
238.624	86.12
238.858	73.12
239.091	73.12
239.325	83.12
239.559	82.12
239.793	73.12
240.027	71.12
240.26	80.12
240.494	69.12
240.728	73.12
240.961	63.12
241.195	77.12
241.429	77.12
241.662	100.12
241.896	75.12
242.13	78.12
242.363	70.12
242.597	76.12
242.83	79.12
243.064	88.12
243.298	91.12
243.531	83.12
243.765	79.12
243.998	84.12
244.232	73.12
244.465	70.12
244.699	73.12
244.932	72.12
245.166	69.12
245.399	70.12
245.633	80.12
245.866	59.12
246.099	77.12
246.333	66.12
246.566	76.12
246.8	63.12
247.033	73.12
247.266	83.12
247.5	69.12
247.733	77.12
247.966	83.12
248.2	71.12
248.433	74.12
248.666	80.12
248.899	89.12
249.133	81.12
249.366	66.12
249.599	65.12
249.832	68.12
250.066	79.12
250.299	96.12
250.532	69.12
250.765	68.12
250.998	80.12
251.231	85.12
251.465	75.12
251.698	69.12
251.931	66.12
252.164	69.12
252.397	77.12
252.63	79.12
252.863	77.12
253.096	76.12
253.329	77.12
253.562	86.12
253.795	83.12
254.028	94.12
254.261	73.12
254.494	71.12
254.727	82.12
254.96	82.12
255.193	57.12
255.426	89.12
255.659	82.12
255.892	72.12
256.124	82.12
256.357	86.12
256.59	84.12
256.823	84.12
257.056	74.12
257.289	77.12
257.521	83.12
257.754	85.12
257.987	66.12
258.22	82.12
258.452	72.12
258.685	88.12
258.918	72.12
259.151	83.12
259.383	86.12
259.616	88.12
259.849	79.12
260.081	69.12
260.314	74.12
260.547	94.12
260.779	71.12
261.012	77.12
261.244	85.12
261.477	97.12
261.71	79.12
261.942	66.12
262.175	85.12
262.407	75.12
262.64	81.12
262.872	72.12
263.105	83.12
263.337	80.12
263.57	76.12
263.802	84.12
264.035	71.12
264.267	71.12
264.499	85.12
264.732	67.12
264.964	84.12
265.197	79.12
265.429	74.12
265.661	85.12
265.894	72.12
266.126	75.12
266.358	89.12
266.591	70.12
266.823	81.12
267.055	75.12
267.287	78.12
267.52	77.12
267.752	81.12
267.984	91.12
268.216	68.12
268.448	81.12
268.681	85.12
268.913	68.12
269.145	84.12
269.377	99.12
269.609	81.12
269.841	78.12
270.073	88.12
270.306	86.12
270.538	74.12
270.77	95.12
271.002	78.12
271.234	89.12
271.466	83.12
271.698	85.12
271.93	86.12
272.162	83.12
272.394	65.12
272.626	80.12
272.858	76.12
273.09	78.12
273.322	85.12
273.553	81.12
273.785	83.12
274.017	96.12
274.249	77.12
274.481	74.12
274.713	84.12
274.945	88.12
275.176	85.12
275.408	78.12
275.64	84.12
275.872	85.12
276.104	87.12
276.335	80.12
276.567	95.12
276.799	77.12
277.031	89.12
277.262	83.12
277.494	86.12
277.726	87.12
277.957	86.12
278.189	101.12
278.421	96.12
278.652	89.12
278.884	80.12
279.115	75.12
279.347	89.12
279.579	99.12
279.81	93.12
280.042	76.12
280.273	84.12
280.505	84.12
280.736	86.12
280.968	95.12
281.199	77.12
281.431	86.12
281.662	86.12
281.894	86.12
282.125	86.12
282.356	80.12
282.588	77.12
282.819	92.12
283.051	80.12
283.282	77.12
283.513	87.12
283.745	94.12
283.976	83.12
284.207	87.12
284.439	83.12
284.67	94.12
284.901	64.12
285.132	85.12
285.364	86.12
285.595	71.12
285.826	92.12
286.057	99.12
286.288	76.12
286.52	80.12
286.751	77.12
286.982	81.12
287.213	83.12
287.444	73.12
287.675	78.12
287.906	92.12
288.138	71.12
288.369	92.12
288.6	103.12
288.831	89.12
289.062	67.12
289.293	74.12
289.524	80.12
289.755	78.12
289.986	99.12
290.217	81.12
290.448	74.12
290.679	88.12
290.91	93.12
291.141	88.12
291.371	71.12
291.602	83.12
291.833	79.12
292.064	88.12
292.295	75.12
292.526	87.12
292.757	87.12
292.987	83.12
293.218	81.12
293.449	89.12
293.68	78.12
293.91	95.12
294.141	89.12
294.372	81.12
294.603	85.12
294.833	93.12
295.064	76.12
295.295	81.12
295.525	74.12
295.756	87.12
295.987	84.12
296.217	96.12
296.448	79.12
296.679	100.12
296.909	87.12
297.14	85.12
297.37	79.12
297.601	99.12
297.831	73.12
298.062	81.12
298.292	93.12
298.523	83.12
298.753	79.12
298.984	95.12
299.214	85.12
299.445	86.12
299.675	102.12
299.905	92.12
300.136	75.12
300.366	89.12
300.597	95.12
300.827	88.12
301.057	70.12
301.288	87.12
301.518	72.12
301.748	78.12
301.979	91.12
302.209	71.12
302.439	94.12
302.669	94.12
302.9	81.12
303.13	88.12
303.36	75.12
303.59	86.12
303.82	79.12
304.051	77.12
304.281	83.12
304.511	97.12
304.741	84.12
304.971	91.12
305.201	100.12
305.431	89.12
305.661	92.12
305.891	90.12
306.121	90.12
306.352	100.12
306.582	90.12
306.812	76.12
307.042	68.12
307.272	78.12
307.502	76.12
307.731	77.12
307.961	97.12
308.191	84.12
308.421	84.12
308.651	94.12
308.881	77.12
309.111	72.12
309.341	84.12
309.571	83.12
309.8	84.12
310.03	83.12
310.26	80.12
310.49	80.12
310.72	87.12
310.949	89.12
311.179	79.12
311.409	79.12
311.639	88.12
311.868	76.12
312.098	80.12
312.328	97.12
312.557	87.12
312.787	77.12
313.017	78.12
313.246	74.12
313.476	84.12
313.706	86.12
313.935	86.12
314.165	92.12
314.394	68.12
314.624	84.12
314.853	89.12
315.083	93.12
315.312	80.12
315.542	100.12
315.771	80.12
316.001	87.12
316.23	92.12
316.46	83.12
316.689	75.12
316.919	97.12
317.148	94.12
317.377	93.12
317.607	96.12
317.836	78.12
318.065	80.12
318.295	95.12
318.524	80.12
318.753	86.12
318.983	97.12
319.212	79.12
319.441	85.12
319.67	79.12
319.9	86.12
320.129	92.12
320.358	83.12
320.587	80.12
320.816	86.12
321.046	86.12
321.275	78.12
321.504	77.12
321.733	99.12
321.962	85.12
322.191	97.12
322.42	84.12
322.649	93.12
322.878	79.12
323.108	75.12
323.337	91.12
323.566	94.12
323.795	82.12
324.024	87.12
324.253	100.12
324.482	79.12
324.71	75.12
324.939	94.12
325.168	76.12
325.397	87.12
325.626	103.12
325.855	85.12
326.084	87.12
326.313	73.12
326.542	94.12
326.77	87.12
326.999	84.12
327.228	81.12
327.457	81.12
327.686	73.12
327.914	73.12
328.143	79.12
328.372	89.12
328.6	89.12
328.829	84.12
329.058	68.12
329.287	87.12
329.515	83.12
329.744	84.12
329.972	80.12
330.201	76.12
330.43	75.12
330.658	66.12
330.887	78.12
331.115	88.12
331.344	86.12
331.572	85.12
331.801	81.12
332.03	96.12
332.258	85.12
332.486	73.12
332.715	80.12
332.943	65.12
333.172	76.12
333.4	82.12
333.629	93.12
333.857	72.12
334.085	87.12
334.314	89.12
334.542	68.12
334.771	87.12
334.999	79.12
335.227	74.12
335.455	101.12
335.684	87.12
335.912	73.12
336.14	91.12
336.369	89.12
336.597	93.12
336.825	87.12
337.053	89.12
337.281	86.12
337.51	75.12
337.738	83.12
337.966	89.12
338.194	75.12
338.422	76.12
338.65	89.12
338.878	85.12
339.106	76.12
339.334	76.12
339.562	91.12
339.79	94.12
340.018	76.12
340.246	89.12
340.474	88.12
340.702	82.12
340.93	103.12
341.158	75.12
341.386	96.12
341.614	86.12
341.842	81.12
342.07	73.12
342.298	76.12
342.526	81.12
342.754	93.12
342.981	81.12
343.209	83.12
343.437	87.12
343.665	80.12
343.893	88.12
344.12	97.12
344.348	80.12
344.576	93.12
344.804	78.12
345.031	81.12
345.259	73.12
345.487	91.12
345.714	92.12
345.942	78.12
346.17	81.12
346.397	86.12
346.625	79.12
346.853	85.12
347.08	81.12
347.308	76.12
347.535	77.12
347.763	86.12
347.99	97.12
348.218	95.12
348.445	83.12
348.673	84.12
348.9	79.12
349.128	87.12
349.355	71.12
349.583	73.12
349.81	79.12
350.037	89.12
350.265	71.12
350.492	79.12
350.72	90.12
350.947	84.12
351.174	75.12
351.402	78.12
351.629	76.12
351.856	99.12
352.083	91.12
352.311	71.12
352.538	77.12
352.765	89.12
352.992	71.12
353.22	77.12
353.447	90.12
353.674	82.12
353.901	95.12
354.128	95.12
354.355	91.12
354.583	88.12
354.81	77.12
355.037	97.12
355.264	85.12
355.491	71.12
355.718	82.12
355.945	81.12
356.172	77.12
356.399	88.12
356.626	90.12
356.853	82.12
357.08	82.12
357.307	85.12
357.534	91.12
357.761	81.12
357.988	92.12
358.215	87.12
358.441	79.12
358.668	81.12
358.895	83.12
359.122	81.12
359.349	71.12
359.576	83.12
359.802	86.12
360.029	95.12
360.256	85.12
360.483	84.12
360.709	64.12
360.936	71.12
361.163	81.12
361.39	90.12
361.616	72.12
361.843	80.12
362.07	83.12
362.296	80.12
362.523	83.12
362.749	90.12
362.976	81.12
363.203	84.12
363.429	92.12
363.656	84.12
363.882	81.12
364.109	88.12
364.335	87.12
364.562	83.12
364.788	84.12
365.015	89.12
365.241	79.12
365.468	77.12
365.694	75.12
365.92	87.12
366.147	87.12
366.373	83.12
366.599	79.12
366.826	78.12
367.052	70.12
367.278	89.12
367.505	78.12
367.731	83.12
367.957	94.12
368.184	86.12
368.41	82.12
368.636	76.12
368.862	75.12
369.089	87.12
369.315	77.12
369.541	79.12
369.767	89.12
369.993	71.12
370.219	95.12
370.445	81.12
370.672	90.12
370.898	94.12
371.124	91.12
371.35	87.12
371.576	77.12
371.802	72.12
372.028	76.12
372.254	93.12
372.48	79.12
372.706	79.12
372.932	71.12
373.158	70.12
373.384	76.12
373.61	77.12
373.835	73.12
374.061	83.12
374.287	86.12
374.513	81.12
374.739	83.12
374.965	71.12
375.191	86.12
375.416	73.12
375.642	75.12
375.868	82.12
376.094	89.12
376.319	75.12
376.545	89.12
376.771	86.12
376.997	84.12
377.222	89.12
377.448	86.12
377.674	72.12
377.899	74.12
378.125	85.12
378.35	79.12
378.576	89.12
378.802	84.12
379.027	84.12
379.253	81.12
379.478	90.12
379.704	80.12
379.929	84.12
380.155	73.12
380.38	79.12
380.606	84.12
380.831	88.12
381.057	91.12
381.282	78.12
381.507	81.12
381.733	86.12
381.958	81.12
382.184	80.12
382.409	84.12
382.634	84.12
382.86	90.12
383.085	93.12
383.31	83.12
383.535	76.12
383.761	80.12
383.986	70.12
384.211	76.12
384.436	81.12
384.662	74.12
384.887	68.12
385.112	86.12
385.337	87.12
385.562	86.12
385.787	88.12
386.013	85.12
386.238	87.12
386.463	67.12
386.688	107.12
386.913	69.12
387.138	86.12
387.363	80.12
387.588	78.12
387.813	92.12
388.038	75.12
388.263	72.12
388.488	84.12
388.713	81.12
388.938	75.12
389.163	91.12
389.387	82.12
389.612	87.12
389.837	76.12
390.062	79.12
390.287	73.12
390.512	75.12
390.736	77.12
390.961	79.12
391.186	102.12
391.411	66.12
391.636	82.12
391.86	79.12
392.085	77.12
392.31	80.12
392.534	83.12
392.759	83.12
392.984	91.12
393.208	75.12
393.433	87.12
393.658	86.12
393.882	89.12
394.107	92.12
394.331	87.12
394.556	84.12
394.78	88.12
395.005	80.12
395.229	84.12
395.454	89.12
395.678	87.12
395.903	84.12
396.127	79.12
396.352	91.12
396.576	77.12
396.801	95.12
397.025	92.12
397.249	91.12
397.474	77.12
397.698	79.12
397.922	85.12
398.147	91.12
398.371	79.12
398.595	90.12
398.82	93.12
399.044	78.12
399.268	88.12
399.492	72.12
399.717	83.12
399.941	77.12
400.165	83.12
400.389	86.12
400.613	86.12
400.837	71.12
401.062	85.12
401.286	89.12
401.51	79.12
401.734	86.12
401.958	88.12
402.182	81.12
402.406	81.12
402.63	87.12
402.854	69.12
403.078	92.12
403.302	83.12
403.526	93.12
403.75	85.12
403.974	84.12
404.198	110.12
404.422	153.12
404.645	176.12
404.869	140.12
405.093	94.12
405.317	79.12
405.541	92.12
405.765	89.12
405.988	89.12
406.212	87.12
406.436	101.12
406.66	81.12
406.883	87.12
407.107	81.12
407.331	86.12
407.555	92.12
407.778	89.12
408.002	71.12
408.226	80.12
408.449	83.12
408.673	79.12
408.896	88.12
409.12	93.12
409.344	81.12
409.567	77.12
409.791	78.12
410.014	76.12
410.238	81.12
410.461	81.12
410.685	87.12
410.908	91.12
411.132	87.12
411.355	71.12
411.578	87.12
411.802	93.12
412.025	81.12
412.249	86.12
412.472	77.12
412.695	84.12
412.919	75.12
413.142	81.12
413.365	86.12
413.589	87.12
413.812	72.12
414.035	94.12
414.258	84.12
414.482	89.12
414.705	67.12
414.928	96.12
415.151	86.12
415.374	86.12
415.597	86.12
415.821	83.12
416.044	78.12
416.267	85.12
416.49	73.12
416.713	83.12
416.936	76.12
417.159	74.12
417.382	96.12
417.605	81.12
417.828	77.12
418.051	76.12
418.274	77.12
418.497	92.12
418.72	88.12
418.943	81.12
419.166	88.12
419.389	88.12
419.611	83.12
419.834	84.12
420.057	83.12
420.28	71.12
420.503	92.12
420.726	93.12
420.948	82.12
421.171	90.12
421.394	94.12
421.617	80.12
421.839	76.12
422.062	83.12
422.285	80.12
422.507	103.12
422.73	84.12
422.953	78.12
423.175	87.12
423.398	83.12
423.621	88.12
423.843	61.12
424.066	89.12
424.288	78.12
424.511	79.12
424.733	82.12
424.956	83.12
425.178	82.12
425.401	91.12
425.623	87.12
425.846	84.12
426.068	96.12
426.291	97.12
426.513	78.12
426.735	65.12
426.958	88.12
427.18	89.12
427.402	82.12
427.625	67.12
427.847	75.12
428.069	84.12
428.292	97.12
428.514	71.12
428.736	83.12
428.958	91.12
429.181	80.12
429.403	79.12
429.625	71.12
429.847	77.12
430.069	93.12
430.292	87.12
430.514	81.12
430.736	84.12
430.958	93.12
431.18	83.12
431.402	87.12
431.624	92.12
431.846	94.12
432.068	87.12
432.29	89.12
432.512	96.12
432.734	89.12
432.956	87.12
433.178	87.12
433.4	77.12
433.622	90.12
433.844	83.12
434.066	83.12
434.287	81.12
434.509	80.12
434.731	85.12
434.953	84.12
435.175	92.12
435.397	94.12
435.618	88.12
435.84	82.12
436.062	82.12
436.284	86.12
436.505	82.12
436.727	92.12
436.949	89.12
437.17	83.12
437.392	90.12
437.614	89.12
437.835	101.12
438.057	94.12
438.278	75.12
438.5	100.12
438.721	77.12
438.943	84.12
439.165	77.12
439.386	71.12
439.608	69.12
439.829	82.12
440.05	78.12
440.272	87.12
440.493	97.12
440.715	86.12
440.936	88.12
441.158	79.12
441.379	99.12
441.6	87.12
441.822	91.12
442.043	92.12
442.264	91.12
442.486	101.12
442.707	83.12
442.928	78.12
443.149	84.12
443.371	96.12
443.592	72.12
443.813	81.12
444.034	82.12
444.255	86.12
444.476	85.12
444.698	94.12
444.919	81.12
445.14	155.12
445.361	123.12
445.582	76.12
445.803	67.12
446.024	74.12
446.245	85.12
446.466	83.12
446.687	71.12
446.908	95.12
447.129	91.12
447.35	75.12
447.571	79.12
447.792	92.12
448.013	107.12
448.234	91.12
448.455	81.12
448.675	99.12
448.896	83.12
449.117	82.12
449.338	62.12
449.559	80.12
449.779	75.12
450	75.12
450.221	83.12
450.442	84.12
450.662	71.12
450.883	87.12
451.104	83.12
451.324	93.12
451.545	77.12
451.766	88.12
451.986	85.12
452.207	81.12
452.428	76.12
452.648	85.12
452.869	90.12
453.089	87.12
453.31	68.12
453.53	89.12
453.751	71.12
453.971	84.12
454.192	87.12
454.412	76.12
454.633	81.12
454.853	84.12
455.073	77.12
455.294	80.12
455.514	72.12
455.734	77.12
455.955	77.12
456.175	89.12
456.395	92.12
456.616	63.12
456.836	72.12
457.056	82.12
457.276	84.12
457.497	96.12
457.717	77.12
457.937	80.12
458.157	73.12
458.377	89.12
458.598	84.12
458.818	71.12
459.038	86.12
459.258	88.12
459.478	77.12
459.698	73.12
459.918	87.12
460.138	79.12
460.358	80.12
460.578	80.12
460.798	91.12
461.018	81.12
461.238	89.12
461.458	77.12
461.678	81.12
461.898	84.12
462.118	73.12
462.338	79.12
462.558	89.12
462.777	72.12
462.997	99.12
463.217	83.12
463.437	81.12
463.657	85.12
463.876	81.12
464.096	87.12
464.316	96.12
464.536	92.12
464.755	100.12
464.975	85.12
465.195	104.12
465.414	78.12
465.634	79.12
465.854	80.12
466.073	76.12
466.293	83.12
466.512	85.12
466.732	77.12
466.951	83.12
467.171	96.12
467.391	91.12
467.61	83.12
467.829	77.12
468.049	81.12
468.268	72.12
468.488	91.12
468.707	76.12
468.927	73.12
469.146	69.12
469.365	91.12
469.585	91.12
469.804	84.12
470.023	89.12
470.243	89.12
470.462	85.12
470.681	91.12
470.901	88.12
471.12	85.12
471.339	96.12
471.558	82.12
471.777	77.12
471.997	73.12
472.216	87.12
472.435	85.12
472.654	76.12
472.873	92.12
473.092	88.12
473.311	83.12
473.53	77.12
473.749	89.12
473.968	63.12
474.187	79.12
474.406	86.12
474.625	93.12
474.844	97.12
475.063	93.12
475.282	76.12
475.501	73.12
475.72	71.12
475.939	88.12
476.158	93.12
476.377	80.12
476.596	90.12
476.814	85.12
477.033	93.12
477.252	84.12
477.471	91.12
477.69	77.12
477.908	76.12
478.127	87.12
478.346	85.12
478.564	75.12
478.783	76.12
479.002	77.12
479.22	86.12
479.439	75.12
479.658	79.12
479.876	84.12
480.095	90.12
480.313	81.12
480.532	86.12
480.751	89.12
480.969	95.12
481.188	93.12
481.406	81.12
481.624	84.12
481.843	73.12
482.061	83.12
482.28	79.12
482.498	82.12
482.717	82.12
482.935	76.12
483.153	87.12
483.372	94.12
483.59	80.12
483.808	86.12
484.027	85.12
484.245	75.12
484.463	83.12
484.681	83.12
484.9	85.12
485.118	92.12
485.336	95.12
485.554	85.12
485.772	62.12
485.99	80.12
486.209	85.12
486.427	81.12
486.645	80.12
486.863	88.12
487.081	85.12
487.299	84.12
487.517	86.12
487.735	87.12
487.953	86.12
488.171	95.12
488.389	84.12
488.607	98.12
488.825	94.12
489.043	95.12
489.261	94.12
489.479	82.12
489.696	78.12
489.914	82.12
490.132	69.12
490.35	89.12
490.568	93.12
490.786	86.12
491.003	75.12
491.221	90.12
491.439	95.12
491.657	101.12
491.874	93.12
492.092	90.12
492.31	85.12
492.527	89.12
492.745	80.12
492.963	81.12
493.18	87.12
493.398	92.12
493.615	77.12
493.833	74.12
494.05	109.12
494.268	96.12
494.485	89.12
494.703	85.12
494.92	101.12
495.138	94.12
495.355	83.12
495.573	90.12
495.79	80.12
496.008	89.12
496.225	99.12
496.442	86.12
496.66	91.12
496.877	93.12
497.094	88.12
497.312	85.12
497.529	86.12
497.746	79.12
497.963	86.12
498.181	78.12
498.398	87.12
498.615	84.12
498.832	80.12
499.049	82.12
499.267	83.12
499.484	80.12
499.701	81.12
499.918	95.12
500.135	75.12
500.352	75.12
500.569	79.12
500.786	86.12
501.003	92.12
501.22	95.12
501.437	72.12
501.654	83.12
501.871	94.12
502.088	96.12
502.305	91.12
502.522	93.12
502.739	88.12
502.956	78.12
503.172	88.12
503.389	79.12
503.606	81.12
503.823	90.12
504.04	103.12
504.256	89.12
504.473	86.12
504.69	76.12
504.907	105.12
505.123	83.12
505.34	67.12
505.557	87.12
505.773	90.12
505.99	88.12
506.207	100.12
506.423	87.12
506.64	85.12
506.856	82.12
507.073	86.12
507.289	87.12
507.506	77.12
507.722	97.12
507.939	81.12
508.155	87.12
508.372	91.12
508.588	100.12
508.805	87.12
509.021	98.12
509.238	79.12
509.454	83.12
509.67	90.12
509.887	88.12
510.103	77.12
510.319	93.12
510.536	91.12
510.752	84.12
510.968	72.12
511.184	71.12
511.401	76.12
511.617	84.12
511.833	79.12
512.049	91.12
512.265	84.12
512.481	75.12
512.698	94.12
512.914	82.12
513.13	79.12
513.346	89.12
513.562	88.12
513.778	87.12
513.994	92.12
514.21	87.12
514.426	82.12
514.642	88.12
514.858	86.12
515.074	79.12
515.29	71.12
515.506	84.12
515.721	79.12
515.937	86.12
516.153	90.12
516.369	77.12
516.585	83.12
516.801	78.12
517.016	71.12
517.232	102.12
517.448	75.12
517.664	75.12
517.879	79.12
518.095	87.12
518.311	89.12
518.527	80.12
518.742	83.12
518.958	71.12
519.173	69.12
519.389	74.12
519.605	84.12
519.82	83.12
