Data from KBr_2_HRD10591_00040.txt Node
Date: Mon Jan 19 13:13:10 EST 2026
User: Yrep
Spectrometer: HR+D1059
Trigger mode: 1
Integration Time (sec): 1.000000E-1
Scans to average: 1
Electric dark correction enabled: true
Nonlinearity correction enabled: false
Boxcar width: 0
XAxis mode: Wavelengths
Number of Pixels in Spectrum: 2048
>>>>>Begin Spectral Data<<<<<
223.165	-16.44
223.4	-16.44
223.635	-16.44
223.869	-23.44
224.104	-14.44
224.338	-15.44
224.573	-7.44
224.808	-23.44
225.042	-9.44
225.277	-7.44
225.511	1.56
225.746	9.56
225.98	-0.44
226.215	1.56
226.449	20.56
226.683	15.56
226.918	37.56
227.152	31.56
227.387	36.56
227.621	40.56
227.856	46.56
228.09	52.56
228.324	48.56
228.559	52.56
228.793	62.56
229.027	64.56
229.262	51.56
229.496	68.56
229.73	79.56
229.964	80.56
230.199	85.56
230.433	66.56
230.667	67.56
230.901	88.56
231.136	78.56
231.37	86.56
231.604	79.56
231.838	83.56
232.072	82.56
232.306	86.56
232.541	78.56
232.775	86.56
233.009	80.56
233.243	88.56
233.477	89.56
233.711	86.56
233.945	80.56
234.179	70.56
234.413	82.56
234.647	73.56
234.881	89.56
235.115	72.56
235.349	89.56
235.583	85.56
235.817	89.56
236.051	68.56
236.285	60.56
236.519	75.56
236.753	86.56
236.987	77.56
237.221	80.56
237.455	86.56
237.689	92.56
237.922	77.56
238.156	84.56
238.39	70.56
238.624	59.56
238.858	84.56
239.091	77.56
239.325	70.56
239.559	62.56
239.793	78.56
240.027	87.56
240.26	89.56
240.494	87.56
240.728	66.56
240.961	67.56
241.195	82.56
241.429	79.56
241.662	76.56
241.896	91.56
242.13	76.56
242.363	86.56
242.597	74.56
242.83	71.56
243.064	80.56
243.298	74.56
243.531	75.56
243.765	72.56
243.998	72.56
244.232	63.56
244.465	72.56
244.699	67.56
244.932	74.56
245.166	71.56
245.399	65.56
245.633	80.56
245.866	77.56
246.099	89.56
246.333	81.56
246.566	70.56
246.8	71.56
247.033	72.56
247.266	79.56
247.5	66.56
247.733	67.56
247.966	72.56
248.2	70.56
248.433	65.56
248.666	77.56
248.899	80.56
249.133	72.56
249.366	75.56
249.599	81.56
249.832	91.56
250.066	83.56
250.299	88.56
250.532	76.56
250.765	92.56
250.998	87.56
251.231	78.56
251.465	89.56
251.698	84.56
251.931	72.56
252.164	82.56
252.397	84.56
252.63	70.56
252.863	76.56
253.096	83.56
253.329	91.56
253.562	66.56
253.795	93.56
254.028	86.56
254.261	80.56
254.494	80.56
254.727	77.56
254.96	79.56
255.193	85.56
255.426	81.56
255.659	86.56
255.892	79.56
256.124	78.56
256.357	72.56
256.59	88.56
256.823	82.56
257.056	88.56
257.289	80.56
257.521	87.56
257.754	80.56
257.987	78.56
258.22	85.56
258.452	85.56
258.685	82.56
258.918	82.56
259.151	77.56
259.383	73.56
259.616	69.56
259.849	87.56
260.081	88.56
260.314	66.56
260.547	89.56
260.779	63.56
261.012	76.56
261.244	65.56
261.477	81.56
261.71	82.56
261.942	74.56
262.175	79.56
262.407	66.56
262.64	76.56
262.872	79.56
263.105	85.56
263.337	80.56
263.57	88.56
263.802	87.56
264.035	87.56
264.267	87.56
264.499	66.56
264.732	80.56
264.964	83.56
265.197	86.56
265.429	89.56
265.661	76.56
265.894	86.56
266.126	79.56
266.358	80.56
266.591	84.56
266.823	72.56
267.055	79.56
267.287	77.56
267.52	92.56
267.752	91.56
267.984	78.56
268.216	66.56
268.448	83.56
268.681	79.56
268.913	89.56
269.145	90.56
269.377	84.56
269.609	80.56
269.841	85.56
270.073	80.56
270.306	76.56
270.538	93.56
270.77	84.56
271.002	81.56
271.234	86.56
271.466	79.56
271.698	78.56
271.93	85.56
272.162	86.56
272.394	73.56
272.626	84.56
272.858	80.56
273.09	86.56
273.322	89.56
273.553	92.56
273.785	78.56
274.017	81.56
274.249	90.56
274.481	85.56
274.713	88.56
274.945	95.56
275.176	76.56
275.408	73.56
275.64	77.56
275.872	91.56
276.104	78.56
276.335	86.56
276.567	78.56
276.799	76.56
277.031	85.56
277.262	93.56
277.494	81.56
277.726	78.56
277.957	84.56
278.189	103.56
278.421	88.56
278.652	84.56
278.884	91.56
279.115	74.56
279.347	88.56
279.579	77.56
279.81	86.56
280.042	73.56
280.273	78.56
280.505	88.56
280.736	84.56
280.968	81.56
281.199	83.56
281.431	81.56
281.662	92.56
281.894	80.56
282.125	87.56
282.356	82.56
282.588	83.56
282.819	76.56
283.051	78.56
283.282	87.56
283.513	94.56
283.745	79.56
283.976	84.56
284.207	79.56
284.439	82.56
284.67	84.56
284.901	88.56
285.132	78.56
285.364	87.56
285.595	90.56
285.826	86.56
286.057	93.56
286.288	86.56
286.52	85.56
286.751	82.56
286.982	84.56
287.213	95.56
287.444	85.56
287.675	82.56
287.906	89.56
288.138	84.56
288.369	75.56
288.6	92.56
288.831	78.56
289.062	89.56
289.293	77.56
289.524	75.56
289.755	90.56
289.986	87.56
290.217	95.56
290.448	68.56
290.679	75.56
290.91	93.56
291.141	73.56
291.371	95.56
291.602	84.56
291.833	66.56
292.064	63.56
292.295	76.56
292.526	91.56
292.757	77.56
292.987	74.56
293.218	94.56
293.449	92.56
293.68	83.56
293.91	86.56
294.141	83.56
294.372	89.56
294.603	80.56
294.833	89.56
295.064	79.56
295.295	84.56
295.525	89.56
295.756	83.56
295.987	96.56
296.217	81.56
296.448	88.56
296.679	87.56
296.909	97.56
297.14	91.56
297.37	86.56
297.601	93.56
297.831	77.56
298.062	85.56
298.292	85.56
298.523	77.56
298.753	81.56
298.984	82.56
299.214	84.56
299.445	81.56
299.675	75.56
299.905	81.56
300.136	73.56
300.366	86.56
300.597	80.56
300.827	86.56
301.057	84.56
301.288	85.56
301.518	86.56
301.748	65.56
301.979	93.56
302.209	79.56
302.439	90.56
302.669	85.56
302.9	81.56
303.13	73.56
303.36	88.56
303.59	78.56
303.82	74.56
304.051	81.56
304.281	89.56
304.511	89.56
304.741	98.56
304.971	89.56
305.201	80.56
305.431	77.56
305.661	89.56
305.891	79.56
306.121	80.56
306.352	101.56
306.582	104.56
306.812	92.56
307.042	78.56
307.272	79.56
307.502	96.56
307.731	80.56
307.961	82.56
308.191	73.56
308.421	81.56
308.651	73.56
308.881	82.56
309.111	72.56
309.341	82.56
309.571	78.56
309.8	93.56
310.03	78.56
310.26	71.56
310.49	97.56
310.72	92.56
310.949	85.56
311.179	88.56
311.409	84.56
311.639	87.56
311.868	95.56
312.098	82.56
312.328	104.56
312.557	85.56
312.787	81.56
313.017	84.56
313.246	81.56
313.476	90.56
313.706	93.56
313.935	88.56
314.165	96.56
314.394	90.56
314.624	73.56
314.853	84.56
315.083	73.56
315.312	90.56
315.542	77.56
315.771	81.56
316.001	76.56
316.23	88.56
316.46	80.56
316.689	84.56
316.919	82.56
317.148	80.56
317.377	87.56
317.607	87.56
317.836	95.56
318.065	79.56
318.295	89.56
318.524	97.56
318.753	80.56
318.983	81.56
319.212	103.56
319.441	80.56
319.67	82.56
319.9	84.56
320.129	70.56
320.358	86.56
320.587	89.56
320.816	91.56
321.046	88.56
321.275	84.56
321.504	85.56
321.733	82.56
321.962	81.56
322.191	81.56
322.42	101.56
322.649	84.56
322.878	86.56
323.108	77.56
323.337	94.56
323.566	90.56
323.795	84.56
324.024	95.56
324.253	81.56
324.482	89.56
324.71	78.56
324.939	88.56
325.168	90.56
325.397	98.56
325.626	79.56
325.855	92.56
326.084	84.56
326.313	95.56
326.542	73.56
326.77	94.56
326.999	89.56
327.228	89.56
327.457	80.56
327.686	81.56
327.914	94.56
328.143	77.56
328.372	81.56
328.6	92.56
328.829	86.56
329.058	81.56
329.287	86.56
329.515	85.56
329.744	95.56
329.972	92.56
330.201	110.56
330.43	102.56
330.658	98.56
330.887	91.56
331.115	75.56
331.344	84.56
331.572	92.56
331.801	85.56
332.03	81.56
332.258	81.56
332.486	78.56
332.715	89.56
332.943	81.56
333.172	79.56
333.4	84.56
333.629	81.56
333.857	98.56
334.085	91.56
334.314	76.56
334.542	93.56
334.771	97.56
334.999	95.56
335.227	84.56
335.455	105.56
335.684	79.56
335.912	74.56
336.14	81.56
336.369	80.56
336.597	81.56
336.825	84.56
337.053	78.56
337.281	82.56
337.51	90.56
337.738	90.56
337.966	96.56
338.194	88.56
338.422	88.56
338.65	100.56
338.878	88.56
339.106	89.56
339.334	101.56
339.562	101.56
339.79	90.56
340.018	67.56
340.246	81.56
340.474	88.56
340.702	85.56
340.93	83.56
341.158	77.56
341.386	83.56
341.614	96.56
341.842	86.56
342.07	97.56
342.298	90.56
342.526	96.56
342.754	80.56
342.981	95.56
343.209	82.56
343.437	86.56
343.665	86.56
343.893	82.56
344.12	98.56
344.348	94.56
344.576	109.56
344.804	116.56
345.031	117.56
345.259	84.56
345.487	67.56
345.714	77.56
345.942	93.56
346.17	78.56
346.397	81.56
346.625	81.56
346.853	92.56
347.08	80.56
347.308	79.56
347.535	92.56
347.763	101.56
347.99	81.56
348.218	91.56
348.445	93.56
348.673	69.56
348.9	86.56
349.128	85.56
349.355	70.56
349.583	77.56
349.81	86.56
350.037	75.56
350.265	90.56
350.492	86.56
350.72	72.56
350.947	92.56
351.174	85.56
351.402	92.56
351.629	89.56
351.856	77.56
352.083	58.56
352.311	87.56
352.538	102.56
352.765	88.56
352.992	89.56
353.22	79.56
353.447	84.56
353.674	103.56
353.901	84.56
354.128	106.56
354.355	89.56
354.583	80.56
354.81	76.56
355.037	92.56
355.264	82.56
355.491	87.56
355.718	84.56
355.945	90.56
356.172	92.56
356.399	93.56
356.626	89.56
356.853	70.56
357.08	95.56
357.307	90.56
357.534	74.56
357.761	78.56
357.988	92.56
358.215	86.56
358.441	83.56
358.668	96.56
358.895	85.56
359.122	93.56
359.349	95.56
359.576	76.56
359.802	76.56
360.029	77.56
360.256	86.56
360.483	86.56
360.709	87.56
360.936	113.56
361.163	97.56
361.39	73.56
361.616	72.56
361.843	92.56
362.07	89.56
362.296	76.56
362.523	76.56
362.749	101.56
362.976	68.56
363.203	92.56
363.429	90.56
363.656	78.56
363.882	79.56
364.109	86.56
364.335	98.56
364.562	92.56
364.788	88.56
365.015	94.56
365.241	82.56
365.468	80.56
365.694	71.56
365.92	73.56
366.147	77.56
366.373	87.56
366.599	87.56
366.826	79.56
367.052	92.56
367.278	90.56
367.505	97.56
367.731	95.56
367.957	90.56
368.184	86.56
368.41	79.56
368.636	68.56
368.862	84.56
369.089	83.56
369.315	76.56
369.541	89.56
369.767	78.56
369.993	84.56
370.219	92.56
370.445	98.56
370.672	91.56
370.898	82.56
371.124	82.56
371.35	82.56
371.576	84.56
371.802	94.56
372.028	84.56
372.254	82.56
372.48	86.56
372.706	80.56
372.932	87.56
373.158	87.56
373.384	103.56
373.61	81.56
373.835	76.56
374.061	87.56
374.287	78.56
374.513	86.56
374.739	90.56
374.965	75.56
375.191	79.56
375.416	92.56
375.642	82.56
375.868	105.56
376.094	95.56
376.319	88.56
376.545	89.56
376.771	91.56
376.997	76.56
377.222	96.56
377.448	96.56
377.674	88.56
377.899	89.56
378.125	86.56
378.35	96.56
378.576	70.56
378.802	96.56
379.027	89.56
379.253	93.56
379.478	84.56
379.704	79.56
379.929	76.56
380.155	80.56
380.38	87.56
380.606	99.56
380.831	94.56
381.057	88.56
381.282	80.56
381.507	81.56
381.733	86.56
381.958	88.56
382.184	80.56
382.409	87.56
382.634	86.56
382.86	85.56
383.085	104.56
383.31	87.56
383.535	101.56
383.761	88.56
383.986	87.56
384.211	72.56
384.436	89.56
384.662	88.56
384.887	78.56
385.112	92.56
385.337	72.56
385.562	68.56
385.787	76.56
386.013	75.56
386.238	88.56
386.463	97.56
386.688	104.56
386.913	86.56
387.138	79.56
387.363	75.56
387.588	93.56
387.813	71.56
388.038	85.56
388.263	103.56
388.488	102.56
388.713	79.56
388.938	87.56
389.163	94.56
389.387	88.56
389.612	80.56
389.837	81.56
390.062	89.56
390.287	93.56
390.512	79.56
390.736	105.56
390.961	89.56
391.186	87.56
391.411	92.56
391.636	89.56
391.86	85.56
392.085	90.56
392.31	85.56
392.534	100.56
392.759	78.56
392.984	88.56
393.208	103.56
393.433	86.56
393.658	90.56
393.882	86.56
394.107	59.56
394.331	93.56
394.556	84.56
394.78	94.56
395.005	85.56
395.229	86.56
395.454	90.56
395.678	89.56
395.903	74.56
396.127	90.56
396.352	86.56
396.576	86.56
396.801	84.56
397.025	85.56
397.249	92.56
397.474	104.56
397.698	78.56
397.922	85.56
398.147	76.56
398.371	92.56
398.595	76.56
398.82	88.56
399.044	86.56
399.268	93.56
399.492	95.56
399.717	88.56
399.941	98.56
400.165	71.56
400.389	95.56
400.613	93.56
400.837	101.56
401.062	96.56
401.286	84.56
401.51	96.56
401.734	92.56
401.958	89.56
402.182	78.56
402.406	90.56
402.63	86.56
402.854	92.56
403.078	100.56
403.302	94.56
403.526	90.56
403.75	112.56
403.974	123.56
404.198	174.56
404.422	340.56
404.645	401.56
404.869	322.56
405.093	200.56
405.317	136.56
405.541	116.56
405.765	96.56
405.988	75.56
406.212	80.56
406.436	86.56
406.66	83.56
406.883	87.56
407.107	80.56
407.331	102.56
407.555	97.56
407.778	95.56
408.002	95.56
408.226	84.56
408.449	90.56
408.673	76.56
408.896	88.56
409.12	94.56
409.344	96.56
409.567	92.56
409.791	91.56
410.014	89.56
410.238	101.56
410.461	93.56
410.685	86.56
410.908	59.56
411.132	82.56
411.355	103.56
411.578	74.56
411.802	102.56
412.025	85.56
412.249	93.56
412.472	80.56
412.695	89.56
412.919	80.56
413.142	95.56
413.365	89.56
413.589	96.56
413.812	76.56
414.035	89.56
414.258	76.56
414.482	98.56
414.705	88.56
414.928	98.56
415.151	96.56
415.374	102.56
415.597	84.56
415.821	92.56
416.044	90.56
416.267	85.56
416.49	104.56
416.713	80.56
416.936	93.56
417.159	100.56
417.382	85.56
417.605	93.56
417.828	90.56
418.051	84.56
418.274	82.56
418.497	86.56
418.72	107.56
418.943	88.56
419.166	95.56
419.389	101.56
419.611	104.56
419.834	89.56
420.057	102.56
420.28	84.56
420.503	91.56
420.726	85.56
420.948	86.56
421.171	100.56
421.394	93.56
421.617	79.56
421.839	86.56
422.062	90.56
422.285	74.56
422.507	85.56
422.73	105.56
422.953	95.56
423.175	94.56
423.398	95.56
423.621	75.56
423.843	92.56
424.066	89.56
424.288	92.56
424.511	89.56
424.733	81.56
424.956	74.56
425.178	88.56
425.401	85.56
425.623	79.56
425.846	87.56
426.068	93.56
426.291	83.56
426.513	73.56
426.735	92.56
426.958	85.56
427.18	81.56
427.402	82.56
427.625	89.56
427.847	83.56
428.069	100.56
428.292	74.56
428.514	97.56
428.736	85.56
428.958	83.56
429.181	101.56
429.403	82.56
429.625	89.56
429.847	88.56
430.069	89.56
430.292	82.56
430.514	85.56
430.736	108.56
430.958	88.56
431.18	84.56
431.402	82.56
431.624	81.56
431.846	91.56
432.068	81.56
432.29	98.56
432.512	91.56
432.734	95.56
432.956	87.56
433.178	113.56
433.4	82.56
433.622	90.56
433.844	92.56
434.066	86.56
434.287	89.56
434.509	88.56
434.731	85.56
434.953	100.56
435.175	81.56
435.397	92.56
435.618	84.56
435.84	84.56
436.062	93.56
436.284	77.56
436.505	102.56
436.727	76.56
436.949	75.56
437.17	84.56
437.392	86.56
437.614	87.56
437.835	74.56
438.057	83.56
438.278	85.56
438.5	88.56
438.721	85.56
438.943	100.56
439.165	88.56
439.386	102.56
439.608	91.56
439.829	90.56
440.05	97.56
440.272	95.56
440.493	84.56
440.715	84.56
440.936	97.56
441.158	86.56
441.379	88.56
441.6	88.56
441.822	82.56
442.043	86.56
442.264	93.56
442.486	86.56
442.707	86.56
442.928	74.56
443.149	80.56
443.371	98.56
443.592	94.56
443.813	92.56
444.034	88.56
444.255	93.56
444.476	91.56
444.698	82.56
444.919	69.56
445.14	171.56
445.361	110.56
445.582	102.56
445.803	94.56
446.024	94.56
446.245	86.56
446.466	94.56
446.687	98.56
446.908	78.56
447.129	87.56
447.35	92.56
447.571	107.56
447.792	88.56
448.013	79.56
448.234	94.56
448.455	92.56
448.675	85.56
448.896	98.56
449.117	100.56
449.338	98.56
449.559	90.56
449.779	86.56
450	85.56
450.221	76.56
450.442	104.56
450.662	80.56
450.883	91.56
451.104	95.56
451.324	100.56
451.545	82.56
451.766	89.56
451.986	89.56
452.207	89.56
452.428	88.56
452.648	82.56
452.869	94.56
453.089	89.56
453.31	79.56
453.53	85.56
453.751	86.56
453.971	81.56
454.192	97.56
454.412	90.56
454.633	85.56
454.853	91.56
455.073	86.56
455.294	82.56
455.514	93.56
455.734	79.56
455.955	99.56
456.175	85.56
456.395	90.56
456.616	76.56
456.836	88.56
457.056	93.56
457.276	92.56
457.497	80.56
457.717	86.56
457.937	92.56
458.157	87.56
458.377	87.56
458.598	90.56
458.818	78.56
459.038	87.56
459.258	84.56
459.478	86.56
459.698	72.56
459.918	82.56
460.138	94.56
460.358	90.56
460.578	80.56
460.798	88.56
461.018	93.56
461.238	76.56
461.458	79.56
461.678	85.56
461.898	83.56
462.118	98.56
462.338	76.56
462.558	86.56
462.777	81.56
462.997	83.56
463.217	83.56
463.437	88.56
463.657	84.56
463.876	81.56
464.096	88.56
464.316	100.56
464.536	101.56
464.755	82.56
464.975	93.56
465.195	79.56
465.414	87.56
465.634	88.56
465.854	85.56
466.073	81.56
466.293	90.56
466.512	81.56
466.732	83.56
466.951	98.56
467.171	100.56
467.391	95.56
467.61	106.56
467.829	104.56
468.049	93.56
468.268	90.56
468.488	93.56
468.707	69.56
468.927	89.56
469.146	81.56
469.365	87.56
469.585	89.56
469.804	86.56
470.023	89.56
470.243	91.56
470.462	83.56
470.681	94.56
470.901	96.56
471.12	100.56
471.339	82.56
471.558	90.56
471.777	79.56
471.997	79.56
472.216	94.56
472.435	98.56
472.654	86.56
472.873	71.56
473.092	94.56
473.311	104.56
473.53	80.56
473.749	101.56
473.968	96.56
474.187	93.56
474.406	88.56
474.625	96.56
474.844	96.56
475.063	84.56
475.282	90.56
475.501	98.56
475.72	80.56
475.939	98.56
476.158	93.56
476.377	81.56
476.596	74.56
476.814	99.56
477.033	86.56
477.252	100.56
477.471	94.56
477.69	88.56
477.908	94.56
478.127	105.56
478.346	85.56
478.564	79.56
478.783	88.56
479.002	91.56
479.22	81.56
479.439	86.56
479.658	106.56
479.876	88.56
480.095	83.56
480.313	84.56
480.532	91.56
480.751	104.56
480.969	84.56
481.188	97.56
481.406	106.56
481.624	88.56
481.843	80.56
482.061	93.56
482.28	85.56
482.498	95.56
482.717	100.56
482.935	94.56
483.153	87.56
483.372	93.56
483.59	103.56
483.808	87.56
484.027	99.56
484.245	106.56
484.463	82.56
484.681	104.56
484.9	92.56
485.118	98.56
485.336	92.56
485.554	88.56
485.772	95.56
485.99	76.56
486.209	95.56
486.427	101.56
486.645	93.56
486.863	89.56
487.081	88.56
487.299	96.56
487.517	103.56
487.735	82.56
487.953	93.56
488.171	104.56
488.389	84.56
488.607	92.56
488.825	84.56
489.043	96.56
489.261	102.56
489.479	96.56
489.696	96.56
489.914	89.56
490.132	104.56
490.35	107.56
490.568	103.56
490.786	96.56
491.003	93.56
491.221	94.56
491.439	99.56
491.657	97.56
491.874	108.56
492.092	108.56
492.31	87.56
492.527	89.56
492.745	93.56
492.963	91.56
493.18	97.56
493.398	98.56
493.615	91.56
493.833	88.56
494.05	95.56
494.268	100.56
494.485	88.56
494.703	96.56
494.92	101.56
495.138	97.56
495.355	95.56
495.573	91.56
495.79	89.56
496.008	95.56
496.225	96.56
496.442	105.56
496.66	104.56
496.877	91.56
497.094	103.56
497.312	98.56
497.529	89.56
497.746	101.56
497.963	94.56
498.181	103.56
498.398	89.56
498.615	104.56
498.832	85.56
499.049	91.56
499.267	99.56
499.484	102.56
499.701	96.56
499.918	100.56
500.135	104.56
500.352	93.56
500.569	100.56
500.786	93.56
501.003	90.56
501.22	111.56
501.437	97.56
501.654	110.56
501.871	94.56
502.088	90.56
502.305	92.56
502.522	84.56
502.739	98.56
502.956	96.56
503.172	84.56
503.389	105.56
503.606	89.56
503.823	92.56
504.04	86.56
504.256	100.56
504.473	105.56
504.69	93.56
504.907	83.56
505.123	104.56
505.34	103.56
505.557	96.56
505.773	80.56
505.99	93.56
506.207	96.56
506.423	100.56
506.64	94.56
506.856	96.56
507.073	75.56
507.289	94.56
507.506	108.56
507.722	94.56
507.939	93.56
508.155	96.56
508.372	93.56
508.588	96.56
508.805	97.56
509.021	106.56
509.238	95.56
509.454	86.56
509.67	95.56
509.887	96.56
510.103	96.56
510.319	117.56
510.536	100.56
510.752	97.56
510.968	97.56
511.184	107.56
511.401	93.56
511.617	98.56
511.833	85.56
512.049	103.56
512.265	83.56
512.481	92.56
512.698	105.56
512.914	90.56
513.13	96.56
513.346	89.56
513.562	96.56
513.778	95.56
513.994	81.56
514.21	97.56
514.426	83.56
514.642	88.56
514.858	89.56
515.074	97.56
515.29	96.56
515.506	81.56
515.721	96.56
515.937	84.56
516.153	103.56
516.369	106.56
516.585	89.56
516.801	91.56
517.016	97.56
517.232	102.56
517.448	84.56
517.664	89.56
517.879	80.56
518.095	71.56
518.311	87.56
518.527	90.56
