Data from KBr_2_HRD10591_00029.txt Node
Date: Mon Jan 19 13:13:05 EST 2026
User: Yrep
Spectrometer: HR+D1059
Trigger mode: 1
Integration Time (sec): 1.000000E-1
Scans to average: 1
Electric dark correction enabled: true
Nonlinearity correction enabled: false
Boxcar width: 0
XAxis mode: Wavelengths
Number of Pixels in Spectrum: 2048
>>>>>Begin Spectral Data<<<<<
223.165	-21.56
223.4	-21.56
223.635	-21.56
223.869	-22.56
224.104	-19.56
224.338	-22.56
224.573	2.44
224.808	-23.56
225.042	-6.56
225.277	-4.56
225.511	2.44
225.746	15.44
225.98	5.44
226.215	2.44
226.449	14.44
226.683	31.44
226.918	21.44
227.152	25.44
227.387	33.44
227.621	43.44
227.856	57.44
228.09	45.44
228.324	53.44
228.559	46.44
228.793	59.44
229.027	55.44
229.262	53.44
229.496	62.44
229.73	68.44
229.964	74.44
230.199	74.44
230.433	78.44
230.667	71.44
230.901	72.44
231.136	61.44
231.37	76.44
231.604	83.44
231.838	101.44
232.072	90.44
232.306	77.44
232.541	87.44
232.775	96.44
233.009	77.44
233.243	94.44
233.477	81.44
233.711	81.44
233.945	66.44
234.179	67.44
234.413	93.44
234.647	91.44
234.881	73.44
235.115	85.44
235.349	88.44
235.583	67.44
235.817	67.44
236.051	80.44
236.285	77.44
236.519	70.44
236.753	75.44
236.987	76.44
237.221	75.44
237.455	67.44
237.689	75.44
237.922	85.44
238.156	65.44
238.39	70.44
238.624	58.44
238.858	82.44
239.091	77.44
239.325	69.44
239.559	62.44
239.793	65.44
240.027	74.44
240.26	78.44
240.494	84.44
240.728	71.44
240.961	81.44
241.195	81.44
241.429	71.44
241.662	74.44
241.896	71.44
242.13	82.44
242.363	67.44
242.597	69.44
242.83	69.44
243.064	73.44
243.298	67.44
243.531	60.44
243.765	65.44
243.998	86.44
244.232	77.44
244.465	75.44
244.699	75.44
244.932	82.44
245.166	73.44
245.399	76.44
245.633	73.44
245.866	89.44
246.099	82.44
246.333	69.44
246.566	70.44
246.8	61.44
247.033	80.44
247.266	83.44
247.5	81.44
247.733	77.44
247.966	72.44
248.2	99.44
248.433	87.44
248.666	79.44
248.899	71.44
249.133	78.44
249.366	81.44
249.599	64.44
249.832	76.44
250.066	75.44
250.299	80.44
250.532	71.44
250.765	70.44
250.998	70.44
251.231	83.44
251.465	89.44
251.698	71.44
251.931	65.44
252.164	76.44
252.397	74.44
252.63	85.44
252.863	84.44
253.096	77.44
253.329	76.44
253.562	77.44
253.795	65.44
254.028	76.44
254.261	66.44
254.494	86.44
254.727	89.44
254.96	60.44
255.193	90.44
255.426	88.44
255.659	76.44
255.892	74.44
256.124	84.44
256.357	65.44
256.59	79.44
256.823	90.44
257.056	66.44
257.289	91.44
257.521	72.44
257.754	66.44
257.987	67.44
258.22	73.44
258.452	88.44
258.685	78.44
258.918	83.44
259.151	77.44
259.383	91.44
259.616	92.44
259.849	85.44
260.081	62.44
260.314	59.44
260.547	62.44
260.779	84.44
261.012	87.44
261.244	87.44
261.477	80.44
261.71	75.44
261.942	93.44
262.175	71.44
262.407	82.44
262.64	67.44
262.872	78.44
263.105	89.44
263.337	101.44
263.57	82.44
263.802	83.44
264.035	77.44
264.267	76.44
264.499	88.44
264.732	71.44
264.964	81.44
265.197	73.44
265.429	86.44
265.661	87.44
265.894	84.44
266.126	81.44
266.358	101.44
266.591	80.44
266.823	73.44
267.055	72.44
267.287	78.44
267.52	63.44
267.752	94.44
267.984	86.44
268.216	82.44
268.448	89.44
268.681	81.44
268.913	75.44
269.145	80.44
269.377	76.44
269.609	81.44
269.841	93.44
270.073	72.44
270.306	90.44
270.538	86.44
270.77	70.44
271.002	75.44
271.234	83.44
271.466	105.44
271.698	88.44
271.93	81.44
272.162	87.44
272.394	86.44
272.626	77.44
272.858	95.44
273.09	85.44
273.322	78.44
273.553	72.44
273.785	73.44
274.017	91.44
274.249	91.44
274.481	73.44
274.713	66.44
274.945	89.44
275.176	81.44
275.408	70.44
275.64	77.44
275.872	86.44
276.104	95.44
276.335	76.44
276.567	83.44
276.799	92.44
277.031	73.44
277.262	66.44
277.494	75.44
277.726	91.44
277.957	79.44
278.189	88.44
278.421	78.44
278.652	84.44
278.884	80.44
279.115	82.44
279.347	80.44
279.579	63.44
279.81	86.44
280.042	77.44
280.273	89.44
280.505	88.44
280.736	79.44
280.968	97.44
281.199	103.44
281.431	82.44
281.662	81.44
281.894	80.44
282.125	72.44
282.356	96.44
282.588	85.44
282.819	83.44
283.051	96.44
283.282	86.44
283.513	79.44
283.745	65.44
283.976	79.44
284.207	87.44
284.439	63.44
284.67	96.44
284.901	82.44
285.132	73.44
285.364	73.44
285.595	66.44
285.826	93.44
286.057	79.44
286.288	76.44
286.52	80.44
286.751	80.44
286.982	85.44
287.213	75.44
287.444	97.44
287.675	81.44
287.906	94.44
288.138	91.44
288.369	91.44
288.6	96.44
288.831	90.44
289.062	77.44
289.293	86.44
289.524	88.44
289.755	70.44
289.986	78.44
290.217	77.44
290.448	82.44
290.679	83.44
290.91	94.44
291.141	74.44
291.371	81.44
291.602	85.44
291.833	78.44
292.064	87.44
292.295	84.44
292.526	63.44
292.757	78.44
292.987	86.44
293.218	89.44
293.449	83.44
293.68	80.44
293.91	74.44
294.141	82.44
294.372	79.44
294.603	87.44
294.833	90.44
295.064	93.44
295.295	85.44
295.525	76.44
295.756	88.44
295.987	87.44
296.217	83.44
296.448	93.44
296.679	76.44
296.909	82.44
297.14	75.44
297.37	92.44
297.601	93.44
297.831	71.44
298.062	75.44
298.292	87.44
298.523	78.44
298.753	83.44
298.984	92.44
299.214	72.44
299.445	74.44
299.675	83.44
299.905	82.44
300.136	86.44
300.366	79.44
300.597	69.44
300.827	91.44
301.057	86.44
301.288	92.44
301.518	92.44
301.748	88.44
301.979	96.44
302.209	72.44
302.439	85.44
302.669	76.44
302.9	91.44
303.13	78.44
303.36	89.44
303.59	89.44
303.82	86.44
304.051	78.44
304.281	73.44
304.511	83.44
304.741	75.44
304.971	91.44
305.201	92.44
305.431	78.44
305.661	77.44
305.891	90.44
306.121	89.44
306.352	87.44
306.582	97.44
306.812	89.44
307.042	83.44
307.272	86.44
307.502	85.44
307.731	100.44
307.961	83.44
308.191	89.44
308.421	81.44
308.651	78.44
308.881	88.44
309.111	84.44
309.341	91.44
309.571	83.44
309.8	81.44
310.03	73.44
310.26	67.44
310.49	85.44
310.72	77.44
310.949	94.44
311.179	98.44
311.409	93.44
311.639	82.44
311.868	85.44
312.098	87.44
312.328	89.44
312.557	86.44
312.787	77.44
313.017	91.44
313.246	77.44
313.476	89.44
313.706	93.44
313.935	79.44
314.165	83.44
314.394	88.44
314.624	93.44
314.853	71.44
315.083	78.44
315.312	77.44
315.542	84.44
315.771	86.44
316.001	76.44
316.23	85.44
316.46	71.44
316.689	96.44
316.919	97.44
317.148	92.44
317.377	82.44
317.607	106.44
317.836	82.44
318.065	79.44
318.295	86.44
318.524	91.44
318.753	80.44
318.983	75.44
319.212	80.44
319.441	93.44
319.67	94.44
319.9	90.44
320.129	87.44
320.358	80.44
320.587	86.44
320.816	81.44
321.046	79.44
321.275	94.44
321.504	85.44
321.733	83.44
321.962	76.44
322.191	93.44
322.42	87.44
322.649	80.44
322.878	79.44
323.108	73.44
323.337	87.44
323.566	77.44
323.795	80.44
324.024	90.44
324.253	88.44
324.482	78.44
324.71	87.44
324.939	74.44
325.168	93.44
325.397	73.44
325.626	84.44
325.855	88.44
326.084	68.44
326.313	83.44
326.542	91.44
326.77	88.44
326.999	80.44
327.228	93.44
327.457	88.44
327.686	85.44
327.914	103.44
328.143	90.44
328.372	95.44
328.6	85.44
328.829	80.44
329.058	96.44
329.287	90.44
329.515	77.44
329.744	94.44
329.972	81.44
330.201	90.44
330.43	87.44
330.658	93.44
330.887	76.44
331.115	88.44
331.344	82.44
331.572	84.44
331.801	85.44
332.03	85.44
332.258	72.44
332.486	68.44
332.715	91.44
332.943	92.44
333.172	94.44
333.4	86.44
333.629	81.44
333.857	85.44
334.085	94.44
334.314	84.44
334.542	85.44
334.771	89.44
334.999	89.44
335.227	83.44
335.455	81.44
335.684	89.44
335.912	79.44
336.14	83.44
336.369	86.44
336.597	78.44
336.825	92.44
337.053	87.44
337.281	81.44
337.51	92.44
337.738	85.44
337.966	83.44
338.194	92.44
338.422	89.44
338.65	86.44
338.878	94.44
339.106	71.44
339.334	78.44
339.562	79.44
339.79	83.44
340.018	95.44
340.246	87.44
340.474	79.44
340.702	72.44
340.93	93.44
341.158	83.44
341.386	79.44
341.614	81.44
341.842	82.44
342.07	91.44
342.298	98.44
342.526	95.44
342.754	82.44
342.981	83.44
343.209	94.44
343.437	93.44
343.665	92.44
343.893	73.44
344.12	94.44
344.348	84.44
344.576	94.44
344.804	89.44
345.031	81.44
345.259	87.44
345.487	82.44
345.714	73.44
345.942	89.44
346.17	86.44
346.397	70.44
346.625	74.44
346.853	89.44
347.08	86.44
347.308	86.44
347.535	84.44
347.763	102.44
347.99	89.44
348.218	81.44
348.445	91.44
348.673	86.44
348.9	86.44
349.128	87.44
349.355	79.44
349.583	64.44
349.81	66.44
350.037	95.44
350.265	77.44
350.492	70.44
350.72	80.44
350.947	86.44
351.174	86.44
351.402	91.44
351.629	87.44
351.856	91.44
352.083	86.44
352.311	87.44
352.538	75.44
352.765	85.44
352.992	88.44
353.22	74.44
353.447	89.44
353.674	89.44
353.901	70.44
354.128	85.44
354.355	76.44
354.583	87.44
354.81	90.44
355.037	87.44
355.264	88.44
355.491	93.44
355.718	95.44
355.945	88.44
356.172	69.44
356.399	58.44
356.626	80.44
356.853	87.44
357.08	78.44
357.307	84.44
357.534	83.44
357.761	91.44
357.988	103.44
358.215	85.44
358.441	86.44
358.668	85.44
358.895	81.44
359.122	97.44
359.349	87.44
359.576	59.44
359.802	85.44
360.029	93.44
360.256	77.44
360.483	90.44
360.709	93.44
360.936	90.44
361.163	79.44
361.39	76.44
361.616	85.44
361.843	80.44
362.07	89.44
362.296	85.44
362.523	94.44
362.749	76.44
362.976	78.44
363.203	97.44
363.429	96.44
363.656	82.44
363.882	71.44
364.109	74.44
364.335	93.44
364.562	79.44
364.788	82.44
365.015	83.44
365.241	98.44
365.468	81.44
365.694	83.44
365.92	91.44
366.147	96.44
366.373	88.44
366.599	90.44
366.826	80.44
367.052	98.44
367.278	79.44
367.505	74.44
367.731	96.44
367.957	83.44
368.184	77.44
368.41	90.44
368.636	71.44
368.862	86.44
369.089	82.44
369.315	81.44
369.541	90.44
369.767	82.44
369.993	82.44
370.219	98.44
370.445	81.44
370.672	83.44
370.898	84.44
371.124	82.44
371.35	91.44
371.576	98.44
371.802	95.44
372.028	77.44
372.254	91.44
372.48	70.44
372.706	81.44
372.932	79.44
373.158	93.44
373.384	84.44
373.61	90.44
373.835	90.44
374.061	75.44
374.287	78.44
374.513	91.44
374.739	85.44
374.965	78.44
375.191	87.44
375.416	84.44
375.642	80.44
375.868	92.44
376.094	92.44
376.319	78.44
376.545	75.44
376.771	77.44
376.997	98.44
377.222	71.44
377.448	93.44
377.674	94.44
377.899	95.44
378.125	98.44
378.35	95.44
378.576	93.44
378.802	67.44
379.027	82.44
379.253	94.44
379.478	87.44
379.704	81.44
379.929	70.44
380.155	85.44
380.38	82.44
380.606	88.44
380.831	80.44
381.057	89.44
381.282	85.44
381.507	95.44
381.733	90.44
381.958	84.44
382.184	81.44
382.409	95.44
382.634	89.44
382.86	79.44
383.085	83.44
383.31	95.44
383.535	98.44
383.761	85.44
383.986	83.44
384.211	78.44
384.436	86.44
384.662	85.44
384.887	81.44
385.112	81.44
385.337	77.44
385.562	73.44
385.787	81.44
386.013	87.44
386.238	91.44
386.463	83.44
386.688	94.44
386.913	106.44
387.138	87.44
387.363	77.44
387.588	91.44
387.813	89.44
388.038	72.44
388.263	88.44
388.488	82.44
388.713	81.44
388.938	78.44
389.163	76.44
389.387	92.44
389.612	77.44
389.837	90.44
390.062	79.44
390.287	91.44
390.512	85.44
390.736	79.44
390.961	82.44
391.186	82.44
391.411	84.44
391.636	80.44
391.86	82.44
392.085	82.44
392.31	91.44
392.534	89.44
392.759	76.44
392.984	103.44
393.208	91.44
393.433	75.44
393.658	80.44
393.882	89.44
394.107	82.44
394.331	91.44
394.556	83.44
394.78	90.44
395.005	85.44
395.229	85.44
395.454	93.44
395.678	87.44
395.903	91.44
396.127	86.44
396.352	89.44
396.576	96.44
396.801	76.44
397.025	82.44
397.249	91.44
397.474	86.44
397.698	74.44
397.922	69.44
398.147	93.44
398.371	90.44
398.595	87.44
398.82	92.44
399.044	79.44
399.268	90.44
399.492	78.44
399.717	57.44
399.941	88.44
400.165	79.44
400.389	77.44
400.613	90.44
400.837	76.44
401.062	85.44
401.286	86.44
401.51	79.44
401.734	89.44
401.958	95.44
402.182	81.44
402.406	78.44
402.63	79.44
402.854	68.44
403.078	85.44
403.302	74.44
403.526	88.44
403.75	92.44
403.974	81.44
404.198	108.44
404.422	151.44
404.645	147.44
404.869	129.44
405.093	108.44
405.317	87.44
405.541	92.44
405.765	88.44
405.988	85.44
406.212	85.44
406.436	89.44
406.66	63.44
406.883	78.44
407.107	93.44
407.331	89.44
407.555	90.44
407.778	88.44
408.002	74.44
408.226	85.44
408.449	78.44
408.673	88.44
408.896	94.44
409.12	110.44
409.344	93.44
409.567	83.44
409.791	72.44
410.014	87.44
410.238	79.44
410.461	77.44
410.685	96.44
410.908	88.44
411.132	90.44
411.355	82.44
411.578	87.44
411.802	81.44
412.025	78.44
412.249	88.44
412.472	82.44
412.695	92.44
412.919	76.44
413.142	78.44
413.365	95.44
413.589	67.44
413.812	90.44
414.035	93.44
414.258	85.44
414.482	87.44
414.705	85.44
414.928	87.44
415.151	85.44
415.374	81.44
415.597	74.44
415.821	75.44
416.044	85.44
416.267	77.44
416.49	75.44
416.713	86.44
416.936	78.44
417.159	79.44
417.382	92.44
417.605	68.44
417.828	73.44
418.051	92.44
418.274	86.44
418.497	93.44
418.72	75.44
418.943	78.44
419.166	88.44
419.389	87.44
419.611	57.44
419.834	77.44
420.057	77.44
420.28	74.44
420.503	99.44
420.726	94.44
420.948	76.44
421.171	83.44
421.394	83.44
421.617	72.44
421.839	87.44
422.062	85.44
422.285	90.44
422.507	77.44
422.73	75.44
422.953	81.44
423.175	92.44
423.398	73.44
423.621	77.44
423.843	75.44
424.066	88.44
424.288	80.44
424.511	91.44
424.733	85.44
424.956	75.44
425.178	85.44
425.401	92.44
425.623	71.44
425.846	86.44
426.068	83.44
426.291	80.44
426.513	82.44
426.735	80.44
426.958	83.44
427.18	89.44
427.402	83.44
427.625	78.44
427.847	84.44
428.069	88.44
428.292	89.44
428.514	87.44
428.736	96.44
428.958	77.44
429.181	87.44
429.403	90.44
429.625	80.44
429.847	87.44
430.069	94.44
430.292	83.44
430.514	93.44
430.736	97.44
430.958	88.44
431.18	91.44
431.402	82.44
431.624	85.44
431.846	77.44
432.068	81.44
432.29	81.44
432.512	90.44
432.734	82.44
432.956	74.44
433.178	86.44
433.4	87.44
433.622	91.44
433.844	89.44
434.066	93.44
434.287	89.44
434.509	87.44
434.731	86.44
434.953	80.44
435.175	93.44
435.397	89.44
435.618	91.44
435.84	81.44
436.062	77.44
436.284	80.44
436.505	95.44
436.727	98.44
436.949	86.44
437.17	92.44
437.392	81.44
437.614	91.44
437.835	81.44
438.057	86.44
438.278	78.44
438.5	94.44
438.721	98.44
438.943	87.44
439.165	80.44
439.386	90.44
439.608	87.44
439.829	90.44
440.05	85.44
440.272	89.44
440.493	87.44
440.715	83.44
440.936	86.44
441.158	79.44
441.379	77.44
441.6	91.44
441.822	92.44
442.043	79.44
442.264	71.44
442.486	93.44
442.707	83.44
442.928	73.44
443.149	85.44
443.371	97.44
443.592	94.44
443.813	81.44
444.034	92.44
444.255	81.44
444.476	80.44
444.698	84.44
444.919	88.44
445.14	184.44
445.361	122.44
445.582	90.44
445.803	79.44
446.024	85.44
446.245	87.44
446.466	86.44
446.687	88.44
446.908	78.44
447.129	84.44
447.35	77.44
447.571	87.44
447.792	79.44
448.013	90.44
448.234	80.44
448.455	89.44
448.675	86.44
448.896	74.44
449.117	73.44
449.338	96.44
449.559	78.44
449.779	89.44
450	94.44
450.221	94.44
450.442	77.44
450.662	87.44
450.883	76.44
451.104	87.44
451.324	94.44
451.545	74.44
451.766	92.44
451.986	77.44
452.207	92.44
452.428	93.44
452.648	88.44
452.869	85.44
453.089	86.44
453.31	85.44
453.53	91.44
453.751	91.44
453.971	85.44
454.192	80.44
454.412	87.44
454.633	59.44
454.853	71.44
455.073	80.44
455.294	78.44
455.514	87.44
455.734	77.44
455.955	98.44
456.175	95.44
456.395	76.44
456.616	92.44
456.836	78.44
457.056	75.44
457.276	74.44
457.497	75.44
457.717	83.44
457.937	69.44
458.157	94.44
458.377	78.44
458.598	90.44
458.818	83.44
459.038	86.44
459.258	95.44
459.478	85.44
459.698	82.44
459.918	85.44
460.138	71.44
460.358	81.44
460.578	79.44
460.798	72.44
461.018	83.44
461.238	94.44
461.458	81.44
461.678	78.44
461.898	91.44
462.118	87.44
462.338	86.44
462.558	95.44
462.777	80.44
462.997	82.44
463.217	87.44
463.437	91.44
463.657	91.44
463.876	76.44
464.096	81.44
464.316	75.44
464.536	88.44
464.755	79.44
464.975	72.44
465.195	98.44
465.414	89.44
465.634	75.44
465.854	70.44
466.073	88.44
466.293	90.44
466.512	70.44
466.732	78.44
466.951	82.44
467.171	78.44
467.391	79.44
467.61	93.44
467.829	81.44
468.049	88.44
468.268	100.44
468.488	83.44
468.707	91.44
468.927	86.44
469.146	77.44
469.365	85.44
469.585	81.44
469.804	90.44
470.023	76.44
470.243	79.44
470.462	77.44
470.681	70.44
470.901	104.44
471.12	77.44
471.339	71.44
471.558	85.44
471.777	102.44
471.997	91.44
472.216	92.44
472.435	91.44
472.654	88.44
472.873	90.44
473.092	87.44
473.311	79.44
473.53	71.44
473.749	86.44
473.968	83.44
474.187	71.44
474.406	77.44
474.625	76.44
474.844	73.44
475.063	91.44
475.282	76.44
475.501	82.44
475.72	82.44
475.939	81.44
476.158	85.44
476.377	72.44
476.596	83.44
476.814	87.44
477.033	79.44
477.252	81.44
477.471	89.44
477.69	86.44
477.908	87.44
478.127	106.44
478.346	82.44
478.564	86.44
478.783	101.44
479.002	75.44
479.22	88.44
479.439	73.44
479.658	90.44
479.876	65.44
480.095	88.44
480.313	103.44
480.532	97.44
480.751	74.44
480.969	79.44
481.188	85.44
481.406	71.44
481.624	81.44
481.843	85.44
482.061	98.44
482.28	77.44
482.498	75.44
482.717	78.44
482.935	90.44
483.153	86.44
483.372	96.44
483.59	102.44
483.808	107.44
484.027	101.44
484.245	94.44
484.463	93.44
484.681	92.44
484.9	81.44
485.118	94.44
485.336	78.44
485.554	88.44
485.772	80.44
485.99	88.44
486.209	99.44
486.427	72.44
486.645	86.44
486.863	81.44
487.081	77.44
487.299	97.44
487.517	96.44
487.735	80.44
487.953	91.44
488.171	95.44
488.389	92.44
488.607	90.44
488.825	68.44
489.043	76.44
489.261	88.44
489.479	85.44
489.696	96.44
489.914	81.44
490.132	83.44
490.35	66.44
490.568	70.44
490.786	97.44
491.003	91.44
491.221	93.44
491.439	90.44
491.657	105.44
491.874	72.44
492.092	101.44
492.31	94.44
492.527	98.44
492.745	94.44
492.963	80.44
493.18	93.44
493.398	86.44
493.615	89.44
493.833	89.44
494.05	88.44
494.268	89.44
494.485	78.44
494.703	82.44
494.92	96.44
495.138	93.44
495.355	92.44
495.573	95.44
495.79	90.44
496.008	87.44
496.225	88.44
496.442	82.44
496.66	98.44
496.877	89.44
497.094	101.44
497.312	93.44
497.529	98.44
497.746	91.44
497.963	80.44
498.181	78.44
498.398	99.44
498.615	88.44
498.832	87.44
499.049	87.44
499.267	97.44
499.484	79.44
499.701	93.44
499.918	82.44
500.135	80.44
500.352	96.44
500.569	78.44
500.786	79.44
501.003	79.44
501.22	91.44
501.437	79.44
501.654	87.44
501.871	89.44
502.088	79.44
502.305	84.44
502.522	81.44
502.739	86.44
502.956	90.44
503.172	93.44
503.389	81.44
503.606	70.44
503.823	85.44
504.04	81.44
504.256	95.44
504.473	96.44
504.69	86.44
504.907	82.44
505.123	93.44
505.34	92.44
505.557	101.44
505.773	92.44
505.99	83.44
506.207	86.44
506.423	93.44
506.64	96.44
506.856	102.44
507.073	90.44
507.289	84.44
507.506	84.44
507.722	85.44
507.939	92.44
508.155	88.44
508.372	77.44
508.588	87.44
508.805	90.44
509.021	81.44
509.238	81.44
509.454	86.44
509.67	75.44
509.887	85.44
510.103	100.44
510.319	86.44
510.536	87.44
510.752	85.44
510.968	86.44
511.184	79.44
511.401	93.44
511.617	98.44
511.833	66.44
512.049	91.44
512.265	93.44
512.481	95.44
512.698	76.44
512.914	95.44
513.13	84.44
513.346	91.44
513.562	77.44
513.778	84.44
513.994	87.44
514.21	82.44
514.426	80.44
514.642	93.44
514.858	95.44
515.074	82.44
515.29	89.44
515.506	79.44
515.721	79.44
515.937	81.44
516.153	85.44
516.369	67.44
516.585	74.44
516.801	77.44
517.016	90.44
517.232	77.44
517.448	82.44
517.664	104.44
517.879	75.44
518.095	88.44
518.311	91.44
518.527	93.44
518.742	79.44
518.958	87.44
519.173	93.44
519.389	87.44
519.605	77.44
519.82	75.44
