Data from KBr_2_HRD10591_00034.txt Node
Date: Mon Jan 19 13:13:07 EST 2026
User: Yrep
Spectrometer: HR+D1059
Trigger mode: 1
Integration Time (sec): 1.000000E-1
Scans to average: 1
Electric dark correction enabled: true
Nonlinearity correction enabled: false
Boxcar width: 0
XAxis mode: Wavelengths
Number of Pixels in Spectrum: 2048
>>>>>Begin Spectral Data<<<<<
223.165	-3.25
223.4	-3.25
223.635	-3.25
223.869	-1.25
224.104	-29.25
224.338	-25.25
224.573	-10.25
224.808	-12.25
225.042	-3.25
225.277	-6.25
225.511	-15.25
225.746	4.75
225.98	10.75
226.215	5.75
226.449	18.75
226.683	12.75
226.918	14.75
227.152	38.75
227.387	35.75
227.621	38.75
227.856	42.75
228.09	52.75
228.324	52.75
228.559	52.75
228.793	62.75
229.027	75.75
229.262	71.75
229.496	73.75
229.73	73.75
229.964	63.75
230.199	75.75
230.433	69.75
230.667	72.75
230.901	89.75
231.136	64.75
231.37	73.75
231.604	74.75
231.838	92.75
232.072	91.75
232.306	76.75
232.541	71.75
232.775	80.75
233.009	70.75
233.243	91.75
233.477	87.75
233.711	84.75
233.945	68.75
234.179	71.75
234.413	89.75
234.647	80.75
234.881	67.75
235.115	51.75
235.349	77.75
235.583	64.75
235.817	62.75
236.051	76.75
236.285	77.75
236.519	63.75
236.753	77.75
236.987	54.75
237.221	66.75
237.455	83.75
237.689	84.75
237.922	82.75
238.156	65.75
238.39	75.75
238.624	80.75
238.858	73.75
239.091	79.75
239.325	83.75
239.559	84.75
239.793	78.75
240.027	74.75
240.26	77.75
240.494	88.75
240.728	83.75
240.961	77.75
241.195	74.75
241.429	70.75
241.662	76.75
241.896	60.75
242.13	69.75
242.363	76.75
242.597	69.75
242.83	82.75
243.064	74.75
243.298	79.75
243.531	68.75
243.765	86.75
243.998	72.75
244.232	64.75
244.465	72.75
244.699	86.75
244.932	72.75
245.166	76.75
245.399	79.75
245.633	84.75
245.866	78.75
246.099	74.75
246.333	76.75
246.566	84.75
246.8	86.75
247.033	69.75
247.266	85.75
247.5	62.75
247.733	71.75
247.966	84.75
248.2	71.75
248.433	79.75
248.666	79.75
248.899	81.75
249.133	74.75
249.366	87.75
249.599	84.75
249.832	82.75
250.066	90.75
250.299	78.75
250.532	77.75
250.765	79.75
250.998	82.75
251.231	82.75
251.465	74.75
251.698	80.75
251.931	85.75
252.164	82.75
252.397	63.75
252.63	75.75
252.863	89.75
253.096	70.75
253.329	82.75
253.562	75.75
253.795	77.75
254.028	77.75
254.261	80.75
254.494	82.75
254.727	88.75
254.96	72.75
255.193	73.75
255.426	72.75
255.659	74.75
255.892	95.75
256.124	86.75
256.357	84.75
256.59	78.75
256.823	71.75
257.056	61.75
257.289	85.75
257.521	70.75
257.754	71.75
257.987	79.75
258.22	100.75
258.452	87.75
258.685	85.75
258.918	68.75
259.151	92.75
259.383	78.75
259.616	66.75
259.849	89.75
260.081	85.75
260.314	76.75
260.547	79.75
260.779	74.75
261.012	95.75
261.244	75.75
261.477	78.75
261.71	86.75
261.942	69.75
262.175	72.75
262.407	75.75
262.64	75.75
262.872	78.75
263.105	75.75
263.337	74.75
263.57	82.75
263.802	90.75
264.035	79.75
264.267	82.75
264.499	85.75
264.732	76.75
264.964	79.75
265.197	73.75
265.429	76.75
265.661	74.75
265.894	88.75
266.126	77.75
266.358	75.75
266.591	85.75
266.823	71.75
267.055	70.75
267.287	85.75
267.52	63.75
267.752	80.75
267.984	74.75
268.216	92.75
268.448	96.75
268.681	88.75
268.913	79.75
269.145	68.75
269.377	77.75
269.609	73.75
269.841	84.75
270.073	72.75
270.306	76.75
270.538	83.75
270.77	71.75
271.002	94.75
271.234	79.75
271.466	80.75
271.698	74.75
271.93	79.75
272.162	88.75
272.394	67.75
272.626	87.75
272.858	64.75
273.09	78.75
273.322	66.75
273.553	79.75
273.785	90.75
274.017	75.75
274.249	105.75
274.481	77.75
274.713	77.75
274.945	71.75
275.176	93.75
275.408	79.75
275.64	82.75
275.872	80.75
276.104	69.75
276.335	84.75
276.567	79.75
276.799	87.75
277.031	78.75
277.262	90.75
277.494	82.75
277.726	79.75
277.957	98.75
278.189	81.75
278.421	71.75
278.652	79.75
278.884	87.75
279.115	83.75
279.347	73.75
279.579	86.75
279.81	87.75
280.042	84.75
280.273	73.75
280.505	74.75
280.736	83.75
280.968	78.75
281.199	80.75
281.431	84.75
281.662	70.75
281.894	88.75
282.125	88.75
282.356	102.75
282.588	83.75
282.819	87.75
283.051	81.75
283.282	87.75
283.513	70.75
283.745	82.75
283.976	76.75
284.207	77.75
284.439	86.75
284.67	86.75
284.901	88.75
285.132	84.75
285.364	77.75
285.595	72.75
285.826	88.75
286.057	87.75
286.288	88.75
286.52	78.75
286.751	82.75
286.982	87.75
287.213	83.75
287.444	91.75
287.675	86.75
287.906	82.75
288.138	90.75
288.369	80.75
288.6	88.75
288.831	84.75
289.062	85.75
289.293	76.75
289.524	75.75
289.755	67.75
289.986	77.75
290.217	83.75
290.448	89.75
290.679	87.75
290.91	92.75
291.141	76.75
291.371	89.75
291.602	92.75
291.833	75.75
292.064	73.75
292.295	74.75
292.526	79.75
292.757	76.75
292.987	81.75
293.218	85.75
293.449	76.75
293.68	83.75
293.91	85.75
294.141	86.75
294.372	85.75
294.603	79.75
294.833	75.75
295.064	82.75
295.295	70.75
295.525	91.75
295.756	86.75
295.987	87.75
296.217	77.75
296.448	78.75
296.679	74.75
296.909	80.75
297.14	77.75
297.37	86.75
297.601	90.75
297.831	90.75
298.062	90.75
298.292	83.75
298.523	97.75
298.753	73.75
298.984	95.75
299.214	80.75
299.445	86.75
299.675	77.75
299.905	83.75
300.136	78.75
300.366	77.75
300.597	90.75
300.827	77.75
301.057	90.75
301.288	79.75
301.518	79.75
301.748	78.75
301.979	111.75
302.209	88.75
302.439	73.75
302.669	91.75
302.9	83.75
303.13	64.75
303.36	92.75
303.59	86.75
303.82	76.75
304.051	91.75
304.281	83.75
304.511	85.75
304.741	90.75
304.971	85.75
305.201	86.75
305.431	77.75
305.661	75.75
305.891	84.75
306.121	86.75
306.352	73.75
306.582	95.75
306.812	63.75
307.042	69.75
307.272	77.75
307.502	86.75
307.731	70.75
307.961	78.75
308.191	92.75
308.421	87.75
308.651	72.75
308.881	84.75
309.111	83.75
309.341	78.75
309.571	86.75
309.8	83.75
310.03	98.75
310.26	88.75
310.49	82.75
310.72	86.75
310.949	92.75
311.179	71.75
311.409	62.75
311.639	86.75
311.868	80.75
312.098	93.75
312.328	85.75
312.557	84.75
312.787	92.75
313.017	87.75
313.246	72.75
313.476	74.75
313.706	86.75
313.935	102.75
314.165	78.75
314.394	100.75
314.624	88.75
314.853	88.75
315.083	92.75
315.312	72.75
315.542	86.75
315.771	88.75
316.001	85.75
316.23	94.75
316.46	93.75
316.689	84.75
316.919	90.75
317.148	71.75
317.377	88.75
317.607	71.75
317.836	91.75
318.065	84.75
318.295	70.75
318.524	75.75
318.753	83.75
318.983	77.75
319.212	95.75
319.441	72.75
319.67	87.75
319.9	76.75
320.129	84.75
320.358	63.75
320.587	65.75
320.816	77.75
321.046	62.75
321.275	86.75
321.504	85.75
321.733	79.75
321.962	68.75
322.191	91.75
322.42	90.75
322.649	91.75
322.878	80.75
323.108	76.75
323.337	86.75
323.566	88.75
323.795	79.75
324.024	81.75
324.253	74.75
324.482	85.75
324.71	98.75
324.939	87.75
325.168	92.75
325.397	87.75
325.626	80.75
325.855	88.75
326.084	78.75
326.313	89.75
326.542	85.75
326.77	81.75
326.999	75.75
327.228	84.75
327.457	96.75
327.686	74.75
327.914	82.75
328.143	96.75
328.372	90.75
328.6	89.75
328.829	83.75
329.058	92.75
329.287	74.75
329.515	84.75
329.744	72.75
329.972	81.75
330.201	75.75
330.43	85.75
330.658	84.75
330.887	95.75
331.115	84.75
331.344	80.75
331.572	92.75
331.801	80.75
332.03	80.75
332.258	82.75
332.486	82.75
332.715	92.75
332.943	98.75
333.172	58.75
333.4	84.75
333.629	82.75
333.857	100.75
334.085	84.75
334.314	73.75
334.542	82.75
334.771	104.75
334.999	90.75
335.227	72.75
335.455	69.75
335.684	87.75
335.912	79.75
336.14	82.75
336.369	78.75
336.597	86.75
336.825	80.75
337.053	84.75
337.281	76.75
337.51	82.75
337.738	88.75
337.966	87.75
338.194	80.75
338.422	73.75
338.65	87.75
338.878	82.75
339.106	69.75
339.334	77.75
339.562	84.75
339.79	78.75
340.018	90.75
340.246	92.75
340.474	78.75
340.702	72.75
340.93	75.75
341.158	87.75
341.386	82.75
341.614	64.75
341.842	75.75
342.07	84.75
342.298	92.75
342.526	88.75
342.754	72.75
342.981	76.75
343.209	80.75
343.437	96.75
343.665	79.75
343.893	72.75
344.12	81.75
344.348	84.75
344.576	92.75
344.804	92.75
345.031	81.75
345.259	82.75
345.487	90.75
345.714	82.75
345.942	79.75
346.17	74.75
346.397	70.75
346.625	78.75
346.853	75.75
347.08	82.75
347.308	78.75
347.535	84.75
347.763	96.75
347.99	78.75
348.218	103.75
348.445	88.75
348.673	74.75
348.9	76.75
349.128	79.75
349.355	94.75
349.583	93.75
349.81	77.75
350.037	91.75
350.265	82.75
350.492	74.75
350.72	83.75
350.947	91.75
351.174	89.75
351.402	76.75
351.629	75.75
351.856	93.75
352.083	95.75
352.311	74.75
352.538	80.75
352.765	72.75
352.992	80.75
353.22	88.75
353.447	90.75
353.674	74.75
353.901	88.75
354.128	91.75
354.355	70.75
354.583	72.75
354.81	75.75
355.037	82.75
355.264	88.75
355.491	72.75
355.718	83.75
355.945	106.75
356.172	76.75
356.399	65.75
356.626	86.75
356.853	74.75
357.08	79.75
357.307	92.75
357.534	89.75
357.761	86.75
357.988	78.75
358.215	76.75
358.441	84.75
358.668	78.75
358.895	78.75
359.122	79.75
359.349	85.75
359.576	93.75
359.802	87.75
360.029	82.75
360.256	86.75
360.483	69.75
360.709	84.75
360.936	80.75
361.163	75.75
361.39	72.75
361.616	88.75
361.843	95.75
362.07	85.75
362.296	92.75
362.523	72.75
362.749	84.75
362.976	79.75
363.203	74.75
363.429	70.75
363.656	87.75
363.882	65.75
364.109	86.75
364.335	86.75
364.562	78.75
364.788	79.75
365.015	82.75
365.241	85.75
365.468	81.75
365.694	70.75
365.92	88.75
366.147	76.75
366.373	87.75
366.599	73.75
366.826	74.75
367.052	85.75
367.278	90.75
367.505	100.75
367.731	87.75
367.957	79.75
368.184	77.75
368.41	73.75
368.636	93.75
368.862	92.75
369.089	89.75
369.315	80.75
369.541	76.75
369.767	80.75
369.993	72.75
370.219	74.75
370.445	82.75
370.672	73.75
370.898	63.75
371.124	70.75
371.35	98.75
371.576	84.75
371.802	91.75
372.028	86.75
372.254	93.75
372.48	74.75
372.706	75.75
372.932	80.75
373.158	72.75
373.384	95.75
373.61	78.75
373.835	87.75
374.061	76.75
374.287	78.75
374.513	84.75
374.739	79.75
374.965	84.75
375.191	85.75
375.416	75.75
375.642	89.75
375.868	78.75
376.094	89.75
376.319	91.75
376.545	77.75
376.771	68.75
376.997	75.75
377.222	93.75
377.448	99.75
377.674	77.75
377.899	78.75
378.125	93.75
378.35	74.75
378.576	87.75
378.802	70.75
379.027	90.75
379.253	84.75
379.478	71.75
379.704	87.75
379.929	76.75
380.155	68.75
380.38	75.75
380.606	71.75
380.831	85.75
381.057	72.75
381.282	64.75
381.507	90.75
381.733	86.75
381.958	85.75
382.184	76.75
382.409	91.75
382.634	80.75
382.86	61.75
383.085	77.75
383.31	91.75
383.535	79.75
383.761	74.75
383.986	82.75
384.211	77.75
384.436	81.75
384.662	70.75
384.887	67.75
385.112	75.75
385.337	83.75
385.562	78.75
385.787	73.75
386.013	92.75
386.238	80.75
386.463	87.75
386.688	95.75
386.913	88.75
387.138	82.75
387.363	87.75
387.588	87.75
387.813	93.75
388.038	73.75
388.263	75.75
388.488	91.75
388.713	83.75
388.938	71.75
389.163	84.75
389.387	83.75
389.612	85.75
389.837	86.75
390.062	84.75
390.287	86.75
390.512	71.75
390.736	83.75
390.961	74.75
391.186	76.75
391.411	82.75
391.636	78.75
391.86	79.75
392.085	101.75
392.31	82.75
392.534	92.75
392.759	69.75
392.984	80.75
393.208	76.75
393.433	87.75
393.658	80.75
393.882	80.75
394.107	86.75
394.331	79.75
394.556	78.75
394.78	77.75
395.005	59.75
395.229	73.75
395.454	87.75
395.678	71.75
395.903	70.75
396.127	78.75
396.352	64.75
396.576	80.75
396.801	85.75
397.025	88.75
397.249	86.75
397.474	75.75
397.698	69.75
397.922	78.75
398.147	77.75
398.371	78.75
398.595	75.75
398.82	72.75
399.044	88.75
399.268	64.75
399.492	75.75
399.717	89.75
399.941	94.75
400.165	87.75
400.389	84.75
400.613	81.75
400.837	70.75
401.062	79.75
401.286	85.75
401.51	83.75
401.734	86.75
401.958	77.75
402.182	69.75
402.406	94.75
402.63	84.75
402.854	76.75
403.078	80.75
403.302	93.75
403.526	64.75
403.75	90.75
403.974	91.75
404.198	109.75
404.422	123.75
404.645	133.75
404.869	134.75
405.093	96.75
405.317	97.75
405.541	85.75
405.765	86.75
405.988	67.75
406.212	72.75
406.436	80.75
406.66	84.75
406.883	86.75
407.107	62.75
407.331	80.75
407.555	79.75
407.778	80.75
408.002	80.75
408.226	85.75
408.449	66.75
408.673	80.75
408.896	82.75
409.12	66.75
409.344	89.75
409.567	72.75
409.791	75.75
410.014	83.75
410.238	73.75
410.461	67.75
410.685	73.75
410.908	70.75
411.132	72.75
411.355	86.75
411.578	80.75
411.802	77.75
412.025	83.75
412.249	89.75
412.472	75.75
412.695	87.75
412.919	87.75
413.142	78.75
413.365	82.75
413.589	83.75
413.812	91.75
414.035	85.75
414.258	90.75
414.482	83.75
414.705	80.75
414.928	91.75
415.151	78.75
415.374	74.75
415.597	72.75
415.821	82.75
416.044	91.75
416.267	72.75
416.49	89.75
416.713	98.75
416.936	87.75
417.159	89.75
417.382	82.75
417.605	78.75
417.828	85.75
418.051	86.75
418.274	62.75
418.497	82.75
418.72	85.75
418.943	85.75
419.166	85.75
419.389	79.75
419.611	94.75
419.834	72.75
420.057	95.75
420.28	75.75
420.503	82.75
420.726	65.75
420.948	76.75
421.171	78.75
421.394	102.75
421.617	79.75
421.839	81.75
422.062	75.75
422.285	76.75
422.507	81.75
422.73	85.75
422.953	80.75
423.175	82.75
423.398	86.75
423.621	79.75
423.843	68.75
424.066	74.75
424.288	79.75
424.511	86.75
424.733	76.75
424.956	87.75
425.178	85.75
425.401	84.75
425.623	86.75
425.846	86.75
426.068	90.75
426.291	86.75
426.513	81.75
426.735	89.75
426.958	88.75
427.18	82.75
427.402	76.75
427.625	87.75
427.847	76.75
428.069	100.75
428.292	81.75
428.514	81.75
428.736	85.75
428.958	71.75
429.181	74.75
429.403	88.75
429.625	86.75
429.847	85.75
430.069	79.75
430.292	72.75
430.514	78.75
430.736	80.75
430.958	84.75
431.18	74.75
431.402	90.75
431.624	84.75
431.846	78.75
432.068	76.75
432.29	84.75
432.512	86.75
432.734	83.75
432.956	75.75
433.178	70.75
433.4	90.75
433.622	98.75
433.844	88.75
434.066	86.75
434.287	86.75
434.509	77.75
434.731	83.75
434.953	76.75
435.175	72.75
435.397	76.75
435.618	87.75
435.84	87.75
436.062	85.75
436.284	78.75
436.505	82.75
436.727	85.75
436.949	85.75
437.17	89.75
437.392	95.75
437.614	86.75
437.835	66.75
438.057	95.75
438.278	94.75
438.5	84.75
438.721	82.75
438.943	78.75
439.165	64.75
439.386	81.75
439.608	81.75
439.829	78.75
440.05	91.75
440.272	76.75
440.493	70.75
440.715	78.75
440.936	90.75
441.158	93.75
441.379	75.75
441.6	76.75
441.822	79.75
442.043	82.75
442.264	83.75
442.486	87.75
442.707	89.75
442.928	91.75
443.149	85.75
443.371	76.75
443.592	80.75
443.813	87.75
444.034	98.75
444.255	77.75
444.476	87.75
444.698	83.75
444.919	81.75
445.14	150.75
445.361	111.75
445.582	87.75
445.803	70.75
446.024	82.75
446.245	83.75
446.466	82.75
446.687	79.75
446.908	86.75
447.129	96.75
447.35	75.75
447.571	86.75
447.792	73.75
448.013	81.75
448.234	96.75
448.455	69.75
448.675	80.75
448.896	89.75
449.117	75.75
449.338	79.75
449.559	85.75
449.779	78.75
450	84.75
450.221	90.75
450.442	85.75
450.662	76.75
450.883	73.75
451.104	76.75
451.324	87.75
451.545	81.75
451.766	88.75
451.986	81.75
452.207	84.75
452.428	86.75
452.648	84.75
452.869	80.75
453.089	77.75
453.31	83.75
453.53	86.75
453.751	91.75
453.971	82.75
454.192	75.75
454.412	79.75
454.633	80.75
454.853	70.75
455.073	75.75
455.294	86.75
455.514	91.75
455.734	85.75
455.955	81.75
456.175	92.75
456.395	80.75
456.616	76.75
456.836	77.75
457.056	75.75
457.276	74.75
457.497	80.75
457.717	65.75
457.937	76.75
458.157	88.75
458.377	92.75
458.598	95.75
458.818	78.75
459.038	77.75
459.258	86.75
459.478	94.75
459.698	87.75
459.918	103.75
460.138	77.75
460.358	76.75
460.578	92.75
460.798	90.75
461.018	84.75
461.238	66.75
461.458	82.75
461.678	75.75
461.898	73.75
462.118	75.75
462.338	74.75
462.558	78.75
462.777	79.75
462.997	84.75
463.217	79.75
463.437	81.75
463.657	78.75
463.876	78.75
464.096	74.75
464.316	81.75
464.536	86.75
464.755	86.75
464.975	97.75
465.195	78.75
465.414	77.75
465.634	75.75
465.854	86.75
466.073	68.75
466.293	87.75
466.512	78.75
466.732	88.75
466.951	100.75
467.171	92.75
467.391	98.75
467.61	89.75
467.829	79.75
468.049	75.75
468.268	82.75
468.488	89.75
468.707	78.75
468.927	80.75
469.146	74.75
469.365	92.75
469.585	82.75
469.804	83.75
470.023	77.75
470.243	81.75
470.462	99.75
470.681	84.75
470.901	80.75
471.12	83.75
471.339	91.75
471.558	90.75
471.777	80.75
471.997	90.75
472.216	87.75
472.435	78.75
472.654	91.75
472.873	95.75
473.092	93.75
473.311	91.75
473.53	79.75
473.749	79.75
473.968	84.75
474.187	82.75
474.406	77.75
474.625	66.75
474.844	70.75
475.063	83.75
475.282	63.75
475.501	72.75
475.72	92.75
475.939	80.75
476.158	95.75
476.377	84.75
476.596	86.75
476.814	81.75
477.033	85.75
477.252	78.75
477.471	78.75
477.69	85.75
477.908	87.75
478.127	93.75
478.346	86.75
478.564	99.75
478.783	91.75
479.002	87.75
479.22	79.75
479.439	78.75
479.658	74.75
479.876	93.75
480.095	71.75
480.313	85.75
480.532	92.75
480.751	92.75
480.969	78.75
481.188	83.75
481.406	78.75
481.624	86.75
481.843	83.75
482.061	74.75
482.28	87.75
482.498	80.75
482.717	85.75
482.935	92.75
483.153	86.75
483.372	82.75
483.59	86.75
483.808	74.75
484.027	74.75
484.245	86.75
484.463	87.75
484.681	89.75
484.9	87.75
485.118	82.75
485.336	83.75
485.554	89.75
485.772	83.75
485.99	89.75
486.209	100.75
486.427	84.75
486.645	73.75
486.863	98.75
487.081	88.75
487.299	72.75
487.517	90.75
487.735	71.75
487.953	93.75
488.171	91.75
488.389	83.75
488.607	87.75
488.825	78.75
489.043	88.75
489.261	90.75
489.479	75.75
489.696	83.75
489.914	80.75
490.132	86.75
490.35	96.75
490.568	87.75
490.786	88.75
491.003	104.75
491.221	88.75
491.439	88.75
491.657	88.75
491.874	87.75
492.092	89.75
492.31	101.75
492.527	95.75
492.745	104.75
492.963	76.75
493.18	86.75
493.398	84.75
493.615	91.75
493.833	77.75
494.05	96.75
494.268	81.75
494.485	91.75
494.703	91.75
494.92	90.75
495.138	81.75
495.355	109.75
495.573	76.75
495.79	70.75
496.008	89.75
496.225	87.75
496.442	81.75
496.66	98.75
496.877	88.75
497.094	95.75
497.312	83.75
497.529	80.75
497.746	76.75
497.963	85.75
498.181	90.75
498.398	68.75
498.615	80.75
498.832	65.75
499.049	84.75
499.267	94.75
499.484	91.75
499.701	80.75
499.918	79.75
500.135	84.75
500.352	90.75
500.569	91.75
500.786	86.75
501.003	75.75
501.22	84.75
501.437	97.75
501.654	83.75
501.871	84.75
502.088	93.75
502.305	79.75
502.522	98.75
502.739	78.75
502.956	77.75
503.172	91.75
503.389	83.75
503.606	76.75
503.823	82.75
504.04	83.75
504.256	86.75
504.473	86.75
504.69	78.75
504.907	82.75
505.123	81.75
505.34	76.75
505.557	87.75
505.773	89.75
505.99	89.75
506.207	89.75
506.423	98.75
506.64	77.75
506.856	86.75
507.073	64.75
507.289	102.75
507.506	79.75
507.722	78.75
507.939	82.75
508.155	86.75
508.372	94.75
508.588	88.75
508.805	84.75
509.021	87.75
509.238	82.75
509.454	80.75
509.67	90.75
509.887	67.75
510.103	82.75
510.319	90.75
510.536	89.75
510.752	71.75
510.968	85.75
511.184	90.75
511.401	77.75
511.617	69.75
511.833	80.75
512.049	81.75
512.265	86.75
512.481	77.75
512.698	90.75
512.914	83.75
513.13	80.75
513.346	82.75
513.562	77.75
513.778	72.75
513.994	62.75
514.21	78.75
514.426	92.75
514.642	84.75
514.858	74.75
515.074	83.75
515.29	75.75
515.506	74.75
515.721	80.75
515.937	91.75
516.153	86.75
516.369	84.75
516.585	87.75
516.801	83.75
517.016	79.75
517.232	77.75
517.448	74.75
517.664	80.75
517.879	70.75
518.095	100.75
518.311	89.75
518.527	80.75
518.742	71.75
518.958	84.75
519.173	93.75
519.389	95.75
519.605	82.75
519.82	86.75
520.036	79.75
