Data from KBr_2_HRD10591_00022.txt Node
Date: Mon Jan 19 13:13:01 EST 2026
User: Yrep
Spectrometer: HR+D1059
Trigger mode: 1
Integration Time (sec): 1.000000E-1
Scans to average: 1
Electric dark correction enabled: true
Nonlinearity correction enabled: false
Boxcar width: 0
XAxis mode: Wavelengths
Number of Pixels in Spectrum: 2048
>>>>>Begin Spectral Data<<<<<
223.165	-18.94
223.4	-18.94
223.635	-18.94
223.869	-18.94
224.104	-14.94
224.338	-16.94
224.573	-2.94
224.808	-6.94
225.042	-7.94
225.277	-17.94
225.511	-3.94
225.746	-5.94
225.98	4.06
226.215	15.06
226.449	5.06
226.683	30.06
226.918	27.06
227.152	34.06
227.387	44.06
227.621	48.06
227.856	40.06
228.09	58.06
228.324	44.06
228.559	58.06
228.793	53.06
229.027	72.06
229.262	60.06
229.496	73.06
229.73	80.06
229.964	80.06
230.199	76.06
230.433	72.06
230.667	69.06
230.901	77.06
231.136	66.06
231.37	81.06
231.604	81.06
231.838	80.06
232.072	80.06
232.306	96.06
232.541	85.06
232.775	97.06
233.009	73.06
233.243	79.06
233.477	94.06
233.711	90.06
233.945	72.06
234.179	90.06
234.413	91.06
234.647	72.06
234.881	82.06
235.115	70.06
235.349	87.06
235.583	80.06
235.817	70.06
236.051	76.06
236.285	94.06
236.519	73.06
236.753	91.06
236.987	80.06
237.221	69.06
237.455	76.06
237.689	68.06
237.922	80.06
238.156	70.06
238.39	81.06
238.624	78.06
238.858	72.06
239.091	73.06
239.325	97.06
239.559	69.06
239.793	76.06
240.027	74.06
240.26	98.06
240.494	103.06
240.728	89.06
240.961	76.06
241.195	86.06
241.429	73.06
241.662	80.06
241.896	79.06
242.13	95.06
242.363	89.06
242.597	83.06
242.83	92.06
243.064	73.06
243.298	76.06
243.531	77.06
243.765	86.06
243.998	83.06
244.232	76.06
244.465	90.06
244.699	88.06
244.932	73.06
245.166	88.06
245.399	71.06
245.633	75.06
245.866	85.06
246.099	80.06
246.333	84.06
246.566	79.06
246.8	84.06
247.033	82.06
247.266	68.06
247.5	84.06
247.733	80.06
247.966	69.06
248.2	95.06
248.433	87.06
248.666	91.06
248.899	84.06
249.133	89.06
249.366	79.06
249.599	76.06
249.832	76.06
250.066	80.06
250.299	79.06
250.532	80.06
250.765	79.06
250.998	73.06
251.231	74.06
251.465	80.06
251.698	82.06
251.931	81.06
252.164	72.06
252.397	68.06
252.63	82.06
252.863	77.06
253.096	68.06
253.329	83.06
253.562	89.06
253.795	77.06
254.028	85.06
254.261	98.06
254.494	82.06
254.727	88.06
254.96	69.06
255.193	93.06
255.426	78.06
255.659	70.06
255.892	84.06
256.124	92.06
256.357	84.06
256.59	86.06
256.823	81.06
257.056	79.06
257.289	101.06
257.521	75.06
257.754	92.06
257.987	68.06
258.22	84.06
258.452	62.06
258.685	85.06
258.918	85.06
259.151	88.06
259.383	81.06
259.616	89.06
259.849	72.06
260.081	84.06
260.314	89.06
260.547	84.06
260.779	84.06
261.012	80.06
261.244	68.06
261.477	90.06
261.71	91.06
261.942	91.06
262.175	86.06
262.407	80.06
262.64	90.06
262.872	74.06
263.105	92.06
263.337	79.06
263.57	86.06
263.802	79.06
264.035	79.06
264.267	87.06
264.499	66.06
264.732	83.06
264.964	72.06
265.197	86.06
265.429	74.06
265.661	90.06
265.894	94.06
266.126	94.06
266.358	84.06
266.591	94.06
266.823	88.06
267.055	72.06
267.287	76.06
267.52	87.06
267.752	84.06
267.984	87.06
268.216	74.06
268.448	101.06
268.681	87.06
268.913	94.06
269.145	90.06
269.377	96.06
269.609	79.06
269.841	74.06
270.073	89.06
270.306	87.06
270.538	73.06
270.77	82.06
271.002	85.06
271.234	96.06
271.466	85.06
271.698	75.06
271.93	94.06
272.162	76.06
272.394	85.06
272.626	72.06
272.858	86.06
273.09	83.06
273.322	72.06
273.553	85.06
273.785	84.06
274.017	87.06
274.249	81.06
274.481	93.06
274.713	87.06
274.945	76.06
275.176	77.06
275.408	73.06
275.64	88.06
275.872	97.06
276.104	95.06
276.335	104.06
276.567	87.06
276.799	91.06
277.031	96.06
277.262	82.06
277.494	85.06
277.726	85.06
277.957	86.06
278.189	84.06
278.421	75.06
278.652	91.06
278.884	93.06
279.115	84.06
279.347	76.06
279.579	84.06
279.81	88.06
280.042	84.06
280.273	99.06
280.505	97.06
280.736	83.06
280.968	84.06
281.199	88.06
281.431	86.06
281.662	89.06
281.894	93.06
282.125	87.06
282.356	89.06
282.588	90.06
282.819	83.06
283.051	81.06
283.282	93.06
283.513	70.06
283.745	99.06
283.976	91.06
284.207	81.06
284.439	95.06
284.67	92.06
284.901	92.06
285.132	91.06
285.364	75.06
285.595	82.06
285.826	86.06
286.057	100.06
286.288	75.06
286.52	80.06
286.751	98.06
286.982	77.06
287.213	89.06
287.444	93.06
287.675	74.06
287.906	86.06
288.138	73.06
288.369	89.06
288.6	91.06
288.831	97.06
289.062	85.06
289.293	76.06
289.524	97.06
289.755	101.06
289.986	100.06
290.217	89.06
290.448	79.06
290.679	95.06
290.91	100.06
291.141	83.06
291.371	74.06
291.602	89.06
291.833	77.06
292.064	85.06
292.295	96.06
292.526	96.06
292.757	93.06
292.987	96.06
293.218	81.06
293.449	87.06
293.68	78.06
293.91	79.06
294.141	97.06
294.372	86.06
294.603	81.06
294.833	93.06
295.064	90.06
295.295	104.06
295.525	81.06
295.756	87.06
295.987	105.06
296.217	89.06
296.448	83.06
296.679	80.06
296.909	84.06
297.14	89.06
297.37	83.06
297.601	77.06
297.831	90.06
298.062	92.06
298.292	93.06
298.523	86.06
298.753	87.06
298.984	91.06
299.214	98.06
299.445	91.06
299.675	79.06
299.905	97.06
300.136	80.06
300.366	87.06
300.597	91.06
300.827	97.06
301.057	88.06
301.288	88.06
301.518	91.06
301.748	90.06
301.979	95.06
302.209	92.06
302.439	94.06
302.669	74.06
302.9	98.06
303.13	91.06
303.36	90.06
303.59	96.06
303.82	82.06
304.051	81.06
304.281	98.06
304.511	102.06
304.741	94.06
304.971	97.06
305.201	97.06
305.431	88.06
305.661	85.06
305.891	90.06
306.121	86.06
306.352	86.06
306.582	84.06
306.812	90.06
307.042	99.06
307.272	79.06
307.502	79.06
307.731	72.06
307.961	90.06
308.191	95.06
308.421	89.06
308.651	103.06
308.881	81.06
309.111	76.06
309.341	83.06
309.571	102.06
309.8	80.06
310.03	98.06
310.26	92.06
310.49	83.06
310.72	79.06
310.949	81.06
311.179	91.06
311.409	83.06
311.639	95.06
311.868	97.06
312.098	99.06
312.328	97.06
312.557	107.06
312.787	87.06
313.017	94.06
313.246	94.06
313.476	93.06
313.706	95.06
313.935	88.06
314.165	83.06
314.394	79.06
314.624	83.06
314.853	87.06
315.083	77.06
315.312	96.06
315.542	90.06
315.771	97.06
316.001	90.06
316.23	80.06
316.46	94.06
316.689	92.06
316.919	85.06
317.148	73.06
317.377	88.06
317.607	101.06
317.836	92.06
318.065	74.06
318.295	89.06
318.524	83.06
318.753	98.06
318.983	75.06
319.212	80.06
319.441	95.06
319.67	95.06
319.9	91.06
320.129	92.06
320.358	93.06
320.587	104.06
320.816	94.06
321.046	85.06
321.275	89.06
321.504	89.06
321.733	78.06
321.962	88.06
322.191	93.06
322.42	81.06
322.649	85.06
322.878	93.06
323.108	86.06
323.337	95.06
323.566	92.06
323.795	84.06
324.024	92.06
324.253	90.06
324.482	97.06
324.71	87.06
324.939	77.06
325.168	88.06
325.397	83.06
325.626	84.06
325.855	94.06
326.084	90.06
326.313	85.06
326.542	84.06
326.77	82.06
326.999	89.06
327.228	94.06
327.457	94.06
327.686	88.06
327.914	81.06
328.143	98.06
328.372	77.06
328.6	91.06
328.829	75.06
329.058	88.06
329.287	94.06
329.515	84.06
329.744	89.06
329.972	94.06
330.201	95.06
330.43	95.06
330.658	78.06
330.887	87.06
331.115	88.06
331.344	80.06
331.572	78.06
331.801	83.06
332.03	92.06
332.258	89.06
332.486	95.06
332.715	103.06
332.943	89.06
333.172	99.06
333.4	94.06
333.629	94.06
333.857	95.06
334.085	80.06
334.314	81.06
334.542	84.06
334.771	95.06
334.999	83.06
335.227	81.06
335.455	89.06
335.684	108.06
335.912	108.06
336.14	86.06
336.369	95.06
336.597	87.06
336.825	103.06
337.053	89.06
337.281	79.06
337.51	88.06
337.738	87.06
337.966	90.06
338.194	90.06
338.422	91.06
338.65	85.06
338.878	84.06
339.106	100.06
339.334	91.06
339.562	87.06
339.79	96.06
340.018	87.06
340.246	92.06
340.474	75.06
340.702	86.06
340.93	92.06
341.158	86.06
341.386	84.06
341.614	93.06
341.842	74.06
342.07	79.06
342.298	89.06
342.526	91.06
342.754	93.06
342.981	91.06
343.209	88.06
343.437	87.06
343.665	87.06
343.893	97.06
344.12	90.06
344.348	85.06
344.576	92.06
344.804	107.06
345.031	91.06
345.259	95.06
345.487	99.06
345.714	86.06
345.942	86.06
346.17	95.06
346.397	69.06
346.625	83.06
346.853	75.06
347.08	74.06
347.308	83.06
347.535	98.06
347.763	91.06
347.99	82.06
348.218	83.06
348.445	102.06
348.673	83.06
348.9	89.06
349.128	84.06
349.355	92.06
349.583	81.06
349.81	85.06
350.037	78.06
350.265	85.06
350.492	86.06
350.72	76.06
350.947	77.06
351.174	89.06
351.402	84.06
351.629	85.06
351.856	81.06
352.083	94.06
352.311	92.06
352.538	75.06
352.765	95.06
352.992	86.06
353.22	75.06
353.447	83.06
353.674	88.06
353.901	75.06
354.128	89.06
354.355	89.06
354.583	87.06
354.81	85.06
355.037	86.06
355.264	86.06
355.491	85.06
355.718	83.06
355.945	83.06
356.172	76.06
356.399	91.06
356.626	82.06
356.853	90.06
357.08	97.06
357.307	93.06
357.534	86.06
357.761	100.06
357.988	87.06
358.215	84.06
358.441	93.06
358.668	83.06
358.895	92.06
359.122	84.06
359.349	84.06
359.576	79.06
359.802	85.06
360.029	82.06
360.256	83.06
360.483	88.06
360.709	87.06
360.936	92.06
361.163	103.06
361.39	83.06
361.616	89.06
361.843	91.06
362.07	89.06
362.296	95.06
362.523	73.06
362.749	98.06
362.976	99.06
363.203	93.06
363.429	84.06
363.656	84.06
363.882	74.06
364.109	109.06
364.335	92.06
364.562	87.06
364.788	80.06
365.015	94.06
365.241	95.06
365.468	86.06
365.694	79.06
365.92	92.06
366.147	75.06
366.373	73.06
366.599	95.06
366.826	91.06
367.052	92.06
367.278	81.06
367.505	79.06
367.731	98.06
367.957	100.06
368.184	76.06
368.41	88.06
368.636	81.06
368.862	93.06
369.089	99.06
369.315	97.06
369.541	94.06
369.767	92.06
369.993	86.06
370.219	90.06
370.445	93.06
370.672	90.06
370.898	92.06
371.124	89.06
371.35	97.06
371.576	84.06
371.802	94.06
372.028	91.06
372.254	84.06
372.48	90.06
372.706	84.06
372.932	80.06
373.158	88.06
373.384	83.06
373.61	101.06
373.835	74.06
374.061	92.06
374.287	85.06
374.513	85.06
374.739	89.06
374.965	91.06
375.191	76.06
375.416	87.06
375.642	95.06
375.868	92.06
376.094	95.06
376.319	91.06
376.545	93.06
376.771	80.06
376.997	88.06
377.222	98.06
377.448	91.06
377.674	86.06
377.899	91.06
378.125	96.06
378.35	89.06
378.576	78.06
378.802	72.06
379.027	74.06
379.253	85.06
379.478	92.06
379.704	102.06
379.929	91.06
380.155	79.06
380.38	88.06
380.606	87.06
380.831	80.06
381.057	99.06
381.282	79.06
381.507	82.06
381.733	77.06
381.958	96.06
382.184	89.06
382.409	83.06
382.634	88.06
382.86	82.06
383.085	79.06
383.31	79.06
383.535	98.06
383.761	74.06
383.986	88.06
384.211	89.06
384.436	85.06
384.662	90.06
384.887	89.06
385.112	81.06
385.337	97.06
385.562	101.06
385.787	91.06
386.013	91.06
386.238	74.06
386.463	83.06
386.688	100.06
386.913	86.06
387.138	75.06
387.363	80.06
387.588	91.06
387.813	89.06
388.038	92.06
388.263	96.06
388.488	86.06
388.713	93.06
388.938	87.06
389.163	103.06
389.387	85.06
389.612	83.06
389.837	84.06
390.062	87.06
390.287	93.06
390.512	91.06
390.736	68.06
390.961	83.06
391.186	89.06
391.411	85.06
391.636	80.06
391.86	84.06
392.085	95.06
392.31	85.06
392.534	91.06
392.759	91.06
392.984	90.06
393.208	85.06
393.433	97.06
393.658	93.06
393.882	96.06
394.107	80.06
394.331	82.06
394.556	83.06
394.78	84.06
395.005	101.06
395.229	87.06
395.454	91.06
395.678	83.06
395.903	99.06
396.127	100.06
396.352	79.06
396.576	85.06
396.801	85.06
397.025	87.06
397.249	86.06
397.474	88.06
397.698	83.06
397.922	83.06
398.147	77.06
398.371	79.06
398.595	88.06
398.82	91.06
399.044	84.06
399.268	91.06
399.492	89.06
399.717	84.06
399.941	100.06
400.165	88.06
400.389	90.06
400.613	85.06
400.837	82.06
401.062	93.06
401.286	99.06
401.51	91.06
401.734	97.06
401.958	89.06
402.182	97.06
402.406	88.06
402.63	91.06
402.854	99.06
403.078	94.06
403.302	90.06
403.526	114.06
403.75	97.06
403.974	99.06
404.198	114.06
404.422	152.06
404.645	195.06
404.869	160.06
405.093	114.06
405.317	98.06
405.541	97.06
405.765	94.06
405.988	84.06
406.212	87.06
406.436	78.06
406.66	78.06
406.883	88.06
407.107	85.06
407.331	97.06
407.555	96.06
407.778	84.06
408.002	95.06
408.226	94.06
408.449	82.06
408.673	80.06
408.896	87.06
409.12	92.06
409.344	79.06
409.567	76.06
409.791	85.06
410.014	88.06
410.238	93.06
410.461	73.06
410.685	89.06
410.908	86.06
411.132	86.06
411.355	76.06
411.578	81.06
411.802	69.06
412.025	100.06
412.249	81.06
412.472	101.06
412.695	93.06
412.919	75.06
413.142	73.06
413.365	85.06
413.589	90.06
413.812	88.06
414.035	96.06
414.258	95.06
414.482	85.06
414.705	93.06
414.928	91.06
415.151	85.06
415.374	99.06
415.597	83.06
415.821	89.06
416.044	87.06
416.267	88.06
416.49	95.06
416.713	87.06
416.936	78.06
417.159	89.06
417.382	95.06
417.605	77.06
417.828	76.06
418.051	97.06
418.274	98.06
418.497	67.06
418.72	99.06
418.943	74.06
419.166	92.06
419.389	91.06
419.611	98.06
419.834	79.06
420.057	85.06
420.28	91.06
420.503	89.06
420.726	80.06
420.948	76.06
421.171	97.06
421.394	83.06
421.617	79.06
421.839	87.06
422.062	82.06
422.285	99.06
422.507	92.06
422.73	97.06
422.953	91.06
423.175	87.06
423.398	84.06
423.621	88.06
423.843	103.06
424.066	83.06
424.288	92.06
424.511	81.06
424.733	95.06
424.956	105.06
425.178	82.06
425.401	96.06
425.623	86.06
425.846	96.06
426.068	66.06
426.291	95.06
426.513	88.06
426.735	91.06
426.958	73.06
427.18	89.06
427.402	100.06
427.625	77.06
427.847	80.06
428.069	96.06
428.292	83.06
428.514	77.06
428.736	77.06
428.958	100.06
429.181	95.06
429.403	93.06
429.625	90.06
429.847	81.06
430.069	98.06
430.292	81.06
430.514	77.06
430.736	82.06
430.958	79.06
431.18	83.06
431.402	83.06
431.624	88.06
431.846	72.06
432.068	73.06
432.29	96.06
432.512	92.06
432.734	84.06
432.956	96.06
433.178	84.06
433.4	109.06
433.622	90.06
433.844	93.06
434.066	95.06
434.287	92.06
434.509	79.06
434.731	85.06
434.953	92.06
435.175	89.06
435.397	88.06
435.618	105.06
435.84	73.06
436.062	84.06
436.284	85.06
436.505	91.06
436.727	92.06
436.949	92.06
437.17	96.06
437.392	86.06
437.614	88.06
437.835	67.06
438.057	87.06
438.278	85.06
438.5	87.06
438.721	95.06
438.943	92.06
439.165	91.06
439.386	88.06
439.608	85.06
439.829	84.06
440.05	85.06
440.272	87.06
440.493	75.06
440.715	77.06
440.936	99.06
441.158	89.06
441.379	87.06
441.6	93.06
441.822	94.06
442.043	97.06
442.264	96.06
442.486	75.06
442.707	103.06
442.928	88.06
443.149	89.06
443.371	93.06
443.592	83.06
443.813	85.06
444.034	88.06
444.255	87.06
444.476	98.06
444.698	100.06
444.919	92.06
445.14	167.06
445.361	109.06
445.582	87.06
445.803	93.06
446.024	87.06
446.245	93.06
446.466	72.06
446.687	80.06
446.908	93.06
447.129	94.06
447.35	63.06
447.571	78.06
447.792	98.06
448.013	92.06
448.234	88.06
448.455	73.06
448.675	92.06
448.896	82.06
449.117	95.06
449.338	80.06
449.559	90.06
449.779	93.06
450	99.06
450.221	82.06
450.442	79.06
450.662	85.06
450.883	90.06
451.104	87.06
451.324	89.06
451.545	84.06
451.766	84.06
451.986	88.06
452.207	99.06
452.428	90.06
452.648	82.06
452.869	80.06
453.089	92.06
453.31	84.06
453.53	77.06
453.751	91.06
453.971	99.06
454.192	79.06
454.412	65.06
454.633	80.06
454.853	79.06
455.073	80.06
455.294	92.06
455.514	92.06
455.734	93.06
455.955	96.06
456.175	77.06
456.395	86.06
456.616	93.06
456.836	89.06
457.056	83.06
457.276	87.06
457.497	91.06
457.717	87.06
457.937	89.06
458.157	85.06
458.377	63.06
458.598	84.06
458.818	85.06
459.038	85.06
459.258	91.06
459.478	88.06
459.698	83.06
459.918	77.06
460.138	87.06
460.358	89.06
460.578	89.06
460.798	89.06
461.018	83.06
461.238	93.06
461.458	95.06
461.678	72.06
461.898	95.06
462.118	80.06
462.338	100.06
462.558	89.06
462.777	92.06
462.997	94.06
463.217	92.06
463.437	83.06
463.657	91.06
463.876	89.06
464.096	92.06
464.316	97.06
464.536	85.06
464.755	91.06
464.975	94.06
465.195	88.06
465.414	83.06
465.634	94.06
465.854	90.06
466.073	85.06
466.293	70.06
466.512	86.06
466.732	73.06
466.951	83.06
467.171	113.06
467.391	95.06
467.61	101.06
467.829	88.06
468.049	93.06
468.268	91.06
468.488	98.06
468.707	82.06
468.927	93.06
469.146	104.06
469.365	87.06
469.585	100.06
469.804	89.06
470.023	87.06
470.243	79.06
470.462	82.06
470.681	83.06
470.901	74.06
471.12	74.06
471.339	92.06
471.558	93.06
471.777	75.06
471.997	99.06
472.216	84.06
472.435	95.06
472.654	95.06
472.873	77.06
473.092	80.06
473.311	102.06
473.53	107.06
473.749	108.06
473.968	75.06
474.187	76.06
474.406	87.06
474.625	87.06
474.844	95.06
475.063	101.06
475.282	93.06
475.501	78.06
475.72	79.06
475.939	104.06
476.158	85.06
476.377	88.06
476.596	86.06
476.814	81.06
477.033	96.06
477.252	93.06
477.471	89.06
477.69	98.06
477.908	75.06
478.127	74.06
478.346	81.06
478.564	91.06
478.783	87.06
479.002	85.06
479.22	86.06
479.439	100.06
479.658	88.06
479.876	90.06
480.095	95.06
480.313	89.06
480.532	75.06
480.751	90.06
480.969	74.06
481.188	84.06
481.406	86.06
481.624	87.06
481.843	85.06
482.061	75.06
482.28	92.06
482.498	87.06
482.717	94.06
482.935	97.06
483.153	109.06
483.372	88.06
483.59	99.06
483.808	103.06
484.027	96.06
484.245	95.06
484.463	83.06
484.681	98.06
484.9	92.06
485.118	91.06
485.336	96.06
485.554	91.06
485.772	89.06
485.99	87.06
486.209	83.06
486.427	87.06
486.645	84.06
486.863	89.06
487.081	85.06
487.299	87.06
487.517	98.06
487.735	87.06
487.953	93.06
488.171	89.06
488.389	80.06
488.607	93.06
488.825	87.06
489.043	94.06
489.261	88.06
489.479	106.06
489.696	103.06
489.914	97.06
490.132	100.06
490.35	95.06
490.568	95.06
490.786	85.06
491.003	89.06
491.221	91.06
491.439	94.06
491.657	93.06
491.874	98.06
492.092	78.06
492.31	92.06
492.527	109.06
492.745	99.06
492.963	97.06
493.18	88.06
493.398	116.06
493.615	87.06
493.833	84.06
494.05	109.06
494.268	84.06
494.485	100.06
494.703	84.06
494.92	100.06
495.138	87.06
495.355	107.06
495.573	104.06
495.79	96.06
496.008	100.06
496.225	100.06
496.442	90.06
496.66	93.06
496.877	89.06
497.094	104.06
497.312	96.06
497.529	103.06
497.746	100.06
497.963	86.06
498.181	91.06
498.398	96.06
498.615	98.06
498.832	90.06
499.049	79.06
499.267	80.06
499.484	76.06
499.701	84.06
499.918	93.06
500.135	90.06
500.352	83.06
500.569	79.06
500.786	93.06
501.003	89.06
501.22	89.06
501.437	85.06
501.654	94.06
501.871	84.06
502.088	88.06
502.305	79.06
502.522	87.06
502.739	91.06
502.956	88.06
503.172	82.06
503.389	99.06
503.606	95.06
503.823	100.06
504.04	89.06
504.256	119.06
504.473	83.06
504.69	91.06
504.907	91.06
505.123	92.06
505.34	87.06
505.557	88.06
505.773	87.06
505.99	85.06
506.207	99.06
506.423	80.06
506.64	84.06
506.856	89.06
507.073	100.06
507.289	85.06
507.506	79.06
507.722	97.06
507.939	91.06
508.155	87.06
508.372	92.06
508.588	98.06
508.805	83.06
509.021	85.06
509.238	87.06
509.454	87.06
509.67	93.06
509.887	105.06
510.103	95.06
510.319	105.06
510.536	99.06
510.752	92.06
510.968	84.06
511.184	99.06
511.401	93.06
511.617	92.06
511.833	91.06
512.049	91.06
512.265	110.06
512.481	94.06
512.698	86.06
512.914	84.06
513.13	103.06
513.346	86.06
513.562	86.06
513.778	83.06
513.994	81.06
514.21	84.06
514.426	86.06
514.642	75.06
514.858	92.06
515.074	86.06
515.29	84.06
515.506	82.06
515.721	97.06
515.937	92.06
516.153	99.06
516.369	98.06
516.585	98.06
516.801	96.06
517.016	93.06
517.232	86.06
517.448	85.06
517.664	84.06
517.879	87.06
518.095	96.06
518.311	86.06
518.527	79.06
518.742	85.06
518.958	87.06
519.173	83.06
