Data from KBr_2_HRD10591_00042.txt Node
Date: Mon Jan 19 13:13:11 EST 2026
User: Yrep
Spectrometer: HR+D1059
Trigger mode: 1
Integration Time (sec): 1.000000E-1
Scans to average: 1
Electric dark correction enabled: true
Nonlinearity correction enabled: false
Boxcar width: 0
XAxis mode: Wavelengths
Number of Pixels in Spectrum: 2048
>>>>>Begin Spectral Data<<<<<
223.165	-12.56
223.4	-12.56
223.635	-12.56
223.869	-18.56
224.104	-24.56
224.338	-15.56
224.573	-28.56
224.808	-8.56
225.042	-4.56
225.277	-0.56
225.511	-3.56
225.746	18.44
225.98	13.44
226.215	9.44
226.449	0.44
226.683	8.44
226.918	36.44
227.152	30.44
227.387	41.44
227.621	39.44
227.856	52.44
228.09	42.44
228.324	46.44
228.559	64.44
228.793	53.44
229.027	59.44
229.262	75.44
229.496	58.44
229.73	69.44
229.964	76.44
230.199	71.44
230.433	77.44
230.667	72.44
230.901	63.44
231.136	89.44
231.37	80.44
231.604	66.44
231.838	75.44
232.072	76.44
232.306	74.44
232.541	91.44
232.775	77.44
233.009	85.44
233.243	83.44
233.477	84.44
233.711	78.44
233.945	59.44
234.179	72.44
234.413	86.44
234.647	70.44
234.881	74.44
235.115	66.44
235.349	88.44
235.583	72.44
235.817	89.44
236.051	80.44
236.285	77.44
236.519	85.44
236.753	75.44
236.987	80.44
237.221	68.44
237.455	78.44
237.689	85.44
237.922	82.44
238.156	71.44
238.39	80.44
238.624	86.44
238.858	79.44
239.091	62.44
239.325	70.44
239.559	68.44
239.793	69.44
240.027	74.44
240.26	79.44
240.494	71.44
240.728	63.44
240.961	81.44
241.195	77.44
241.429	66.44
241.662	74.44
241.896	80.44
242.13	73.44
242.363	80.44
242.597	69.44
242.83	65.44
243.064	79.44
243.298	93.44
243.531	77.44
243.765	78.44
243.998	79.44
244.232	90.44
244.465	79.44
244.699	74.44
244.932	69.44
245.166	80.44
245.399	76.44
245.633	96.44
245.866	87.44
246.099	76.44
246.333	72.44
246.566	73.44
246.8	85.44
247.033	68.44
247.266	74.44
247.5	70.44
247.733	66.44
247.966	63.44
248.2	65.44
248.433	80.44
248.666	83.44
248.899	81.44
249.133	78.44
249.366	82.44
249.599	79.44
249.832	83.44
250.066	76.44
250.299	93.44
250.532	83.44
250.765	78.44
250.998	81.44
251.231	84.44
251.465	89.44
251.698	78.44
251.931	91.44
252.164	89.44
252.397	73.44
252.63	81.44
252.863	75.44
253.096	65.44
253.329	72.44
253.562	86.44
253.795	69.44
254.028	84.44
254.261	85.44
254.494	81.44
254.727	76.44
254.96	84.44
255.193	78.44
255.426	73.44
255.659	92.44
255.892	86.44
256.124	66.44
256.357	64.44
256.59	78.44
256.823	84.44
257.056	88.44
257.289	81.44
257.521	73.44
257.754	73.44
257.987	80.44
258.22	75.44
258.452	75.44
258.685	88.44
258.918	75.44
259.151	99.44
259.383	89.44
259.616	79.44
259.849	79.44
260.081	82.44
260.314	72.44
260.547	75.44
260.779	84.44
261.012	81.44
261.244	74.44
261.477	80.44
261.71	85.44
261.942	69.44
262.175	79.44
262.407	71.44
262.64	76.44
262.872	87.44
263.105	79.44
263.337	83.44
263.57	85.44
263.802	86.44
264.035	76.44
264.267	63.44
264.499	87.44
264.732	87.44
264.964	78.44
265.197	93.44
265.429	75.44
265.661	88.44
265.894	76.44
266.126	93.44
266.358	59.44
266.591	80.44
266.823	87.44
267.055	87.44
267.287	73.44
267.52	92.44
267.752	78.44
267.984	93.44
268.216	92.44
268.448	84.44
268.681	71.44
268.913	78.44
269.145	72.44
269.377	79.44
269.609	87.44
269.841	78.44
270.073	75.44
270.306	80.44
270.538	78.44
270.77	79.44
271.002	83.44
271.234	81.44
271.466	72.44
271.698	92.44
271.93	84.44
272.162	84.44
272.394	72.44
272.626	78.44
272.858	81.44
273.09	80.44
273.322	77.44
273.553	91.44
273.785	77.44
274.017	73.44
274.249	87.44
274.481	78.44
274.713	92.44
274.945	82.44
275.176	91.44
275.408	64.44
275.64	71.44
275.872	85.44
276.104	83.44
276.335	85.44
276.567	78.44
276.799	75.44
277.031	67.44
277.262	85.44
277.494	60.44
277.726	84.44
277.957	76.44
278.189	86.44
278.421	95.44
278.652	78.44
278.884	90.44
279.115	64.44
279.347	83.44
279.579	82.44
279.81	80.44
280.042	86.44
280.273	73.44
280.505	89.44
280.736	88.44
280.968	81.44
281.199	74.44
281.431	85.44
281.662	85.44
281.894	79.44
282.125	80.44
282.356	69.44
282.588	75.44
282.819	84.44
283.051	85.44
283.282	99.44
283.513	86.44
283.745	85.44
283.976	68.44
284.207	103.44
284.439	89.44
284.67	70.44
284.901	77.44
285.132	94.44
285.364	79.44
285.595	86.44
285.826	91.44
286.057	84.44
286.288	100.44
286.52	97.44
286.751	79.44
286.982	86.44
287.213	81.44
287.444	82.44
287.675	99.44
287.906	75.44
288.138	85.44
288.369	84.44
288.6	83.44
288.831	83.44
289.062	91.44
289.293	80.44
289.524	76.44
289.755	76.44
289.986	84.44
290.217	93.44
290.448	85.44
290.679	91.44
290.91	98.44
291.141	69.44
291.371	69.44
291.602	84.44
291.833	85.44
292.064	73.44
292.295	81.44
292.526	90.44
292.757	94.44
292.987	84.44
293.218	87.44
293.449	83.44
293.68	81.44
293.91	87.44
294.141	80.44
294.372	77.44
294.603	92.44
294.833	86.44
295.064	72.44
295.295	85.44
295.525	87.44
295.756	91.44
295.987	86.44
296.217	79.44
296.448	80.44
296.679	93.44
296.909	87.44
297.14	83.44
297.37	86.44
297.601	81.44
297.831	90.44
298.062	95.44
298.292	78.44
298.523	74.44
298.753	81.44
298.984	75.44
299.214	83.44
299.445	84.44
299.675	93.44
299.905	83.44
300.136	77.44
300.366	78.44
300.597	79.44
300.827	77.44
301.057	89.44
301.288	88.44
301.518	89.44
301.748	81.44
301.979	88.44
302.209	77.44
302.439	67.44
302.669	92.44
302.9	91.44
303.13	77.44
303.36	90.44
303.59	87.44
303.82	77.44
304.051	76.44
304.281	97.44
304.511	75.44
304.741	92.44
304.971	85.44
305.201	85.44
305.431	91.44
305.661	84.44
305.891	88.44
306.121	67.44
306.352	88.44
306.582	81.44
306.812	88.44
307.042	71.44
307.272	90.44
307.502	79.44
307.731	81.44
307.961	87.44
308.191	75.44
308.421	77.44
308.651	98.44
308.881	79.44
309.111	89.44
309.341	85.44
309.571	94.44
309.8	83.44
310.03	77.44
310.26	75.44
310.49	101.44
310.72	84.44
310.949	77.44
311.179	87.44
311.409	77.44
311.639	80.44
311.868	75.44
312.098	79.44
312.328	78.44
312.557	89.44
312.787	93.44
313.017	64.44
313.246	91.44
313.476	90.44
313.706	95.44
313.935	86.44
314.165	79.44
314.394	91.44
314.624	80.44
314.853	83.44
315.083	85.44
315.312	94.44
315.542	86.44
315.771	64.44
316.001	94.44
316.23	94.44
316.46	83.44
316.689	91.44
316.919	96.44
317.148	101.44
317.377	87.44
317.607	90.44
317.836	82.44
318.065	90.44
318.295	90.44
318.524	72.44
318.753	86.44
318.983	80.44
319.212	71.44
319.441	71.44
319.67	85.44
319.9	86.44
320.129	100.44
320.358	85.44
320.587	82.44
320.816	95.44
321.046	96.44
321.275	100.44
321.504	78.44
321.733	89.44
321.962	99.44
322.191	83.44
322.42	73.44
322.649	76.44
322.878	79.44
323.108	81.44
323.337	91.44
323.566	94.44
323.795	79.44
324.024	80.44
324.253	85.44
324.482	93.44
324.71	83.44
324.939	80.44
325.168	79.44
325.397	71.44
325.626	92.44
325.855	85.44
326.084	92.44
326.313	80.44
326.542	79.44
326.77	69.44
326.999	95.44
327.228	87.44
327.457	86.44
327.686	98.44
327.914	78.44
328.143	90.44
328.372	68.44
328.6	84.44
328.829	80.44
329.058	93.44
329.287	64.44
329.515	87.44
329.744	88.44
329.972	91.44
330.201	91.44
330.43	87.44
330.658	85.44
330.887	93.44
331.115	80.44
331.344	75.44
331.572	95.44
331.801	99.44
332.03	87.44
332.258	83.44
332.486	96.44
332.715	87.44
332.943	76.44
333.172	75.44
333.4	77.44
333.629	82.44
333.857	89.44
334.085	86.44
334.314	90.44
334.542	96.44
334.771	87.44
334.999	96.44
335.227	103.44
335.455	89.44
335.684	73.44
335.912	86.44
336.14	94.44
336.369	84.44
336.597	91.44
336.825	88.44
337.053	94.44
337.281	86.44
337.51	91.44
337.738	79.44
337.966	84.44
338.194	107.44
338.422	102.44
338.65	93.44
338.878	81.44
339.106	84.44
339.334	87.44
339.562	91.44
339.79	88.44
340.018	85.44
340.246	107.44
340.474	69.44
340.702	75.44
340.93	80.44
341.158	82.44
341.386	94.44
341.614	78.44
341.842	85.44
342.07	79.44
342.298	86.44
342.526	92.44
342.754	79.44
342.981	82.44
343.209	83.44
343.437	104.44
343.665	85.44
343.893	81.44
344.12	72.44
344.348	95.44
344.576	99.44
344.804	105.44
345.031	103.44
345.259	87.44
345.487	89.44
345.714	78.44
345.942	72.44
346.17	86.44
346.397	86.44
346.625	90.44
346.853	78.44
347.08	78.44
347.308	74.44
347.535	88.44
347.763	75.44
347.99	90.44
348.218	86.44
348.445	92.44
348.673	73.44
348.9	88.44
349.128	75.44
349.355	83.44
349.583	81.44
349.81	76.44
350.037	92.44
350.265	94.44
350.492	102.44
350.72	81.44
350.947	96.44
351.174	80.44
351.402	83.44
351.629	80.44
351.856	89.44
352.083	100.44
352.311	76.44
352.538	73.44
352.765	75.44
352.992	87.44
353.22	83.44
353.447	79.44
353.674	93.44
353.901	99.44
354.128	77.44
354.355	79.44
354.583	90.44
354.81	88.44
355.037	84.44
355.264	99.44
355.491	106.44
355.718	79.44
355.945	80.44
356.172	72.44
356.399	74.44
356.626	87.44
356.853	76.44
357.08	75.44
357.307	85.44
357.534	88.44
357.761	81.44
357.988	73.44
358.215	78.44
358.441	81.44
358.668	83.44
358.895	91.44
359.122	85.44
359.349	91.44
359.576	87.44
359.802	87.44
360.029	80.44
360.256	79.44
360.483	75.44
360.709	86.44
360.936	81.44
361.163	78.44
361.39	93.44
361.616	77.44
361.843	95.44
362.07	67.44
362.296	87.44
362.523	87.44
362.749	81.44
362.976	71.44
363.203	69.44
363.429	70.44
363.656	85.44
363.882	86.44
364.109	85.44
364.335	71.44
364.562	87.44
364.788	79.44
365.015	78.44
365.241	73.44
365.468	84.44
365.694	87.44
365.92	81.44
366.147	78.44
366.373	73.44
366.599	77.44
366.826	74.44
367.052	90.44
367.278	95.44
367.505	80.44
367.731	96.44
367.957	78.44
368.184	84.44
368.41	90.44
368.636	92.44
368.862	71.44
369.089	83.44
369.315	88.44
369.541	71.44
369.767	79.44
369.993	76.44
370.219	76.44
370.445	85.44
370.672	72.44
370.898	77.44
371.124	91.44
371.35	101.44
371.576	90.44
371.802	65.44
372.028	82.44
372.254	76.44
372.48	84.44
372.706	77.44
372.932	65.44
373.158	84.44
373.384	77.44
373.61	76.44
373.835	78.44
374.061	82.44
374.287	76.44
374.513	85.44
374.739	86.44
374.965	75.44
375.191	87.44
375.416	92.44
375.642	87.44
375.868	95.44
376.094	79.44
376.319	72.44
376.545	97.44
376.771	78.44
376.997	70.44
377.222	88.44
377.448	102.44
377.674	82.44
377.899	77.44
378.125	69.44
378.35	98.44
378.576	93.44
378.802	92.44
379.027	82.44
379.253	83.44
379.478	74.44
379.704	82.44
379.929	87.44
380.155	83.44
380.38	81.44
380.606	78.44
380.831	97.44
381.057	85.44
381.282	93.44
381.507	94.44
381.733	89.44
381.958	78.44
382.184	86.44
382.409	91.44
382.634	83.44
382.86	84.44
383.085	83.44
383.31	78.44
383.535	84.44
383.761	81.44
383.986	91.44
384.211	74.44
384.436	78.44
384.662	73.44
384.887	82.44
385.112	91.44
385.337	88.44
385.562	83.44
385.787	69.44
386.013	89.44
386.238	79.44
386.463	76.44
386.688	96.44
386.913	90.44
387.138	87.44
387.363	91.44
387.588	83.44
387.813	85.44
388.038	80.44
388.263	100.44
388.488	73.44
388.713	84.44
388.938	99.44
389.163	110.44
389.387	72.44
389.612	78.44
389.837	88.44
390.062	93.44
390.287	89.44
390.512	65.44
390.736	72.44
390.961	91.44
391.186	89.44
391.411	69.44
391.636	79.44
391.86	83.44
392.085	88.44
392.31	100.44
392.534	87.44
392.759	91.44
392.984	81.44
393.208	83.44
393.433	93.44
393.658	76.44
393.882	94.44
394.107	77.44
394.331	81.44
394.556	76.44
394.78	83.44
395.005	77.44
395.229	85.44
395.454	96.44
395.678	93.44
395.903	84.44
396.127	88.44
396.352	88.44
396.576	84.44
396.801	78.44
397.025	88.44
397.249	79.44
397.474	75.44
397.698	88.44
397.922	72.44
398.147	79.44
398.371	87.44
398.595	80.44
398.82	89.44
399.044	74.44
399.268	74.44
399.492	97.44
399.717	88.44
399.941	85.44
400.165	88.44
400.389	83.44
400.613	75.44
400.837	78.44
401.062	84.44
401.286	94.44
401.51	83.44
401.734	81.44
401.958	79.44
402.182	73.44
402.406	84.44
402.63	76.44
402.854	100.44
403.078	77.44
403.302	89.44
403.526	92.44
403.75	87.44
403.974	94.44
404.198	168.44
404.422	240.44
404.645	287.44
404.869	240.44
405.093	171.44
405.317	100.44
405.541	101.44
405.765	91.44
405.988	81.44
406.212	72.44
406.436	83.44
406.66	81.44
406.883	82.44
407.107	92.44
407.331	76.44
407.555	81.44
407.778	102.44
408.002	83.44
408.226	96.44
408.449	93.44
408.673	83.44
408.896	73.44
409.12	91.44
409.344	64.44
409.567	81.44
409.791	94.44
410.014	73.44
410.238	84.44
410.461	77.44
410.685	70.44
410.908	85.44
411.132	82.44
411.355	81.44
411.578	103.44
411.802	97.44
412.025	81.44
412.249	80.44
412.472	72.44
412.695	83.44
412.919	86.44
413.142	81.44
413.365	75.44
413.589	83.44
413.812	100.44
414.035	86.44
414.258	62.44
414.482	86.44
414.705	78.44
414.928	81.44
415.151	80.44
415.374	85.44
415.597	85.44
415.821	81.44
416.044	76.44
416.267	76.44
416.49	78.44
416.713	87.44
416.936	78.44
417.159	77.44
417.382	80.44
417.605	78.44
417.828	101.44
418.051	87.44
418.274	87.44
418.497	96.44
418.72	84.44
418.943	96.44
419.166	79.44
419.389	84.44
419.611	95.44
419.834	89.44
420.057	86.44
420.28	74.44
420.503	85.44
420.726	77.44
420.948	83.44
421.171	83.44
421.394	94.44
421.617	96.44
421.839	80.44
422.062	83.44
422.285	75.44
422.507	92.44
422.73	92.44
422.953	92.44
423.175	89.44
423.398	82.44
423.621	99.44
423.843	100.44
424.066	91.44
424.288	81.44
424.511	75.44
424.733	90.44
424.956	71.44
425.178	82.44
425.401	85.44
425.623	82.44
425.846	94.44
426.068	93.44
426.291	73.44
426.513	77.44
426.735	76.44
426.958	83.44
427.18	85.44
427.402	78.44
427.625	86.44
427.847	82.44
428.069	81.44
428.292	85.44
428.514	83.44
428.736	86.44
428.958	80.44
429.181	84.44
429.403	93.44
429.625	89.44
429.847	85.44
430.069	76.44
430.292	72.44
430.514	74.44
430.736	72.44
430.958	87.44
431.18	76.44
431.402	94.44
431.624	88.44
431.846	75.44
432.068	76.44
432.29	86.44
432.512	71.44
432.734	89.44
432.956	89.44
433.178	86.44
433.4	88.44
433.622	83.44
433.844	83.44
434.066	85.44
434.287	87.44
434.509	77.44
434.731	64.44
434.953	79.44
435.175	85.44
435.397	78.44
435.618	90.44
435.84	80.44
436.062	83.44
436.284	90.44
436.505	80.44
436.727	81.44
436.949	73.44
437.17	81.44
437.392	71.44
437.614	84.44
437.835	89.44
438.057	84.44
438.278	86.44
438.5	93.44
438.721	85.44
438.943	88.44
439.165	72.44
439.386	94.44
439.608	89.44
439.829	90.44
440.05	86.44
440.272	77.44
440.493	81.44
440.715	94.44
440.936	88.44
441.158	96.44
441.379	86.44
441.6	81.44
441.822	93.44
442.043	97.44
442.264	85.44
442.486	97.44
442.707	76.44
442.928	86.44
443.149	81.44
443.371	87.44
443.592	92.44
443.813	85.44
444.034	100.44
444.255	93.44
444.476	71.44
444.698	83.44
444.919	97.44
445.14	168.44
445.361	130.44
445.582	91.44
445.803	88.44
446.024	82.44
446.245	77.44
446.466	70.44
446.687	84.44
446.908	79.44
447.129	91.44
447.35	76.44
447.571	83.44
447.792	93.44
448.013	85.44
448.234	100.44
448.455	75.44
448.675	79.44
448.896	80.44
449.117	84.44
449.338	86.44
449.559	85.44
449.779	77.44
450	90.44
450.221	84.44
450.442	76.44
450.662	70.44
450.883	83.44
451.104	88.44
451.324	88.44
451.545	77.44
451.766	89.44
451.986	94.44
452.207	88.44
452.428	80.44
452.648	97.44
452.869	81.44
453.089	83.44
453.31	78.44
453.53	92.44
453.751	99.44
453.971	97.44
454.192	80.44
454.412	73.44
454.633	75.44
454.853	80.44
455.073	91.44
455.294	91.44
455.514	87.44
455.734	95.44
455.955	69.44
456.175	66.44
456.395	87.44
456.616	85.44
456.836	79.44
457.056	80.44
457.276	87.44
457.497	74.44
457.717	88.44
457.937	101.44
458.157	77.44
458.377	88.44
458.598	78.44
458.818	85.44
459.038	82.44
459.258	85.44
459.478	82.44
459.698	82.44
459.918	81.44
460.138	80.44
460.358	80.44
460.578	92.44
460.798	88.44
461.018	74.44
461.238	91.44
461.458	93.44
461.678	94.44
461.898	89.44
462.118	80.44
462.338	85.44
462.558	95.44
462.777	89.44
462.997	92.44
463.217	79.44
463.437	95.44
463.657	78.44
463.876	79.44
464.096	82.44
464.316	73.44
464.536	86.44
464.755	76.44
464.975	85.44
465.195	83.44
465.414	87.44
465.634	83.44
465.854	99.44
466.073	80.44
466.293	76.44
466.512	74.44
466.732	87.44
466.951	88.44
467.171	87.44
467.391	72.44
467.61	93.44
467.829	90.44
468.049	89.44
468.268	79.44
468.488	74.44
468.707	85.44
468.927	85.44
469.146	81.44
469.365	87.44
469.585	73.44
469.804	71.44
470.023	83.44
470.243	85.44
470.462	77.44
470.681	87.44
470.901	96.44
471.12	100.44
471.339	95.44
471.558	86.44
471.777	89.44
471.997	92.44
472.216	100.44
472.435	86.44
472.654	97.44
472.873	83.44
473.092	88.44
473.311	85.44
473.53	96.44
473.749	92.44
473.968	97.44
474.187	85.44
474.406	91.44
474.625	94.44
474.844	88.44
475.063	96.44
475.282	91.44
475.501	86.44
475.72	85.44
475.939	93.44
476.158	76.44
476.377	80.44
476.596	73.44
476.814	91.44
477.033	91.44
477.252	80.44
477.471	79.44
477.69	88.44
477.908	94.44
478.127	90.44
478.346	93.44
478.564	82.44
478.783	79.44
479.002	71.44
479.22	96.44
479.439	85.44
479.658	86.44
479.876	89.44
480.095	78.44
480.313	83.44
480.532	96.44
480.751	89.44
480.969	81.44
481.188	93.44
481.406	87.44
481.624	85.44
481.843	87.44
482.061	77.44
482.28	73.44
482.498	92.44
482.717	93.44
482.935	78.44
483.153	80.44
483.372	76.44
483.59	85.44
483.808	91.44
484.027	109.44
484.245	95.44
484.463	85.44
484.681	87.44
484.9	95.44
485.118	90.44
485.336	96.44
485.554	90.44
485.772	104.44
485.99	93.44
486.209	93.44
486.427	96.44
486.645	82.44
486.863	83.44
487.081	95.44
487.299	96.44
487.517	90.44
487.735	83.44
487.953	89.44
488.171	94.44
488.389	92.44
488.607	88.44
488.825	83.44
489.043	91.44
489.261	86.44
489.479	89.44
489.696	101.44
489.914	111.44
490.132	105.44
490.35	90.44
490.568	101.44
490.786	86.44
491.003	100.44
491.221	90.44
491.439	93.44
491.657	86.44
491.874	90.44
492.092	85.44
492.31	102.44
492.527	93.44
492.745	74.44
492.963	107.44
493.18	99.44
493.398	82.44
493.615	87.44
493.833	76.44
494.05	86.44
494.268	92.44
494.485	94.44
494.703	102.44
494.92	105.44
495.138	80.44
495.355	95.44
495.573	95.44
495.79	100.44
496.008	94.44
496.225	91.44
496.442	85.44
496.66	99.44
496.877	100.44
497.094	90.44
497.312	99.44
497.529	100.44
497.746	95.44
497.963	88.44
498.181	86.44
498.398	100.44
498.615	101.44
498.832	90.44
499.049	91.44
499.267	83.44
499.484	79.44
499.701	58.44
499.918	88.44
500.135	90.44
500.352	88.44
500.569	83.44
500.786	81.44
501.003	86.44
501.22	85.44
501.437	91.44
501.654	95.44
501.871	76.44
502.088	92.44
502.305	77.44
502.522	83.44
502.739	91.44
502.956	101.44
503.172	79.44
503.389	91.44
503.606	83.44
503.823	69.44
504.04	96.44
504.256	86.44
504.473	91.44
504.69	95.44
504.907	86.44
505.123	88.44
505.34	87.44
505.557	93.44
505.773	86.44
505.99	78.44
506.207	93.44
506.423	91.44
506.64	91.44
506.856	94.44
507.073	93.44
507.289	94.44
507.506	93.44
507.722	82.44
507.939	82.44
508.155	92.44
508.372	95.44
508.588	105.44
508.805	91.44
509.021	93.44
509.238	97.44
509.454	90.44
509.67	85.44
509.887	107.44
510.103	83.44
510.319	99.44
510.536	91.44
510.752	101.44
510.968	79.44
511.184	88.44
511.401	77.44
511.617	87.44
511.833	83.44
512.049	83.44
512.265	83.44
512.481	83.44
512.698	76.44
512.914	85.44
513.13	99.44
513.346	99.44
513.562	78.44
513.778	82.44
513.994	95.44
514.21	89.44
514.426	87.44
514.642	92.44
514.858	80.44
515.074	84.44
515.29	92.44
515.506	92.44
515.721	90.44
515.937	97.44
516.153	79.44
516.369	78.44
516.585	97.44
516.801	84.44
517.016	85.44
517.232	83.44
517.448	81.44
517.664	97.44
517.879	85.44
518.095	91.44
518.311	95.44
518.527	95.44
518.742	75.44
518.958	80.44
519.173	79.44
519.389	80.44
