Data from KBr_2_HRD10591_00015.txt Node
Date: Mon Jan 19 13:12:58 EST 2026
User: Yrep
Spectrometer: HR+D1059
Trigger mode: 1
Integration Time (sec): 1.000000E-1
Scans to average: 1
Electric dark correction enabled: true
Nonlinearity correction enabled: false
Boxcar width: 0
XAxis mode: Wavelengths
Number of Pixels in Spectrum: 2048
>>>>>Begin Spectral Data<<<<<
223.165	-28
223.4	-28
223.635	-28
223.869	-24
224.104	-21
224.338	-11
224.573	-6
224.808	-23
225.042	-12
225.277	-8
225.511	-7
225.746	10
225.98	19
226.215	20
226.449	16
226.683	18
226.918	23
227.152	34
227.387	36
227.621	37
227.856	37
228.09	49
228.324	42
228.559	55
228.793	53
229.027	54
229.262	61
229.496	67
229.73	63
229.964	83
230.199	72
230.433	70
230.667	68
230.901	67
231.136	78
231.37	66
231.604	86
231.838	81
232.072	83
232.306	68
232.541	82
232.775	84
233.009	90
233.243	77
233.477	82
233.711	65
233.945	63
234.179	84
234.413	83
234.647	79
234.881	65
235.115	78
235.349	78
235.583	82
235.817	72
236.051	79
236.285	78
236.519	70
236.753	81
236.987	77
237.221	64
237.455	71
237.689	81
237.922	83
238.156	81
238.39	82
238.624	80
238.858	78
239.091	61
239.325	57
239.559	74
239.793	81
240.027	74
240.26	69
240.494	85
240.728	83
240.961	72
241.195	79
241.429	69
241.662	74
241.896	67
242.13	78
242.363	67
242.597	74
242.83	82
243.064	87
243.298	82
243.531	77
243.765	79
243.998	81
244.232	87
244.465	84
244.699	72
244.932	79
245.166	77
245.399	81
245.633	76
245.866	74
246.099	74
246.333	70
246.566	79
246.8	74
247.033	76
247.266	72
247.5	60
247.733	60
247.966	75
248.2	77
248.433	82
248.666	88
248.899	87
249.133	79
249.366	76
249.599	73
249.832	68
250.066	78
250.299	79
250.532	78
250.765	76
250.998	64
251.231	81
251.465	78
251.698	68
251.931	79
252.164	88
252.397	73
252.63	79
252.863	75
253.096	82
253.329	86
253.562	79
253.795	73
254.028	81
254.261	79
254.494	87
254.727	78
254.96	83
255.193	83
255.426	82
255.659	83
255.892	86
256.124	81
256.357	78
256.59	88
256.823	90
257.056	94
257.289	71
257.521	74
257.754	70
257.987	73
258.22	70
258.452	74
258.685	77
258.918	77
259.151	99
259.383	77
259.616	71
259.849	76
260.081	84
260.314	101
260.547	77
260.779	78
261.012	90
261.244	97
261.477	95
261.71	106
261.942	78
262.175	75
262.407	82
262.64	70
262.872	65
263.105	69
263.337	69
263.57	82
263.802	67
264.035	67
264.267	78
264.499	75
264.732	73
264.964	77
265.197	76
265.429	77
265.661	75
265.894	84
266.126	89
266.358	72
266.591	72
266.823	77
267.055	84
267.287	63
267.52	88
267.752	85
267.984	86
268.216	74
268.448	73
268.681	73
268.913	84
269.145	77
269.377	71
269.609	74
269.841	88
270.073	74
270.306	83
270.538	80
270.77	90
271.002	70
271.234	72
271.466	83
271.698	86
271.93	83
272.162	84
272.394	73
272.626	70
272.858	75
273.09	74
273.322	71
273.553	82
273.785	80
274.017	86
274.249	90
274.481	85
274.713	94
274.945	81
275.176	68
275.408	75
275.64	83
275.872	69
276.104	75
276.335	69
276.567	79
276.799	81
277.031	78
277.262	73
277.494	78
277.726	87
277.957	84
278.189	77
278.421	80
278.652	75
278.884	75
279.115	80
279.347	76
279.579	72
279.81	85
280.042	76
280.273	79
280.505	75
280.736	78
280.968	72
281.199	80
281.431	87
281.662	78
281.894	85
282.125	83
282.356	81
282.588	90
282.819	77
283.051	64
283.282	86
283.513	81
283.745	87
283.976	90
284.207	92
284.439	79
284.67	75
284.901	86
285.132	75
285.364	92
285.595	85
285.826	68
286.057	94
286.288	75
286.52	77
286.751	86
286.982	76
287.213	87
287.444	82
287.675	84
287.906	78
288.138	75
288.369	73
288.6	77
288.831	78
289.062	93
289.293	77
289.524	91
289.755	92
289.986	71
290.217	85
290.448	67
290.679	79
290.91	80
291.141	76
291.371	82
291.602	77
291.833	79
292.064	78
292.295	83
292.526	87
292.757	77
292.987	90
293.218	86
293.449	79
293.68	96
293.91	72
294.141	77
294.372	86
294.603	71
294.833	75
295.064	70
295.295	86
295.525	77
295.756	81
295.987	82
296.217	77
296.448	68
296.679	69
296.909	88
297.14	75
297.37	85
297.601	83
297.831	75
298.062	75
298.292	66
298.523	90
298.753	89
298.984	76
299.214	81
299.445	77
299.675	84
299.905	89
300.136	73
300.366	88
300.597	71
300.827	83
301.057	79
301.288	75
301.518	97
301.748	77
301.979	104
302.209	72
302.439	75
302.669	79
302.9	77
303.13	69
303.36	94
303.59	85
303.82	83
304.051	78
304.281	87
304.511	84
304.741	75
304.971	87
305.201	85
305.431	76
305.661	72
305.891	65
306.121	94
306.352	85
306.582	86
306.812	71
307.042	76
307.272	81
307.502	73
307.731	81
307.961	80
308.191	85
308.421	85
308.651	82
308.881	72
309.111	81
309.341	77
309.571	82
309.8	81
310.03	84
310.26	84
310.49	97
310.72	73
310.949	86
311.179	77
311.409	82
311.639	89
311.868	83
312.098	74
312.328	84
312.557	83
312.787	78
313.017	85
313.246	94
313.476	82
313.706	80
313.935	78
314.165	68
314.394	91
314.624	74
314.853	82
315.083	85
315.312	88
315.542	87
315.771	74
316.001	94
316.23	91
316.46	70
316.689	68
316.919	83
317.148	87
317.377	90
317.607	88
317.836	72
318.065	90
318.295	90
318.524	81
318.753	61
318.983	91
319.212	74
319.441	75
319.67	91
319.9	74
320.129	84
320.358	91
320.587	66
320.816	78
321.046	85
321.275	82
321.504	88
321.733	100
321.962	87
322.191	79
322.42	77
322.649	80
322.878	77
323.108	88
323.337	94
323.566	80
323.795	79
324.024	78
324.253	78
324.482	74
324.71	81
324.939	86
325.168	83
325.397	98
325.626	81
325.855	78
326.084	82
326.313	93
326.542	78
326.77	73
326.999	79
327.228	82
327.457	87
327.686	95
327.914	97
328.143	91
328.372	81
328.6	90
328.829	93
329.058	74
329.287	66
329.515	101
329.744	69
329.972	72
330.201	84
330.43	87
330.658	86
330.887	82
331.115	74
331.344	74
331.572	91
331.801	73
332.03	68
332.258	90
332.486	70
332.715	75
332.943	86
333.172	81
333.4	84
333.629	79
333.857	65
334.085	87
334.314	81
334.542	66
334.771	78
334.999	75
335.227	92
335.455	80
335.684	81
335.912	90
336.14	80
336.369	80
336.597	78
336.825	82
337.053	79
337.281	79
337.51	78
337.738	91
337.966	83
338.194	74
338.422	90
338.65	96
338.878	75
339.106	97
339.334	94
339.562	89
339.79	80
340.018	86
340.246	83
340.474	79
340.702	86
340.93	81
341.158	77
341.386	90
341.614	80
341.842	81
342.07	69
342.298	77
342.526	78
342.754	89
342.981	83
343.209	82
343.437	88
343.665	83
343.893	85
344.12	88
344.348	86
344.576	82
344.804	95
345.031	95
345.259	91
345.487	67
345.714	70
345.942	87
346.17	91
346.397	88
346.625	86
346.853	68
347.08	64
347.308	82
347.535	70
347.763	73
347.99	83
348.218	89
348.445	73
348.673	93
348.9	73
349.128	77
349.355	84
349.583	83
349.81	76
350.037	88
350.265	79
350.492	79
350.72	89
350.947	77
351.174	63
351.402	78
351.629	78
351.856	80
352.083	67
352.311	75
352.538	79
352.765	87
352.992	87
353.22	87
353.447	87
353.674	79
353.901	82
354.128	76
354.355	73
354.583	83
354.81	77
355.037	83
355.264	72
355.491	73
355.718	66
355.945	71
356.172	70
356.399	76
356.626	99
356.853	73
357.08	85
357.307	61
357.534	77
357.761	84
357.988	73
358.215	67
358.441	81
358.668	78
358.895	64
359.122	85
359.349	81
359.576	91
359.802	85
360.029	83
360.256	86
360.483	75
360.709	87
360.936	75
361.163	74
361.39	81
361.616	79
361.843	69
362.07	81
362.296	85
362.523	81
362.749	81
362.976	79
363.203	70
363.429	70
363.656	92
363.882	76
364.109	73
364.335	87
364.562	81
364.788	64
365.015	86
365.241	74
365.468	80
365.694	73
365.92	86
366.147	75
366.373	73
366.599	77
366.826	101
367.052	100
367.278	63
367.505	73
367.731	80
367.957	76
368.184	73
368.41	87
368.636	86
368.862	82
369.089	74
369.315	83
369.541	83
369.767	99
369.993	67
370.219	75
370.445	80
370.672	71
370.898	59
371.124	78
371.35	86
371.576	90
371.802	73
372.028	78
372.254	75
372.48	77
372.706	110
372.932	62
373.158	89
373.384	74
373.61	86
373.835	81
374.061	74
374.287	78
374.513	80
374.739	77
374.965	83
375.191	69
375.416	74
375.642	61
375.868	93
376.094	73
376.319	71
376.545	75
376.771	69
376.997	71
377.222	88
377.448	72
377.674	81
377.899	71
378.125	77
378.35	75
378.576	83
378.802	66
379.027	69
379.253	81
379.478	97
379.704	78
379.929	89
380.155	83
380.38	77
380.606	71
380.831	70
381.057	95
381.282	82
381.507	85
381.733	85
381.958	87
382.184	84
382.409	85
382.634	77
382.86	90
383.085	88
383.31	87
383.535	82
383.761	92
383.986	88
384.211	94
384.436	83
384.662	76
384.887	78
385.112	76
385.337	74
385.562	66
385.787	77
386.013	78
386.238	73
386.463	89
386.688	96
386.913	86
387.138	75
387.363	83
387.588	83
387.813	66
388.038	77
388.263	87
388.488	81
388.713	85
388.938	68
389.163	86
389.387	85
389.612	88
389.837	86
390.062	86
390.287	90
390.512	73
390.736	76
390.961	65
391.186	82
391.411	77
391.636	82
391.86	90
392.085	75
392.31	84
392.534	78
392.759	86
392.984	85
393.208	89
393.433	73
393.658	86
393.882	74
394.107	90
394.331	76
394.556	79
394.78	77
395.005	72
395.229	77
395.454	89
395.678	87
395.903	82
396.127	95
396.352	85
396.576	83
396.801	77
397.025	80
397.249	75
397.474	83
397.698	84
397.922	74
398.147	99
398.371	65
398.595	74
398.82	83
399.044	56
399.268	75
399.492	83
399.717	77
399.941	95
400.165	83
400.389	79
400.613	95
400.837	68
401.062	83
401.286	69
401.51	75
401.734	89
401.958	89
402.182	83
402.406	81
402.63	74
402.854	87
403.078	83
403.302	86
403.526	94
403.75	84
403.974	81
404.198	99
404.422	145
404.645	159
404.869	128
405.093	111
405.317	79
405.541	91
405.765	81
405.988	82
406.212	93
406.436	90
406.66	90
406.883	81
407.107	79
407.331	86
407.555	73
407.778	67
408.002	76
408.226	89
408.449	87
408.673	82
408.896	84
409.12	75
409.344	81
409.567	77
409.791	91
410.014	84
410.238	82
410.461	67
410.685	85
410.908	84
411.132	74
411.355	76
411.578	85
411.802	78
412.025	88
412.249	79
412.472	82
412.695	68
412.919	81
413.142	73
413.365	77
413.589	70
413.812	69
414.035	81
414.258	86
414.482	82
414.705	80
414.928	81
415.151	78
415.374	79
415.597	74
415.821	83
416.044	90
416.267	97
416.49	79
416.713	83
416.936	87
417.159	75
417.382	73
417.605	85
417.828	78
418.051	82
418.274	89
418.497	83
418.72	81
418.943	81
419.166	77
419.389	63
419.611	86
419.834	71
420.057	72
420.28	83
420.503	80
420.726	78
420.948	106
421.171	67
421.394	76
421.617	77
421.839	77
422.062	75
422.285	80
422.507	85
422.73	80
422.953	85
423.175	82
423.398	80
423.621	74
423.843	87
424.066	61
424.288	77
424.511	83
424.733	77
424.956	70
425.178	80
425.401	71
425.623	90
425.846	79
426.068	84
426.291	79
426.513	86
426.735	78
426.958	76
427.18	78
427.402	94
427.625	83
427.847	84
428.069	100
428.292	81
428.514	89
428.736	85
428.958	81
429.181	69
429.403	89
429.625	73
429.847	65
430.069	83
430.292	88
430.514	76
430.736	89
430.958	73
431.18	62
431.402	68
431.624	81
431.846	74
432.068	75
432.29	82
432.512	90
432.734	84
432.956	91
433.178	84
433.4	89
433.622	90
433.844	76
434.066	82
434.287	82
434.509	85
434.731	85
434.953	89
435.175	79
435.397	80
435.618	76
435.84	68
436.062	78
436.284	77
436.505	77
436.727	80
436.949	88
437.17	84
437.392	80
437.614	84
437.835	98
438.057	70
438.278	79
438.5	83
438.721	78
438.943	76
439.165	69
439.386	85
439.608	98
439.829	71
440.05	75
440.272	85
440.493	73
440.715	76
440.936	94
441.158	68
441.379	90
441.6	86
441.822	82
442.043	73
442.264	81
442.486	84
442.707	98
442.928	71
443.149	87
443.371	76
443.592	76
443.813	80
444.034	81
444.255	79
444.476	75
444.698	86
444.919	93
445.14	158
445.361	119
445.582	93
445.803	85
446.024	84
446.245	103
446.466	69
446.687	75
446.908	93
447.129	80
447.35	95
447.571	78
447.792	79
448.013	83
448.234	87
448.455	70
448.675	71
448.896	89
449.117	75
449.338	87
449.559	85
449.779	76
450	107
450.221	91
450.442	81
450.662	89
450.883	89
451.104	81
451.324	82
451.545	77
451.766	70
451.986	71
452.207	73
452.428	97
452.648	77
452.869	72
453.089	69
453.31	76
453.53	85
453.751	87
453.971	99
454.192	81
454.412	87
454.633	91
454.853	86
455.073	81
455.294	77
455.514	82
455.734	77
455.955	80
456.175	98
456.395	85
456.616	75
456.836	78
457.056	75
457.276	85
457.497	81
457.717	86
457.937	98
458.157	85
458.377	89
458.598	83
458.818	80
459.038	87
459.258	75
459.478	80
459.698	81
459.918	78
460.138	78
460.358	68
460.578	70
460.798	86
461.018	66
461.238	83
461.458	82
461.678	81
461.898	85
462.118	100
462.338	79
462.558	85
462.777	80
462.997	78
463.217	80
463.437	92
463.657	71
463.876	81
464.096	81
464.316	81
464.536	78
464.755	65
464.975	76
465.195	74
465.414	88
465.634	90
465.854	87
466.073	73
466.293	81
466.512	92
466.732	78
466.951	91
467.171	88
467.391	84
467.61	89
467.829	86
468.049	82
468.268	91
468.488	69
468.707	93
468.927	75
469.146	92
469.365	87
469.585	81
469.804	80
470.023	75
470.243	81
470.462	78
470.681	81
470.901	94
471.12	79
471.339	84
471.558	82
471.777	77
471.997	87
472.216	92
472.435	77
472.654	85
472.873	76
473.092	82
473.311	82
473.53	92
473.749	84
473.968	89
474.187	76
474.406	76
474.625	99
474.844	85
475.063	90
475.282	87
475.501	85
475.72	86
475.939	99
476.158	85
476.377	85
476.596	99
476.814	73
477.033	81
477.252	70
477.471	83
477.69	78
477.908	74
478.127	81
478.346	67
478.564	95
478.783	92
479.002	92
479.22	93
479.439	81
479.658	82
479.876	83
480.095	86
480.313	82
480.532	93
480.751	83
480.969	78
481.188	81
481.406	91
481.624	83
481.843	86
482.061	80
482.28	90
482.498	83
482.717	80
482.935	73
483.153	78
483.372	78
483.59	101
483.808	82
484.027	100
484.245	86
484.463	80
484.681	82
484.9	77
485.118	87
485.336	95
485.554	76
485.772	97
485.99	75
486.209	89
486.427	83
486.645	87
486.863	78
487.081	84
487.299	89
487.517	80
487.735	85
487.953	86
488.171	94
488.389	85
488.607	82
488.825	91
489.043	83
489.261	91
489.479	99
489.696	89
489.914	75
490.132	74
490.35	90
490.568	78
490.786	84
491.003	100
491.221	97
491.439	92
491.657	97
491.874	93
492.092	77
492.31	102
492.527	79
492.745	69
492.963	99
493.18	101
493.398	89
493.615	98
493.833	95
494.05	79
494.268	76
494.485	80
494.703	86
494.92	103
495.138	99
495.355	88
495.573	102
495.79	88
496.008	92
496.225	103
496.442	104
496.66	94
496.877	98
497.094	108
497.312	91
497.529	85
497.746	92
497.963	85
498.181	94
498.398	65
498.615	79
498.832	91
499.049	74
499.267	89
499.484	91
499.701	101
499.918	85
500.135	74
500.352	84
500.569	92
500.786	90
501.003	73
501.22	82
501.437	79
501.654	87
501.871	79
502.088	88
502.305	93
502.522	91
502.739	75
502.956	78
503.172	98
503.389	96
503.606	95
503.823	99
504.04	87
504.256	85
504.473	79
504.69	87
504.907	87
505.123	87
505.34	79
505.557	71
505.773	85
505.99	82
506.207	93
506.423	84
506.64	80
506.856	62
507.073	85
507.289	101
507.506	86
507.722	93
507.939	83
508.155	78
508.372	62
508.588	78
508.805	85
509.021	91
509.238	85
509.454	81
509.67	78
509.887	89
510.103	85
510.319	94
510.536	97
510.752	87
510.968	91
511.184	81
511.401	75
511.617	97
511.833	75
512.049	95
512.265	91
512.481	81
512.698	87
512.914	82
513.13	88
513.346	79
513.562	80
513.778	81
513.994	90
514.21	82
514.426	79
514.642	84
514.858	78
515.074	93
515.29	93
515.506	81
515.721	76
515.937	82
516.153	80
516.369	92
516.585	80
516.801	78
517.016	83
517.232	77
517.448	73
517.664	79
517.879	85
518.095	79
518.311	87
518.527	88
518.742	74
518.958	86
519.173	95
519.389	97
519.605	80
519.82	81
520.036	87
520.251	85
520.467	90
520.682	71
520.898	67
521.113	91
521.329	101
521.544	89
521.76	78
521.975	78
522.19	78
522.406	77
522.621	81
522.836	83
523.052	75
523.267	81
523.482	87
523.698	87
523.913	91
524.128	82
524.343	83
524.559	83
524.774	78
524.989	76
525.204	90
525.419	87
525.634	88
525.849	87
526.064	81
526.28	90
526.495	82
526.71	87
526.925	84
527.14	111
527.355	71
527.57	75
527.785	82
527.999	74
528.214	80
528.429	88
528.644	89
528.859	81
529.074	104
529.289	82
529.503	87
529.718	77
529.933	91
530.148	81
530.363	90
530.577	84
530.792	71
531.007	76
531.221	88
531.436	94
531.651	82
531.865	89
532.08	77
532.295	82
532.509	86
532.724	84
532.938	97
533.153	73
533.367	76
533.582	97
533.796	95
534.011	83
534.225	93
534.44	92
534.654	114
534.868	96
535.083	93
535.297	89
535.511	86
535.726	88
535.94	97
536.154	89
536.369	97
536.583	81
536.797	88
537.011	74
537.225	76
537.44	93
537.654	73
537.868	68
538.082	75
538.296	78
538.51	86
538.724	85
538.938	77
539.153	101
539.367	86
539.581	81
539.795	79
540.009	86
540.222	74
540.436	84
540.65	90
540.864	89
541.078	86
541.292	92
541.506	90
541.72	82
541.934	87
542.147	81
542.361	91
542.575	86
542.789	98
543.002	73
543.216	87
543.43	82
543.644	97
543.857	92
544.071	89
544.285	87
544.498	82
544.712	77
544.925	84
545.139	75
545.352	79
545.566	94
545.779	80
545.993	75
546.206	83
546.42	70
546.633	102
546.847	88
547.06	84
547.274	77
547.487	93
547.7	85
547.914	83
548.127	82
548.34	82
548.554	89
548.767	78
548.98	72
549.193	86
549.407	92
549.62	88
549.833	86
550.046	79
550.259	94
550.473	89
550.686	88
550.899	90
551.112	72
551.325	83
551.538	81
551.751	74
551.964	88
552.177	90
552.39	84
552.603	87
552.816	99
553.029	94
553.242	89
553.455	83
553.667	110
553.88	75
554.093	83
554.306	92
554.519	90
554.732	89
554.944	84
555.157	72
555.37	87
555.583	82
555.795	86
556.008	79
556.221	93
556.433	88
556.646	94
556.859	90
557.071	86
557.284	89
557.496	78
557.709	87
557.921	81
558.134	75
558.346	77
558.559	64
558.771	77
558.984	75
559.196	81
559.409	67
559.621	84
559.833	72
560.046	75
560.258	90
560.47	81
560.683	87
560.895	85
561.107	84
561.32	76
561.532	79
561.744	95
561.956	76
562.168	71
562.381	79
562.593	81
562.805	94
563.017	90
563.229	87
563.441	65
563.653	79
563.865	92
564.077	82
564.289	90
564.501	78
564.713	85
564.925	85
565.137	70
565.349	82
565.561	97
565.773	87
565.985	79
566.197	78
566.408	75
566.62	105
566.832	86
567.044	84
567.255	79
567.467	79
567.679	93
567.891	79
568.102	78
568.314	85
568.526	93
568.737	89
568.949	94
569.161	88
569.372	91
569.584	78
569.795	85
570.007	63
570.218	84
570.43	89
570.641	91
570.853	84
571.064	84
571.276	89
571.487	72
571.698	80
571.91	92
572.121	87
572.333	67
572.544	71
572.755	87
572.966	89
573.178	77
573.389	79
573.6	82
573.811	77
574.023	90
574.234	86
574.445	93
574.656	90
574.867	98
575.078	84
575.289	86
575.501	72
575.712	69
575.923	85
576.134	81
576.345	89
576.556	78
576.767	88
576.978	86
577.188	86
577.399	88
577.61	84
577.821	85
578.032	90
578.243	95
578.454	94
578.665	97
578.875	101
579.086	94
579.297	74
579.508	87
579.718	94
579.929	89
580.14	93
580.35	105
580.561	117
580.772	105
580.982	76
581.193	111
581.403	97
581.614	72
581.825	96
582.035	86
582.246	75
582.456	74
582.667	84
582.877	89
583.087	92
583.298	83
583.508	95
583.719	79
583.929	89
584.139	85
584.35	102
584.56	77
584.77	74
584.981	83
585.191	88
585.401	88
585.611	81
585.821	79
586.032	85
586.242	74
586.452	93
586.662	90
586.872	89
587.082	86
587.292	105
587.502	88
587.713	69
587.923	88
588.133	92
588.343	104
588.553	102
588.762	127
588.972	222
589.182	478
589.392	364
589.602	253
589.812	402
590.022	249
