Data from KBr_2_HRD10591_00021.txt Node
Date: Mon Jan 19 13:13:01 EST 2026
User: Yrep
Spectrometer: HR+D1059
Trigger mode: 1
Integration Time (sec): 1.000000E-1
Scans to average: 1
Electric dark correction enabled: true
Nonlinearity correction enabled: false
Boxcar width: 0
XAxis mode: Wavelengths
Number of Pixels in Spectrum: 2048
>>>>>Begin Spectral Data<<<<<
223.165	-12.88
223.4	-12.88
223.635	-12.88
223.869	-32.88
224.104	-18.88
224.338	-27.88
224.573	-2.88
224.808	-13.88
225.042	-7.88
225.277	-8.88
225.511	-10.88
225.746	2.12
225.98	10.12
226.215	10.12
226.449	23.12
226.683	40.12
226.918	26.12
227.152	25.12
227.387	28.12
227.621	29.12
227.856	46.12
228.09	42.12
228.324	44.12
228.559	60.12
228.793	56.12
229.027	72.12
229.262	52.12
229.496	72.12
229.73	72.12
229.964	67.12
230.199	78.12
230.433	77.12
230.667	78.12
230.901	67.12
231.136	63.12
231.37	72.12
231.604	83.12
231.838	68.12
232.072	82.12
232.306	69.12
232.541	83.12
232.775	79.12
233.009	100.12
233.243	79.12
233.477	87.12
233.711	78.12
233.945	72.12
234.179	83.12
234.413	92.12
234.647	79.12
234.881	85.12
235.115	81.12
235.349	77.12
235.583	73.12
235.817	82.12
236.051	86.12
236.285	63.12
236.519	88.12
236.753	74.12
236.987	86.12
237.221	75.12
237.455	82.12
237.689	83.12
237.922	77.12
238.156	61.12
238.39	73.12
238.624	70.12
238.858	64.12
239.091	75.12
239.325	76.12
239.559	70.12
239.793	72.12
240.027	63.12
240.26	59.12
240.494	68.12
240.728	65.12
240.961	79.12
241.195	89.12
241.429	69.12
241.662	74.12
241.896	77.12
242.13	75.12
242.363	67.12
242.597	76.12
242.83	65.12
243.064	80.12
243.298	78.12
243.531	72.12
243.765	87.12
243.998	70.12
244.232	60.12
244.465	75.12
244.699	69.12
244.932	64.12
245.166	70.12
245.399	80.12
245.633	87.12
245.866	79.12
246.099	74.12
246.333	84.12
246.566	72.12
246.8	89.12
247.033	79.12
247.266	86.12
247.5	87.12
247.733	85.12
247.966	83.12
248.2	75.12
248.433	59.12
248.666	77.12
248.899	81.12
249.133	80.12
249.366	85.12
249.599	79.12
249.832	71.12
250.066	67.12
250.299	66.12
250.532	77.12
250.765	77.12
250.998	71.12
251.231	67.12
251.465	80.12
251.698	70.12
251.931	82.12
252.164	70.12
252.397	89.12
252.63	70.12
252.863	85.12
253.096	90.12
253.329	68.12
253.562	73.12
253.795	74.12
254.028	76.12
254.261	76.12
254.494	76.12
254.727	78.12
254.96	63.12
255.193	77.12
255.426	58.12
255.659	72.12
255.892	72.12
256.124	73.12
256.357	70.12
256.59	89.12
256.823	73.12
257.056	76.12
257.289	74.12
257.521	66.12
257.754	70.12
257.987	77.12
258.22	88.12
258.452	77.12
258.685	84.12
258.918	77.12
259.151	70.12
259.383	103.12
259.616	73.12
259.849	80.12
260.081	81.12
260.314	80.12
260.547	67.12
260.779	74.12
261.012	75.12
261.244	83.12
261.477	83.12
261.71	78.12
261.942	67.12
262.175	79.12
262.407	74.12
262.64	74.12
262.872	69.12
263.105	78.12
263.337	69.12
263.57	78.12
263.802	77.12
264.035	74.12
264.267	71.12
264.499	67.12
264.732	88.12
264.964	75.12
265.197	67.12
265.429	80.12
265.661	77.12
265.894	86.12
266.126	77.12
266.358	78.12
266.591	77.12
266.823	77.12
267.055	73.12
267.287	82.12
267.52	78.12
267.752	89.12
267.984	70.12
268.216	87.12
268.448	82.12
268.681	81.12
268.913	73.12
269.145	67.12
269.377	83.12
269.609	75.12
269.841	70.12
270.073	77.12
270.306	72.12
270.538	78.12
270.77	75.12
271.002	71.12
271.234	69.12
271.466	73.12
271.698	86.12
271.93	81.12
272.162	91.12
272.394	83.12
272.626	95.12
272.858	75.12
273.09	93.12
273.322	79.12
273.553	89.12
273.785	85.12
274.017	71.12
274.249	89.12
274.481	65.12
274.713	78.12
274.945	84.12
275.176	77.12
275.408	88.12
275.64	73.12
275.872	85.12
276.104	73.12
276.335	88.12
276.567	75.12
276.799	80.12
277.031	74.12
277.262	90.12
277.494	82.12
277.726	88.12
277.957	81.12
278.189	61.12
278.421	75.12
278.652	72.12
278.884	77.12
279.115	88.12
279.347	75.12
279.579	87.12
279.81	73.12
280.042	82.12
280.273	69.12
280.505	82.12
280.736	84.12
280.968	87.12
281.199	78.12
281.431	90.12
281.662	94.12
281.894	82.12
282.125	82.12
282.356	81.12
282.588	63.12
282.819	75.12
283.051	85.12
283.282	85.12
283.513	87.12
283.745	84.12
283.976	76.12
284.207	80.12
284.439	59.12
284.67	100.12
284.901	89.12
285.132	78.12
285.364	98.12
285.595	75.12
285.826	85.12
286.057	87.12
286.288	91.12
286.52	77.12
286.751	76.12
286.982	68.12
287.213	78.12
287.444	83.12
287.675	76.12
287.906	73.12
288.138	85.12
288.369	79.12
288.6	81.12
288.831	93.12
289.062	87.12
289.293	82.12
289.524	89.12
289.755	83.12
289.986	82.12
290.217	83.12
290.448	77.12
290.679	85.12
290.91	84.12
291.141	70.12
291.371	70.12
291.602	89.12
291.833	98.12
292.064	67.12
292.295	91.12
292.526	71.12
292.757	78.12
292.987	79.12
293.218	88.12
293.449	81.12
293.68	75.12
293.91	67.12
294.141	81.12
294.372	80.12
294.603	79.12
294.833	77.12
295.064	89.12
295.295	79.12
295.525	81.12
295.756	87.12
295.987	86.12
296.217	85.12
296.448	86.12
296.679	87.12
296.909	83.12
297.14	85.12
297.37	76.12
297.601	81.12
297.831	67.12
298.062	82.12
298.292	86.12
298.523	83.12
298.753	70.12
298.984	77.12
299.214	84.12
299.445	82.12
299.675	85.12
299.905	88.12
300.136	91.12
300.366	75.12
300.597	80.12
300.827	91.12
301.057	67.12
301.288	73.12
301.518	75.12
301.748	79.12
301.979	100.12
302.209	86.12
302.439	87.12
302.669	75.12
302.9	78.12
303.13	79.12
303.36	66.12
303.59	86.12
303.82	86.12
304.051	80.12
304.281	81.12
304.511	82.12
304.741	79.12
304.971	83.12
305.201	85.12
305.431	84.12
305.661	90.12
305.891	73.12
306.121	86.12
306.352	69.12
306.582	71.12
306.812	81.12
307.042	92.12
307.272	81.12
307.502	77.12
307.731	72.12
307.961	76.12
308.191	76.12
308.421	78.12
308.651	91.12
308.881	86.12
309.111	71.12
309.341	84.12
309.571	75.12
309.8	72.12
310.03	93.12
310.26	84.12
310.49	71.12
310.72	79.12
310.949	82.12
311.179	80.12
311.409	75.12
311.639	83.12
311.868	73.12
312.098	85.12
312.328	75.12
312.557	73.12
312.787	77.12
313.017	81.12
313.246	88.12
313.476	81.12
313.706	92.12
313.935	82.12
314.165	70.12
314.394	62.12
314.624	82.12
314.853	78.12
315.083	67.12
315.312	74.12
315.542	79.12
315.771	94.12
316.001	76.12
316.23	66.12
316.46	76.12
316.689	80.12
316.919	93.12
317.148	84.12
317.377	87.12
317.607	71.12
317.836	84.12
318.065	89.12
318.295	85.12
318.524	73.12
318.753	103.12
318.983	83.12
319.212	82.12
319.441	74.12
319.67	69.12
319.9	89.12
320.129	89.12
320.358	76.12
320.587	82.12
320.816	89.12
321.046	82.12
321.275	100.12
321.504	66.12
321.733	87.12
321.962	84.12
322.191	94.12
322.42	74.12
322.649	79.12
322.878	82.12
323.108	73.12
323.337	76.12
323.566	90.12
323.795	90.12
324.024	78.12
324.253	75.12
324.482	100.12
324.71	77.12
324.939	91.12
325.168	74.12
325.397	94.12
325.626	76.12
325.855	82.12
326.084	86.12
326.313	74.12
326.542	73.12
326.77	78.12
326.999	79.12
327.228	75.12
327.457	90.12
327.686	66.12
327.914	72.12
328.143	76.12
328.372	84.12
328.6	94.12
328.829	91.12
329.058	77.12
329.287	78.12
329.515	86.12
329.744	82.12
329.972	75.12
330.201	101.12
330.43	85.12
330.658	99.12
330.887	82.12
331.115	89.12
331.344	70.12
331.572	84.12
331.801	93.12
332.03	79.12
332.258	73.12
332.486	75.12
332.715	75.12
332.943	84.12
333.172	68.12
333.4	85.12
333.629	79.12
333.857	94.12
334.085	83.12
334.314	84.12
334.542	97.12
334.771	94.12
334.999	86.12
335.227	77.12
335.455	92.12
335.684	90.12
335.912	91.12
336.14	71.12
336.369	93.12
336.597	91.12
336.825	98.12
337.053	69.12
337.281	85.12
337.51	74.12
337.738	83.12
337.966	86.12
338.194	100.12
338.422	84.12
338.65	91.12
338.878	92.12
339.106	87.12
339.334	81.12
339.562	89.12
339.79	81.12
340.018	93.12
340.246	73.12
340.474	76.12
340.702	86.12
340.93	80.12
341.158	79.12
341.386	98.12
341.614	90.12
341.842	86.12
342.07	78.12
342.298	72.12
342.526	84.12
342.754	93.12
342.981	82.12
343.209	78.12
343.437	94.12
343.665	93.12
343.893	86.12
344.12	86.12
344.348	81.12
344.576	103.12
344.804	90.12
345.031	86.12
345.259	83.12
345.487	82.12
345.714	91.12
345.942	77.12
346.17	78.12
346.397	93.12
346.625	75.12
346.853	83.12
347.08	76.12
347.308	97.12
347.535	89.12
347.763	72.12
347.99	85.12
348.218	78.12
348.445	82.12
348.673	73.12
348.9	90.12
349.128	87.12
349.355	85.12
349.583	79.12
349.81	66.12
350.037	66.12
350.265	80.12
350.492	86.12
350.72	85.12
350.947	101.12
351.174	85.12
351.402	79.12
351.629	90.12
351.856	77.12
352.083	91.12
352.311	82.12
352.538	81.12
352.765	70.12
352.992	97.12
353.22	93.12
353.447	89.12
353.674	80.12
353.901	86.12
354.128	80.12
354.355	63.12
354.583	70.12
354.81	77.12
355.037	77.12
355.264	89.12
355.491	82.12
355.718	62.12
355.945	76.12
356.172	77.12
356.399	82.12
356.626	86.12
356.853	78.12
357.08	89.12
357.307	81.12
357.534	84.12
357.761	76.12
357.988	81.12
358.215	70.12
358.441	92.12
358.668	77.12
358.895	91.12
359.122	82.12
359.349	64.12
359.576	74.12
359.802	89.12
360.029	86.12
360.256	85.12
360.483	86.12
360.709	71.12
360.936	88.12
361.163	86.12
361.39	75.12
361.616	86.12
361.843	76.12
362.07	78.12
362.296	81.12
362.523	78.12
362.749	71.12
362.976	67.12
363.203	92.12
363.429	86.12
363.656	81.12
363.882	93.12
364.109	88.12
364.335	75.12
364.562	89.12
364.788	85.12
365.015	100.12
365.241	90.12
365.468	91.12
365.694	76.12
365.92	93.12
366.147	77.12
366.373	71.12
366.599	82.12
366.826	86.12
367.052	85.12
367.278	69.12
367.505	82.12
367.731	85.12
367.957	85.12
368.184	80.12
368.41	90.12
368.636	94.12
368.862	77.12
369.089	82.12
369.315	81.12
369.541	72.12
369.767	91.12
369.993	89.12
370.219	83.12
370.445	77.12
370.672	80.12
370.898	87.12
371.124	87.12
371.35	81.12
371.576	77.12
371.802	68.12
372.028	93.12
372.254	85.12
372.48	77.12
372.706	75.12
372.932	86.12
373.158	82.12
373.384	72.12
373.61	75.12
373.835	81.12
374.061	74.12
374.287	82.12
374.513	68.12
374.739	86.12
374.965	86.12
375.191	76.12
375.416	80.12
375.642	87.12
375.868	75.12
376.094	75.12
376.319	75.12
376.545	81.12
376.771	85.12
376.997	91.12
377.222	87.12
377.448	75.12
377.674	89.12
377.899	85.12
378.125	83.12
378.35	90.12
378.576	73.12
378.802	92.12
379.027	84.12
379.253	82.12
379.478	86.12
379.704	89.12
379.929	74.12
380.155	81.12
380.38	94.12
380.606	67.12
380.831	85.12
381.057	82.12
381.282	85.12
381.507	86.12
381.733	87.12
381.958	76.12
382.184	91.12
382.409	75.12
382.634	74.12
382.86	84.12
383.085	89.12
383.31	83.12
383.535	93.12
383.761	82.12
383.986	76.12
384.211	73.12
384.436	82.12
384.662	80.12
384.887	77.12
385.112	75.12
385.337	89.12
385.562	78.12
385.787	81.12
386.013	88.12
386.238	70.12
386.463	85.12
386.688	82.12
386.913	95.12
387.138	87.12
387.363	104.12
387.588	74.12
387.813	90.12
388.038	84.12
388.263	84.12
388.488	81.12
388.713	92.12
388.938	73.12
389.163	71.12
389.387	76.12
389.612	87.12
389.837	84.12
390.062	85.12
390.287	93.12
390.512	69.12
390.736	77.12
390.961	98.12
391.186	86.12
391.411	82.12
391.636	76.12
391.86	79.12
392.085	73.12
392.31	85.12
392.534	80.12
392.759	82.12
392.984	72.12
393.208	78.12
393.433	78.12
393.658	83.12
393.882	89.12
394.107	83.12
394.331	81.12
394.556	99.12
394.78	82.12
395.005	86.12
395.229	85.12
395.454	81.12
395.678	75.12
395.903	88.12
396.127	77.12
396.352	90.12
396.576	78.12
396.801	88.12
397.025	73.12
397.249	85.12
397.474	78.12
397.698	90.12
397.922	95.12
398.147	79.12
398.371	78.12
398.595	76.12
398.82	75.12
399.044	78.12
399.268	68.12
399.492	85.12
399.717	93.12
399.941	71.12
400.165	78.12
400.389	86.12
400.613	83.12
400.837	82.12
401.062	76.12
401.286	89.12
401.51	93.12
401.734	90.12
401.958	83.12
402.182	92.12
402.406	85.12
402.63	87.12
402.854	88.12
403.078	86.12
403.302	73.12
403.526	89.12
403.75	89.12
403.974	85.12
404.198	133.12
404.422	214.12
404.645	245.12
404.869	204.12
405.093	119.12
405.317	99.12
405.541	79.12
405.765	85.12
405.988	70.12
406.212	79.12
406.436	92.12
406.66	86.12
406.883	88.12
407.107	75.12
407.331	76.12
407.555	77.12
407.778	77.12
408.002	90.12
408.226	88.12
408.449	84.12
408.673	83.12
408.896	81.12
409.12	85.12
409.344	77.12
409.567	91.12
409.791	103.12
410.014	82.12
410.238	85.12
410.461	84.12
410.685	82.12
410.908	71.12
411.132	83.12
411.355	68.12
411.578	91.12
411.802	79.12
412.025	77.12
412.249	74.12
412.472	97.12
412.695	79.12
412.919	83.12
413.142	90.12
413.365	84.12
413.589	75.12
413.812	88.12
414.035	92.12
414.258	86.12
414.482	94.12
414.705	89.12
414.928	77.12
415.151	84.12
415.374	73.12
415.597	75.12
415.821	79.12
416.044	82.12
416.267	86.12
416.49	82.12
416.713	84.12
416.936	73.12
417.159	80.12
417.382	90.12
417.605	94.12
417.828	90.12
418.051	79.12
418.274	91.12
418.497	88.12
418.72	84.12
418.943	71.12
419.166	91.12
419.389	76.12
419.611	85.12
419.834	84.12
420.057	84.12
420.28	87.12
420.503	94.12
420.726	77.12
420.948	84.12
421.171	79.12
421.394	73.12
421.617	71.12
421.839	86.12
422.062	93.12
422.285	86.12
422.507	82.12
422.73	90.12
422.953	73.12
423.175	86.12
423.398	81.12
423.621	87.12
423.843	75.12
424.066	81.12
424.288	81.12
424.511	83.12
424.733	84.12
424.956	69.12
425.178	64.12
425.401	90.12
425.623	80.12
425.846	78.12
426.068	71.12
426.291	84.12
426.513	85.12
426.735	88.12
426.958	77.12
427.18	90.12
427.402	76.12
427.625	80.12
427.847	80.12
428.069	73.12
428.292	87.12
428.514	76.12
428.736	92.12
428.958	78.12
429.181	83.12
429.403	87.12
429.625	77.12
429.847	94.12
430.069	85.12
430.292	79.12
430.514	88.12
430.736	76.12
430.958	75.12
431.18	76.12
431.402	84.12
431.624	79.12
431.846	79.12
432.068	67.12
432.29	87.12
432.512	90.12
432.734	82.12
432.956	84.12
433.178	81.12
433.4	75.12
433.622	79.12
433.844	89.12
434.066	72.12
434.287	88.12
434.509	90.12
434.731	86.12
434.953	77.12
435.175	87.12
435.397	77.12
435.618	77.12
435.84	73.12
436.062	80.12
436.284	74.12
436.505	69.12
436.727	85.12
436.949	81.12
437.17	74.12
437.392	76.12
437.614	98.12
437.835	93.12
438.057	79.12
438.278	71.12
438.5	87.12
438.721	90.12
438.943	97.12
439.165	85.12
439.386	90.12
439.608	94.12
439.829	92.12
440.05	77.12
440.272	68.12
440.493	86.12
440.715	89.12
440.936	81.12
441.158	94.12
441.379	84.12
441.6	86.12
441.822	92.12
442.043	81.12
442.264	86.12
442.486	70.12
442.707	86.12
442.928	75.12
443.149	74.12
443.371	86.12
443.592	80.12
443.813	78.12
444.034	89.12
444.255	84.12
444.476	84.12
444.698	81.12
444.919	67.12
445.14	157.12
445.361	117.12
445.582	81.12
445.803	84.12
446.024	84.12
446.245	91.12
446.466	84.12
446.687	85.12
446.908	87.12
447.129	80.12
447.35	69.12
447.571	74.12
447.792	72.12
448.013	85.12
448.234	79.12
448.455	79.12
448.675	87.12
448.896	84.12
449.117	72.12
449.338	82.12
449.559	83.12
449.779	84.12
450	82.12
450.221	79.12
450.442	90.12
450.662	84.12
450.883	84.12
451.104	87.12
451.324	78.12
451.545	86.12
451.766	87.12
451.986	93.12
452.207	99.12
452.428	89.12
452.648	73.12
452.869	75.12
453.089	77.12
453.31	76.12
453.53	90.12
453.751	75.12
453.971	88.12
454.192	79.12
454.412	73.12
454.633	85.12
454.853	84.12
455.073	85.12
455.294	89.12
455.514	74.12
455.734	87.12
455.955	94.12
456.175	87.12
456.395	81.12
456.616	75.12
456.836	69.12
457.056	76.12
457.276	81.12
457.497	87.12
457.717	85.12
457.937	89.12
458.157	83.12
458.377	88.12
458.598	91.12
458.818	81.12
459.038	79.12
459.258	95.12
459.478	84.12
459.698	87.12
459.918	85.12
460.138	87.12
460.358	90.12
460.578	84.12
460.798	74.12
461.018	74.12
461.238	76.12
461.458	83.12
461.678	81.12
461.898	93.12
462.118	89.12
462.338	86.12
462.558	88.12
462.777	87.12
462.997	82.12
463.217	82.12
463.437	77.12
463.657	75.12
463.876	85.12
464.096	72.12
464.316	86.12
464.536	66.12
464.755	85.12
464.975	79.12
465.195	81.12
465.414	78.12
465.634	69.12
465.854	83.12
466.073	68.12
466.293	81.12
466.512	77.12
466.732	79.12
466.951	83.12
467.171	91.12
467.391	89.12
467.61	89.12
467.829	90.12
468.049	79.12
468.268	93.12
468.488	82.12
468.707	66.12
468.927	84.12
469.146	87.12
469.365	94.12
469.585	99.12
469.804	88.12
470.023	80.12
470.243	102.12
470.462	90.12
470.681	82.12
470.901	86.12
471.12	88.12
471.339	76.12
471.558	91.12
471.777	69.12
471.997	83.12
472.216	73.12
472.435	80.12
472.654	82.12
472.873	87.12
473.092	83.12
473.311	84.12
473.53	90.12
473.749	84.12
473.968	93.12
474.187	72.12
474.406	76.12
474.625	83.12
474.844	85.12
475.063	85.12
475.282	90.12
475.501	83.12
475.72	82.12
475.939	91.12
476.158	86.12
476.377	88.12
476.596	88.12
476.814	86.12
477.033	80.12
477.252	90.12
477.471	76.12
477.69	89.12
477.908	74.12
478.127	92.12
478.346	90.12
478.564	95.12
478.783	100.12
479.002	83.12
479.22	86.12
479.439	100.12
479.658	77.12
479.876	81.12
480.095	78.12
480.313	83.12
480.532	89.12
480.751	78.12
480.969	79.12
481.188	81.12
481.406	85.12
481.624	88.12
481.843	85.12
482.061	86.12
482.28	73.12
482.498	85.12
482.717	91.12
482.935	73.12
483.153	84.12
483.372	93.12
483.59	82.12
483.808	78.12
484.027	86.12
484.245	86.12
484.463	86.12
484.681	93.12
484.9	85.12
485.118	81.12
485.336	90.12
485.554	81.12
485.772	92.12
485.99	91.12
486.209	89.12
486.427	78.12
486.645	91.12
486.863	87.12
487.081	92.12
487.299	90.12
487.517	76.12
487.735	70.12
487.953	84.12
488.171	99.12
488.389	82.12
488.607	89.12
488.825	79.12
489.043	82.12
489.261	101.12
489.479	94.12
489.696	77.12
489.914	102.12
490.132	90.12
490.35	95.12
490.568	92.12
490.786	82.12
491.003	92.12
491.221	93.12
491.439	92.12
491.657	86.12
491.874	93.12
492.092	82.12
492.31	79.12
492.527	96.12
492.745	79.12
492.963	76.12
493.18	87.12
493.398	95.12
493.615	96.12
493.833	113.12
494.05	82.12
494.268	88.12
494.485	90.12
494.703	90.12
494.92	86.12
495.138	98.12
495.355	96.12
495.573	99.12
495.79	101.12
496.008	78.12
496.225	90.12
496.442	101.12
496.66	91.12
496.877	91.12
497.094	102.12
497.312	97.12
497.529	91.12
497.746	90.12
497.963	90.12
498.181	93.12
498.398	85.12
498.615	82.12
498.832	67.12
499.049	85.12
499.267	81.12
499.484	106.12
499.701	88.12
499.918	85.12
500.135	93.12
500.352	86.12
500.569	101.12
500.786	99.12
501.003	85.12
501.22	97.12
501.437	97.12
501.654	95.12
501.871	76.12
502.088	77.12
502.305	81.12
502.522	75.12
502.739	93.12
502.956	93.12
503.172	87.12
503.389	71.12
503.606	86.12
503.823	82.12
504.04	77.12
504.256	87.12
504.473	85.12
504.69	79.12
504.907	90.12
505.123	78.12
505.34	75.12
505.557	93.12
505.773	89.12
505.99	73.12
506.207	83.12
506.423	87.12
506.64	95.12
506.856	76.12
507.073	81.12
507.289	90.12
507.506	95.12
507.722	97.12
507.939	92.12
508.155	85.12
508.372	90.12
508.588	73.12
508.805	75.12
509.021	98.12
509.238	85.12
509.454	84.12
509.67	73.12
509.887	86.12
510.103	95.12
510.319	97.12
510.536	77.12
510.752	103.12
510.968	99.12
511.184	92.12
511.401	81.12
511.617	98.12
511.833	95.12
512.049	92.12
512.265	79.12
512.481	87.12
512.698	88.12
512.914	85.12
513.13	87.12
513.346	92.12
513.562	75.12
513.778	87.12
513.994	74.12
514.21	70.12
514.426	85.12
514.642	86.12
514.858	79.12
515.074	84.12
515.29	97.12
515.506	74.12
515.721	85.12
515.937	87.12
516.153	85.12
516.369	89.12
516.585	79.12
516.801	92.12
517.016	90.12
517.232	83.12
517.448	75.12
517.664	86.12
517.879	71.12
518.095	69.12
518.311	86.12
518.527	89.12
518.742	86.12
518.958	85.12
519.173	92.12
519.389	90.12
519.605	93.12
519.82	74.12
