Data from KBr_2_HRD10591_00050.txt Node
Date: Mon Jan 19 13:13:15 EST 2026
User: Yrep
Spectrometer: HR+D1059
Trigger mode: 1
Integration Time (sec): 1.000000E-1
Scans to average: 1
Electric dark correction enabled: true
Nonlinearity correction enabled: false
Boxcar width: 0
XAxis mode: Wavelengths
Number of Pixels in Spectrum: 2048
>>>>>Begin Spectral Data<<<<<
223.165	-34.62
223.4	-34.62
223.635	-34.62
223.869	-26.62
224.104	-16.62
224.338	-17.62
224.573	-7.62
224.808	-1.62
225.042	-8.62
225.277	-5.62
225.511	0.38
225.746	-3.62
225.98	11.38
226.215	17.38
226.449	6.38
226.683	19.38
226.918	31.38
227.152	36.38
227.387	27.38
227.621	44.38
227.856	43.38
228.09	50.38
228.324	50.38
228.559	54.38
228.793	60.38
229.027	62.38
229.262	63.38
229.496	59.38
229.73	66.38
229.964	62.38
230.199	66.38
230.433	71.38
230.667	66.38
230.901	62.38
231.136	65.38
231.37	84.38
231.604	69.38
231.838	88.38
232.072	78.38
232.306	80.38
232.541	77.38
232.775	79.38
233.009	77.38
233.243	64.38
233.477	67.38
233.711	69.38
233.945	86.38
234.179	84.38
234.413	73.38
234.647	79.38
234.881	67.38
235.115	76.38
235.349	78.38
235.583	81.38
235.817	82.38
236.051	70.38
236.285	69.38
236.519	63.38
236.753	82.38
236.987	88.38
237.221	65.38
237.455	68.38
237.689	76.38
237.922	79.38
238.156	91.38
238.39	70.38
238.624	68.38
238.858	67.38
239.091	65.38
239.325	68.38
239.559	72.38
239.793	70.38
240.027	78.38
240.26	73.38
240.494	77.38
240.728	87.38
240.961	80.38
241.195	65.38
241.429	74.38
241.662	76.38
241.896	68.38
242.13	76.38
242.363	70.38
242.597	65.38
242.83	65.38
243.064	74.38
243.298	63.38
243.531	69.38
243.765	88.38
243.998	65.38
244.232	76.38
244.465	77.38
244.699	66.38
244.932	72.38
245.166	73.38
245.399	70.38
245.633	74.38
245.866	73.38
246.099	87.38
246.333	83.38
246.566	82.38
246.8	60.38
247.033	79.38
247.266	84.38
247.5	79.38
247.733	79.38
247.966	79.38
248.2	73.38
248.433	79.38
248.666	66.38
248.899	78.38
249.133	78.38
249.366	83.38
249.599	76.38
249.832	75.38
250.066	84.38
250.299	79.38
250.532	79.38
250.765	86.38
250.998	77.38
251.231	82.38
251.465	80.38
251.698	65.38
251.931	58.38
252.164	78.38
252.397	84.38
252.63	63.38
252.863	59.38
253.096	68.38
253.329	76.38
253.562	85.38
253.795	66.38
254.028	86.38
254.261	82.38
254.494	77.38
254.727	85.38
254.96	78.38
255.193	67.38
255.426	78.38
255.659	68.38
255.892	75.38
256.124	63.38
256.357	74.38
256.59	78.38
256.823	73.38
257.056	83.38
257.289	80.38
257.521	88.38
257.754	68.38
257.987	77.38
258.22	83.38
258.452	76.38
258.685	59.38
258.918	70.38
259.151	73.38
259.383	74.38
259.616	82.38
259.849	75.38
260.081	69.38
260.314	78.38
260.547	73.38
260.779	70.38
261.012	94.38
261.244	88.38
261.477	82.38
261.71	72.38
261.942	76.38
262.175	69.38
262.407	80.38
262.64	79.38
262.872	70.38
263.105	87.38
263.337	73.38
263.57	93.38
263.802	92.38
264.035	80.38
264.267	75.38
264.499	87.38
264.732	70.38
264.964	76.38
265.197	84.38
265.429	84.38
265.661	79.38
265.894	68.38
266.126	94.38
266.358	88.38
266.591	84.38
266.823	79.38
267.055	72.38
267.287	78.38
267.52	72.38
267.752	69.38
267.984	88.38
268.216	79.38
268.448	82.38
268.681	87.38
268.913	82.38
269.145	79.38
269.377	70.38
269.609	76.38
269.841	75.38
270.073	77.38
270.306	79.38
270.538	84.38
270.77	77.38
271.002	82.38
271.234	66.38
271.466	79.38
271.698	83.38
271.93	84.38
272.162	75.38
272.394	98.38
272.626	88.38
272.858	73.38
273.09	84.38
273.322	84.38
273.553	84.38
273.785	93.38
274.017	76.38
274.249	76.38
274.481	75.38
274.713	80.38
274.945	79.38
275.176	88.38
275.408	85.38
275.64	78.38
275.872	80.38
276.104	69.38
276.335	84.38
276.567	82.38
276.799	74.38
277.031	87.38
277.262	82.38
277.494	93.38
277.726	78.38
277.957	80.38
278.189	80.38
278.421	82.38
278.652	94.38
278.884	96.38
279.115	91.38
279.347	71.38
279.579	74.38
279.81	76.38
280.042	72.38
280.273	80.38
280.505	73.38
280.736	84.38
280.968	65.38
281.199	67.38
281.431	80.38
281.662	73.38
281.894	69.38
282.125	76.38
282.356	69.38
282.588	82.38
282.819	71.38
283.051	86.38
283.282	100.38
283.513	72.38
283.745	78.38
283.976	84.38
284.207	75.38
284.439	83.38
284.67	75.38
284.901	78.38
285.132	82.38
285.364	71.38
285.595	82.38
285.826	82.38
286.057	77.38
286.288	68.38
286.52	79.38
286.751	81.38
286.982	88.38
287.213	68.38
287.444	81.38
287.675	74.38
287.906	72.38
288.138	87.38
288.369	88.38
288.6	73.38
288.831	91.38
289.062	76.38
289.293	78.38
289.524	91.38
289.755	91.38
289.986	75.38
290.217	77.38
290.448	87.38
290.679	82.38
290.91	88.38
291.141	85.38
291.371	80.38
291.602	81.38
291.833	97.38
292.064	83.38
292.295	84.38
292.526	81.38
292.757	74.38
292.987	98.38
293.218	73.38
293.449	70.38
293.68	84.38
293.91	77.38
294.141	74.38
294.372	74.38
294.603	77.38
294.833	73.38
295.064	101.38
295.295	89.38
295.525	85.38
295.756	80.38
295.987	76.38
296.217	88.38
296.448	100.38
296.679	64.38
296.909	84.38
297.14	84.38
297.37	76.38
297.601	90.38
297.831	76.38
298.062	79.38
298.292	69.38
298.523	71.38
298.753	64.38
298.984	85.38
299.214	88.38
299.445	81.38
299.675	83.38
299.905	83.38
300.136	78.38
300.366	80.38
300.597	82.38
300.827	93.38
301.057	78.38
301.288	80.38
301.518	94.38
301.748	76.38
301.979	103.38
302.209	84.38
302.439	82.38
302.669	78.38
302.9	79.38
303.13	80.38
303.36	82.38
303.59	81.38
303.82	83.38
304.051	88.38
304.281	81.38
304.511	94.38
304.741	76.38
304.971	73.38
305.201	93.38
305.431	76.38
305.661	89.38
305.891	85.38
306.121	77.38
306.352	82.38
306.582	84.38
306.812	78.38
307.042	99.38
307.272	74.38
307.502	84.38
307.731	80.38
307.961	85.38
308.191	82.38
308.421	73.38
308.651	67.38
308.881	80.38
309.111	91.38
309.341	75.38
309.571	81.38
309.8	76.38
310.03	80.38
310.26	75.38
310.49	82.38
310.72	64.38
310.949	64.38
311.179	84.38
311.409	72.38
311.639	77.38
311.868	91.38
312.098	86.38
312.328	87.38
312.557	65.38
312.787	87.38
313.017	92.38
313.246	76.38
313.476	82.38
313.706	87.38
313.935	79.38
314.165	76.38
314.394	90.38
314.624	84.38
314.853	83.38
315.083	83.38
315.312	78.38
315.542	77.38
315.771	80.38
316.001	84.38
316.23	82.38
316.46	92.38
316.689	80.38
316.919	82.38
317.148	70.38
317.377	90.38
317.607	100.38
317.836	98.38
318.065	80.38
318.295	92.38
318.524	89.38
318.753	85.38
318.983	82.38
319.212	77.38
319.441	81.38
319.67	72.38
319.9	71.38
320.129	86.38
320.358	86.38
320.587	81.38
320.816	79.38
321.046	92.38
321.275	73.38
321.504	85.38
321.733	83.38
321.962	79.38
322.191	83.38
322.42	74.38
322.649	84.38
322.878	85.38
323.108	72.38
323.337	86.38
323.566	85.38
323.795	87.38
324.024	83.38
324.253	80.38
324.482	93.38
324.71	85.38
324.939	74.38
325.168	90.38
325.397	80.38
325.626	96.38
325.855	76.38
326.084	80.38
326.313	88.38
326.542	86.38
326.77	77.38
326.999	86.38
327.228	86.38
327.457	68.38
327.686	78.38
327.914	78.38
328.143	86.38
328.372	88.38
328.6	84.38
328.829	75.38
329.058	80.38
329.287	76.38
329.515	86.38
329.744	84.38
329.972	87.38
330.201	84.38
330.43	81.38
330.658	82.38
330.887	79.38
331.115	94.38
331.344	88.38
331.572	86.38
331.801	83.38
332.03	70.38
332.258	78.38
332.486	77.38
332.715	84.38
332.943	84.38
333.172	81.38
333.4	80.38
333.629	97.38
333.857	71.38
334.085	84.38
334.314	76.38
334.542	81.38
334.771	94.38
334.999	76.38
335.227	87.38
335.455	79.38
335.684	67.38
335.912	91.38
336.14	87.38
336.369	78.38
336.597	88.38
336.825	73.38
337.053	83.38
337.281	90.38
337.51	90.38
337.738	87.38
337.966	75.38
338.194	87.38
338.422	78.38
338.65	80.38
338.878	79.38
339.106	95.38
339.334	101.38
339.562	91.38
339.79	93.38
340.018	90.38
340.246	76.38
340.474	80.38
340.702	80.38
340.93	76.38
341.158	78.38
341.386	78.38
341.614	75.38
341.842	88.38
342.07	85.38
342.298	91.38
342.526	88.38
342.754	84.38
342.981	78.38
343.209	76.38
343.437	74.38
343.665	93.38
343.893	90.38
344.12	77.38
344.348	78.38
344.576	102.38
344.804	84.38
345.031	90.38
345.259	78.38
345.487	79.38
345.714	76.38
345.942	68.38
346.17	76.38
346.397	85.38
346.625	95.38
346.853	92.38
347.08	81.38
347.308	89.38
347.535	71.38
347.763	89.38
347.99	80.38
348.218	84.38
348.445	87.38
348.673	79.38
348.9	66.38
349.128	71.38
349.355	77.38
349.583	87.38
349.81	83.38
350.037	82.38
350.265	91.38
350.492	74.38
350.72	71.38
350.947	84.38
351.174	84.38
351.402	77.38
351.629	84.38
351.856	76.38
352.083	72.38
352.311	92.38
352.538	70.38
352.765	83.38
352.992	83.38
353.22	99.38
353.447	89.38
353.674	100.38
353.901	65.38
354.128	78.38
354.355	76.38
354.583	83.38
354.81	78.38
355.037	92.38
355.264	72.38
355.491	92.38
355.718	61.38
355.945	78.38
356.172	72.38
356.399	90.38
356.626	90.38
356.853	74.38
357.08	80.38
357.307	80.38
357.534	80.38
357.761	83.38
357.988	98.38
358.215	87.38
358.441	84.38
358.668	87.38
358.895	79.38
359.122	76.38
359.349	78.38
359.576	78.38
359.802	99.38
360.029	91.38
360.256	84.38
360.483	73.38
360.709	95.38
360.936	81.38
361.163	92.38
361.39	82.38
361.616	96.38
361.843	74.38
362.07	83.38
362.296	81.38
362.523	72.38
362.749	84.38
362.976	77.38
363.203	94.38
363.429	70.38
363.656	77.38
363.882	85.38
364.109	88.38
364.335	88.38
364.562	84.38
364.788	77.38
365.015	86.38
365.241	76.38
365.468	78.38
365.694	82.38
365.92	88.38
366.147	70.38
366.373	90.38
366.599	62.38
366.826	97.38
367.052	84.38
367.278	84.38
367.505	83.38
367.731	90.38
367.957	74.38
368.184	87.38
368.41	75.38
368.636	86.38
368.862	68.38
369.089	75.38
369.315	83.38
369.541	84.38
369.767	83.38
369.993	83.38
370.219	86.38
370.445	81.38
370.672	72.38
370.898	76.38
371.124	78.38
371.35	72.38
371.576	69.38
371.802	73.38
372.028	77.38
372.254	77.38
372.48	102.38
372.706	84.38
372.932	86.38
373.158	74.38
373.384	83.38
373.61	81.38
373.835	90.38
374.061	79.38
374.287	79.38
374.513	78.38
374.739	88.38
374.965	75.38
375.191	89.38
375.416	91.38
375.642	91.38
375.868	98.38
376.094	76.38
376.319	83.38
376.545	78.38
376.771	92.38
376.997	78.38
377.222	65.38
377.448	76.38
377.674	79.38
377.899	83.38
378.125	78.38
378.35	88.38
378.576	79.38
378.802	81.38
379.027	79.38
379.253	76.38
379.478	83.38
379.704	89.38
379.929	76.38
380.155	73.38
380.38	83.38
380.606	88.38
380.831	68.38
381.057	81.38
381.282	78.38
381.507	78.38
381.733	73.38
381.958	84.38
382.184	87.38
382.409	89.38
382.634	81.38
382.86	94.38
383.085	84.38
383.31	90.38
383.535	65.38
383.761	68.38
383.986	81.38
384.211	72.38
384.436	79.38
384.662	68.38
384.887	90.38
385.112	77.38
385.337	93.38
385.562	98.38
385.787	84.38
386.013	83.38
386.238	72.38
386.463	84.38
386.688	97.38
386.913	79.38
387.138	75.38
387.363	83.38
387.588	89.38
387.813	79.38
388.038	82.38
388.263	91.38
388.488	92.38
388.713	83.38
388.938	62.38
389.163	72.38
389.387	80.38
389.612	88.38
389.837	91.38
390.062	78.38
390.287	101.38
390.512	76.38
390.736	85.38
390.961	58.38
391.186	74.38
391.411	77.38
391.636	84.38
391.86	87.38
392.085	93.38
392.31	78.38
392.534	72.38
392.759	88.38
392.984	76.38
393.208	74.38
393.433	101.38
393.658	82.38
393.882	86.38
394.107	94.38
394.331	59.38
394.556	83.38
394.78	80.38
395.005	77.38
395.229	81.38
395.454	73.38
395.678	95.38
395.903	79.38
396.127	87.38
396.352	84.38
396.576	74.38
396.801	74.38
397.025	87.38
397.249	74.38
397.474	71.38
397.698	78.38
397.922	99.38
398.147	78.38
398.371	67.38
398.595	87.38
398.82	85.38
399.044	91.38
399.268	77.38
399.492	81.38
399.717	91.38
399.941	80.38
400.165	70.38
400.389	78.38
400.613	80.38
400.837	86.38
401.062	100.38
401.286	76.38
401.51	84.38
401.734	84.38
401.958	83.38
402.182	92.38
402.406	64.38
402.63	90.38
402.854	78.38
403.078	84.38
403.302	84.38
403.526	80.38
403.75	86.38
403.974	76.38
404.198	99.38
404.422	114.38
404.645	134.38
404.869	123.38
405.093	108.38
405.317	90.38
405.541	95.38
405.765	92.38
405.988	84.38
406.212	87.38
406.436	82.38
406.66	86.38
406.883	80.38
407.107	84.38
407.331	83.38
407.555	82.38
407.778	85.38
408.002	88.38
408.226	86.38
408.449	77.38
408.673	70.38
408.896	79.38
409.12	76.38
409.344	72.38
409.567	91.38
409.791	84.38
410.014	79.38
410.238	90.38
410.461	70.38
410.685	88.38
410.908	79.38
411.132	85.38
411.355	84.38
411.578	82.38
411.802	86.38
412.025	76.38
412.249	81.38
412.472	71.38
412.695	74.38
412.919	84.38
413.142	89.38
413.365	83.38
413.589	79.38
413.812	84.38
414.035	81.38
414.258	78.38
414.482	79.38
414.705	78.38
414.928	92.38
415.151	91.38
415.374	79.38
415.597	70.38
415.821	82.38
416.044	83.38
416.267	86.38
416.49	75.38
416.713	83.38
416.936	87.38
417.159	77.38
417.382	70.38
417.605	82.38
417.828	102.38
418.051	76.38
418.274	83.38
418.497	77.38
418.72	66.38
418.943	92.38
419.166	82.38
419.389	79.38
419.611	84.38
419.834	78.38
420.057	76.38
420.28	81.38
420.503	78.38
420.726	75.38
420.948	90.38
421.171	84.38
421.394	82.38
421.617	79.38
421.839	88.38
422.062	76.38
422.285	94.38
422.507	60.38
422.73	81.38
422.953	87.38
423.175	88.38
423.398	88.38
423.621	83.38
423.843	87.38
424.066	88.38
424.288	91.38
424.511	91.38
424.733	105.38
424.956	93.38
425.178	82.38
425.401	70.38
425.623	82.38
425.846	92.38
426.068	85.38
426.291	87.38
426.513	80.38
426.735	84.38
426.958	66.38
427.18	75.38
427.402	88.38
427.625	78.38
427.847	71.38
428.069	93.38
428.292	85.38
428.514	76.38
428.736	74.38
428.958	81.38
429.181	86.38
429.403	90.38
429.625	85.38
429.847	72.38
430.069	82.38
430.292	100.38
430.514	67.38
430.736	82.38
430.958	80.38
431.18	87.38
431.402	80.38
431.624	79.38
431.846	81.38
432.068	72.38
432.29	78.38
432.512	85.38
432.734	73.38
432.956	80.38
433.178	84.38
433.4	82.38
433.622	81.38
433.844	79.38
434.066	79.38
434.287	76.38
434.509	70.38
434.731	70.38
434.953	85.38
435.175	79.38
435.397	85.38
435.618	77.38
435.84	76.38
436.062	90.38
436.284	93.38
436.505	70.38
436.727	86.38
436.949	93.38
437.17	86.38
437.392	87.38
437.614	93.38
437.835	73.38
438.057	87.38
438.278	74.38
438.5	95.38
438.721	95.38
438.943	80.38
439.165	90.38
439.386	88.38
439.608	112.38
439.829	87.38
440.05	92.38
440.272	82.38
440.493	81.38
440.715	93.38
440.936	71.38
441.158	77.38
441.379	70.38
441.6	83.38
441.822	87.38
442.043	84.38
442.264	76.38
442.486	69.38
442.707	85.38
442.928	71.38
443.149	65.38
443.371	89.38
443.592	83.38
443.813	87.38
444.034	82.38
444.255	88.38
444.476	86.38
444.698	83.38
444.919	87.38
445.14	146.38
445.361	114.38
445.582	73.38
445.803	80.38
446.024	70.38
446.245	87.38
446.466	82.38
446.687	75.38
446.908	80.38
447.129	82.38
447.35	86.38
447.571	95.38
447.792	99.38
448.013	91.38
448.234	59.38
448.455	74.38
448.675	81.38
448.896	95.38
449.117	70.38
449.338	78.38
449.559	86.38
449.779	89.38
450	86.38
450.221	68.38
450.442	79.38
450.662	82.38
450.883	84.38
451.104	100.38
451.324	80.38
451.545	75.38
451.766	79.38
451.986	81.38
452.207	86.38
452.428	79.38
452.648	77.38
452.869	71.38
453.089	82.38
453.31	88.38
453.53	77.38
453.751	75.38
453.971	72.38
454.192	71.38
454.412	65.38
454.633	93.38
454.853	81.38
455.073	82.38
455.294	85.38
455.514	85.38
455.734	77.38
455.955	81.38
456.175	88.38
456.395	77.38
456.616	94.38
456.836	99.38
457.056	78.38
457.276	82.38
457.497	85.38
457.717	71.38
457.937	95.38
458.157	94.38
458.377	77.38
458.598	79.38
458.818	55.38
459.038	78.38
459.258	71.38
459.478	76.38
459.698	88.38
459.918	87.38
460.138	71.38
460.358	94.38
460.578	76.38
460.798	79.38
461.018	67.38
461.238	79.38
461.458	80.38
461.678	74.38
461.898	84.38
462.118	79.38
462.338	86.38
462.558	82.38
462.777	78.38
462.997	86.38
463.217	72.38
463.437	78.38
463.657	60.38
463.876	82.38
464.096	84.38
464.316	88.38
464.536	79.38
464.755	83.38
464.975	91.38
465.195	88.38
465.414	98.38
465.634	86.38
465.854	67.38
466.073	64.38
466.293	79.38
466.512	86.38
466.732	72.38
466.951	73.38
467.171	67.38
467.391	85.38
467.61	81.38
467.829	86.38
468.049	92.38
468.268	80.38
468.488	90.38
468.707	75.38
468.927	75.38
469.146	81.38
469.365	75.38
469.585	74.38
469.804	89.38
470.023	82.38
470.243	77.38
470.462	93.38
470.681	93.38
470.901	86.38
471.12	92.38
471.339	87.38
471.558	74.38
471.777	84.38
471.997	79.38
472.216	84.38
472.435	88.38
472.654	84.38
472.873	83.38
473.092	91.38
473.311	74.38
473.53	80.38
473.749	91.38
473.968	82.38
474.187	87.38
474.406	80.38
474.625	82.38
474.844	92.38
475.063	88.38
475.282	86.38
475.501	76.38
475.72	89.38
475.939	87.38
476.158	69.38
476.377	90.38
476.596	98.38
476.814	83.38
477.033	87.38
477.252	95.38
477.471	72.38
477.69	76.38
477.908	79.38
478.127	75.38
478.346	83.38
478.564	82.38
478.783	83.38
479.002	83.38
479.22	83.38
479.439	78.38
479.658	85.38
479.876	98.38
480.095	87.38
480.313	74.38
480.532	79.38
480.751	88.38
480.969	83.38
481.188	100.38
481.406	83.38
481.624	75.38
481.843	82.38
482.061	72.38
482.28	70.38
482.498	81.38
482.717	87.38
482.935	74.38
483.153	82.38
483.372	69.38
483.59	87.38
483.808	72.38
484.027	77.38
484.245	93.38
484.463	74.38
484.681	74.38
484.9	85.38
485.118	106.38
485.336	78.38
485.554	87.38
485.772	75.38
485.99	74.38
486.209	86.38
486.427	87.38
486.645	82.38
486.863	78.38
487.081	77.38
487.299	90.38
487.517	94.38
487.735	87.38
487.953	91.38
488.171	82.38
488.389	90.38
488.607	84.38
488.825	82.38
489.043	84.38
489.261	85.38
489.479	93.38
489.696	78.38
489.914	83.38
490.132	77.38
490.35	82.38
490.568	91.38
490.786	95.38
491.003	90.38
491.221	102.38
491.439	94.38
491.657	96.38
491.874	99.38
492.092	75.38
492.31	76.38
492.527	82.38
492.745	88.38
492.963	88.38
493.18	91.38
493.398	89.38
493.615	94.38
493.833	88.38
494.05	88.38
494.268	84.38
494.485	75.38
494.703	95.38
494.92	93.38
495.138	95.38
495.355	82.38
495.573	81.38
495.79	79.38
496.008	74.38
496.225	84.38
496.442	94.38
496.66	92.38
496.877	85.38
497.094	92.38
497.312	95.38
497.529	83.38
497.746	68.38
497.963	75.38
498.181	83.38
498.398	78.38
498.615	82.38
498.832	76.38
499.049	83.38
499.267	79.38
499.484	75.38
499.701	84.38
499.918	75.38
500.135	82.38
500.352	96.38
500.569	84.38
500.786	91.38
501.003	89.38
501.22	76.38
501.437	82.38
501.654	79.38
501.871	88.38
502.088	74.38
502.305	90.38
502.522	92.38
502.739	84.38
502.956	71.38
503.172	89.38
503.389	82.38
503.606	71.38
503.823	81.38
504.04	75.38
504.256	82.38
504.473	69.38
504.69	91.38
504.907	81.38
505.123	85.38
505.34	69.38
505.557	86.38
505.773	89.38
505.99	89.38
506.207	77.38
506.423	75.38
506.64	70.38
506.856	91.38
507.073	100.38
507.289	78.38
507.506	81.38
507.722	72.38
507.939	81.38
508.155	80.38
508.372	95.38
508.588	86.38
508.805	95.38
509.021	80.38
509.238	98.38
509.454	78.38
509.67	90.38
509.887	65.38
510.103	88.38
510.319	93.38
510.536	77.38
510.752	79.38
510.968	78.38
511.184	77.38
511.401	84.38
511.617	89.38
511.833	98.38
512.049	82.38
512.265	87.38
512.481	82.38
512.698	84.38
512.914	71.38
513.13	80.38
513.346	86.38
513.562	80.38
513.778	75.38
513.994	96.38
514.21	70.38
514.426	78.38
514.642	76.38
514.858	80.38
515.074	85.38
515.29	82.38
515.506	81.38
515.721	100.38
515.937	100.38
516.153	74.38
516.369	75.38
516.585	77.38
516.801	91.38
517.016	79.38
517.232	76.38
517.448	78.38
517.664	62.38
517.879	83.38
518.095	86.38
518.311	64.38
518.527	83.38
518.742	83.38
518.958	86.38
519.173	78.38
519.389	79.38
519.605	85.38
519.82	87.38
520.036	98.38
