Data from KBr_2_HRD10591_00011.txt Node
Date: Mon Jan 19 13:12:56 EST 2026
User: Yrep
Spectrometer: HR+D1059
Trigger mode: 1
Integration Time (sec): 1.000000E-1
Scans to average: 1
Electric dark correction enabled: true
Nonlinearity correction enabled: false
Boxcar width: 0
XAxis mode: Wavelengths
Number of Pixels in Spectrum: 2048
>>>>>Begin Spectral Data<<<<<
223.165	-14.94
223.4	-14.94
223.635	-14.94
223.869	-23.94
224.104	-12.94
224.338	-22.94
224.573	-10.94
224.808	-14.94
225.042	-11.94
225.277	-16.94
225.511	7.06
225.746	7.06
225.98	4.06
226.215	7.06
226.449	19.06
226.683	19.06
226.918	25.06
227.152	41.06
227.387	43.06
227.621	39.06
227.856	46.06
228.09	63.06
228.324	61.06
228.559	62.06
228.793	55.06
229.027	60.06
229.262	61.06
229.496	72.06
229.73	68.06
229.964	78.06
230.199	75.06
230.433	66.06
230.667	85.06
230.901	82.06
231.136	78.06
231.37	56.06
231.604	76.06
231.838	69.06
232.072	79.06
232.306	84.06
232.541	91.06
232.775	74.06
233.009	79.06
233.243	82.06
233.477	67.06
233.711	80.06
233.945	87.06
234.179	87.06
234.413	70.06
234.647	85.06
234.881	91.06
235.115	92.06
235.349	76.06
235.583	85.06
235.817	73.06
236.051	83.06
236.285	82.06
236.519	87.06
236.753	80.06
236.987	81.06
237.221	87.06
237.455	77.06
237.689	74.06
237.922	93.06
238.156	79.06
238.39	75.06
238.624	76.06
238.858	63.06
239.091	74.06
239.325	82.06
239.559	80.06
239.793	83.06
240.027	92.06
240.26	80.06
240.494	79.06
240.728	84.06
240.961	77.06
241.195	70.06
241.429	65.06
241.662	86.06
241.896	64.06
242.13	78.06
242.363	81.06
242.597	78.06
242.83	75.06
243.064	72.06
243.298	85.06
243.531	92.06
243.765	87.06
243.998	75.06
244.232	82.06
244.465	75.06
244.699	68.06
244.932	73.06
245.166	81.06
245.399	78.06
245.633	75.06
245.866	87.06
246.099	78.06
246.333	80.06
246.566	72.06
246.8	77.06
247.033	79.06
247.266	76.06
247.5	81.06
247.733	85.06
247.966	90.06
248.2	80.06
248.433	85.06
248.666	75.06
248.899	87.06
249.133	87.06
249.366	70.06
249.599	74.06
249.832	90.06
250.066	74.06
250.299	76.06
250.532	81.06
250.765	76.06
250.998	80.06
251.231	67.06
251.465	76.06
251.698	84.06
251.931	94.06
252.164	80.06
252.397	84.06
252.63	83.06
252.863	93.06
253.096	87.06
253.329	73.06
253.562	66.06
253.795	87.06
254.028	79.06
254.261	87.06
254.494	75.06
254.727	76.06
254.96	81.06
255.193	80.06
255.426	60.06
255.659	84.06
255.892	83.06
256.124	69.06
256.357	77.06
256.59	68.06
256.823	80.06
257.056	78.06
257.289	89.06
257.521	91.06
257.754	76.06
257.987	80.06
258.22	75.06
258.452	83.06
258.685	79.06
258.918	80.06
259.151	78.06
259.383	83.06
259.616	75.06
259.849	75.06
260.081	80.06
260.314	73.06
260.547	87.06
260.779	79.06
261.012	90.06
261.244	94.06
261.477	80.06
261.71	93.06
261.942	89.06
262.175	80.06
262.407	79.06
262.64	92.06
262.872	75.06
263.105	89.06
263.337	79.06
263.57	72.06
263.802	76.06
264.035	81.06
264.267	83.06
264.499	84.06
264.732	90.06
264.964	85.06
265.197	91.06
265.429	74.06
265.661	81.06
265.894	92.06
266.126	83.06
266.358	74.06
266.591	84.06
266.823	87.06
267.055	85.06
267.287	90.06
267.52	82.06
267.752	88.06
267.984	77.06
268.216	75.06
268.448	85.06
268.681	86.06
268.913	77.06
269.145	76.06
269.377	77.06
269.609	74.06
269.841	87.06
270.073	67.06
270.306	92.06
270.538	79.06
270.77	75.06
271.002	84.06
271.234	81.06
271.466	85.06
271.698	75.06
271.93	90.06
272.162	95.06
272.394	82.06
272.626	81.06
272.858	73.06
273.09	103.06
273.322	99.06
273.553	78.06
273.785	90.06
274.017	105.06
274.249	88.06
274.481	77.06
274.713	80.06
274.945	68.06
275.176	92.06
275.408	88.06
275.64	84.06
275.872	91.06
276.104	82.06
276.335	77.06
276.567	79.06
276.799	82.06
277.031	80.06
277.262	92.06
277.494	84.06
277.726	75.06
277.957	82.06
278.189	84.06
278.421	89.06
278.652	93.06
278.884	89.06
279.115	90.06
279.347	79.06
279.579	77.06
279.81	84.06
280.042	74.06
280.273	85.06
280.505	91.06
280.736	88.06
280.968	84.06
281.199	77.06
281.431	89.06
281.662	93.06
281.894	84.06
282.125	94.06
282.356	83.06
282.588	89.06
282.819	90.06
283.051	79.06
283.282	77.06
283.513	94.06
283.745	83.06
283.976	91.06
284.207	85.06
284.439	88.06
284.67	87.06
284.901	81.06
285.132	91.06
285.364	76.06
285.595	95.06
285.826	98.06
286.057	75.06
286.288	75.06
286.52	80.06
286.751	93.06
286.982	92.06
287.213	72.06
287.444	92.06
287.675	89.06
287.906	76.06
288.138	91.06
288.369	80.06
288.6	79.06
288.831	84.06
289.062	101.06
289.293	83.06
289.524	85.06
289.755	74.06
289.986	96.06
290.217	77.06
290.448	77.06
290.679	82.06
290.91	82.06
291.141	97.06
291.371	88.06
291.602	89.06
291.833	90.06
292.064	85.06
292.295	82.06
292.526	98.06
292.757	88.06
292.987	92.06
293.218	83.06
293.449	76.06
293.68	97.06
293.91	93.06
294.141	83.06
294.372	77.06
294.603	76.06
294.833	90.06
295.064	87.06
295.295	94.06
295.525	94.06
295.756	77.06
295.987	77.06
296.217	76.06
296.448	88.06
296.679	84.06
296.909	92.06
297.14	79.06
297.37	95.06
297.601	100.06
297.831	87.06
298.062	78.06
298.292	90.06
298.523	93.06
298.753	84.06
298.984	103.06
299.214	76.06
299.445	83.06
299.675	91.06
299.905	84.06
300.136	83.06
300.366	93.06
300.597	70.06
300.827	87.06
301.057	95.06
301.288	77.06
301.518	98.06
301.748	86.06
301.979	98.06
302.209	85.06
302.439	93.06
302.669	81.06
302.9	92.06
303.13	94.06
303.36	79.06
303.59	93.06
303.82	82.06
304.051	92.06
304.281	89.06
304.511	90.06
304.741	82.06
304.971	87.06
305.201	96.06
305.431	88.06
305.661	88.06
305.891	84.06
306.121	87.06
306.352	85.06
306.582	89.06
306.812	91.06
307.042	97.06
307.272	88.06
307.502	88.06
307.731	77.06
307.961	92.06
308.191	91.06
308.421	81.06
308.651	84.06
308.881	96.06
309.111	83.06
309.341	87.06
309.571	96.06
309.8	92.06
310.03	90.06
310.26	80.06
310.49	78.06
310.72	83.06
310.949	81.06
311.179	76.06
311.409	88.06
311.639	87.06
311.868	95.06
312.098	87.06
312.328	90.06
312.557	86.06
312.787	92.06
313.017	84.06
313.246	84.06
313.476	85.06
313.706	82.06
313.935	84.06
314.165	86.06
314.394	87.06
314.624	79.06
314.853	89.06
315.083	92.06
315.312	74.06
315.542	81.06
315.771	94.06
316.001	80.06
316.23	83.06
316.46	74.06
316.689	85.06
316.919	93.06
317.148	103.06
317.377	97.06
317.607	94.06
317.836	92.06
318.065	77.06
318.295	95.06
318.524	91.06
318.753	89.06
318.983	104.06
319.212	85.06
319.441	92.06
319.67	90.06
319.9	83.06
320.129	83.06
320.358	87.06
320.587	95.06
320.816	79.06
321.046	69.06
321.275	88.06
321.504	96.06
321.733	89.06
321.962	85.06
322.191	98.06
322.42	95.06
322.649	90.06
322.878	91.06
323.108	72.06
323.337	73.06
323.566	89.06
323.795	94.06
324.024	99.06
324.253	83.06
324.482	85.06
324.71	81.06
324.939	96.06
325.168	82.06
325.397	92.06
325.626	83.06
325.855	93.06
326.084	77.06
326.313	85.06
326.542	88.06
326.77	81.06
326.999	98.06
327.228	81.06
327.457	73.06
327.686	98.06
327.914	88.06
328.143	88.06
328.372	96.06
328.6	81.06
328.829	85.06
329.058	93.06
329.287	92.06
329.515	93.06
329.744	85.06
329.972	94.06
330.201	99.06
330.43	109.06
330.658	89.06
330.887	98.06
331.115	99.06
331.344	75.06
331.572	76.06
331.801	80.06
332.03	87.06
332.258	105.06
332.486	75.06
332.715	85.06
332.943	77.06
333.172	97.06
333.4	88.06
333.629	96.06
333.857	93.06
334.085	97.06
334.314	105.06
334.542	99.06
334.771	84.06
334.999	109.06
335.227	84.06
335.455	63.06
335.684	82.06
335.912	96.06
336.14	100.06
336.369	88.06
336.597	99.06
336.825	76.06
337.053	84.06
337.281	87.06
337.51	85.06
337.738	92.06
337.966	98.06
338.194	100.06
338.422	92.06
338.65	82.06
338.878	92.06
339.106	97.06
339.334	88.06
339.562	77.06
339.79	79.06
340.018	95.06
340.246	95.06
340.474	94.06
340.702	86.06
340.93	84.06
341.158	68.06
341.386	91.06
341.614	80.06
341.842	72.06
342.07	98.06
342.298	101.06
342.526	94.06
342.754	85.06
342.981	89.06
343.209	87.06
343.437	110.06
343.665	89.06
343.893	88.06
344.12	84.06
344.348	88.06
344.576	105.06
344.804	112.06
345.031	92.06
345.259	80.06
345.487	87.06
345.714	85.06
345.942	87.06
346.17	90.06
346.397	94.06
346.625	76.06
346.853	88.06
347.08	82.06
347.308	93.06
347.535	78.06
347.763	72.06
347.99	83.06
348.218	90.06
348.445	89.06
348.673	87.06
348.9	88.06
349.128	96.06
349.355	97.06
349.583	85.06
349.81	93.06
350.037	89.06
350.265	97.06
350.492	85.06
350.72	77.06
350.947	91.06
351.174	107.06
351.402	85.06
351.629	101.06
351.856	75.06
352.083	83.06
352.311	78.06
352.538	84.06
352.765	89.06
352.992	95.06
353.22	84.06
353.447	85.06
353.674	87.06
353.901	89.06
354.128	89.06
354.355	92.06
354.583	83.06
354.81	87.06
355.037	99.06
355.264	82.06
355.491	84.06
355.718	96.06
355.945	75.06
356.172	91.06
356.399	88.06
356.626	82.06
356.853	94.06
357.08	88.06
357.307	93.06
357.534	91.06
357.761	80.06
357.988	77.06
358.215	72.06
358.441	83.06
358.668	74.06
358.895	84.06
359.122	96.06
359.349	81.06
359.576	88.06
359.802	71.06
360.029	91.06
360.256	90.06
360.483	85.06
360.709	87.06
360.936	87.06
361.163	97.06
361.39	90.06
361.616	81.06
361.843	74.06
362.07	96.06
362.296	87.06
362.523	89.06
362.749	83.06
362.976	101.06
363.203	91.06
363.429	87.06
363.656	85.06
363.882	88.06
364.109	75.06
364.335	100.06
364.562	79.06
364.788	76.06
365.015	85.06
365.241	85.06
365.468	77.06
365.694	97.06
365.92	80.06
366.147	69.06
366.373	89.06
366.599	86.06
366.826	76.06
367.052	96.06
367.278	103.06
367.505	101.06
367.731	105.06
367.957	83.06
368.184	70.06
368.41	72.06
368.636	92.06
368.862	88.06
369.089	89.06
369.315	99.06
369.541	90.06
369.767	96.06
369.993	83.06
370.219	85.06
370.445	81.06
370.672	86.06
370.898	98.06
371.124	84.06
371.35	86.06
371.576	91.06
371.802	86.06
372.028	80.06
372.254	78.06
372.48	74.06
372.706	84.06
372.932	79.06
373.158	83.06
373.384	87.06
373.61	92.06
373.835	83.06
374.061	88.06
374.287	93.06
374.513	92.06
374.739	93.06
374.965	84.06
375.191	95.06
375.416	90.06
375.642	86.06
375.868	86.06
376.094	83.06
376.319	63.06
376.545	93.06
376.771	92.06
376.997	90.06
377.222	78.06
377.448	83.06
377.674	87.06
377.899	93.06
378.125	96.06
378.35	93.06
378.576	84.06
378.802	89.06
379.027	73.06
379.253	76.06
379.478	96.06
379.704	88.06
379.929	91.06
380.155	98.06
380.38	82.06
380.606	83.06
380.831	88.06
381.057	91.06
381.282	94.06
381.507	92.06
381.733	93.06
381.958	95.06
382.184	80.06
382.409	82.06
382.634	93.06
382.86	81.06
383.085	90.06
383.31	81.06
383.535	88.06
383.761	95.06
383.986	74.06
384.211	97.06
384.436	91.06
384.662	91.06
384.887	83.06
385.112	81.06
385.337	75.06
385.562	87.06
385.787	82.06
386.013	86.06
386.238	89.06
386.463	71.06
386.688	84.06
386.913	81.06
387.138	79.06
387.363	91.06
387.588	111.06
387.813	97.06
388.038	87.06
388.263	86.06
388.488	100.06
388.713	86.06
388.938	92.06
389.163	85.06
389.387	87.06
389.612	82.06
389.837	96.06
390.062	100.06
390.287	88.06
390.512	95.06
390.736	81.06
390.961	83.06
391.186	86.06
391.411	87.06
391.636	89.06
391.86	78.06
392.085	82.06
392.31	86.06
392.534	74.06
392.759	104.06
392.984	90.06
393.208	99.06
393.433	93.06
393.658	87.06
393.882	84.06
394.107	99.06
394.331	76.06
394.556	90.06
394.78	107.06
395.005	89.06
395.229	84.06
395.454	86.06
395.678	77.06
395.903	105.06
396.127	90.06
396.352	92.06
396.576	87.06
396.801	79.06
397.025	77.06
397.249	84.06
397.474	93.06
397.698	92.06
397.922	99.06
398.147	97.06
398.371	77.06
398.595	92.06
398.82	91.06
399.044	95.06
399.268	87.06
399.492	81.06
399.717	96.06
399.941	85.06
400.165	93.06
400.389	77.06
400.613	88.06
400.837	80.06
401.062	88.06
401.286	83.06
401.51	107.06
401.734	83.06
401.958	86.06
402.182	69.06
402.406	85.06
402.63	87.06
402.854	98.06
403.078	85.06
403.302	101.06
403.526	87.06
403.75	100.06
403.974	116.06
404.198	152.06
404.422	216.06
404.645	253.06
404.869	220.06
405.093	131.06
405.317	85.06
405.541	100.06
405.765	89.06
405.988	80.06
406.212	88.06
406.436	87.06
406.66	72.06
406.883	87.06
407.107	70.06
407.331	90.06
407.555	89.06
407.778	84.06
408.002	91.06
408.226	90.06
408.449	92.06
408.673	78.06
408.896	81.06
409.12	85.06
409.344	84.06
409.567	90.06
409.791	82.06
410.014	91.06
410.238	104.06
410.461	99.06
410.685	84.06
410.908	89.06
411.132	78.06
411.355	80.06
411.578	81.06
411.802	90.06
412.025	93.06
412.249	105.06
412.472	98.06
412.695	90.06
412.919	104.06
413.142	78.06
413.365	88.06
413.589	99.06
413.812	85.06
414.035	95.06
414.258	85.06
414.482	83.06
414.705	93.06
414.928	97.06
415.151	78.06
415.374	91.06
415.597	92.06
415.821	95.06
416.044	101.06
416.267	80.06
416.49	82.06
416.713	75.06
416.936	83.06
417.159	78.06
417.382	83.06
417.605	105.06
417.828	91.06
418.051	97.06
418.274	75.06
418.497	96.06
418.72	82.06
418.943	80.06
419.166	84.06
419.389	109.06
419.611	75.06
419.834	94.06
420.057	75.06
420.28	83.06
420.503	96.06
420.726	64.06
420.948	81.06
421.171	78.06
421.394	82.06
421.617	92.06
421.839	97.06
422.062	79.06
422.285	92.06
422.507	83.06
422.73	92.06
422.953	95.06
423.175	77.06
423.398	78.06
423.621	88.06
423.843	94.06
424.066	90.06
424.288	92.06
424.511	88.06
424.733	87.06
424.956	81.06
425.178	78.06
425.401	75.06
425.623	92.06
425.846	99.06
426.068	94.06
426.291	94.06
426.513	93.06
426.735	92.06
426.958	90.06
427.18	83.06
427.402	87.06
427.625	92.06
427.847	97.06
428.069	93.06
428.292	85.06
428.514	94.06
428.736	92.06
428.958	79.06
429.181	75.06
429.403	86.06
429.625	81.06
429.847	91.06
430.069	81.06
430.292	89.06
430.514	94.06
430.736	85.06
430.958	90.06
431.18	82.06
431.402	83.06
431.624	78.06
431.846	83.06
432.068	93.06
432.29	87.06
432.512	89.06
432.734	85.06
432.956	101.06
433.178	83.06
433.4	92.06
433.622	74.06
433.844	93.06
434.066	77.06
434.287	97.06
434.509	77.06
434.731	98.06
434.953	85.06
435.175	79.06
435.397	87.06
435.618	114.06
435.84	90.06
436.062	93.06
436.284	75.06
436.505	84.06
436.727	76.06
436.949	85.06
437.17	89.06
437.392	84.06
437.614	86.06
437.835	93.06
438.057	94.06
438.278	85.06
438.5	95.06
438.721	70.06
438.943	91.06
439.165	90.06
439.386	88.06
439.608	100.06
439.829	85.06
440.05	93.06
440.272	80.06
440.493	96.06
440.715	79.06
440.936	98.06
441.158	77.06
441.379	88.06
441.6	106.06
441.822	98.06
442.043	84.06
442.264	95.06
442.486	90.06
442.707	98.06
442.928	76.06
443.149	81.06
443.371	90.06
443.592	88.06
443.813	90.06
444.034	87.06
444.255	92.06
444.476	84.06
444.698	84.06
444.919	87.06
445.14	175.06
445.361	137.06
445.582	100.06
445.803	99.06
446.024	100.06
446.245	89.06
446.466	77.06
446.687	97.06
446.908	98.06
447.129	92.06
447.35	75.06
447.571	88.06
447.792	92.06
448.013	90.06
448.234	95.06
448.455	89.06
448.675	86.06
448.896	83.06
449.117	93.06
449.338	87.06
449.559	92.06
449.779	98.06
450	94.06
450.221	96.06
450.442	94.06
450.662	83.06
450.883	90.06
451.104	91.06
451.324	86.06
451.545	82.06
451.766	87.06
451.986	83.06
452.207	98.06
452.428	90.06
452.648	83.06
452.869	92.06
453.089	87.06
453.31	81.06
453.53	108.06
453.751	89.06
453.971	73.06
454.192	99.06
454.412	83.06
454.633	80.06
454.853	88.06
455.073	90.06
455.294	84.06
455.514	101.06
455.734	89.06
455.955	82.06
456.175	83.06
456.395	89.06
456.616	89.06
456.836	99.06
457.056	90.06
457.276	90.06
457.497	95.06
457.717	88.06
457.937	79.06
458.157	88.06
458.377	111.06
458.598	76.06
458.818	90.06
459.038	90.06
459.258	87.06
459.478	84.06
459.698	79.06
459.918	91.06
460.138	92.06
460.358	86.06
460.578	72.06
460.798	101.06
461.018	92.06
461.238	87.06
461.458	83.06
461.678	93.06
461.898	91.06
462.118	96.06
462.338	91.06
462.558	100.06
462.777	96.06
462.997	90.06
463.217	82.06
463.437	100.06
463.657	87.06
463.876	85.06
464.096	94.06
464.316	98.06
464.536	82.06
464.755	101.06
464.975	83.06
465.195	83.06
465.414	77.06
465.634	88.06
465.854	91.06
466.073	88.06
466.293	99.06
466.512	93.06
466.732	82.06
466.951	97.06
467.171	97.06
467.391	89.06
467.61	104.06
467.829	83.06
468.049	104.06
468.268	106.06
468.488	88.06
468.707	95.06
468.927	95.06
469.146	93.06
469.365	99.06
469.585	93.06
469.804	88.06
470.023	93.06
470.243	90.06
470.462	85.06
470.681	91.06
470.901	99.06
471.12	77.06
471.339	69.06
471.558	80.06
471.777	106.06
471.997	105.06
472.216	96.06
472.435	101.06
472.654	91.06
472.873	99.06
473.092	93.06
473.311	80.06
473.53	76.06
473.749	89.06
473.968	87.06
474.187	91.06
474.406	95.06
474.625	94.06
474.844	83.06
475.063	81.06
475.282	93.06
475.501	95.06
475.72	89.06
475.939	92.06
476.158	106.06
476.377	93.06
476.596	97.06
476.814	97.06
477.033	91.06
477.252	84.06
477.471	84.06
477.69	88.06
477.908	72.06
478.127	91.06
478.346	86.06
478.564	100.06
478.783	84.06
479.002	95.06
479.22	95.06
479.439	97.06
479.658	100.06
479.876	86.06
480.095	84.06
480.313	91.06
480.532	92.06
480.751	99.06
480.969	77.06
481.188	91.06
481.406	100.06
481.624	82.06
481.843	79.06
482.061	91.06
482.28	93.06
482.498	88.06
482.717	94.06
482.935	107.06
483.153	92.06
483.372	83.06
483.59	95.06
483.808	95.06
484.027	90.06
484.245	100.06
484.463	89.06
484.681	85.06
484.9	76.06
485.118	97.06
485.336	82.06
485.554	83.06
485.772	105.06
485.99	96.06
486.209	95.06
486.427	81.06
486.645	72.06
486.863	99.06
487.081	91.06
487.299	96.06
487.517	98.06
487.735	103.06
487.953	96.06
488.171	87.06
488.389	93.06
488.607	95.06
488.825	100.06
489.043	101.06
489.261	87.06
489.479	101.06
489.696	91.06
489.914	99.06
490.132	93.06
490.35	98.06
490.568	83.06
490.786	97.06
491.003	101.06
491.221	99.06
491.439	94.06
491.657	87.06
491.874	97.06
492.092	97.06
492.31	94.06
492.527	99.06
492.745	105.06
492.963	105.06
493.18	94.06
493.398	105.06
493.615	94.06
493.833	98.06
494.05	91.06
494.268	83.06
494.485	78.06
494.703	92.06
494.92	105.06
495.138	94.06
495.355	95.06
495.573	103.06
495.79	105.06
496.008	107.06
496.225	98.06
496.442	91.06
496.66	110.06
496.877	94.06
497.094	103.06
497.312	97.06
497.529	91.06
497.746	97.06
497.963	89.06
498.181	89.06
498.398	92.06
498.615	98.06
498.832	92.06
499.049	91.06
499.267	101.06
499.484	86.06
499.701	88.06
499.918	88.06
500.135	92.06
500.352	82.06
500.569	107.06
500.786	91.06
501.003	79.06
501.22	109.06
501.437	95.06
501.654	89.06
501.871	81.06
502.088	79.06
502.305	93.06
502.522	77.06
502.739	87.06
502.956	101.06
503.172	96.06
503.389	100.06
503.606	83.06
503.823	94.06
504.04	92.06
504.256	94.06
504.473	85.06
504.69	88.06
504.907	90.06
505.123	92.06
505.34	84.06
505.557	100.06
505.773	79.06
505.99	100.06
506.207	101.06
506.423	98.06
506.64	97.06
506.856	93.06
507.073	74.06
507.289	91.06
507.506	100.06
507.722	98.06
507.939	91.06
508.155	95.06
508.372	84.06
508.588	100.06
508.805	101.06
509.021	87.06
509.238	99.06
509.454	87.06
509.67	102.06
509.887	94.06
510.103	98.06
510.319	100.06
510.536	101.06
510.752	91.06
510.968	89.06
511.184	89.06
511.401	100.06
511.617	89.06
511.833	95.06
512.049	96.06
512.265	98.06
512.481	92.06
512.698	113.06
512.914	91.06
513.13	83.06
513.346	88.06
513.562	94.06
513.778	93.06
513.994	94.06
514.21	84.06
514.426	89.06
514.642	81.06
514.858	104.06
515.074	89.06
515.29	99.06
515.506	93.06
515.721	96.06
515.937	90.06
516.153	92.06
516.369	101.06
516.585	95.06
516.801	100.06
517.016	96.06
517.232	89.06
517.448	89.06
517.664	104.06
517.879	105.06
518.095	95.06
518.311	88.06
518.527	87.06
518.742	77.06
