Data from KBr_2_HRD10591_00031.txt Node
Date: Mon Jan 19 13:13:06 EST 2026
User: Yrep
Spectrometer: HR+D1059
Trigger mode: 1
Integration Time (sec): 1.000000E-1
Scans to average: 1
Electric dark correction enabled: true
Nonlinearity correction enabled: false
Boxcar width: 0
XAxis mode: Wavelengths
Number of Pixels in Spectrum: 2048
>>>>>Begin Spectral Data<<<<<
223.165	-11.88
223.4	-11.88
223.635	-11.88
223.869	-38.88
224.104	-1.88
224.338	-0.88
224.573	-11.88
224.808	-9.88
225.042	-5.88
225.277	-15.88
225.511	-2.88
225.746	-5.88
225.98	-1.88
226.215	14.12
226.449	9.12
226.683	16.12
226.918	31.12
227.152	37.12
227.387	30.12
227.621	26.12
227.856	55.12
228.09	46.12
228.324	46.12
228.559	58.12
228.793	56.12
229.027	67.12
229.262	53.12
229.496	58.12
229.73	58.12
229.964	60.12
230.199	71.12
230.433	71.12
230.667	79.12
230.901	66.12
231.136	78.12
231.37	70.12
231.604	65.12
231.838	77.12
232.072	101.12
232.306	71.12
232.541	73.12
232.775	81.12
233.009	84.12
233.243	88.12
233.477	81.12
233.711	90.12
233.945	82.12
234.179	75.12
234.413	71.12
234.647	82.12
234.881	101.12
235.115	67.12
235.349	73.12
235.583	77.12
235.817	75.12
236.051	79.12
236.285	76.12
236.519	58.12
236.753	77.12
236.987	82.12
237.221	74.12
237.455	73.12
237.689	67.12
237.922	71.12
238.156	74.12
238.39	79.12
238.624	88.12
238.858	61.12
239.091	78.12
239.325	66.12
239.559	65.12
239.793	68.12
240.027	82.12
240.26	69.12
240.494	76.12
240.728	51.12
240.961	78.12
241.195	89.12
241.429	73.12
241.662	68.12
241.896	89.12
242.13	77.12
242.363	83.12
242.597	73.12
242.83	82.12
243.064	78.12
243.298	74.12
243.531	74.12
243.765	81.12
243.998	73.12
244.232	79.12
244.465	86.12
244.699	80.12
244.932	61.12
245.166	66.12
245.399	75.12
245.633	70.12
245.866	78.12
246.099	76.12
246.333	81.12
246.566	79.12
246.8	79.12
247.033	62.12
247.266	84.12
247.5	83.12
247.733	73.12
247.966	67.12
248.2	71.12
248.433	83.12
248.666	69.12
248.899	85.12
249.133	71.12
249.366	74.12
249.599	73.12
249.832	71.12
250.066	97.12
250.299	78.12
250.532	92.12
250.765	72.12
250.998	83.12
251.231	53.12
251.465	79.12
251.698	71.12
251.931	60.12
252.164	80.12
252.397	73.12
252.63	81.12
252.863	80.12
253.096	69.12
253.329	67.12
253.562	69.12
253.795	81.12
254.028	83.12
254.261	76.12
254.494	81.12
254.727	80.12
254.96	78.12
255.193	81.12
255.426	69.12
255.659	66.12
255.892	67.12
256.124	77.12
256.357	82.12
256.59	81.12
256.823	73.12
257.056	68.12
257.289	78.12
257.521	69.12
257.754	89.12
257.987	76.12
258.22	71.12
258.452	60.12
258.685	78.12
258.918	67.12
259.151	74.12
259.383	77.12
259.616	86.12
259.849	68.12
260.081	75.12
260.314	74.12
260.547	72.12
260.779	85.12
261.012	90.12
261.244	74.12
261.477	84.12
261.71	66.12
261.942	71.12
262.175	69.12
262.407	75.12
262.64	79.12
262.872	89.12
263.105	68.12
263.337	87.12
263.57	89.12
263.802	76.12
264.035	85.12
264.267	67.12
264.499	91.12
264.732	89.12
264.964	78.12
265.197	68.12
265.429	82.12
265.661	78.12
265.894	85.12
266.126	91.12
266.358	59.12
266.591	73.12
266.823	74.12
267.055	87.12
267.287	84.12
267.52	85.12
267.752	81.12
267.984	88.12
268.216	92.12
268.448	94.12
268.681	87.12
268.913	79.12
269.145	81.12
269.377	77.12
269.609	83.12
269.841	91.12
270.073	74.12
270.306	71.12
270.538	77.12
270.77	81.12
271.002	83.12
271.234	86.12
271.466	74.12
271.698	79.12
271.93	87.12
272.162	66.12
272.394	80.12
272.626	77.12
272.858	85.12
273.09	61.12
273.322	76.12
273.553	75.12
273.785	83.12
274.017	81.12
274.249	82.12
274.481	69.12
274.713	69.12
274.945	78.12
275.176	84.12
275.408	78.12
275.64	78.12
275.872	85.12
276.104	83.12
276.335	73.12
276.567	73.12
276.799	88.12
277.031	81.12
277.262	87.12
277.494	89.12
277.726	76.12
277.957	88.12
278.189	94.12
278.421	77.12
278.652	89.12
278.884	81.12
279.115	78.12
279.347	94.12
279.579	84.12
279.81	73.12
280.042	77.12
280.273	79.12
280.505	78.12
280.736	72.12
280.968	81.12
281.199	74.12
281.431	93.12
281.662	82.12
281.894	90.12
282.125	78.12
282.356	73.12
282.588	68.12
282.819	75.12
283.051	89.12
283.282	86.12
283.513	81.12
283.745	75.12
283.976	74.12
284.207	71.12
284.439	91.12
284.67	81.12
284.901	88.12
285.132	90.12
285.364	74.12
285.595	78.12
285.826	84.12
286.057	76.12
286.288	84.12
286.52	86.12
286.751	63.12
286.982	80.12
287.213	77.12
287.444	101.12
287.675	80.12
287.906	88.12
288.138	73.12
288.369	83.12
288.6	81.12
288.831	79.12
289.062	88.12
289.293	94.12
289.524	72.12
289.755	84.12
289.986	75.12
290.217	87.12
290.448	73.12
290.679	59.12
290.91	74.12
291.141	63.12
291.371	71.12
291.602	69.12
291.833	69.12
292.064	90.12
292.295	83.12
292.526	72.12
292.757	72.12
292.987	74.12
293.218	87.12
293.449	79.12
293.68	86.12
293.91	91.12
294.141	83.12
294.372	66.12
294.603	77.12
294.833	86.12
295.064	62.12
295.295	82.12
295.525	81.12
295.756	85.12
295.987	75.12
296.217	79.12
296.448	66.12
296.679	95.12
296.909	87.12
297.14	83.12
297.37	90.12
297.601	88.12
297.831	68.12
298.062	95.12
298.292	81.12
298.523	87.12
298.753	89.12
298.984	79.12
299.214	73.12
299.445	88.12
299.675	87.12
299.905	101.12
300.136	111.12
300.366	79.12
300.597	98.12
300.827	87.12
301.057	76.12
301.288	77.12
301.518	83.12
301.748	75.12
301.979	98.12
302.209	91.12
302.439	81.12
302.669	89.12
302.9	77.12
303.13	84.12
303.36	81.12
303.59	89.12
303.82	74.12
304.051	82.12
304.281	85.12
304.511	90.12
304.741	93.12
304.971	66.12
305.201	77.12
305.431	79.12
305.661	76.12
305.891	92.12
306.121	79.12
306.352	93.12
306.582	77.12
306.812	89.12
307.042	88.12
307.272	94.12
307.502	75.12
307.731	76.12
307.961	78.12
308.191	84.12
308.421	76.12
308.651	73.12
308.881	69.12
309.111	75.12
309.341	81.12
309.571	82.12
309.8	70.12
310.03	80.12
310.26	85.12
310.49	81.12
310.72	73.12
310.949	83.12
311.179	85.12
311.409	84.12
311.639	92.12
311.868	66.12
312.098	85.12
312.328	81.12
312.557	81.12
312.787	75.12
313.017	77.12
313.246	77.12
313.476	79.12
313.706	76.12
313.935	86.12
314.165	76.12
314.394	67.12
314.624	89.12
314.853	78.12
315.083	96.12
315.312	95.12
315.542	77.12
315.771	64.12
316.001	78.12
316.23	64.12
316.46	74.12
316.689	95.12
316.919	76.12
317.148	63.12
317.377	83.12
317.607	84.12
317.836	66.12
318.065	82.12
318.295	71.12
318.524	105.12
318.753	75.12
318.983	86.12
319.212	83.12
319.441	83.12
319.67	74.12
319.9	90.12
320.129	64.12
320.358	84.12
320.587	76.12
320.816	80.12
321.046	85.12
321.275	101.12
321.504	88.12
321.733	100.12
321.962	73.12
322.191	98.12
322.42	87.12
322.649	69.12
322.878	91.12
323.108	89.12
323.337	82.12
323.566	92.12
323.795	81.12
324.024	77.12
324.253	92.12
324.482	83.12
324.71	69.12
324.939	90.12
325.168	99.12
325.397	95.12
325.626	106.12
325.855	87.12
326.084	89.12
326.313	69.12
326.542	72.12
326.77	73.12
326.999	66.12
327.228	75.12
327.457	89.12
327.686	75.12
327.914	79.12
328.143	84.12
328.372	78.12
328.6	81.12
328.829	67.12
329.058	94.12
329.287	75.12
329.515	79.12
329.744	90.12
329.972	73.12
330.201	98.12
330.43	94.12
330.658	85.12
330.887	80.12
331.115	81.12
331.344	77.12
331.572	82.12
331.801	87.12
332.03	91.12
332.258	79.12
332.486	83.12
332.715	85.12
332.943	72.12
333.172	86.12
333.4	85.12
333.629	81.12
333.857	78.12
334.085	79.12
334.314	67.12
334.542	90.12
334.771	91.12
334.999	68.12
335.227	89.12
335.455	88.12
335.684	78.12
335.912	111.12
336.14	86.12
336.369	87.12
336.597	84.12
336.825	90.12
337.053	83.12
337.281	84.12
337.51	79.12
337.738	79.12
337.966	75.12
338.194	68.12
338.422	72.12
338.65	93.12
338.878	91.12
339.106	70.12
339.334	85.12
339.562	85.12
339.79	77.12
340.018	78.12
340.246	85.12
340.474	79.12
340.702	83.12
340.93	82.12
341.158	77.12
341.386	99.12
341.614	85.12
341.842	84.12
342.07	94.12
342.298	92.12
342.526	81.12
342.754	67.12
342.981	80.12
343.209	72.12
343.437	80.12
343.665	77.12
343.893	95.12
344.12	91.12
344.348	74.12
344.576	79.12
344.804	97.12
345.031	89.12
345.259	77.12
345.487	92.12
345.714	75.12
345.942	81.12
346.17	94.12
346.397	98.12
346.625	81.12
346.853	83.12
347.08	75.12
347.308	91.12
347.535	83.12
347.763	81.12
347.99	79.12
348.218	77.12
348.445	76.12
348.673	77.12
348.9	90.12
349.128	64.12
349.355	86.12
349.583	76.12
349.81	79.12
350.037	69.12
350.265	86.12
350.492	75.12
350.72	85.12
350.947	68.12
351.174	89.12
351.402	73.12
351.629	73.12
351.856	80.12
352.083	84.12
352.311	90.12
352.538	85.12
352.765	67.12
352.992	72.12
353.22	82.12
353.447	83.12
353.674	82.12
353.901	86.12
354.128	77.12
354.355	65.12
354.583	81.12
354.81	83.12
355.037	94.12
355.264	81.12
355.491	68.12
355.718	75.12
355.945	89.12
356.172	77.12
356.399	82.12
356.626	78.12
356.853	74.12
357.08	75.12
357.307	62.12
357.534	78.12
357.761	86.12
357.988	79.12
358.215	92.12
358.441	81.12
358.668	75.12
358.895	86.12
359.122	85.12
359.349	79.12
359.576	74.12
359.802	66.12
360.029	63.12
360.256	72.12
360.483	77.12
360.709	75.12
360.936	75.12
361.163	70.12
361.39	85.12
361.616	81.12
361.843	79.12
362.07	86.12
362.296	90.12
362.523	81.12
362.749	82.12
362.976	79.12
363.203	86.12
363.429	84.12
363.656	87.12
363.882	83.12
364.109	90.12
364.335	94.12
364.562	71.12
364.788	74.12
365.015	77.12
365.241	86.12
365.468	84.12
365.694	77.12
365.92	74.12
366.147	84.12
366.373	85.12
366.599	79.12
366.826	73.12
367.052	74.12
367.278	88.12
367.505	73.12
367.731	94.12
367.957	89.12
368.184	86.12
368.41	81.12
368.636	87.12
368.862	74.12
369.089	82.12
369.315	79.12
369.541	78.12
369.767	82.12
369.993	81.12
370.219	84.12
370.445	71.12
370.672	66.12
370.898	79.12
371.124	82.12
371.35	89.12
371.576	81.12
371.802	74.12
372.028	69.12
372.254	81.12
372.48	74.12
372.706	87.12
372.932	79.12
373.158	89.12
373.384	84.12
373.61	86.12
373.835	81.12
374.061	89.12
374.287	75.12
374.513	75.12
374.739	76.12
374.965	78.12
375.191	68.12
375.416	78.12
375.642	84.12
375.868	91.12
376.094	69.12
376.319	74.12
376.545	67.12
376.771	73.12
376.997	83.12
377.222	84.12
377.448	73.12
377.674	76.12
377.899	91.12
378.125	69.12
378.35	80.12
378.576	63.12
378.802	86.12
379.027	98.12
379.253	90.12
379.478	87.12
379.704	72.12
379.929	93.12
380.155	85.12
380.38	88.12
380.606	82.12
380.831	71.12
381.057	63.12
381.282	79.12
381.507	83.12
381.733	81.12
381.958	67.12
382.184	85.12
382.409	84.12
382.634	72.12
382.86	85.12
383.085	97.12
383.31	79.12
383.535	87.12
383.761	80.12
383.986	76.12
384.211	81.12
384.436	88.12
384.662	89.12
384.887	76.12
385.112	76.12
385.337	78.12
385.562	79.12
385.787	82.12
386.013	97.12
386.238	81.12
386.463	51.12
386.688	93.12
386.913	85.12
387.138	73.12
387.363	94.12
387.588	91.12
387.813	74.12
388.038	86.12
388.263	76.12
388.488	80.12
388.713	75.12
388.938	81.12
389.163	76.12
389.387	89.12
389.612	76.12
389.837	73.12
390.062	87.12
390.287	73.12
390.512	72.12
390.736	75.12
390.961	81.12
391.186	63.12
391.411	92.12
391.636	87.12
391.86	70.12
392.085	82.12
392.31	83.12
392.534	78.12
392.759	77.12
392.984	77.12
393.208	83.12
393.433	81.12
393.658	82.12
393.882	68.12
394.107	84.12
394.331	76.12
394.556	84.12
394.78	71.12
395.005	85.12
395.229	83.12
395.454	87.12
395.678	88.12
395.903	66.12
396.127	70.12
396.352	78.12
396.576	86.12
396.801	77.12
397.025	77.12
397.249	76.12
397.474	67.12
397.698	72.12
397.922	87.12
398.147	78.12
398.371	75.12
398.595	86.12
398.82	63.12
399.044	77.12
399.268	77.12
399.492	78.12
399.717	74.12
399.941	76.12
400.165	87.12
400.389	81.12
400.613	82.12
400.837	86.12
401.062	83.12
401.286	78.12
401.51	72.12
401.734	61.12
401.958	72.12
402.182	73.12
402.406	93.12
402.63	79.12
402.854	75.12
403.078	85.12
403.302	84.12
403.526	82.12
403.75	87.12
403.974	86.12
404.198	113.12
404.422	169.12
404.645	196.12
404.869	156.12
405.093	112.12
405.317	84.12
405.541	89.12
405.765	70.12
405.988	73.12
406.212	86.12
406.436	75.12
406.66	72.12
406.883	84.12
407.107	82.12
407.331	75.12
407.555	69.12
407.778	82.12
408.002	74.12
408.226	79.12
408.449	85.12
408.673	87.12
408.896	80.12
409.12	65.12
409.344	70.12
409.567	69.12
409.791	83.12
410.014	81.12
410.238	65.12
410.461	83.12
410.685	82.12
410.908	78.12
411.132	73.12
411.355	71.12
411.578	88.12
411.802	77.12
412.025	80.12
412.249	81.12
412.472	81.12
412.695	83.12
412.919	88.12
413.142	75.12
413.365	73.12
413.589	69.12
413.812	84.12
414.035	78.12
414.258	78.12
414.482	77.12
414.705	81.12
414.928	82.12
415.151	94.12
415.374	74.12
415.597	72.12
415.821	80.12
416.044	72.12
416.267	87.12
416.49	85.12
416.713	81.12
416.936	81.12
417.159	69.12
417.382	77.12
417.605	82.12
417.828	81.12
418.051	78.12
418.274	77.12
418.497	79.12
418.72	77.12
418.943	86.12
419.166	81.12
419.389	75.12
419.611	76.12
419.834	78.12
420.057	69.12
420.28	82.12
420.503	85.12
420.726	87.12
420.948	73.12
421.171	67.12
421.394	84.12
421.617	73.12
421.839	81.12
422.062	71.12
422.285	98.12
422.507	76.12
422.73	89.12
422.953	88.12
423.175	82.12
423.398	103.12
423.621	91.12
423.843	83.12
424.066	80.12
424.288	85.12
424.511	63.12
424.733	88.12
424.956	73.12
425.178	90.12
425.401	86.12
425.623	81.12
425.846	81.12
426.068	76.12
426.291	81.12
426.513	72.12
426.735	68.12
426.958	80.12
427.18	82.12
427.402	87.12
427.625	78.12
427.847	72.12
428.069	85.12
428.292	71.12
428.514	67.12
428.736	70.12
428.958	93.12
429.181	67.12
429.403	77.12
429.625	77.12
429.847	75.12
430.069	76.12
430.292	75.12
430.514	86.12
430.736	81.12
430.958	83.12
431.18	73.12
431.402	73.12
431.624	85.12
431.846	63.12
432.068	71.12
432.29	76.12
432.512	77.12
432.734	74.12
432.956	94.12
433.178	80.12
433.4	77.12
433.622	78.12
433.844	87.12
434.066	82.12
434.287	71.12
434.509	76.12
434.731	77.12
434.953	84.12
435.175	102.12
435.397	71.12
435.618	75.12
435.84	83.12
436.062	53.12
436.284	76.12
436.505	89.12
436.727	77.12
436.949	85.12
437.17	76.12
437.392	69.12
437.614	85.12
437.835	62.12
438.057	85.12
438.278	77.12
438.5	80.12
438.721	77.12
438.943	82.12
439.165	76.12
439.386	97.12
439.608	77.12
439.829	87.12
440.05	74.12
440.272	90.12
440.493	75.12
440.715	74.12
440.936	79.12
441.158	78.12
441.379	84.12
441.6	75.12
441.822	91.12
442.043	83.12
442.264	79.12
442.486	84.12
442.707	84.12
442.928	79.12
443.149	82.12
443.371	77.12
443.592	78.12
443.813	89.12
444.034	76.12
444.255	82.12
444.476	83.12
444.698	76.12
444.919	72.12
445.14	158.12
445.361	121.12
445.582	85.12
445.803	89.12
446.024	77.12
446.245	93.12
446.466	85.12
446.687	74.12
446.908	79.12
447.129	76.12
447.35	73.12
447.571	85.12
447.792	67.12
448.013	67.12
448.234	106.12
448.455	74.12
448.675	80.12
448.896	90.12
449.117	74.12
449.338	78.12
449.559	93.12
449.779	91.12
450	92.12
450.221	83.12
450.442	88.12
450.662	66.12
450.883	82.12
451.104	101.12
451.324	92.12
451.545	78.12
451.766	81.12
451.986	78.12
452.207	73.12
452.428	94.12
452.648	90.12
452.869	75.12
453.089	75.12
453.31	79.12
453.53	75.12
453.751	78.12
453.971	84.12
454.192	87.12
454.412	68.12
454.633	71.12
454.853	73.12
455.073	85.12
455.294	88.12
455.514	89.12
455.734	75.12
455.955	82.12
456.175	81.12
456.395	89.12
456.616	76.12
456.836	76.12
457.056	90.12
457.276	69.12
457.497	82.12
457.717	76.12
457.937	70.12
458.157	93.12
458.377	80.12
458.598	79.12
458.818	79.12
459.038	77.12
459.258	83.12
459.478	74.12
459.698	71.12
459.918	77.12
460.138	92.12
460.358	75.12
460.578	77.12
460.798	83.12
461.018	88.12
461.238	82.12
461.458	75.12
461.678	84.12
461.898	87.12
462.118	83.12
462.338	72.12
462.558	73.12
462.777	101.12
462.997	78.12
463.217	87.12
463.437	82.12
463.657	72.12
463.876	82.12
464.096	75.12
464.316	71.12
464.536	78.12
464.755	90.12
464.975	87.12
465.195	86.12
465.414	104.12
465.634	69.12
465.854	77.12
466.073	78.12
466.293	74.12
466.512	81.12
466.732	92.12
466.951	83.12
467.171	72.12
467.391	83.12
467.61	84.12
467.829	83.12
468.049	76.12
468.268	63.12
468.488	88.12
468.707	87.12
468.927	98.12
469.146	85.12
469.365	88.12
469.585	81.12
469.804	92.12
470.023	84.12
470.243	82.12
470.462	91.12
470.681	93.12
470.901	79.12
471.12	94.12
471.339	83.12
471.558	77.12
471.777	68.12
471.997	80.12
472.216	82.12
472.435	86.12
472.654	86.12
472.873	74.12
473.092	89.12
473.311	79.12
473.53	86.12
473.749	76.12
473.968	79.12
474.187	90.12
474.406	79.12
474.625	93.12
474.844	92.12
475.063	79.12
475.282	90.12
475.501	71.12
475.72	90.12
475.939	95.12
476.158	76.12
476.377	81.12
476.596	70.12
476.814	83.12
477.033	81.12
477.252	81.12
477.471	84.12
477.69	78.12
477.908	85.12
478.127	83.12
478.346	71.12
478.564	81.12
478.783	88.12
479.002	81.12
479.22	87.12
479.439	80.12
479.658	72.12
479.876	71.12
480.095	71.12
480.313	84.12
480.532	76.12
480.751	81.12
480.969	93.12
481.188	74.12
481.406	90.12
481.624	81.12
481.843	77.12
482.061	66.12
482.28	76.12
482.498	95.12
482.717	69.12
482.935	90.12
483.153	90.12
483.372	77.12
483.59	78.12
483.808	82.12
484.027	86.12
484.245	99.12
484.463	91.12
484.681	98.12
484.9	68.12
485.118	96.12
485.336	78.12
485.554	85.12
485.772	85.12
485.99	99.12
486.209	90.12
486.427	83.12
486.645	86.12
486.863	77.12
487.081	78.12
487.299	85.12
487.517	73.12
487.735	90.12
487.953	74.12
488.171	89.12
488.389	78.12
488.607	88.12
488.825	87.12
489.043	107.12
489.261	95.12
489.479	72.12
489.696	89.12
489.914	71.12
490.132	88.12
490.35	88.12
490.568	103.12
490.786	103.12
491.003	99.12
491.221	83.12
491.439	82.12
491.657	85.12
491.874	83.12
492.092	77.12
492.31	86.12
492.527	77.12
492.745	86.12
492.963	94.12
493.18	90.12
493.398	73.12
493.615	92.12
493.833	71.12
494.05	100.12
494.268	89.12
494.485	105.12
494.703	102.12
494.92	81.12
495.138	75.12
495.355	85.12
495.573	85.12
495.79	99.12
496.008	97.12
496.225	99.12
496.442	98.12
496.66	74.12
496.877	80.12
497.094	80.12
497.312	90.12
497.529	84.12
497.746	90.12
497.963	83.12
498.181	90.12
498.398	91.12
498.615	89.12
498.832	72.12
499.049	82.12
499.267	82.12
499.484	78.12
499.701	72.12
499.918	93.12
500.135	83.12
500.352	86.12
500.569	73.12
500.786	90.12
501.003	88.12
501.22	73.12
501.437	83.12
501.654	81.12
501.871	85.12
502.088	86.12
502.305	78.12
502.522	69.12
502.739	81.12
502.956	90.12
503.172	93.12
503.389	78.12
503.606	74.12
503.823	85.12
504.04	93.12
504.256	79.12
504.473	82.12
504.69	94.12
504.907	91.12
505.123	90.12
505.34	81.12
505.557	66.12
505.773	98.12
505.99	84.12
506.207	89.12
506.423	102.12
506.64	73.12
506.856	81.12
507.073	80.12
507.289	92.12
507.506	83.12
507.722	75.12
507.939	76.12
508.155	87.12
508.372	85.12
508.588	74.12
508.805	87.12
509.021	71.12
509.238	99.12
509.454	82.12
509.67	78.12
509.887	76.12
510.103	74.12
510.319	86.12
510.536	91.12
510.752	73.12
510.968	84.12
511.184	86.12
511.401	102.12
511.617	103.12
511.833	84.12
512.049	99.12
512.265	88.12
512.481	93.12
512.698	79.12
512.914	73.12
513.13	80.12
513.346	78.12
513.562	73.12
513.778	85.12
513.994	79.12
514.21	74.12
514.426	81.12
514.642	85.12
514.858	84.12
515.074	75.12
515.29	79.12
515.506	69.12
515.721	77.12
515.937	72.12
516.153	65.12
516.369	75.12
516.585	83.12
516.801	88.12
517.016	84.12
517.232	70.12
517.448	85.12
517.664	91.12
517.879	82.12
518.095	92.12
518.311	89.12
518.527	95.12
518.742	69.12
518.958	73.12
519.173	58.12
519.389	69.12
519.605	75.12
519.82	76.12
