Data from KBr_2_HRD10591_00014.txt Node
Date: Mon Jan 19 13:12:57 EST 2026
User: Yrep
Spectrometer: HR+D1059
Trigger mode: 1
Integration Time (sec): 1.000000E-1
Scans to average: 1
Electric dark correction enabled: true
Nonlinearity correction enabled: false
Boxcar width: 0
XAxis mode: Wavelengths
Number of Pixels in Spectrum: 2048
>>>>>Begin Spectral Data<<<<<
223.165	-16.88
223.4	-16.88
223.635	-16.88
223.869	-18.88
224.104	-16.88
224.338	-20.88
224.573	-17.88
224.808	-15.88
225.042	-12.88
225.277	5.12
225.511	-4.88
225.746	2.12
225.98	8.12
226.215	11.12
226.449	27.12
226.683	25.12
226.918	28.12
227.152	18.12
227.387	46.12
227.621	36.12
227.856	49.12
228.09	52.12
228.324	47.12
228.559	67.12
228.793	63.12
229.027	67.12
229.262	72.12
229.496	76.12
229.73	85.12
229.964	61.12
230.199	60.12
230.433	86.12
230.667	74.12
230.901	78.12
231.136	75.12
231.37	85.12
231.604	90.12
231.838	70.12
232.072	87.12
232.306	65.12
232.541	89.12
232.775	86.12
233.009	80.12
233.243	78.12
233.477	76.12
233.711	83.12
233.945	87.12
234.179	94.12
234.413	96.12
234.647	81.12
234.881	80.12
235.115	87.12
235.349	77.12
235.583	90.12
235.817	74.12
236.051	91.12
236.285	80.12
236.519	74.12
236.753	73.12
236.987	78.12
237.221	67.12
237.455	84.12
237.689	68.12
237.922	86.12
238.156	86.12
238.39	62.12
238.624	64.12
238.858	83.12
239.091	78.12
239.325	99.12
239.559	74.12
239.793	67.12
240.027	72.12
240.26	58.12
240.494	82.12
240.728	83.12
240.961	78.12
241.195	71.12
241.429	73.12
241.662	75.12
241.896	84.12
242.13	80.12
242.363	67.12
242.597	83.12
242.83	71.12
243.064	61.12
243.298	81.12
243.531	72.12
243.765	82.12
243.998	65.12
244.232	93.12
244.465	80.12
244.699	82.12
244.932	76.12
245.166	65.12
245.399	84.12
245.633	86.12
245.866	78.12
246.099	75.12
246.333	73.12
246.566	62.12
246.8	72.12
247.033	77.12
247.266	70.12
247.5	88.12
247.733	85.12
247.966	86.12
248.2	51.12
248.433	96.12
248.666	81.12
248.899	81.12
249.133	91.12
249.366	96.12
249.599	71.12
249.832	80.12
250.066	77.12
250.299	74.12
250.532	79.12
250.765	63.12
250.998	78.12
251.231	82.12
251.465	84.12
251.698	91.12
251.931	90.12
252.164	89.12
252.397	78.12
252.63	76.12
252.863	71.12
253.096	86.12
253.329	74.12
253.562	82.12
253.795	66.12
254.028	89.12
254.261	81.12
254.494	82.12
254.727	91.12
254.96	80.12
255.193	90.12
255.426	91.12
255.659	85.12
255.892	78.12
256.124	68.12
256.357	84.12
256.59	89.12
256.823	80.12
257.056	86.12
257.289	78.12
257.521	94.12
257.754	81.12
257.987	73.12
258.22	74.12
258.452	75.12
258.685	69.12
258.918	81.12
259.151	75.12
259.383	81.12
259.616	75.12
259.849	85.12
260.081	94.12
260.314	97.12
260.547	80.12
260.779	84.12
261.012	89.12
261.244	80.12
261.477	84.12
261.71	69.12
261.942	69.12
262.175	78.12
262.407	87.12
262.64	89.12
262.872	68.12
263.105	91.12
263.337	83.12
263.57	71.12
263.802	76.12
264.035	88.12
264.267	92.12
264.499	88.12
264.732	81.12
264.964	70.12
265.197	86.12
265.429	89.12
265.661	79.12
265.894	80.12
266.126	91.12
266.358	83.12
266.591	73.12
266.823	83.12
267.055	98.12
267.287	89.12
267.52	85.12
267.752	86.12
267.984	99.12
268.216	66.12
268.448	82.12
268.681	81.12
268.913	79.12
269.145	86.12
269.377	78.12
269.609	102.12
269.841	82.12
270.073	94.12
270.306	96.12
270.538	89.12
270.77	67.12
271.002	74.12
271.234	86.12
271.466	88.12
271.698	77.12
271.93	74.12
272.162	95.12
272.394	89.12
272.626	79.12
272.858	86.12
273.09	82.12
273.322	84.12
273.553	79.12
273.785	82.12
274.017	76.12
274.249	99.12
274.481	95.12
274.713	86.12
274.945	92.12
275.176	85.12
275.408	80.12
275.64	82.12
275.872	78.12
276.104	99.12
276.335	74.12
276.567	90.12
276.799	87.12
277.031	84.12
277.262	80.12
277.494	91.12
277.726	82.12
277.957	77.12
278.189	74.12
278.421	90.12
278.652	97.12
278.884	94.12
279.115	84.12
279.347	76.12
279.579	86.12
279.81	92.12
280.042	88.12
280.273	94.12
280.505	98.12
280.736	82.12
280.968	90.12
281.199	87.12
281.431	75.12
281.662	82.12
281.894	98.12
282.125	68.12
282.356	85.12
282.588	83.12
282.819	82.12
283.051	78.12
283.282	79.12
283.513	88.12
283.745	92.12
283.976	82.12
284.207	91.12
284.439	90.12
284.67	100.12
284.901	95.12
285.132	84.12
285.364	73.12
285.595	92.12
285.826	70.12
286.057	76.12
286.288	84.12
286.52	88.12
286.751	84.12
286.982	74.12
287.213	84.12
287.444	96.12
287.675	93.12
287.906	83.12
288.138	88.12
288.369	85.12
288.6	99.12
288.831	95.12
289.062	91.12
289.293	92.12
289.524	91.12
289.755	68.12
289.986	90.12
290.217	80.12
290.448	92.12
290.679	83.12
290.91	86.12
291.141	88.12
291.371	76.12
291.602	102.12
291.833	81.12
292.064	87.12
292.295	80.12
292.526	82.12
292.757	82.12
292.987	80.12
293.218	88.12
293.449	78.12
293.68	97.12
293.91	82.12
294.141	90.12
294.372	89.12
294.603	80.12
294.833	76.12
295.064	83.12
295.295	67.12
295.525	82.12
295.756	99.12
295.987	86.12
296.217	65.12
296.448	84.12
296.679	74.12
296.909	84.12
297.14	84.12
297.37	89.12
297.601	91.12
297.831	105.12
298.062	92.12
298.292	83.12
298.523	91.12
298.753	82.12
298.984	68.12
299.214	78.12
299.445	76.12
299.675	83.12
299.905	70.12
300.136	98.12
300.366	65.12
300.597	80.12
300.827	85.12
301.057	91.12
301.288	82.12
301.518	95.12
301.748	87.12
301.979	112.12
302.209	83.12
302.439	80.12
302.669	93.12
302.9	87.12
303.13	97.12
303.36	88.12
303.59	79.12
303.82	82.12
304.051	99.12
304.281	87.12
304.511	96.12
304.741	86.12
304.971	73.12
305.201	83.12
305.431	78.12
305.661	96.12
305.891	93.12
306.121	70.12
306.352	74.12
306.582	89.12
306.812	90.12
307.042	90.12
307.272	101.12
307.502	96.12
307.731	82.12
307.961	75.12
308.191	78.12
308.421	103.12
308.651	88.12
308.881	82.12
309.111	86.12
309.341	81.12
309.571	86.12
309.8	90.12
310.03	87.12
310.26	97.12
310.49	81.12
310.72	86.12
310.949	93.12
311.179	84.12
311.409	78.12
311.639	92.12
311.868	99.12
312.098	76.12
312.328	89.12
312.557	89.12
312.787	90.12
313.017	90.12
313.246	97.12
313.476	95.12
313.706	75.12
313.935	75.12
314.165	73.12
314.394	84.12
314.624	88.12
314.853	82.12
315.083	74.12
315.312	86.12
315.542	87.12
315.771	84.12
316.001	94.12
316.23	82.12
316.46	89.12
316.689	85.12
316.919	88.12
317.148	97.12
317.377	93.12
317.607	82.12
317.836	94.12
318.065	93.12
318.295	82.12
318.524	102.12
318.753	75.12
318.983	80.12
319.212	95.12
319.441	95.12
319.67	95.12
319.9	83.12
320.129	85.12
320.358	76.12
320.587	94.12
320.816	90.12
321.046	88.12
321.275	89.12
321.504	88.12
321.733	86.12
321.962	90.12
322.191	81.12
322.42	73.12
322.649	89.12
322.878	95.12
323.108	94.12
323.337	87.12
323.566	87.12
323.795	87.12
324.024	96.12
324.253	94.12
324.482	87.12
324.71	103.12
324.939	82.12
325.168	80.12
325.397	74.12
325.626	80.12
325.855	76.12
326.084	96.12
326.313	95.12
326.542	84.12
326.77	92.12
326.999	82.12
327.228	91.12
327.457	83.12
327.686	101.12
327.914	99.12
328.143	98.12
328.372	92.12
328.6	77.12
328.829	90.12
329.058	95.12
329.287	92.12
329.515	103.12
329.744	79.12
329.972	83.12
330.201	98.12
330.43	94.12
330.658	94.12
330.887	97.12
331.115	91.12
331.344	71.12
331.572	91.12
331.801	88.12
332.03	89.12
332.258	88.12
332.486	92.12
332.715	79.12
332.943	79.12
333.172	88.12
333.4	89.12
333.629	93.12
333.857	76.12
334.085	86.12
334.314	80.12
334.542	80.12
334.771	102.12
334.999	92.12
335.227	95.12
335.455	96.12
335.684	79.12
335.912	94.12
336.14	96.12
336.369	89.12
336.597	74.12
336.825	88.12
337.053	80.12
337.281	88.12
337.51	95.12
337.738	97.12
337.966	79.12
338.194	100.12
338.422	73.12
338.65	84.12
338.878	87.12
339.106	84.12
339.334	84.12
339.562	78.12
339.79	94.12
340.018	74.12
340.246	88.12
340.474	86.12
340.702	91.12
340.93	91.12
341.158	97.12
341.386	84.12
341.614	94.12
341.842	85.12
342.07	83.12
342.298	88.12
342.526	78.12
342.754	73.12
342.981	92.12
343.209	82.12
343.437	97.12
343.665	92.12
343.893	89.12
344.12	82.12
344.348	87.12
344.576	87.12
344.804	89.12
345.031	97.12
345.259	94.12
345.487	86.12
345.714	79.12
345.942	98.12
346.17	90.12
346.397	79.12
346.625	90.12
346.853	87.12
347.08	88.12
347.308	82.12
347.535	87.12
347.763	86.12
347.99	73.12
348.218	89.12
348.445	87.12
348.673	83.12
348.9	84.12
349.128	91.12
349.355	82.12
349.583	86.12
349.81	90.12
350.037	88.12
350.265	83.12
350.492	83.12
350.72	98.12
350.947	72.12
351.174	83.12
351.402	96.12
351.629	93.12
351.856	83.12
352.083	92.12
352.311	93.12
352.538	93.12
352.765	99.12
352.992	86.12
353.22	94.12
353.447	85.12
353.674	86.12
353.901	100.12
354.128	103.12
354.355	85.12
354.583	95.12
354.81	78.12
355.037	86.12
355.264	83.12
355.491	82.12
355.718	95.12
355.945	92.12
356.172	80.12
356.399	92.12
356.626	85.12
356.853	82.12
357.08	84.12
357.307	88.12
357.534	94.12
357.761	86.12
357.988	89.12
358.215	93.12
358.441	86.12
358.668	76.12
358.895	87.12
359.122	74.12
359.349	86.12
359.576	98.12
359.802	91.12
360.029	88.12
360.256	89.12
360.483	95.12
360.709	75.12
360.936	81.12
361.163	85.12
361.39	85.12
361.616	74.12
361.843	88.12
362.07	87.12
362.296	85.12
362.523	77.12
362.749	82.12
362.976	89.12
363.203	94.12
363.429	84.12
363.656	82.12
363.882	74.12
364.109	92.12
364.335	92.12
364.562	79.12
364.788	90.12
365.015	106.12
365.241	75.12
365.468	90.12
365.694	91.12
365.92	98.12
366.147	98.12
366.373	85.12
366.599	90.12
366.826	97.12
367.052	93.12
367.278	80.12
367.505	83.12
367.731	91.12
367.957	78.12
368.184	66.12
368.41	83.12
368.636	98.12
368.862	79.12
369.089	77.12
369.315	83.12
369.541	89.12
369.767	84.12
369.993	100.12
370.219	87.12
370.445	99.12
370.672	76.12
370.898	82.12
371.124	83.12
371.35	69.12
371.576	79.12
371.802	91.12
372.028	93.12
372.254	75.12
372.48	88.12
372.706	81.12
372.932	82.12
373.158	92.12
373.384	72.12
373.61	88.12
373.835	89.12
374.061	96.12
374.287	78.12
374.513	84.12
374.739	84.12
374.965	88.12
375.191	96.12
375.416	88.12
375.642	82.12
375.868	89.12
376.094	82.12
376.319	79.12
376.545	83.12
376.771	80.12
376.997	84.12
377.222	86.12
377.448	87.12
377.674	87.12
377.899	86.12
378.125	75.12
378.35	68.12
378.576	78.12
378.802	98.12
379.027	85.12
379.253	96.12
379.478	86.12
379.704	93.12
379.929	90.12
380.155	84.12
380.38	77.12
380.606	78.12
380.831	80.12
381.057	80.12
381.282	77.12
381.507	78.12
381.733	87.12
381.958	88.12
382.184	84.12
382.409	92.12
382.634	79.12
382.86	75.12
383.085	93.12
383.31	88.12
383.535	84.12
383.761	83.12
383.986	89.12
384.211	81.12
384.436	82.12
384.662	79.12
384.887	98.12
385.112	78.12
385.337	80.12
385.562	72.12
385.787	87.12
386.013	91.12
386.238	83.12
386.463	90.12
386.688	88.12
386.913	80.12
387.138	96.12
387.363	99.12
387.588	98.12
387.813	84.12
388.038	80.12
388.263	85.12
388.488	98.12
388.713	84.12
388.938	82.12
389.163	86.12
389.387	90.12
389.612	80.12
389.837	86.12
390.062	85.12
390.287	80.12
390.512	90.12
390.736	80.12
390.961	94.12
391.186	80.12
391.411	79.12
391.636	90.12
391.86	90.12
392.085	86.12
392.31	80.12
392.534	81.12
392.759	76.12
392.984	80.12
393.208	83.12
393.433	87.12
393.658	82.12
393.882	80.12
394.107	97.12
394.331	82.12
394.556	95.12
394.78	89.12
395.005	94.12
395.229	108.12
395.454	90.12
395.678	76.12
395.903	89.12
396.127	91.12
396.352	87.12
396.576	90.12
396.801	85.12
397.025	90.12
397.249	95.12
397.474	95.12
397.698	87.12
397.922	84.12
398.147	85.12
398.371	83.12
398.595	91.12
398.82	99.12
399.044	81.12
399.268	88.12
399.492	78.12
399.717	85.12
399.941	90.12
400.165	100.12
400.389	93.12
400.613	71.12
400.837	83.12
401.062	91.12
401.286	86.12
401.51	78.12
401.734	86.12
401.958	79.12
402.182	87.12
402.406	88.12
402.63	91.12
402.854	87.12
403.078	75.12
403.302	95.12
403.526	94.12
403.75	93.12
403.974	120.12
404.198	147.12
404.422	224.12
404.645	274.12
404.869	223.12
405.093	144.12
405.317	106.12
405.541	78.12
405.765	76.12
405.988	88.12
406.212	88.12
406.436	80.12
406.66	85.12
406.883	84.12
407.107	87.12
407.331	98.12
407.555	90.12
407.778	80.12
408.002	89.12
408.226	95.12
408.449	93.12
408.673	80.12
408.896	88.12
409.12	70.12
409.344	80.12
409.567	95.12
409.791	95.12
410.014	98.12
410.238	80.12
410.461	76.12
410.685	89.12
410.908	78.12
411.132	90.12
411.355	86.12
411.578	75.12
411.802	98.12
412.025	97.12
412.249	88.12
412.472	102.12
412.695	90.12
412.919	82.12
413.142	86.12
413.365	91.12
413.589	92.12
413.812	90.12
414.035	95.12
414.258	90.12
414.482	100.12
414.705	93.12
414.928	93.12
415.151	84.12
415.374	90.12
415.597	100.12
415.821	88.12
416.044	76.12
416.267	72.12
416.49	80.12
416.713	93.12
416.936	90.12
417.159	80.12
417.382	109.12
417.605	91.12
417.828	104.12
418.051	82.12
418.274	82.12
418.497	87.12
418.72	92.12
418.943	92.12
419.166	99.12
419.389	94.12
419.611	82.12
419.834	83.12
420.057	87.12
420.28	90.12
420.503	82.12
420.726	89.12
420.948	98.12
421.171	86.12
421.394	82.12
421.617	81.12
421.839	80.12
422.062	83.12
422.285	77.12
422.507	105.12
422.73	97.12
422.953	86.12
423.175	75.12
423.398	107.12
423.621	91.12
423.843	86.12
424.066	86.12
424.288	101.12
424.511	77.12
424.733	82.12
424.956	90.12
425.178	83.12
425.401	83.12
425.623	94.12
425.846	96.12
426.068	75.12
426.291	82.12
426.513	98.12
426.735	88.12
426.958	90.12
427.18	86.12
427.402	80.12
427.625	88.12
427.847	85.12
428.069	90.12
428.292	90.12
428.514	86.12
428.736	98.12
428.958	95.12
429.181	95.12
429.403	87.12
429.625	94.12
429.847	88.12
430.069	89.12
430.292	90.12
430.514	83.12
430.736	96.12
430.958	85.12
431.18	86.12
431.402	90.12
431.624	86.12
431.846	105.12
432.068	79.12
432.29	91.12
432.512	83.12
432.734	90.12
432.956	79.12
433.178	90.12
433.4	85.12
433.622	104.12
433.844	66.12
434.066	84.12
434.287	86.12
434.509	94.12
434.731	98.12
434.953	71.12
435.175	87.12
435.397	95.12
435.618	97.12
435.84	85.12
436.062	89.12
436.284	82.12
436.505	92.12
436.727	94.12
436.949	81.12
437.17	89.12
437.392	91.12
437.614	85.12
437.835	62.12
438.057	92.12
438.278	82.12
438.5	80.12
438.721	81.12
438.943	96.12
439.165	96.12
439.386	86.12
439.608	82.12
439.829	91.12
440.05	95.12
440.272	94.12
440.493	82.12
440.715	89.12
440.936	94.12
441.158	95.12
441.379	95.12
441.6	91.12
441.822	78.12
442.043	80.12
442.264	102.12
442.486	96.12
442.707	90.12
442.928	85.12
443.149	82.12
443.371	86.12
443.592	91.12
443.813	84.12
444.034	97.12
444.255	108.12
444.476	96.12
444.698	85.12
444.919	106.12
445.14	170.12
445.361	117.12
445.582	97.12
445.803	68.12
446.024	90.12
446.245	85.12
446.466	91.12
446.687	81.12
446.908	99.12
447.129	102.12
447.35	99.12
447.571	105.12
447.792	78.12
448.013	90.12
448.234	82.12
448.455	87.12
448.675	78.12
448.896	86.12
449.117	82.12
449.338	78.12
449.559	87.12
449.779	88.12
450	88.12
450.221	79.12
450.442	92.12
450.662	100.12
450.883	81.12
451.104	86.12
451.324	95.12
451.545	77.12
451.766	96.12
451.986	97.12
452.207	80.12
452.428	64.12
452.648	89.12
452.869	97.12
453.089	81.12
453.31	93.12
453.53	82.12
453.751	78.12
453.971	95.12
454.192	100.12
454.412	91.12
454.633	90.12
454.853	76.12
455.073	93.12
455.294	86.12
455.514	90.12
455.734	77.12
455.955	85.12
456.175	91.12
456.395	99.12
456.616	90.12
456.836	89.12
457.056	100.12
457.276	77.12
457.497	78.12
457.717	83.12
457.937	83.12
458.157	83.12
458.377	95.12
458.598	100.12
458.818	97.12
459.038	82.12
459.258	86.12
459.478	90.12
459.698	84.12
459.918	98.12
460.138	84.12
460.358	79.12
460.578	103.12
460.798	82.12
461.018	84.12
461.238	85.12
461.458	77.12
461.678	76.12
461.898	90.12
462.118	81.12
462.338	86.12
462.558	83.12
462.777	94.12
462.997	68.12
463.217	80.12
463.437	92.12
463.657	92.12
463.876	88.12
464.096	93.12
464.316	72.12
464.536	98.12
464.755	91.12
464.975	90.12
465.195	103.12
465.414	94.12
465.634	82.12
465.854	97.12
466.073	79.12
466.293	97.12
466.512	81.12
466.732	83.12
466.951	89.12
467.171	88.12
467.391	91.12
467.61	78.12
467.829	102.12
468.049	83.12
468.268	98.12
468.488	99.12
468.707	102.12
468.927	93.12
469.146	93.12
469.365	92.12
469.585	80.12
469.804	81.12
470.023	97.12
470.243	96.12
470.462	86.12
470.681	83.12
470.901	76.12
471.12	86.12
471.339	104.12
471.558	86.12
471.777	82.12
471.997	82.12
472.216	102.12
472.435	99.12
472.654	91.12
472.873	94.12
473.092	95.12
473.311	117.12
473.53	82.12
473.749	96.12
473.968	83.12
474.187	96.12
474.406	94.12
474.625	87.12
474.844	86.12
475.063	82.12
475.282	97.12
475.501	86.12
475.72	95.12
475.939	88.12
476.158	96.12
476.377	88.12
476.596	80.12
476.814	85.12
477.033	102.12
477.252	105.12
477.471	83.12
477.69	89.12
477.908	84.12
478.127	102.12
478.346	85.12
478.564	87.12
478.783	82.12
479.002	90.12
479.22	90.12
479.439	86.12
479.658	90.12
479.876	88.12
480.095	89.12
480.313	94.12
480.532	82.12
480.751	75.12
480.969	91.12
481.188	100.12
481.406	77.12
481.624	96.12
481.843	74.12
482.061	73.12
482.28	90.12
482.498	89.12
482.717	89.12
482.935	86.12
483.153	92.12
483.372	87.12
483.59	82.12
483.808	93.12
484.027	99.12
484.245	94.12
484.463	99.12
484.681	124.12
484.9	90.12
485.118	77.12
485.336	97.12
485.554	86.12
485.772	88.12
485.99	83.12
486.209	104.12
486.427	82.12
486.645	83.12
486.863	83.12
487.081	89.12
487.299	89.12
487.517	86.12
487.735	93.12
487.953	81.12
488.171	104.12
488.389	88.12
488.607	91.12
488.825	86.12
489.043	75.12
489.261	90.12
489.479	103.12
489.696	87.12
489.914	84.12
490.132	106.12
490.35	91.12
490.568	90.12
490.786	97.12
491.003	94.12
491.221	89.12
491.439	98.12
491.657	96.12
491.874	97.12
492.092	102.12
492.31	95.12
492.527	99.12
492.745	89.12
492.963	89.12
493.18	97.12
493.398	99.12
493.615	91.12
493.833	99.12
494.05	92.12
494.268	102.12
494.485	92.12
494.703	102.12
494.92	92.12
495.138	104.12
495.355	108.12
495.573	78.12
495.79	91.12
496.008	104.12
496.225	108.12
496.442	97.12
496.66	112.12
496.877	98.12
497.094	95.12
497.312	93.12
497.529	99.12
497.746	94.12
497.963	92.12
498.181	101.12
498.398	87.12
498.615	89.12
498.832	102.12
499.049	85.12
499.267	91.12
499.484	86.12
499.701	83.12
499.918	100.12
500.135	81.12
500.352	110.12
500.569	85.12
500.786	91.12
501.003	94.12
501.22	79.12
501.437	89.12
501.654	85.12
501.871	87.12
502.088	99.12
502.305	91.12
502.522	104.12
502.739	89.12
502.956	81.12
503.172	83.12
503.389	86.12
503.606	78.12
503.823	85.12
504.04	93.12
504.256	105.12
504.473	95.12
504.69	85.12
504.907	84.12
505.123	100.12
505.34	101.12
505.557	94.12
505.773	89.12
505.99	93.12
506.207	83.12
506.423	92.12
506.64	94.12
506.856	75.12
507.073	92.12
507.289	90.12
507.506	84.12
507.722	84.12
507.939	89.12
508.155	93.12
508.372	97.12
508.588	95.12
508.805	85.12
509.021	91.12
509.238	88.12
509.454	86.12
509.67	84.12
509.887	109.12
510.103	99.12
510.319	104.12
510.536	91.12
510.752	92.12
510.968	87.12
511.184	92.12
511.401	106.12
511.617	90.12
511.833	93.12
512.049	102.12
512.265	89.12
512.481	90.12
512.698	89.12
512.914	83.12
513.13	88.12
513.346	104.12
513.562	88.12
513.778	89.12
513.994	89.12
514.21	99.12
514.426	85.12
514.642	71.12
514.858	93.12
515.074	98.12
515.29	86.12
515.506	88.12
515.721	95.12
515.937	99.12
516.153	96.12
516.369	84.12
516.585	90.12
516.801	84.12
517.016	100.12
517.232	92.12
517.448	91.12
517.664	83.12
517.879	100.12
518.095	79.12
518.311	92.12
518.527	91.12
518.742	90.12
518.958	82.12
519.173	94.12
