Data from KBr_2_HRD10591_00043.txt Node
Date: Mon Jan 19 13:13:12 EST 2026
User: Yrep
Spectrometer: HR+D1059
Trigger mode: 1
Integration Time (sec): 1.000000E-1
Scans to average: 1
Electric dark correction enabled: true
Nonlinearity correction enabled: false
Boxcar width: 0
XAxis mode: Wavelengths
Number of Pixels in Spectrum: 2048
>>>>>Begin Spectral Data<<<<<
223.165	-12.75
223.4	-12.75
223.635	-12.75
223.869	-24.75
224.104	-34.75
224.338	-20.75
224.573	-3.75
224.808	-20.75
225.042	-14.75
225.277	-8.75
225.511	-5.75
225.746	7.25
225.98	12.25
226.215	10.25
226.449	24.25
226.683	38.25
226.918	20.25
227.152	34.25
227.387	39.25
227.621	50.25
227.856	55.25
228.09	53.25
228.324	58.25
228.559	57.25
228.793	60.25
229.027	53.25
229.262	67.25
229.496	61.25
229.73	79.25
229.964	76.25
230.199	78.25
230.433	79.25
230.667	80.25
230.901	91.25
231.136	79.25
231.37	70.25
231.604	67.25
231.838	94.25
232.072	86.25
232.306	87.25
232.541	80.25
232.775	86.25
233.009	80.25
233.243	85.25
233.477	93.25
233.711	76.25
233.945	80.25
234.179	78.25
234.413	101.25
234.647	89.25
234.881	83.25
235.115	82.25
235.349	86.25
235.583	94.25
235.817	72.25
236.051	77.25
236.285	71.25
236.519	75.25
236.753	73.25
236.987	77.25
237.221	80.25
237.455	76.25
237.689	79.25
237.922	83.25
238.156	71.25
238.39	76.25
238.624	70.25
238.858	77.25
239.091	62.25
239.325	71.25
239.559	87.25
239.793	90.25
240.027	65.25
240.26	78.25
240.494	74.25
240.728	58.25
240.961	80.25
241.195	90.25
241.429	70.25
241.662	68.25
241.896	81.25
242.13	80.25
242.363	74.25
242.597	71.25
242.83	72.25
243.064	70.25
243.298	79.25
243.531	75.25
243.765	68.25
243.998	73.25
244.232	70.25
244.465	90.25
244.699	73.25
244.932	97.25
245.166	79.25
245.399	71.25
245.633	82.25
245.866	64.25
246.099	80.25
246.333	90.25
246.566	79.25
246.8	79.25
247.033	65.25
247.266	77.25
247.5	80.25
247.733	77.25
247.966	89.25
248.2	83.25
248.433	80.25
248.666	80.25
248.899	89.25
249.133	75.25
249.366	95.25
249.599	85.25
249.832	71.25
250.066	79.25
250.299	79.25
250.532	96.25
250.765	73.25
250.998	82.25
251.231	87.25
251.465	90.25
251.698	78.25
251.931	83.25
252.164	70.25
252.397	69.25
252.63	75.25
252.863	77.25
253.096	76.25
253.329	73.25
253.562	87.25
253.795	73.25
254.028	91.25
254.261	86.25
254.494	81.25
254.727	73.25
254.96	87.25
255.193	94.25
255.426	76.25
255.659	74.25
255.892	86.25
256.124	73.25
256.357	89.25
256.59	82.25
256.823	81.25
257.056	85.25
257.289	92.25
257.521	92.25
257.754	79.25
257.987	76.25
258.22	91.25
258.452	79.25
258.685	86.25
258.918	77.25
259.151	81.25
259.383	61.25
259.616	79.25
259.849	79.25
260.081	78.25
260.314	79.25
260.547	76.25
260.779	82.25
261.012	72.25
261.244	78.25
261.477	83.25
261.71	90.25
261.942	70.25
262.175	74.25
262.407	64.25
262.64	71.25
262.872	71.25
263.105	66.25
263.337	93.25
263.57	88.25
263.802	84.25
264.035	72.25
264.267	84.25
264.499	72.25
264.732	94.25
264.964	86.25
265.197	81.25
265.429	72.25
265.661	80.25
265.894	96.25
266.126	91.25
266.358	90.25
266.591	87.25
266.823	72.25
267.055	81.25
267.287	79.25
267.52	80.25
267.752	97.25
267.984	92.25
268.216	91.25
268.448	81.25
268.681	82.25
268.913	96.25
269.145	90.25
269.377	87.25
269.609	82.25
269.841	69.25
270.073	77.25
270.306	84.25
270.538	74.25
270.77	93.25
271.002	86.25
271.234	77.25
271.466	74.25
271.698	69.25
271.93	89.25
272.162	81.25
272.394	79.25
272.626	86.25
272.858	80.25
273.09	82.25
273.322	77.25
273.553	88.25
273.785	95.25
274.017	77.25
274.249	65.25
274.481	81.25
274.713	82.25
274.945	83.25
275.176	67.25
275.408	75.25
275.64	87.25
275.872	95.25
276.104	101.25
276.335	94.25
276.567	84.25
276.799	78.25
277.031	78.25
277.262	80.25
277.494	102.25
277.726	86.25
277.957	65.25
278.189	77.25
278.421	86.25
278.652	88.25
278.884	83.25
279.115	89.25
279.347	78.25
279.579	89.25
279.81	81.25
280.042	84.25
280.273	92.25
280.505	80.25
280.736	91.25
280.968	101.25
281.199	87.25
281.431	88.25
281.662	82.25
281.894	91.25
282.125	83.25
282.356	76.25
282.588	105.25
282.819	87.25
283.051	86.25
283.282	80.25
283.513	83.25
283.745	90.25
283.976	86.25
284.207	90.25
284.439	97.25
284.67	88.25
284.901	86.25
285.132	91.25
285.364	83.25
285.595	87.25
285.826	91.25
286.057	90.25
286.288	89.25
286.52	82.25
286.751	84.25
286.982	88.25
287.213	82.25
287.444	82.25
287.675	73.25
287.906	82.25
288.138	90.25
288.369	91.25
288.6	88.25
288.831	81.25
289.062	77.25
289.293	83.25
289.524	87.25
289.755	93.25
289.986	76.25
290.217	86.25
290.448	91.25
290.679	69.25
290.91	82.25
291.141	87.25
291.371	85.25
291.602	101.25
291.833	75.25
292.064	86.25
292.295	86.25
292.526	87.25
292.757	87.25
292.987	87.25
293.218	79.25
293.449	88.25
293.68	67.25
293.91	85.25
294.141	89.25
294.372	91.25
294.603	96.25
294.833	88.25
295.064	97.25
295.295	87.25
295.525	78.25
295.756	92.25
295.987	80.25
296.217	75.25
296.448	86.25
296.679	85.25
296.909	88.25
297.14	88.25
297.37	99.25
297.601	78.25
297.831	75.25
298.062	78.25
298.292	91.25
298.523	73.25
298.753	86.25
298.984	90.25
299.214	85.25
299.445	78.25
299.675	95.25
299.905	84.25
300.136	66.25
300.366	81.25
300.597	96.25
300.827	90.25
301.057	83.25
301.288	85.25
301.518	94.25
301.748	100.25
301.979	90.25
302.209	93.25
302.439	83.25
302.669	94.25
302.9	86.25
303.13	92.25
303.36	93.25
303.59	92.25
303.82	85.25
304.051	89.25
304.281	78.25
304.511	99.25
304.741	77.25
304.971	87.25
305.201	73.25
305.431	77.25
305.661	91.25
305.891	91.25
306.121	102.25
306.352	79.25
306.582	77.25
306.812	91.25
307.042	85.25
307.272	89.25
307.502	83.25
307.731	87.25
307.961	87.25
308.191	83.25
308.421	83.25
308.651	77.25
308.881	92.25
309.111	91.25
309.341	103.25
309.571	95.25
309.8	78.25
310.03	76.25
310.26	70.25
310.49	109.25
310.72	94.25
310.949	78.25
311.179	79.25
311.409	86.25
311.639	86.25
311.868	93.25
312.098	101.25
312.328	89.25
312.557	78.25
312.787	84.25
313.017	88.25
313.246	88.25
313.476	82.25
313.706	93.25
313.935	93.25
314.165	95.25
314.394	84.25
314.624	85.25
314.853	88.25
315.083	88.25
315.312	91.25
315.542	91.25
315.771	97.25
316.001	91.25
316.23	98.25
316.46	82.25
316.689	90.25
316.919	95.25
317.148	96.25
317.377	80.25
317.607	75.25
317.836	78.25
318.065	78.25
318.295	85.25
318.524	71.25
318.753	79.25
318.983	93.25
319.212	94.25
319.441	90.25
319.67	86.25
319.9	89.25
320.129	81.25
320.358	81.25
320.587	85.25
320.816	63.25
321.046	98.25
321.275	87.25
321.504	90.25
321.733	88.25
321.962	82.25
322.191	89.25
322.42	78.25
322.649	90.25
322.878	87.25
323.108	95.25
323.337	92.25
323.566	86.25
323.795	96.25
324.024	98.25
324.253	90.25
324.482	90.25
324.71	77.25
324.939	79.25
325.168	81.25
325.397	76.25
325.626	93.25
325.855	94.25
326.084	89.25
326.313	88.25
326.542	97.25
326.77	79.25
326.999	89.25
327.228	90.25
327.457	95.25
327.686	83.25
327.914	90.25
328.143	84.25
328.372	81.25
328.6	87.25
328.829	91.25
329.058	74.25
329.287	85.25
329.515	91.25
329.744	78.25
329.972	89.25
330.201	68.25
330.43	86.25
330.658	92.25
330.887	82.25
331.115	102.25
331.344	89.25
331.572	94.25
331.801	92.25
332.03	87.25
332.258	87.25
332.486	95.25
332.715	88.25
332.943	89.25
333.172	85.25
333.4	95.25
333.629	82.25
333.857	89.25
334.085	94.25
334.314	81.25
334.542	89.25
334.771	86.25
334.999	83.25
335.227	87.25
335.455	95.25
335.684	73.25
335.912	92.25
336.14	93.25
336.369	90.25
336.597	74.25
336.825	91.25
337.053	69.25
337.281	95.25
337.51	93.25
337.738	90.25
337.966	93.25
338.194	98.25
338.422	81.25
338.65	80.25
338.878	95.25
339.106	88.25
339.334	91.25
339.562	82.25
339.79	86.25
340.018	82.25
340.246	84.25
340.474	83.25
340.702	93.25
340.93	84.25
341.158	90.25
341.386	77.25
341.614	86.25
341.842	88.25
342.07	80.25
342.298	95.25
342.526	87.25
342.754	66.25
342.981	80.25
343.209	91.25
343.437	92.25
343.665	96.25
343.893	88.25
344.12	95.25
344.348	97.25
344.576	115.25
344.804	107.25
345.031	101.25
345.259	107.25
345.487	83.25
345.714	82.25
345.942	88.25
346.17	81.25
346.397	89.25
346.625	84.25
346.853	71.25
347.08	78.25
347.308	72.25
347.535	65.25
347.763	81.25
347.99	93.25
348.218	90.25
348.445	71.25
348.673	79.25
348.9	98.25
349.128	90.25
349.355	83.25
349.583	89.25
349.81	89.25
350.037	92.25
350.265	77.25
350.492	85.25
350.72	88.25
350.947	97.25
351.174	91.25
351.402	86.25
351.629	92.25
351.856	93.25
352.083	79.25
352.311	77.25
352.538	99.25
352.765	89.25
352.992	78.25
353.22	87.25
353.447	87.25
353.674	92.25
353.901	95.25
354.128	83.25
354.355	73.25
354.583	88.25
354.81	65.25
355.037	85.25
355.264	98.25
355.491	85.25
355.718	71.25
355.945	87.25
356.172	87.25
356.399	91.25
356.626	93.25
356.853	73.25
357.08	85.25
357.307	83.25
357.534	86.25
357.761	105.25
357.988	107.25
358.215	77.25
358.441	86.25
358.668	86.25
358.895	97.25
359.122	82.25
359.349	78.25
359.576	96.25
359.802	94.25
360.029	89.25
360.256	84.25
360.483	83.25
360.709	92.25
360.936	89.25
361.163	82.25
361.39	93.25
361.616	68.25
361.843	90.25
362.07	85.25
362.296	80.25
362.523	93.25
362.749	93.25
362.976	91.25
363.203	88.25
363.429	90.25
363.656	93.25
363.882	90.25
364.109	94.25
364.335	91.25
364.562	86.25
364.788	80.25
365.015	97.25
365.241	90.25
365.468	91.25
365.694	78.25
365.92	77.25
366.147	86.25
366.373	90.25
366.599	81.25
366.826	82.25
367.052	89.25
367.278	85.25
367.505	90.25
367.731	90.25
367.957	72.25
368.184	79.25
368.41	85.25
368.636	107.25
368.862	82.25
369.089	85.25
369.315	88.25
369.541	87.25
369.767	86.25
369.993	90.25
370.219	86.25
370.445	88.25
370.672	80.25
370.898	75.25
371.124	87.25
371.35	90.25
371.576	103.25
371.802	84.25
372.028	95.25
372.254	84.25
372.48	82.25
372.706	85.25
372.932	85.25
373.158	87.25
373.384	89.25
373.61	102.25
373.835	85.25
374.061	81.25
374.287	78.25
374.513	66.25
374.739	73.25
374.965	87.25
375.191	83.25
375.416	77.25
375.642	93.25
375.868	87.25
376.094	81.25
376.319	87.25
376.545	78.25
376.771	88.25
376.997	87.25
377.222	99.25
377.448	103.25
377.674	96.25
377.899	94.25
378.125	85.25
378.35	82.25
378.576	83.25
378.802	85.25
379.027	78.25
379.253	89.25
379.478	92.25
379.704	104.25
379.929	71.25
380.155	85.25
380.38	80.25
380.606	73.25
380.831	81.25
381.057	96.25
381.282	95.25
381.507	90.25
381.733	81.25
381.958	82.25
382.184	72.25
382.409	85.25
382.634	78.25
382.86	81.25
383.085	88.25
383.31	86.25
383.535	87.25
383.761	97.25
383.986	88.25
384.211	82.25
384.436	91.25
384.662	98.25
384.887	89.25
385.112	96.25
385.337	79.25
385.562	93.25
385.787	98.25
386.013	81.25
386.238	78.25
386.463	94.25
386.688	105.25
386.913	73.25
387.138	85.25
387.363	91.25
387.588	87.25
387.813	91.25
388.038	106.25
388.263	91.25
388.488	85.25
388.713	80.25
388.938	87.25
389.163	66.25
389.387	89.25
389.612	87.25
389.837	78.25
390.062	97.25
390.287	90.25
390.512	72.25
390.736	72.25
390.961	73.25
391.186	69.25
391.411	62.25
391.636	74.25
391.86	86.25
392.085	90.25
392.31	76.25
392.534	87.25
392.759	80.25
392.984	82.25
393.208	85.25
393.433	95.25
393.658	81.25
393.882	96.25
394.107	96.25
394.331	75.25
394.556	79.25
394.78	80.25
395.005	86.25
395.229	85.25
395.454	73.25
395.678	81.25
395.903	81.25
396.127	96.25
396.352	93.25
396.576	84.25
396.801	77.25
397.025	86.25
397.249	77.25
397.474	103.25
397.698	106.25
397.922	105.25
398.147	86.25
398.371	93.25
398.595	78.25
398.82	80.25
399.044	87.25
399.268	85.25
399.492	97.25
399.717	93.25
399.941	80.25
400.165	80.25
400.389	74.25
400.613	73.25
400.837	83.25
401.062	82.25
401.286	93.25
401.51	79.25
401.734	83.25
401.958	94.25
402.182	75.25
402.406	83.25
402.63	91.25
402.854	90.25
403.078	73.25
403.302	89.25
403.526	88.25
403.75	86.25
403.974	99.25
404.198	133.25
404.422	193.25
404.645	245.25
404.869	185.25
405.093	129.25
405.317	101.25
405.541	85.25
405.765	95.25
405.988	102.25
406.212	91.25
406.436	90.25
406.66	76.25
406.883	89.25
407.107	94.25
407.331	82.25
407.555	94.25
407.778	82.25
408.002	90.25
408.226	91.25
408.449	93.25
408.673	97.25
408.896	81.25
409.12	83.25
409.344	81.25
409.567	81.25
409.791	78.25
410.014	92.25
410.238	83.25
410.461	79.25
410.685	75.25
410.908	86.25
411.132	88.25
411.355	89.25
411.578	93.25
411.802	88.25
412.025	78.25
412.249	97.25
412.472	84.25
412.695	79.25
412.919	74.25
413.142	79.25
413.365	93.25
413.589	103.25
413.812	87.25
414.035	96.25
414.258	86.25
414.482	82.25
414.705	79.25
414.928	74.25
415.151	87.25
415.374	84.25
415.597	80.25
415.821	88.25
416.044	101.25
416.267	74.25
416.49	87.25
416.713	84.25
416.936	109.25
417.159	81.25
417.382	81.25
417.605	81.25
417.828	78.25
418.051	82.25
418.274	80.25
418.497	80.25
418.72	85.25
418.943	87.25
419.166	78.25
419.389	92.25
419.611	95.25
419.834	77.25
420.057	95.25
420.28	78.25
420.503	75.25
420.726	85.25
420.948	75.25
421.171	91.25
421.394	90.25
421.617	77.25
421.839	92.25
422.062	89.25
422.285	102.25
422.507	93.25
422.73	89.25
422.953	91.25
423.175	87.25
423.398	96.25
423.621	86.25
423.843	82.25
424.066	85.25
424.288	86.25
424.511	83.25
424.733	87.25
424.956	96.25
425.178	96.25
425.401	99.25
425.623	90.25
425.846	76.25
426.068	87.25
426.291	81.25
426.513	87.25
426.735	77.25
426.958	73.25
427.18	99.25
427.402	88.25
427.625	87.25
427.847	89.25
428.069	92.25
428.292	89.25
428.514	91.25
428.736	86.25
428.958	81.25
429.181	76.25
429.403	83.25
429.625	90.25
429.847	101.25
430.069	95.25
430.292	97.25
430.514	93.25
430.736	89.25
430.958	92.25
431.18	84.25
431.402	81.25
431.624	95.25
431.846	73.25
432.068	69.25
432.29	72.25
432.512	94.25
432.734	96.25
432.956	74.25
433.178	90.25
433.4	78.25
433.622	82.25
433.844	77.25
434.066	85.25
434.287	73.25
434.509	82.25
434.731	93.25
434.953	86.25
435.175	77.25
435.397	86.25
435.618	79.25
435.84	87.25
436.062	88.25
436.284	89.25
436.505	86.25
436.727	107.25
436.949	95.25
437.17	79.25
437.392	96.25
437.614	90.25
437.835	87.25
438.057	93.25
438.278	76.25
438.5	90.25
438.721	93.25
438.943	94.25
439.165	103.25
439.386	95.25
439.608	90.25
439.829	86.25
440.05	94.25
440.272	94.25
440.493	85.25
440.715	89.25
440.936	94.25
441.158	89.25
441.379	77.25
441.6	76.25
441.822	81.25
442.043	78.25
442.264	90.25
442.486	85.25
442.707	91.25
442.928	86.25
443.149	97.25
443.371	95.25
443.592	89.25
443.813	86.25
444.034	93.25
444.255	89.25
444.476	95.25
444.698	87.25
444.919	80.25
445.14	177.25
445.361	117.25
445.582	86.25
445.803	88.25
446.024	82.25
446.245	94.25
446.466	81.25
446.687	75.25
446.908	91.25
447.129	81.25
447.35	74.25
447.571	87.25
447.792	82.25
448.013	91.25
448.234	81.25
448.455	82.25
448.675	93.25
448.896	95.25
449.117	99.25
449.338	87.25
449.559	100.25
449.779	85.25
450	99.25
450.221	75.25
450.442	80.25
450.662	65.25
450.883	93.25
451.104	82.25
451.324	72.25
451.545	81.25
451.766	82.25
451.986	91.25
452.207	98.25
452.428	85.25
452.648	94.25
452.869	79.25
453.089	80.25
453.31	83.25
453.53	79.25
453.751	89.25
453.971	94.25
454.192	79.25
454.412	91.25
454.633	78.25
454.853	101.25
455.073	84.25
455.294	82.25
455.514	79.25
455.734	93.25
455.955	89.25
456.175	98.25
456.395	99.25
456.616	90.25
456.836	98.25
457.056	83.25
457.276	101.25
457.497	97.25
457.717	80.25
457.937	91.25
458.157	90.25
458.377	83.25
458.598	73.25
458.818	77.25
459.038	78.25
459.258	84.25
459.478	76.25
459.698	82.25
459.918	90.25
460.138	69.25
460.358	81.25
460.578	85.25
460.798	88.25
461.018	83.25
461.238	86.25
461.458	85.25
461.678	75.25
461.898	82.25
462.118	89.25
462.338	75.25
462.558	86.25
462.777	85.25
462.997	90.25
463.217	91.25
463.437	82.25
463.657	85.25
463.876	97.25
464.096	93.25
464.316	81.25
464.536	93.25
464.755	86.25
464.975	81.25
465.195	98.25
465.414	91.25
465.634	84.25
465.854	85.25
466.073	92.25
466.293	64.25
466.512	90.25
466.732	85.25
466.951	86.25
467.171	87.25
467.391	98.25
467.61	85.25
467.829	87.25
468.049	102.25
468.268	89.25
468.488	87.25
468.707	94.25
468.927	98.25
469.146	102.25
469.365	98.25
469.585	89.25
469.804	85.25
470.023	79.25
470.243	91.25
470.462	78.25
470.681	95.25
470.901	78.25
471.12	90.25
471.339	79.25
471.558	85.25
471.777	89.25
471.997	90.25
472.216	99.25
472.435	87.25
472.654	79.25
472.873	75.25
473.092	81.25
473.311	81.25
473.53	90.25
473.749	94.25
473.968	86.25
474.187	82.25
474.406	78.25
474.625	89.25
474.844	82.25
475.063	90.25
475.282	99.25
475.501	84.25
475.72	105.25
475.939	83.25
476.158	93.25
476.377	79.25
476.596	84.25
476.814	96.25
477.033	103.25
477.252	87.25
477.471	89.25
477.69	97.25
477.908	101.25
478.127	81.25
478.346	85.25
478.564	76.25
478.783	76.25
479.002	89.25
479.22	83.25
479.439	88.25
479.658	76.25
479.876	90.25
480.095	87.25
480.313	80.25
480.532	85.25
480.751	95.25
480.969	94.25
481.188	77.25
481.406	73.25
481.624	93.25
481.843	83.25
482.061	96.25
482.28	106.25
482.498	93.25
482.717	73.25
482.935	94.25
483.153	90.25
483.372	85.25
483.59	87.25
483.808	78.25
484.027	91.25
484.245	76.25
484.463	93.25
484.681	95.25
484.9	86.25
485.118	90.25
485.336	82.25
485.554	95.25
485.772	97.25
485.99	99.25
486.209	92.25
486.427	84.25
486.645	83.25
486.863	87.25
487.081	90.25
487.299	93.25
487.517	96.25
487.735	92.25
487.953	77.25
488.171	80.25
488.389	80.25
488.607	94.25
488.825	87.25
489.043	88.25
489.261	102.25
489.479	107.25
489.696	99.25
489.914	85.25
490.132	93.25
490.35	104.25
490.568	82.25
490.786	90.25
491.003	89.25
491.221	87.25
491.439	99.25
491.657	94.25
491.874	91.25
492.092	94.25
492.31	98.25
492.527	86.25
492.745	104.25
492.963	79.25
493.18	92.25
493.398	106.25
493.615	87.25
493.833	93.25
494.05	90.25
494.268	101.25
494.485	91.25
494.703	90.25
494.92	88.25
495.138	91.25
495.355	108.25
495.573	89.25
495.79	75.25
496.008	99.25
496.225	82.25
496.442	103.25
496.66	88.25
496.877	89.25
497.094	87.25
497.312	97.25
497.529	87.25
497.746	86.25
497.963	88.25
498.181	87.25
498.398	87.25
498.615	83.25
498.832	95.25
499.049	87.25
499.267	106.25
499.484	90.25
499.701	91.25
499.918	97.25
500.135	87.25
500.352	77.25
500.569	82.25
500.786	96.25
501.003	88.25
501.22	90.25
501.437	96.25
501.654	91.25
501.871	101.25
502.088	82.25
502.305	81.25
502.522	84.25
502.739	86.25
502.956	89.25
503.172	86.25
503.389	88.25
503.606	76.25
503.823	78.25
504.04	86.25
504.256	83.25
504.473	92.25
504.69	91.25
504.907	91.25
505.123	94.25
505.34	91.25
505.557	82.25
505.773	89.25
505.99	86.25
506.207	104.25
506.423	100.25
506.64	81.25
506.856	94.25
507.073	93.25
507.289	98.25
507.506	97.25
507.722	87.25
507.939	57.25
508.155	78.25
508.372	85.25
508.588	80.25
508.805	106.25
509.021	92.25
509.238	103.25
509.454	83.25
509.67	98.25
509.887	95.25
510.103	95.25
510.319	105.25
510.536	99.25
510.752	97.25
510.968	97.25
511.184	95.25
511.401	89.25
511.617	93.25
511.833	75.25
512.049	82.25
512.265	88.25
512.481	92.25
512.698	75.25
512.914	89.25
513.13	95.25
513.346	91.25
513.562	84.25
513.778	96.25
513.994	93.25
514.21	86.25
514.426	83.25
514.642	77.25
514.858	73.25
515.074	87.25
515.29	90.25
515.506	96.25
515.721	82.25
515.937	74.25
516.153	86.25
516.369	85.25
516.585	93.25
516.801	88.25
517.016	88.25
517.232	82.25
517.448	90.25
517.664	90.25
517.879	79.25
518.095	86.25
518.311	97.25
518.527	85.25
518.742	93.25
518.958	81.25
519.173	94.25
519.389	85.25
