Data from KBr_2_HRD10591_00037.txt Node
Date: Mon Jan 19 13:13:09 EST 2026
User: Yrep
Spectrometer: HR+D1059
Trigger mode: 1
Integration Time (sec): 1.000000E-1
Scans to average: 1
Electric dark correction enabled: true
Nonlinearity correction enabled: false
Boxcar width: 0
XAxis mode: Wavelengths
Number of Pixels in Spectrum: 2048
>>>>>Begin Spectral Data<<<<<
223.165	-22.75
223.4	-22.75
223.635	-22.75
223.869	-5.75
224.104	-14.75
224.338	-18.75
224.573	-20.75
224.808	-4.75
225.042	-7.75
225.277	-10.75
225.511	-6.75
225.746	2.25
225.98	18.25
226.215	-5.75
226.449	14.25
226.683	26.25
226.918	31.25
227.152	26.25
227.387	37.25
227.621	38.25
227.856	44.25
228.09	40.25
228.324	46.25
228.559	45.25
228.793	48.25
229.027	68.25
229.262	67.25
229.496	78.25
229.73	63.25
229.964	58.25
230.199	77.25
230.433	71.25
230.667	84.25
230.901	72.25
231.136	71.25
231.37	67.25
231.604	76.25
231.838	87.25
232.072	71.25
232.306	91.25
232.541	82.25
232.775	75.25
233.009	71.25
233.243	84.25
233.477	82.25
233.711	81.25
233.945	84.25
234.179	84.25
234.413	79.25
234.647	78.25
234.881	80.25
235.115	77.25
235.349	78.25
235.583	64.25
235.817	78.25
236.051	68.25
236.285	74.25
236.519	71.25
236.753	86.25
236.987	66.25
237.221	58.25
237.455	70.25
237.689	74.25
237.922	55.25
238.156	84.25
238.39	66.25
238.624	71.25
238.858	87.25
239.091	69.25
239.325	74.25
239.559	90.25
239.793	65.25
240.027	75.25
240.26	66.25
240.494	76.25
240.728	75.25
240.961	90.25
241.195	74.25
241.429	90.25
241.662	84.25
241.896	82.25
242.13	68.25
242.363	76.25
242.597	85.25
242.83	82.25
243.064	82.25
243.298	69.25
243.531	80.25
243.765	79.25
243.998	64.25
244.232	71.25
244.465	80.25
244.699	85.25
244.932	69.25
245.166	76.25
245.399	80.25
245.633	76.25
245.866	85.25
246.099	83.25
246.333	57.25
246.566	80.25
246.8	71.25
247.033	81.25
247.266	75.25
247.5	85.25
247.733	82.25
247.966	82.25
248.2	60.25
248.433	71.25
248.666	83.25
248.899	88.25
249.133	88.25
249.366	75.25
249.599	88.25
249.832	77.25
250.066	83.25
250.299	60.25
250.532	79.25
250.765	82.25
250.998	69.25
251.231	76.25
251.465	83.25
251.698	80.25
251.931	77.25
252.164	90.25
252.397	72.25
252.63	77.25
252.863	65.25
253.096	72.25
253.329	80.25
253.562	88.25
253.795	91.25
254.028	84.25
254.261	76.25
254.494	82.25
254.727	83.25
254.96	75.25
255.193	86.25
255.426	80.25
255.659	73.25
255.892	80.25
256.124	81.25
256.357	65.25
256.59	68.25
256.823	65.25
257.056	71.25
257.289	77.25
257.521	93.25
257.754	77.25
257.987	62.25
258.22	89.25
258.452	79.25
258.685	72.25
258.918	83.25
259.151	85.25
259.383	75.25
259.616	78.25
259.849	75.25
260.081	90.25
260.314	79.25
260.547	93.25
260.779	72.25
261.012	93.25
261.244	82.25
261.477	86.25
261.71	80.25
261.942	83.25
262.175	82.25
262.407	94.25
262.64	80.25
262.872	91.25
263.105	86.25
263.337	84.25
263.57	74.25
263.802	92.25
264.035	88.25
264.267	76.25
264.499	90.25
264.732	97.25
264.964	69.25
265.197	86.25
265.429	77.25
265.661	84.25
265.894	84.25
266.126	82.25
266.358	83.25
266.591	85.25
266.823	79.25
267.055	76.25
267.287	84.25
267.52	77.25
267.752	77.25
267.984	88.25
268.216	85.25
268.448	86.25
268.681	89.25
268.913	90.25
269.145	71.25
269.377	80.25
269.609	88.25
269.841	87.25
270.073	76.25
270.306	64.25
270.538	72.25
270.77	88.25
271.002	71.25
271.234	86.25
271.466	89.25
271.698	93.25
271.93	86.25
272.162	88.25
272.394	94.25
272.626	92.25
272.858	88.25
273.09	73.25
273.322	87.25
273.553	72.25
273.785	76.25
274.017	81.25
274.249	88.25
274.481	85.25
274.713	82.25
274.945	81.25
275.176	76.25
275.408	80.25
275.64	77.25
275.872	89.25
276.104	95.25
276.335	89.25
276.567	81.25
276.799	86.25
277.031	92.25
277.262	93.25
277.494	88.25
277.726	84.25
277.957	84.25
278.189	88.25
278.421	93.25
278.652	84.25
278.884	78.25
279.115	94.25
279.347	71.25
279.579	85.25
279.81	80.25
280.042	93.25
280.273	90.25
280.505	87.25
280.736	87.25
280.968	86.25
281.199	87.25
281.431	100.25
281.662	71.25
281.894	98.25
282.125	87.25
282.356	77.25
282.588	74.25
282.819	95.25
283.051	80.25
283.282	103.25
283.513	95.25
283.745	79.25
283.976	89.25
284.207	83.25
284.439	74.25
284.67	88.25
284.901	92.25
285.132	84.25
285.364	81.25
285.595	72.25
285.826	73.25
286.057	73.25
286.288	67.25
286.52	88.25
286.751	96.25
286.982	78.25
287.213	93.25
287.444	91.25
287.675	89.25
287.906	93.25
288.138	79.25
288.369	76.25
288.6	80.25
288.831	81.25
289.062	89.25
289.293	79.25
289.524	87.25
289.755	90.25
289.986	80.25
290.217	80.25
290.448	87.25
290.679	77.25
290.91	91.25
291.141	83.25
291.371	91.25
291.602	74.25
291.833	90.25
292.064	94.25
292.295	88.25
292.526	86.25
292.757	83.25
292.987	89.25
293.218	94.25
293.449	78.25
293.68	87.25
293.91	82.25
294.141	77.25
294.372	90.25
294.603	84.25
294.833	76.25
295.064	81.25
295.295	98.25
295.525	93.25
295.756	78.25
295.987	88.25
296.217	74.25
296.448	85.25
296.679	65.25
296.909	86.25
297.14	91.25
297.37	89.25
297.601	84.25
297.831	75.25
298.062	95.25
298.292	77.25
298.523	94.25
298.753	86.25
298.984	89.25
299.214	81.25
299.445	93.25
299.675	91.25
299.905	78.25
300.136	94.25
300.366	104.25
300.597	78.25
300.827	94.25
301.057	89.25
301.288	81.25
301.518	81.25
301.748	80.25
301.979	103.25
302.209	88.25
302.439	66.25
302.669	86.25
302.9	89.25
303.13	86.25
303.36	84.25
303.59	78.25
303.82	74.25
304.051	90.25
304.281	91.25
304.511	92.25
304.741	78.25
304.971	80.25
305.201	90.25
305.431	94.25
305.661	102.25
305.891	94.25
306.121	92.25
306.352	90.25
306.582	93.25
306.812	80.25
307.042	96.25
307.272	79.25
307.502	70.25
307.731	101.25
307.961	80.25
308.191	80.25
308.421	80.25
308.651	86.25
308.881	91.25
309.111	89.25
309.341	78.25
309.571	84.25
309.8	84.25
310.03	89.25
310.26	78.25
310.49	87.25
310.72	77.25
310.949	76.25
311.179	91.25
311.409	92.25
311.639	70.25
311.868	80.25
312.098	80.25
312.328	75.25
312.557	94.25
312.787	79.25
313.017	73.25
313.246	88.25
313.476	84.25
313.706	87.25
313.935	89.25
314.165	94.25
314.394	84.25
314.624	92.25
314.853	88.25
315.083	102.25
315.312	92.25
315.542	85.25
315.771	89.25
316.001	90.25
316.23	74.25
316.46	83.25
316.689	83.25
316.919	93.25
317.148	92.25
317.377	87.25
317.607	86.25
317.836	84.25
318.065	91.25
318.295	82.25
318.524	86.25
318.753	86.25
318.983	77.25
319.212	86.25
319.441	81.25
319.67	91.25
319.9	102.25
320.129	86.25
320.358	93.25
320.587	87.25
320.816	77.25
321.046	91.25
321.275	84.25
321.504	87.25
321.733	89.25
321.962	92.25
322.191	89.25
322.42	80.25
322.649	96.25
322.878	79.25
323.108	82.25
323.337	87.25
323.566	90.25
323.795	76.25
324.024	72.25
324.253	80.25
324.482	85.25
324.71	92.25
324.939	98.25
325.168	92.25
325.397	86.25
325.626	80.25
325.855	82.25
326.084	82.25
326.313	93.25
326.542	91.25
326.77	86.25
326.999	77.25
327.228	90.25
327.457	90.25
327.686	77.25
327.914	89.25
328.143	97.25
328.372	88.25
328.6	88.25
328.829	90.25
329.058	88.25
329.287	90.25
329.515	89.25
329.744	82.25
329.972	83.25
330.201	106.25
330.43	101.25
330.658	93.25
330.887	87.25
331.115	90.25
331.344	90.25
331.572	89.25
331.801	94.25
332.03	82.25
332.258	95.25
332.486	77.25
332.715	69.25
332.943	86.25
333.172	95.25
333.4	89.25
333.629	82.25
333.857	95.25
334.085	78.25
334.314	90.25
334.542	92.25
334.771	96.25
334.999	80.25
335.227	67.25
335.455	84.25
335.684	104.25
335.912	93.25
336.14	84.25
336.369	87.25
336.597	80.25
336.825	85.25
337.053	100.25
337.281	80.25
337.51	96.25
337.738	88.25
337.966	90.25
338.194	82.25
338.422	89.25
338.65	72.25
338.878	83.25
339.106	82.25
339.334	94.25
339.562	81.25
339.79	81.25
340.018	80.25
340.246	79.25
340.474	91.25
340.702	87.25
340.93	90.25
341.158	98.25
341.386	87.25
341.614	80.25
341.842	90.25
342.07	90.25
342.298	93.25
342.526	63.25
342.754	98.25
342.981	87.25
343.209	93.25
343.437	98.25
343.665	83.25
343.893	87.25
344.12	103.25
344.348	96.25
344.576	95.25
344.804	96.25
345.031	104.25
345.259	104.25
345.487	87.25
345.714	93.25
345.942	80.25
346.17	95.25
346.397	90.25
346.625	94.25
346.853	87.25
347.08	84.25
347.308	86.25
347.535	82.25
347.763	88.25
347.99	80.25
348.218	87.25
348.445	89.25
348.673	90.25
348.9	104.25
349.128	86.25
349.355	86.25
349.583	82.25
349.81	86.25
350.037	82.25
350.265	92.25
350.492	84.25
350.72	81.25
350.947	84.25
351.174	79.25
351.402	91.25
351.629	87.25
351.856	92.25
352.083	77.25
352.311	80.25
352.538	90.25
352.765	76.25
352.992	81.25
353.22	81.25
353.447	81.25
353.674	83.25
353.901	93.25
354.128	84.25
354.355	75.25
354.583	88.25
354.81	79.25
355.037	86.25
355.264	94.25
355.491	90.25
355.718	97.25
355.945	93.25
356.172	81.25
356.399	88.25
356.626	82.25
356.853	103.25
357.08	78.25
357.307	84.25
357.534	81.25
357.761	74.25
357.988	73.25
358.215	89.25
358.441	95.25
358.668	90.25
358.895	82.25
359.122	92.25
359.349	91.25
359.576	101.25
359.802	91.25
360.029	86.25
360.256	90.25
360.483	88.25
360.709	66.25
360.936	87.25
361.163	80.25
361.39	74.25
361.616	91.25
361.843	77.25
362.07	73.25
362.296	92.25
362.523	88.25
362.749	95.25
362.976	87.25
363.203	85.25
363.429	81.25
363.656	98.25
363.882	89.25
364.109	94.25
364.335	92.25
364.562	93.25
364.788	81.25
365.015	79.25
365.241	80.25
365.468	96.25
365.694	85.25
365.92	87.25
366.147	79.25
366.373	92.25
366.599	80.25
366.826	65.25
367.052	82.25
367.278	106.25
367.505	80.25
367.731	100.25
367.957	88.25
368.184	79.25
368.41	85.25
368.636	88.25
368.862	84.25
369.089	74.25
369.315	84.25
369.541	76.25
369.767	102.25
369.993	91.25
370.219	78.25
370.445	81.25
370.672	89.25
370.898	85.25
371.124	83.25
371.35	87.25
371.576	74.25
371.802	89.25
372.028	85.25
372.254	87.25
372.48	88.25
372.706	81.25
372.932	81.25
373.158	85.25
373.384	96.25
373.61	90.25
373.835	89.25
374.061	91.25
374.287	69.25
374.513	92.25
374.739	77.25
374.965	84.25
375.191	86.25
375.416	90.25
375.642	98.25
375.868	95.25
376.094	101.25
376.319	89.25
376.545	88.25
376.771	78.25
376.997	82.25
377.222	101.25
377.448	77.25
377.674	79.25
377.899	88.25
378.125	94.25
378.35	95.25
378.576	82.25
378.802	77.25
379.027	81.25
379.253	101.25
379.478	97.25
379.704	100.25
379.929	71.25
380.155	74.25
380.38	84.25
380.606	85.25
380.831	95.25
381.057	79.25
381.282	79.25
381.507	85.25
381.733	91.25
381.958	92.25
382.184	93.25
382.409	85.25
382.634	92.25
382.86	94.25
383.085	89.25
383.31	87.25
383.535	85.25
383.761	97.25
383.986	86.25
384.211	72.25
384.436	87.25
384.662	82.25
384.887	75.25
385.112	90.25
385.337	88.25
385.562	86.25
385.787	89.25
386.013	88.25
386.238	73.25
386.463	61.25
386.688	102.25
386.913	84.25
387.138	91.25
387.363	82.25
387.588	91.25
387.813	73.25
388.038	76.25
388.263	81.25
388.488	92.25
388.713	82.25
388.938	85.25
389.163	96.25
389.387	74.25
389.612	94.25
389.837	88.25
390.062	91.25
390.287	86.25
390.512	95.25
390.736	87.25
390.961	82.25
391.186	78.25
391.411	73.25
391.636	76.25
391.86	76.25
392.085	78.25
392.31	87.25
392.534	87.25
392.759	96.25
392.984	93.25
393.208	81.25
393.433	98.25
393.658	97.25
393.882	93.25
394.107	76.25
394.331	85.25
394.556	80.25
394.78	94.25
395.005	84.25
395.229	78.25
395.454	86.25
395.678	94.25
395.903	86.25
396.127	98.25
396.352	93.25
396.576	94.25
396.801	80.25
397.025	91.25
397.249	88.25
397.474	82.25
397.698	85.25
397.922	94.25
398.147	102.25
398.371	81.25
398.595	73.25
398.82	81.25
399.044	89.25
399.268	78.25
399.492	84.25
399.717	88.25
399.941	85.25
400.165	90.25
400.389	85.25
400.613	97.25
400.837	81.25
401.062	96.25
401.286	84.25
401.51	85.25
401.734	91.25
401.958	84.25
402.182	85.25
402.406	89.25
402.63	91.25
402.854	95.25
403.078	81.25
403.302	100.25
403.526	96.25
403.75	85.25
403.974	117.25
404.198	145.25
404.422	239.25
404.645	277.25
404.869	226.25
405.093	146.25
405.317	113.25
405.541	79.25
405.765	100.25
405.988	78.25
406.212	99.25
406.436	92.25
406.66	70.25
406.883	81.25
407.107	87.25
407.331	100.25
407.555	93.25
407.778	86.25
408.002	84.25
408.226	81.25
408.449	89.25
408.673	86.25
408.896	93.25
409.12	78.25
409.344	80.25
409.567	73.25
409.791	72.25
410.014	78.25
410.238	87.25
410.461	88.25
410.685	82.25
410.908	78.25
411.132	88.25
411.355	78.25
411.578	88.25
411.802	97.25
412.025	90.25
412.249	79.25
412.472	88.25
412.695	92.25
412.919	76.25
413.142	83.25
413.365	99.25
413.589	86.25
413.812	78.25
414.035	78.25
414.258	95.25
414.482	91.25
414.705	82.25
414.928	88.25
415.151	80.25
415.374	93.25
415.597	104.25
415.821	94.25
416.044	76.25
416.267	86.25
416.49	89.25
416.713	84.25
416.936	91.25
417.159	89.25
417.382	85.25
417.605	93.25
417.828	86.25
418.051	72.25
418.274	86.25
418.497	73.25
418.72	83.25
418.943	82.25
419.166	75.25
419.389	91.25
419.611	95.25
419.834	85.25
420.057	103.25
420.28	75.25
420.503	82.25
420.726	86.25
420.948	82.25
421.171	79.25
421.394	80.25
421.617	89.25
421.839	84.25
422.062	76.25
422.285	84.25
422.507	96.25
422.73	109.25
422.953	95.25
423.175	92.25
423.398	95.25
423.621	92.25
423.843	87.25
424.066	88.25
424.288	92.25
424.511	86.25
424.733	88.25
424.956	77.25
425.178	84.25
425.401	92.25
425.623	78.25
425.846	89.25
426.068	86.25
426.291	93.25
426.513	108.25
426.735	92.25
426.958	90.25
427.18	88.25
427.402	83.25
427.625	91.25
427.847	104.25
428.069	90.25
428.292	92.25
428.514	96.25
428.736	85.25
428.958	83.25
429.181	76.25
429.403	94.25
429.625	82.25
429.847	86.25
430.069	90.25
430.292	109.25
430.514	96.25
430.736	81.25
430.958	101.25
431.18	79.25
431.402	77.25
431.624	76.25
431.846	87.25
432.068	88.25
432.29	83.25
432.512	79.25
432.734	87.25
432.956	95.25
433.178	92.25
433.4	88.25
433.622	93.25
433.844	89.25
434.066	88.25
434.287	73.25
434.509	72.25
434.731	77.25
434.953	94.25
435.175	80.25
435.397	84.25
435.618	76.25
435.84	77.25
436.062	74.25
436.284	80.25
436.505	87.25
436.727	81.25
436.949	89.25
437.17	90.25
437.392	84.25
437.614	77.25
437.835	94.25
438.057	97.25
438.278	85.25
438.5	83.25
438.721	94.25
438.943	92.25
439.165	101.25
439.386	76.25
439.608	87.25
439.829	74.25
440.05	83.25
440.272	101.25
440.493	84.25
440.715	91.25
440.936	88.25
441.158	89.25
441.379	74.25
441.6	88.25
441.822	74.25
442.043	75.25
442.264	89.25
442.486	97.25
442.707	82.25
442.928	87.25
443.149	74.25
443.371	87.25
443.592	78.25
443.813	73.25
444.034	86.25
444.255	91.25
444.476	94.25
444.698	95.25
444.919	93.25
445.14	144.25
445.361	113.25
445.582	103.25
445.803	89.25
446.024	78.25
446.245	97.25
446.466	96.25
446.687	88.25
446.908	82.25
447.129	76.25
447.35	78.25
447.571	93.25
447.792	80.25
448.013	89.25
448.234	93.25
448.455	93.25
448.675	84.25
448.896	81.25
449.117	94.25
449.338	87.25
449.559	96.25
449.779	88.25
450	84.25
450.221	98.25
450.442	93.25
450.662	88.25
450.883	89.25
451.104	80.25
451.324	94.25
451.545	81.25
451.766	90.25
451.986	81.25
452.207	88.25
452.428	80.25
452.648	85.25
452.869	83.25
453.089	90.25
453.31	73.25
453.53	90.25
453.751	91.25
453.971	77.25
454.192	81.25
454.412	88.25
454.633	81.25
454.853	89.25
455.073	77.25
455.294	82.25
455.514	89.25
455.734	80.25
455.955	96.25
456.175	88.25
456.395	89.25
456.616	107.25
456.836	82.25
457.056	82.25
457.276	77.25
457.497	84.25
457.717	84.25
457.937	87.25
458.157	103.25
458.377	85.25
458.598	88.25
458.818	79.25
459.038	66.25
459.258	97.25
459.478	76.25
459.698	90.25
459.918	90.25
460.138	73.25
460.358	94.25
460.578	84.25
460.798	82.25
461.018	92.25
461.238	96.25
461.458	87.25
461.678	86.25
461.898	96.25
462.118	84.25
462.338	92.25
462.558	86.25
462.777	94.25
462.997	84.25
463.217	92.25
463.437	85.25
463.657	82.25
463.876	92.25
464.096	89.25
464.316	78.25
464.536	79.25
464.755	83.25
464.975	82.25
465.195	88.25
465.414	89.25
465.634	80.25
465.854	89.25
466.073	95.25
466.293	86.25
466.512	96.25
466.732	82.25
466.951	84.25
467.171	78.25
467.391	88.25
467.61	93.25
467.829	93.25
468.049	92.25
468.268	92.25
468.488	93.25
468.707	95.25
468.927	73.25
469.146	92.25
469.365	88.25
469.585	86.25
469.804	98.25
470.023	85.25
470.243	90.25
470.462	89.25
470.681	94.25
470.901	91.25
471.12	87.25
471.339	90.25
471.558	76.25
471.777	90.25
471.997	103.25
472.216	90.25
472.435	82.25
472.654	93.25
472.873	94.25
473.092	80.25
473.311	89.25
473.53	65.25
473.749	98.25
473.968	93.25
474.187	86.25
474.406	89.25
474.625	91.25
474.844	97.25
475.063	81.25
475.282	90.25
475.501	95.25
475.72	90.25
475.939	90.25
476.158	85.25
476.377	84.25
476.596	90.25
476.814	80.25
477.033	79.25
477.252	89.25
477.471	86.25
477.69	93.25
477.908	86.25
478.127	91.25
478.346	89.25
478.564	90.25
478.783	87.25
479.002	95.25
479.22	81.25
479.439	78.25
479.658	78.25
479.876	98.25
480.095	81.25
480.313	94.25
480.532	92.25
480.751	88.25
480.969	88.25
481.188	81.25
481.406	102.25
481.624	100.25
481.843	88.25
482.061	94.25
482.28	81.25
482.498	72.25
482.717	103.25
482.935	91.25
483.153	91.25
483.372	97.25
483.59	81.25
483.808	76.25
484.027	96.25
484.245	93.25
484.463	105.25
484.681	84.25
484.9	98.25
485.118	89.25
485.336	80.25
485.554	92.25
485.772	96.25
485.99	86.25
486.209	96.25
486.427	84.25
486.645	78.25
486.863	89.25
487.081	100.25
487.299	85.25
487.517	82.25
487.735	102.25
487.953	102.25
488.171	95.25
488.389	84.25
488.607	80.25
488.825	93.25
489.043	79.25
489.261	84.25
489.479	97.25
489.696	108.25
489.914	89.25
490.132	104.25
490.35	92.25
490.568	92.25
490.786	89.25
491.003	100.25
491.221	88.25
491.439	95.25
491.657	88.25
491.874	83.25
492.092	96.25
492.31	86.25
492.527	93.25
492.745	87.25
492.963	113.25
493.18	94.25
493.398	107.25
493.615	111.25
493.833	84.25
494.05	84.25
494.268	90.25
494.485	99.25
494.703	108.25
494.92	100.25
495.138	92.25
495.355	95.25
495.573	107.25
495.79	92.25
496.008	94.25
496.225	89.25
496.442	93.25
496.66	98.25
496.877	101.25
497.094	96.25
497.312	100.25
497.529	86.25
497.746	86.25
497.963	97.25
498.181	96.25
498.398	92.25
498.615	90.25
498.832	86.25
499.049	93.25
499.267	95.25
499.484	87.25
499.701	85.25
499.918	86.25
500.135	87.25
500.352	84.25
500.569	90.25
500.786	95.25
501.003	82.25
501.22	90.25
501.437	88.25
501.654	93.25
501.871	102.25
502.088	87.25
502.305	96.25
502.522	86.25
502.739	87.25
502.956	88.25
503.172	88.25
503.389	81.25
503.606	83.25
503.823	89.25
504.04	79.25
504.256	107.25
504.473	65.25
504.69	80.25
504.907	93.25
505.123	102.25
505.34	90.25
505.557	86.25
505.773	89.25
505.99	81.25
506.207	81.25
506.423	91.25
506.64	78.25
506.856	93.25
507.073	109.25
507.289	92.25
507.506	95.25
507.722	80.25
507.939	97.25
508.155	100.25
508.372	87.25
508.588	89.25
508.805	92.25
509.021	93.25
509.238	87.25
509.454	110.25
509.67	96.25
509.887	100.25
510.103	84.25
510.319	99.25
510.536	97.25
510.752	95.25
510.968	95.25
511.184	103.25
511.401	92.25
511.617	100.25
511.833	112.25
512.049	100.25
512.265	82.25
512.481	84.25
512.698	84.25
512.914	88.25
513.13	72.25
513.346	93.25
513.562	106.25
513.778	87.25
513.994	80.25
514.21	94.25
514.426	97.25
514.642	88.25
514.858	88.25
515.074	95.25
515.29	88.25
515.506	89.25
515.721	89.25
515.937	102.25
516.153	81.25
516.369	89.25
516.585	81.25
516.801	90.25
517.016	102.25
517.232	89.25
517.448	86.25
517.664	85.25
517.879	76.25
518.095	77.25
518.311	89.25
518.527	89.25
518.742	95.25
518.958	91.25
519.173	75.25
