Data from KBr_2_HRD10591_00047.txt Node
Date: Mon Jan 19 13:13:14 EST 2026
User: Yrep
Spectrometer: HR+D1059
Trigger mode: 1
Integration Time (sec): 1.000000E-1
Scans to average: 1
Electric dark correction enabled: true
Nonlinearity correction enabled: false
Boxcar width: 0
XAxis mode: Wavelengths
Number of Pixels in Spectrum: 2048
>>>>>Begin Spectral Data<<<<<
223.165	-12.19
223.4	-12.19
223.635	-12.19
223.869	-11.19
224.104	-12.19
224.338	-25.19
224.573	-29.19
224.808	3.81
225.042	-11.19
225.277	-9.19
225.511	9.81
225.746	1.81
225.98	3.81
226.215	8.81
226.449	8.81
226.683	22.81
226.918	27.81
227.152	22.81
227.387	35.81
227.621	27.81
227.856	54.81
228.09	42.81
228.324	46.81
228.559	50.81
228.793	67.81
229.027	48.81
229.262	77.81
229.496	68.81
229.73	54.81
229.964	70.81
230.199	70.81
230.433	79.81
230.667	82.81
230.901	87.81
231.136	90.81
231.37	78.81
231.604	78.81
231.838	69.81
232.072	80.81
232.306	70.81
232.541	77.81
232.775	84.81
233.009	78.81
233.243	86.81
233.477	77.81
233.711	76.81
233.945	87.81
234.179	77.81
234.413	73.81
234.647	71.81
234.881	67.81
235.115	87.81
235.349	60.81
235.583	71.81
235.817	68.81
236.051	82.81
236.285	85.81
236.519	57.81
236.753	71.81
236.987	87.81
237.221	77.81
237.455	74.81
237.689	66.81
237.922	77.81
238.156	58.81
238.39	63.81
238.624	60.81
238.858	76.81
239.091	66.81
239.325	62.81
239.559	81.81
239.793	73.81
240.027	81.81
240.26	74.81
240.494	72.81
240.728	62.81
240.961	76.81
241.195	74.81
241.429	68.81
241.662	60.81
241.896	66.81
242.13	73.81
242.363	80.81
242.597	78.81
242.83	76.81
243.064	71.81
243.298	80.81
243.531	78.81
243.765	77.81
243.998	66.81
244.232	68.81
244.465	63.81
244.699	76.81
244.932	72.81
245.166	73.81
245.399	80.81
245.633	91.81
245.866	75.81
246.099	79.81
246.333	73.81
246.566	71.81
246.8	89.81
247.033	66.81
247.266	74.81
247.5	72.81
247.733	71.81
247.966	77.81
248.2	84.81
248.433	77.81
248.666	86.81
248.899	87.81
249.133	71.81
249.366	67.81
249.599	74.81
249.832	73.81
250.066	75.81
250.299	83.81
250.532	80.81
250.765	70.81
250.998	87.81
251.231	68.81
251.465	74.81
251.698	81.81
251.931	76.81
252.164	82.81
252.397	76.81
252.63	91.81
252.863	81.81
253.096	73.81
253.329	81.81
253.562	78.81
253.795	63.81
254.028	77.81
254.261	80.81
254.494	72.81
254.727	65.81
254.96	84.81
255.193	77.81
255.426	81.81
255.659	72.81
255.892	77.81
256.124	71.81
256.357	76.81
256.59	88.81
256.823	77.81
257.056	84.81
257.289	70.81
257.521	68.81
257.754	81.81
257.987	90.81
258.22	86.81
258.452	83.81
258.685	87.81
258.918	77.81
259.151	85.81
259.383	76.81
259.616	72.81
259.849	81.81
260.081	82.81
260.314	92.81
260.547	85.81
260.779	72.81
261.012	82.81
261.244	82.81
261.477	92.81
261.71	80.81
261.942	70.81
262.175	74.81
262.407	84.81
262.64	74.81
262.872	73.81
263.105	76.81
263.337	81.81
263.57	80.81
263.802	84.81
264.035	86.81
264.267	86.81
264.499	75.81
264.732	75.81
264.964	79.81
265.197	82.81
265.429	94.81
265.661	89.81
265.894	85.81
266.126	78.81
266.358	80.81
266.591	78.81
266.823	84.81
267.055	71.81
267.287	79.81
267.52	70.81
267.752	70.81
267.984	76.81
268.216	78.81
268.448	82.81
268.681	96.81
268.913	82.81
269.145	76.81
269.377	94.81
269.609	90.81
269.841	73.81
270.073	72.81
270.306	81.81
270.538	74.81
270.77	82.81
271.002	82.81
271.234	81.81
271.466	82.81
271.698	73.81
271.93	72.81
272.162	78.81
272.394	90.81
272.626	81.81
272.858	79.81
273.09	71.81
273.322	72.81
273.553	81.81
273.785	82.81
274.017	74.81
274.249	82.81
274.481	77.81
274.713	82.81
274.945	80.81
275.176	75.81
275.408	72.81
275.64	79.81
275.872	94.81
276.104	72.81
276.335	84.81
276.567	81.81
276.799	67.81
277.031	78.81
277.262	77.81
277.494	78.81
277.726	76.81
277.957	72.81
278.189	100.81
278.421	87.81
278.652	88.81
278.884	80.81
279.115	82.81
279.347	86.81
279.579	73.81
279.81	81.81
280.042	85.81
280.273	84.81
280.505	61.81
280.736	69.81
280.968	77.81
281.199	83.81
281.431	83.81
281.662	92.81
281.894	92.81
282.125	84.81
282.356	95.81
282.588	73.81
282.819	80.81
283.051	76.81
283.282	72.81
283.513	78.81
283.745	75.81
283.976	79.81
284.207	90.81
284.439	74.81
284.67	79.81
284.901	90.81
285.132	82.81
285.364	89.81
285.595	100.81
285.826	73.81
286.057	87.81
286.288	78.81
286.52	71.81
286.751	78.81
286.982	69.81
287.213	77.81
287.444	76.81
287.675	72.81
287.906	77.81
288.138	78.81
288.369	72.81
288.6	82.81
288.831	92.81
289.062	91.81
289.293	81.81
289.524	92.81
289.755	84.81
289.986	76.81
290.217	75.81
290.448	95.81
290.679	95.81
290.91	84.81
291.141	78.81
291.371	78.81
291.602	78.81
291.833	83.81
292.064	82.81
292.295	83.81
292.526	80.81
292.757	80.81
292.987	62.81
293.218	83.81
293.449	77.81
293.68	84.81
293.91	86.81
294.141	84.81
294.372	93.81
294.603	77.81
294.833	77.81
295.064	71.81
295.295	91.81
295.525	76.81
295.756	86.81
295.987	80.81
296.217	84.81
296.448	83.81
296.679	89.81
296.909	86.81
297.14	73.81
297.37	87.81
297.601	82.81
297.831	72.81
298.062	93.81
298.292	95.81
298.523	73.81
298.753	91.81
298.984	91.81
299.214	78.81
299.445	92.81
299.675	86.81
299.905	74.81
300.136	87.81
300.366	85.81
300.597	88.81
300.827	82.81
301.057	69.81
301.288	85.81
301.518	84.81
301.748	87.81
301.979	94.81
302.209	80.81
302.439	71.81
302.669	73.81
302.9	74.81
303.13	82.81
303.36	82.81
303.59	83.81
303.82	82.81
304.051	80.81
304.281	83.81
304.511	102.81
304.741	89.81
304.971	89.81
305.201	76.81
305.431	87.81
305.661	83.81
305.891	78.81
306.121	78.81
306.352	76.81
306.582	82.81
306.812	95.81
307.042	86.81
307.272	80.81
307.502	80.81
307.731	90.81
307.961	82.81
308.191	83.81
308.421	74.81
308.651	78.81
308.881	82.81
309.111	79.81
309.341	92.81
309.571	62.81
309.8	95.81
310.03	83.81
310.26	88.81
310.49	95.81
310.72	92.81
310.949	71.81
311.179	88.81
311.409	78.81
311.639	80.81
311.868	98.81
312.098	93.81
312.328	72.81
312.557	64.81
312.787	86.81
313.017	86.81
313.246	83.81
313.476	78.81
313.706	75.81
313.935	87.81
314.165	82.81
314.394	87.81
314.624	70.81
314.853	78.81
315.083	81.81
315.312	95.81
315.542	70.81
315.771	76.81
316.001	82.81
316.23	71.81
316.46	79.81
316.689	84.81
316.919	79.81
317.148	94.81
317.377	87.81
317.607	80.81
317.836	76.81
318.065	80.81
318.295	79.81
318.524	79.81
318.753	73.81
318.983	84.81
319.212	86.81
319.441	86.81
319.67	72.81
319.9	85.81
320.129	88.81
320.358	91.81
320.587	94.81
320.816	80.81
321.046	75.81
321.275	87.81
321.504	95.81
321.733	81.81
321.962	84.81
322.191	82.81
322.42	85.81
322.649	85.81
322.878	91.81
323.108	90.81
323.337	83.81
323.566	72.81
323.795	79.81
324.024	84.81
324.253	82.81
324.482	96.81
324.71	85.81
324.939	104.81
325.168	94.81
325.397	93.81
325.626	86.81
325.855	76.81
326.084	80.81
326.313	87.81
326.542	86.81
326.77	89.81
326.999	84.81
327.228	82.81
327.457	77.81
327.686	74.81
327.914	92.81
328.143	72.81
328.372	89.81
328.6	76.81
328.829	91.81
329.058	91.81
329.287	80.81
329.515	79.81
329.744	83.81
329.972	85.81
330.201	93.81
330.43	92.81
330.658	80.81
330.887	88.81
331.115	80.81
331.344	100.81
331.572	69.81
331.801	91.81
332.03	89.81
332.258	85.81
332.486	85.81
332.715	78.81
332.943	84.81
333.172	96.81
333.4	87.81
333.629	79.81
333.857	77.81
334.085	76.81
334.314	87.81
334.542	82.81
334.771	88.81
334.999	73.81
335.227	77.81
335.455	84.81
335.684	86.81
335.912	99.81
336.14	82.81
336.369	86.81
336.597	82.81
336.825	74.81
337.053	90.81
337.281	92.81
337.51	84.81
337.738	75.81
337.966	93.81
338.194	73.81
338.422	80.81
338.65	74.81
338.878	91.81
339.106	95.81
339.334	73.81
339.562	77.81
339.79	87.81
340.018	74.81
340.246	86.81
340.474	88.81
340.702	83.81
340.93	72.81
341.158	75.81
341.386	80.81
341.614	78.81
341.842	91.81
342.07	84.81
342.298	94.81
342.526	81.81
342.754	85.81
342.981	79.81
343.209	74.81
343.437	86.81
343.665	86.81
343.893	95.81
344.12	92.81
344.348	100.81
344.576	89.81
344.804	104.81
345.031	99.81
345.259	74.81
345.487	90.81
345.714	86.81
345.942	88.81
346.17	75.81
346.397	80.81
346.625	89.81
346.853	83.81
347.08	77.81
347.308	65.81
347.535	90.81
347.763	86.81
347.99	72.81
348.218	85.81
348.445	92.81
348.673	73.81
348.9	99.81
349.128	84.81
349.355	74.81
349.583	84.81
349.81	81.81
350.037	69.81
350.265	80.81
350.492	86.81
350.72	82.81
350.947	80.81
351.174	75.81
351.402	70.81
351.629	79.81
351.856	80.81
352.083	96.81
352.311	78.81
352.538	83.81
352.765	78.81
352.992	86.81
353.22	63.81
353.447	93.81
353.674	70.81
353.901	76.81
354.128	79.81
354.355	91.81
354.583	76.81
354.81	94.81
355.037	84.81
355.264	84.81
355.491	92.81
355.718	79.81
355.945	75.81
356.172	90.81
356.399	87.81
356.626	91.81
356.853	80.81
357.08	79.81
357.307	80.81
357.534	74.81
357.761	94.81
357.988	83.81
358.215	93.81
358.441	90.81
358.668	82.81
358.895	86.81
359.122	63.81
359.349	78.81
359.576	80.81
359.802	79.81
360.029	89.81
360.256	83.81
360.483	75.81
360.709	92.81
360.936	83.81
361.163	80.81
361.39	94.81
361.616	90.81
361.843	82.81
362.07	92.81
362.296	89.81
362.523	76.81
362.749	79.81
362.976	74.81
363.203	93.81
363.429	78.81
363.656	68.81
363.882	87.81
364.109	89.81
364.335	80.81
364.562	72.81
364.788	80.81
365.015	84.81
365.241	91.81
365.468	91.81
365.694	83.81
365.92	86.81
366.147	85.81
366.373	84.81
366.599	77.81
366.826	92.81
367.052	85.81
367.278	94.81
367.505	75.81
367.731	76.81
367.957	86.81
368.184	85.81
368.41	87.81
368.636	87.81
368.862	77.81
369.089	87.81
369.315	75.81
369.541	70.81
369.767	79.81
369.993	84.81
370.219	68.81
370.445	75.81
370.672	95.81
370.898	90.81
371.124	80.81
371.35	86.81
371.576	76.81
371.802	81.81
372.028	81.81
372.254	86.81
372.48	85.81
372.706	89.81
372.932	79.81
373.158	73.81
373.384	81.81
373.61	83.81
373.835	74.81
374.061	74.81
374.287	85.81
374.513	72.81
374.739	79.81
374.965	75.81
375.191	78.81
375.416	84.81
375.642	70.81
375.868	90.81
376.094	75.81
376.319	85.81
376.545	80.81
376.771	86.81
376.997	87.81
377.222	93.81
377.448	89.81
377.674	77.81
377.899	79.81
378.125	93.81
378.35	104.81
378.576	78.81
378.802	76.81
379.027	82.81
379.253	90.81
379.478	94.81
379.704	85.81
379.929	71.81
380.155	79.81
380.38	94.81
380.606	84.81
380.831	93.81
381.057	95.81
381.282	96.81
381.507	90.81
381.733	70.81
381.958	71.81
382.184	84.81
382.409	64.81
382.634	93.81
382.86	83.81
383.085	67.81
383.31	77.81
383.535	93.81
383.761	72.81
383.986	83.81
384.211	82.81
384.436	78.81
384.662	74.81
384.887	84.81
385.112	83.81
385.337	73.81
385.562	84.81
385.787	70.81
386.013	83.81
386.238	67.81
386.463	79.81
386.688	93.81
386.913	85.81
387.138	75.81
387.363	94.81
387.588	94.81
387.813	86.81
388.038	75.81
388.263	74.81
388.488	90.81
388.713	83.81
388.938	75.81
389.163	86.81
389.387	74.81
389.612	78.81
389.837	71.81
390.062	78.81
390.287	64.81
390.512	77.81
390.736	69.81
390.961	70.81
391.186	71.81
391.411	78.81
391.636	84.81
391.86	81.81
392.085	72.81
392.31	80.81
392.534	89.81
392.759	82.81
392.984	74.81
393.208	88.81
393.433	78.81
393.658	79.81
393.882	65.81
394.107	82.81
394.331	75.81
394.556	82.81
394.78	87.81
395.005	88.81
395.229	79.81
395.454	79.81
395.678	99.81
395.903	82.81
396.127	71.81
396.352	91.81
396.576	75.81
396.801	75.81
397.025	89.81
397.249	90.81
397.474	93.81
397.698	75.81
397.922	63.81
398.147	70.81
398.371	79.81
398.595	84.81
398.82	89.81
399.044	88.81
399.268	72.81
399.492	98.81
399.717	91.81
399.941	79.81
400.165	85.81
400.389	85.81
400.613	90.81
400.837	81.81
401.062	85.81
401.286	79.81
401.51	88.81
401.734	101.81
401.958	75.81
402.182	95.81
402.406	93.81
402.63	96.81
402.854	95.81
403.078	96.81
403.302	84.81
403.526	90.81
403.75	90.81
403.974	94.81
404.198	155.81
404.422	234.81
404.645	279.81
404.869	240.81
405.093	153.81
405.317	98.81
405.541	93.81
405.765	90.81
405.988	71.81
406.212	100.81
406.436	93.81
406.66	83.81
406.883	77.81
407.107	83.81
407.331	84.81
407.555	78.81
407.778	79.81
408.002	81.81
408.226	88.81
408.449	85.81
408.673	83.81
408.896	84.81
409.12	82.81
409.344	79.81
409.567	75.81
409.791	100.81
410.014	75.81
410.238	87.81
410.461	87.81
410.685	76.81
410.908	83.81
411.132	71.81
411.355	79.81
411.578	89.81
411.802	81.81
412.025	90.81
412.249	87.81
412.472	86.81
412.695	88.81
412.919	73.81
413.142	83.81
413.365	81.81
413.589	94.81
413.812	86.81
414.035	79.81
414.258	77.81
414.482	89.81
414.705	79.81
414.928	87.81
415.151	86.81
415.374	83.81
415.597	87.81
415.821	79.81
416.044	62.81
416.267	82.81
416.49	85.81
416.713	79.81
416.936	72.81
417.159	75.81
417.382	87.81
417.605	79.81
417.828	80.81
418.051	75.81
418.274	83.81
418.497	102.81
418.72	92.81
418.943	80.81
419.166	79.81
419.389	87.81
419.611	76.81
419.834	67.81
420.057	77.81
420.28	86.81
420.503	72.81
420.726	96.81
420.948	68.81
421.171	74.81
421.394	97.81
421.617	84.81
421.839	74.81
422.062	78.81
422.285	81.81
422.507	70.81
422.73	77.81
422.953	74.81
423.175	84.81
423.398	92.81
423.621	79.81
423.843	90.81
424.066	90.81
424.288	79.81
424.511	91.81
424.733	93.81
424.956	88.81
425.178	98.81
425.401	78.81
425.623	84.81
425.846	75.81
426.068	73.81
426.291	90.81
426.513	71.81
426.735	90.81
426.958	78.81
427.18	87.81
427.402	84.81
427.625	84.81
427.847	79.81
428.069	90.81
428.292	78.81
428.514	91.81
428.736	88.81
428.958	84.81
429.181	91.81
429.403	100.81
429.625	78.81
429.847	77.81
430.069	81.81
430.292	78.81
430.514	79.81
430.736	87.81
430.958	81.81
431.18	86.81
431.402	77.81
431.624	83.81
431.846	80.81
432.068	84.81
432.29	96.81
432.512	80.81
432.734	101.81
432.956	84.81
433.178	89.81
433.4	75.81
433.622	79.81
433.844	80.81
434.066	78.81
434.287	78.81
434.509	90.81
434.731	68.81
434.953	80.81
435.175	84.81
435.397	77.81
435.618	92.81
435.84	74.81
436.062	90.81
436.284	78.81
436.505	79.81
436.727	87.81
436.949	82.81
437.17	103.81
437.392	80.81
437.614	94.81
437.835	85.81
438.057	77.81
438.278	74.81
438.5	90.81
438.721	87.81
438.943	89.81
439.165	66.81
439.386	102.81
439.608	93.81
439.829	86.81
440.05	80.81
440.272	87.81
440.493	90.81
440.715	94.81
440.936	77.81
441.158	83.81
441.379	98.81
441.6	78.81
441.822	71.81
442.043	60.81
442.264	82.81
442.486	77.81
442.707	89.81
442.928	91.81
443.149	87.81
443.371	82.81
443.592	83.81
443.813	86.81
444.034	87.81
444.255	90.81
444.476	83.81
444.698	91.81
444.919	90.81
445.14	163.81
445.361	112.81
445.582	93.81
445.803	84.81
446.024	80.81
446.245	86.81
446.466	86.81
446.687	73.81
446.908	91.81
447.129	92.81
447.35	91.81
447.571	86.81
447.792	76.81
448.013	80.81
448.234	84.81
448.455	91.81
448.675	85.81
448.896	102.81
449.117	87.81
449.338	86.81
449.559	93.81
449.779	91.81
450	89.81
450.221	85.81
450.442	78.81
450.662	78.81
450.883	91.81
451.104	93.81
451.324	91.81
451.545	76.81
451.766	90.81
451.986	86.81
452.207	88.81
452.428	79.81
452.648	92.81
452.869	84.81
453.089	93.81
453.31	82.81
453.53	87.81
453.751	75.81
453.971	77.81
454.192	83.81
454.412	63.81
454.633	76.81
454.853	86.81
455.073	87.81
455.294	77.81
455.514	83.81
455.734	75.81
455.955	99.81
456.175	88.81
456.395	69.81
456.616	80.81
456.836	89.81
457.056	69.81
457.276	78.81
457.497	80.81
457.717	90.81
457.937	82.81
458.157	75.81
458.377	86.81
458.598	81.81
458.818	71.81
459.038	90.81
459.258	87.81
459.478	81.81
459.698	90.81
459.918	79.81
460.138	78.81
460.358	82.81
460.578	92.81
460.798	80.81
461.018	92.81
461.238	103.81
461.458	86.81
461.678	77.81
461.898	85.81
462.118	84.81
462.338	94.81
462.558	82.81
462.777	83.81
462.997	98.81
463.217	88.81
463.437	96.81
463.657	88.81
463.876	63.81
464.096	91.81
464.316	90.81
464.536	85.81
464.755	84.81
464.975	92.81
465.195	96.81
465.414	91.81
465.634	92.81
465.854	64.81
466.073	84.81
466.293	88.81
466.512	75.81
466.732	84.81
466.951	95.81
467.171	98.81
467.391	86.81
467.61	94.81
467.829	80.81
468.049	86.81
468.268	90.81
468.488	75.81
468.707	96.81
468.927	84.81
469.146	99.81
469.365	89.81
469.585	82.81
469.804	83.81
470.023	86.81
470.243	81.81
470.462	90.81
470.681	85.81
470.901	85.81
471.12	84.81
471.339	86.81
471.558	101.81
471.777	87.81
471.997	101.81
472.216	82.81
472.435	98.81
472.654	93.81
472.873	92.81
473.092	93.81
473.311	83.81
473.53	86.81
473.749	84.81
473.968	95.81
474.187	86.81
474.406	79.81
474.625	90.81
474.844	89.81
475.063	76.81
475.282	83.81
475.501	98.81
475.72	104.81
475.939	96.81
476.158	93.81
476.377	79.81
476.596	84.81
476.814	91.81
477.033	86.81
477.252	90.81
477.471	93.81
477.69	72.81
477.908	81.81
478.127	100.81
478.346	80.81
478.564	89.81
478.783	90.81
479.002	89.81
479.22	87.81
479.439	98.81
479.658	71.81
479.876	78.81
480.095	88.81
480.313	73.81
480.532	84.81
480.751	87.81
480.969	92.81
481.188	87.81
481.406	93.81
481.624	86.81
481.843	80.81
482.061	85.81
482.28	69.81
482.498	85.81
482.717	96.81
482.935	83.81
483.153	96.81
483.372	91.81
483.59	84.81
483.808	88.81
484.027	87.81
484.245	80.81
484.463	82.81
484.681	102.81
484.9	100.81
485.118	92.81
485.336	86.81
485.554	92.81
485.772	94.81
485.99	81.81
486.209	90.81
486.427	85.81
486.645	96.81
486.863	90.81
487.081	95.81
487.299	95.81
487.517	82.81
487.735	91.81
487.953	91.81
488.171	96.81
488.389	89.81
488.607	81.81
488.825	91.81
489.043	111.81
489.261	100.81
489.479	99.81
489.696	90.81
489.914	85.81
490.132	92.81
490.35	101.81
490.568	88.81
490.786	82.81
491.003	100.81
491.221	91.81
491.439	94.81
491.657	92.81
491.874	87.81
492.092	85.81
492.31	98.81
492.527	92.81
492.745	105.81
492.963	93.81
493.18	86.81
493.398	110.81
493.615	84.81
493.833	82.81
494.05	93.81
494.268	96.81
494.485	86.81
494.703	85.81
494.92	91.81
495.138	91.81
495.355	86.81
495.573	95.81
495.79	102.81
496.008	98.81
496.225	105.81
496.442	84.81
496.66	102.81
496.877	94.81
497.094	106.81
497.312	97.81
497.529	86.81
497.746	82.81
497.963	85.81
498.181	95.81
498.398	98.81
498.615	92.81
498.832	90.81
499.049	88.81
499.267	84.81
499.484	90.81
499.701	103.81
499.918	82.81
500.135	88.81
500.352	98.81
500.569	92.81
500.786	92.81
501.003	78.81
501.22	77.81
501.437	86.81
501.654	78.81
501.871	104.81
502.088	91.81
502.305	92.81
502.522	87.81
502.739	90.81
502.956	95.81
503.172	87.81
503.389	71.81
503.606	92.81
503.823	80.81
504.04	96.81
504.256	100.81
504.473	85.81
504.69	85.81
504.907	88.81
505.123	90.81
505.34	84.81
505.557	94.81
505.773	87.81
505.99	71.81
506.207	77.81
506.423	72.81
506.64	96.81
506.856	79.81
507.073	92.81
507.289	86.81
507.506	94.81
507.722	96.81
507.939	104.81
508.155	78.81
508.372	88.81
508.588	91.81
508.805	104.81
509.021	98.81
509.238	89.81
509.454	99.81
509.67	87.81
509.887	104.81
510.103	88.81
510.319	92.81
510.536	100.81
510.752	94.81
510.968	104.81
511.184	110.81
511.401	98.81
511.617	91.81
511.833	94.81
512.049	94.81
512.265	96.81
512.481	85.81
512.698	90.81
512.914	86.81
513.13	91.81
513.346	85.81
513.562	77.81
513.778	83.81
513.994	68.81
514.21	88.81
514.426	104.81
514.642	80.81
514.858	88.81
515.074	85.81
515.29	86.81
515.506	79.81
515.721	94.81
515.937	90.81
516.153	91.81
516.369	75.81
516.585	86.81
516.801	78.81
517.016	83.81
517.232	83.81
517.448	84.81
517.664	88.81
517.879	79.81
518.095	72.81
518.311	80.81
518.527	77.81
518.742	92.81
518.958	98.81
519.173	82.81
519.389	92.81
519.605	86.81
