Data from KBr_2_HRD10591_00009.txt Node
Date: Mon Jan 19 13:12:55 EST 2026
User: Yrep
Spectrometer: HR+D1059
Trigger mode: 1
Integration Time (sec): 1.000000E-1
Scans to average: 1
Electric dark correction enabled: true
Nonlinearity correction enabled: false
Boxcar width: 0
XAxis mode: Wavelengths
Number of Pixels in Spectrum: 2048
>>>>>Begin Spectral Data<<<<<
223.165	-17.19
223.4	-17.19
223.635	-17.19
223.869	-18.19
224.104	-29.19
224.338	-39.19
224.573	-11.19
224.808	-13.19
225.042	-16.19
225.277	-7.19
225.511	12.81
225.746	2.81
225.98	5.81
226.215	8.81
226.449	27.81
226.683	26.81
226.918	36.81
227.152	29.81
227.387	36.81
227.621	52.81
227.856	47.81
228.09	34.81
228.324	46.81
228.559	38.81
228.793	55.81
229.027	59.81
229.262	71.81
229.496	65.81
229.73	76.81
229.964	57.81
230.199	82.81
230.433	73.81
230.667	88.81
230.901	65.81
231.136	91.81
231.37	97.81
231.604	75.81
231.838	88.81
232.072	95.81
232.306	96.81
232.541	73.81
232.775	79.81
233.009	75.81
233.243	73.81
233.477	82.81
233.711	78.81
233.945	78.81
234.179	82.81
234.413	91.81
234.647	84.81
234.881	85.81
235.115	74.81
235.349	92.81
235.583	78.81
235.817	87.81
236.051	83.81
236.285	81.81
236.519	75.81
236.753	71.81
236.987	60.81
237.221	76.81
237.455	72.81
237.689	69.81
237.922	81.81
238.156	84.81
238.39	70.81
238.624	86.81
238.858	80.81
239.091	74.81
239.325	67.81
239.559	82.81
239.793	74.81
240.027	78.81
240.26	84.81
240.494	69.81
240.728	91.81
240.961	86.81
241.195	55.81
241.429	62.81
241.662	64.81
241.896	73.81
242.13	80.81
242.363	78.81
242.597	85.81
242.83	78.81
243.064	64.81
243.298	66.81
243.531	76.81
243.765	76.81
243.998	77.81
244.232	101.81
244.465	87.81
244.699	75.81
244.932	86.81
245.166	76.81
245.399	79.81
245.633	73.81
245.866	70.81
246.099	53.81
246.333	65.81
246.566	73.81
246.8	75.81
247.033	80.81
247.266	78.81
247.5	84.81
247.733	72.81
247.966	76.81
248.2	73.81
248.433	65.81
248.666	68.81
248.899	70.81
249.133	94.81
249.366	81.81
249.599	77.81
249.832	80.81
250.066	86.81
250.299	90.81
250.532	91.81
250.765	78.81
250.998	94.81
251.231	76.81
251.465	84.81
251.698	75.81
251.931	65.81
252.164	81.81
252.397	86.81
252.63	100.81
252.863	94.81
253.096	73.81
253.329	95.81
253.562	73.81
253.795	82.81
254.028	74.81
254.261	73.81
254.494	92.81
254.727	89.81
254.96	68.81
255.193	62.81
255.426	90.81
255.659	81.81
255.892	80.81
256.124	84.81
256.357	83.81
256.59	83.81
256.823	93.81
257.056	73.81
257.289	76.81
257.521	96.81
257.754	77.81
257.987	68.81
258.22	86.81
258.452	83.81
258.685	86.81
258.918	83.81
259.151	84.81
259.383	80.81
259.616	77.81
259.849	85.81
260.081	86.81
260.314	90.81
260.547	85.81
260.779	84.81
261.012	95.81
261.244	86.81
261.477	93.81
261.71	83.81
261.942	89.81
262.175	85.81
262.407	80.81
262.64	88.81
262.872	81.81
263.105	78.81
263.337	84.81
263.57	85.81
263.802	87.81
264.035	88.81
264.267	82.81
264.499	85.81
264.732	74.81
264.964	89.81
265.197	94.81
265.429	79.81
265.661	90.81
265.894	87.81
266.126	83.81
266.358	60.81
266.591	81.81
266.823	86.81
267.055	88.81
267.287	77.81
267.52	90.81
267.752	78.81
267.984	90.81
268.216	70.81
268.448	80.81
268.681	93.81
268.913	78.81
269.145	87.81
269.377	91.81
269.609	87.81
269.841	70.81
270.073	85.81
270.306	97.81
270.538	88.81
270.77	86.81
271.002	76.81
271.234	81.81
271.466	96.81
271.698	86.81
271.93	77.81
272.162	87.81
272.394	81.81
272.626	80.81
272.858	90.81
273.09	79.81
273.322	88.81
273.553	89.81
273.785	82.81
274.017	85.81
274.249	84.81
274.481	74.81
274.713	71.81
274.945	82.81
275.176	81.81
275.408	83.81
275.64	92.81
275.872	85.81
276.104	85.81
276.335	84.81
276.567	79.81
276.799	75.81
277.031	69.81
277.262	95.81
277.494	71.81
277.726	82.81
277.957	87.81
278.189	88.81
278.421	71.81
278.652	88.81
278.884	84.81
279.115	82.81
279.347	78.81
279.579	77.81
279.81	69.81
280.042	84.81
280.273	96.81
280.505	109.81
280.736	78.81
280.968	84.81
281.199	84.81
281.431	71.81
281.662	90.81
281.894	89.81
282.125	77.81
282.356	74.81
282.588	92.81
282.819	84.81
283.051	87.81
283.282	78.81
283.513	96.81
283.745	88.81
283.976	94.81
284.207	85.81
284.439	79.81
284.67	89.81
284.901	80.81
285.132	86.81
285.364	92.81
285.595	85.81
285.826	81.81
286.057	92.81
286.288	88.81
286.52	84.81
286.751	78.81
286.982	80.81
287.213	72.81
287.444	90.81
287.675	89.81
287.906	75.81
288.138	84.81
288.369	87.81
288.6	81.81
288.831	91.81
289.062	92.81
289.293	79.81
289.524	87.81
289.755	91.81
289.986	88.81
290.217	79.81
290.448	85.81
290.679	77.81
290.91	71.81
291.141	79.81
291.371	87.81
291.602	87.81
291.833	77.81
292.064	87.81
292.295	79.81
292.526	93.81
292.757	87.81
292.987	81.81
293.218	89.81
293.449	79.81
293.68	87.81
293.91	81.81
294.141	88.81
294.372	81.81
294.603	87.81
294.833	90.81
295.064	90.81
295.295	86.81
295.525	89.81
295.756	87.81
295.987	88.81
296.217	85.81
296.448	79.81
296.679	93.81
296.909	85.81
297.14	93.81
297.37	89.81
297.601	107.81
297.831	100.81
298.062	83.81
298.292	96.81
298.523	92.81
298.753	86.81
298.984	86.81
299.214	81.81
299.445	87.81
299.675	91.81
299.905	78.81
300.136	82.81
300.366	73.81
300.597	91.81
300.827	90.81
301.057	76.81
301.288	78.81
301.518	74.81
301.748	70.81
301.979	93.81
302.209	89.81
302.439	74.81
302.669	89.81
302.9	77.81
303.13	79.81
303.36	77.81
303.59	73.81
303.82	88.81
304.051	85.81
304.281	63.81
304.511	98.81
304.741	87.81
304.971	84.81
305.201	95.81
305.431	97.81
305.661	72.81
305.891	85.81
306.121	86.81
306.352	79.81
306.582	89.81
306.812	80.81
307.042	75.81
307.272	79.81
307.502	89.81
307.731	70.81
307.961	84.81
308.191	77.81
308.421	86.81
308.651	95.81
308.881	84.81
309.111	94.81
309.341	70.81
309.571	94.81
309.8	84.81
310.03	82.81
310.26	93.81
310.49	79.81
310.72	91.81
310.949	84.81
311.179	98.81
311.409	80.81
311.639	100.81
311.868	78.81
312.098	72.81
312.328	88.81
312.557	92.81
312.787	84.81
313.017	91.81
313.246	87.81
313.476	79.81
313.706	95.81
313.935	73.81
314.165	94.81
314.394	97.81
314.624	89.81
314.853	73.81
315.083	95.81
315.312	108.81
315.542	93.81
315.771	81.81
316.001	84.81
316.23	81.81
316.46	77.81
316.689	79.81
316.919	95.81
317.148	88.81
317.377	87.81
317.607	87.81
317.836	86.81
318.065	86.81
318.295	95.81
318.524	85.81
318.753	85.81
318.983	89.81
319.212	102.81
319.441	94.81
319.67	86.81
319.9	87.81
320.129	83.81
320.358	89.81
320.587	88.81
320.816	76.81
321.046	92.81
321.275	93.81
321.504	94.81
321.733	80.81
321.962	89.81
322.191	87.81
322.42	82.81
322.649	90.81
322.878	96.81
323.108	81.81
323.337	87.81
323.566	88.81
323.795	90.81
324.024	95.81
324.253	77.81
324.482	90.81
324.71	83.81
324.939	70.81
325.168	73.81
325.397	92.81
325.626	83.81
325.855	81.81
326.084	75.81
326.313	83.81
326.542	73.81
326.77	82.81
326.999	93.81
327.228	68.81
327.457	92.81
327.686	82.81
327.914	79.81
328.143	113.81
328.372	100.81
328.6	93.81
328.829	75.81
329.058	71.81
329.287	84.81
329.515	83.81
329.744	94.81
329.972	94.81
330.201	88.81
330.43	104.81
330.658	77.81
330.887	78.81
331.115	80.81
331.344	81.81
331.572	86.81
331.801	76.81
332.03	92.81
332.258	77.81
332.486	81.81
332.715	81.81
332.943	81.81
333.172	93.81
333.4	77.81
333.629	75.81
333.857	84.81
334.085	77.81
334.314	84.81
334.542	73.81
334.771	76.81
334.999	86.81
335.227	69.81
335.455	96.81
335.684	83.81
335.912	94.81
336.14	101.81
336.369	85.81
336.597	86.81
336.825	79.81
337.053	84.81
337.281	85.81
337.51	100.81
337.738	88.81
337.966	93.81
338.194	89.81
338.422	90.81
338.65	104.81
338.878	91.81
339.106	96.81
339.334	87.81
339.562	97.81
339.79	77.81
340.018	81.81
340.246	80.81
340.474	83.81
340.702	82.81
340.93	81.81
341.158	80.81
341.386	86.81
341.614	85.81
341.842	76.81
342.07	75.81
342.298	85.81
342.526	90.81
342.754	71.81
342.981	74.81
343.209	87.81
343.437	97.81
343.665	86.81
343.893	94.81
344.12	70.81
344.348	91.81
344.576	114.81
344.804	112.81
345.031	83.81
345.259	93.81
345.487	84.81
345.714	85.81
345.942	87.81
346.17	82.81
346.397	89.81
346.625	85.81
346.853	87.81
347.08	79.81
347.308	88.81
347.535	73.81
347.763	76.81
347.99	85.81
348.218	95.81
348.445	91.81
348.673	89.81
348.9	81.81
349.128	90.81
349.355	85.81
349.583	102.81
349.81	81.81
350.037	73.81
350.265	92.81
350.492	78.81
350.72	100.81
350.947	69.81
351.174	94.81
351.402	77.81
351.629	83.81
351.856	95.81
352.083	88.81
352.311	90.81
352.538	85.81
352.765	93.81
352.992	89.81
353.22	90.81
353.447	90.81
353.674	79.81
353.901	98.81
354.128	88.81
354.355	89.81
354.583	84.81
354.81	88.81
355.037	92.81
355.264	81.81
355.491	74.81
355.718	95.81
355.945	92.81
356.172	90.81
356.399	84.81
356.626	90.81
356.853	87.81
357.08	73.81
357.307	84.81
357.534	84.81
357.761	82.81
357.988	89.81
358.215	89.81
358.441	87.81
358.668	82.81
358.895	78.81
359.122	89.81
359.349	86.81
359.576	92.81
359.802	79.81
360.029	80.81
360.256	89.81
360.483	85.81
360.709	79.81
360.936	89.81
361.163	84.81
361.39	77.81
361.616	81.81
361.843	80.81
362.07	74.81
362.296	78.81
362.523	96.81
362.749	85.81
362.976	86.81
363.203	77.81
363.429	89.81
363.656	87.81
363.882	83.81
364.109	87.81
364.335	81.81
364.562	82.81
364.788	78.81
365.015	88.81
365.241	79.81
365.468	69.81
365.694	93.81
365.92	78.81
366.147	97.81
366.373	81.81
366.599	97.81
366.826	84.81
367.052	102.81
367.278	97.81
367.505	86.81
367.731	87.81
367.957	85.81
368.184	89.81
368.41	84.81
368.636	89.81
368.862	84.81
369.089	78.81
369.315	90.81
369.541	88.81
369.767	82.81
369.993	91.81
370.219	85.81
370.445	78.81
370.672	78.81
370.898	97.81
371.124	93.81
371.35	89.81
371.576	66.81
371.802	82.81
372.028	80.81
372.254	84.81
372.48	81.81
372.706	74.81
372.932	94.81
373.158	96.81
373.384	88.81
373.61	86.81
373.835	97.81
374.061	62.81
374.287	96.81
374.513	85.81
374.739	76.81
374.965	90.81
375.191	100.81
375.416	91.81
375.642	91.81
375.868	94.81
376.094	73.81
376.319	87.81
376.545	89.81
376.771	85.81
376.997	87.81
377.222	92.81
377.448	88.81
377.674	92.81
377.899	85.81
378.125	96.81
378.35	94.81
378.576	78.81
378.802	94.81
379.027	85.81
379.253	94.81
379.478	81.81
379.704	89.81
379.929	78.81
380.155	90.81
380.38	88.81
380.606	95.81
380.831	84.81
381.057	93.81
381.282	84.81
381.507	90.81
381.733	85.81
381.958	82.81
382.184	71.81
382.409	83.81
382.634	89.81
382.86	89.81
383.085	90.81
383.31	85.81
383.535	68.81
383.761	88.81
383.986	101.81
384.211	82.81
384.436	94.81
384.662	77.81
384.887	88.81
385.112	82.81
385.337	84.81
385.562	84.81
385.787	96.81
386.013	77.81
386.238	78.81
386.463	97.81
386.688	93.81
386.913	83.81
387.138	64.81
387.363	69.81
387.588	90.81
387.813	77.81
388.038	82.81
388.263	81.81
388.488	83.81
388.713	79.81
388.938	94.81
389.163	77.81
389.387	94.81
389.612	81.81
389.837	93.81
390.062	82.81
390.287	91.81
390.512	77.81
390.736	96.81
390.961	85.81
391.186	95.81
391.411	82.81
391.636	86.81
391.86	73.81
392.085	84.81
392.31	69.81
392.534	86.81
392.759	86.81
392.984	76.81
393.208	92.81
393.433	82.81
393.658	81.81
393.882	79.81
394.107	101.81
394.331	80.81
394.556	82.81
394.78	97.81
395.005	96.81
395.229	81.81
395.454	93.81
395.678	91.81
395.903	92.81
396.127	85.81
396.352	92.81
396.576	81.81
396.801	87.81
397.025	74.81
397.249	89.81
397.474	80.81
397.698	91.81
397.922	84.81
398.147	80.81
398.371	78.81
398.595	94.81
398.82	79.81
399.044	89.81
399.268	100.81
399.492	88.81
399.717	92.81
399.941	86.81
400.165	95.81
400.389	72.81
400.613	78.81
400.837	91.81
401.062	94.81
401.286	90.81
401.51	100.81
401.734	84.81
401.958	97.81
402.182	82.81
402.406	88.81
402.63	91.81
402.854	83.81
403.078	73.81
403.302	80.81
403.526	86.81
403.75	79.81
403.974	103.81
404.198	136.81
404.422	228.81
404.645	296.81
404.869	224.81
405.093	150.81
405.317	96.81
405.541	99.81
405.765	87.81
405.988	88.81
406.212	85.81
406.436	86.81
406.66	73.81
406.883	74.81
407.107	81.81
407.331	82.81
407.555	77.81
407.778	78.81
408.002	91.81
408.226	78.81
408.449	64.81
408.673	87.81
408.896	88.81
409.12	78.81
409.344	96.81
409.567	89.81
409.791	91.81
410.014	83.81
410.238	72.81
410.461	84.81
410.685	79.81
410.908	89.81
411.132	84.81
411.355	76.81
411.578	97.81
411.802	81.81
412.025	84.81
412.249	79.81
412.472	58.81
412.695	93.81
412.919	83.81
413.142	85.81
413.365	98.81
413.589	82.81
413.812	71.81
414.035	93.81
414.258	78.81
414.482	78.81
414.705	90.81
414.928	86.81
415.151	84.81
415.374	92.81
415.597	77.81
415.821	101.81
416.044	86.81
416.267	93.81
416.49	82.81
416.713	76.81
416.936	100.81
417.159	84.81
417.382	71.81
417.605	88.81
417.828	85.81
418.051	86.81
418.274	90.81
418.497	84.81
418.72	90.81
418.943	89.81
419.166	85.81
419.389	88.81
419.611	88.81
419.834	89.81
420.057	89.81
420.28	78.81
420.503	74.81
420.726	81.81
420.948	85.81
421.171	77.81
421.394	87.81
421.617	88.81
421.839	85.81
422.062	76.81
422.285	77.81
422.507	75.81
422.73	91.81
422.953	79.81
423.175	73.81
423.398	77.81
423.621	85.81
423.843	85.81
424.066	97.81
424.288	94.81
424.511	65.81
424.733	86.81
424.956	83.81
425.178	95.81
425.401	89.81
425.623	97.81
425.846	95.81
426.068	95.81
426.291	79.81
426.513	82.81
426.735	96.81
426.958	95.81
427.18	107.81
427.402	87.81
427.625	86.81
427.847	81.81
428.069	90.81
428.292	78.81
428.514	77.81
428.736	96.81
428.958	89.81
429.181	76.81
429.403	85.81
429.625	78.81
429.847	87.81
430.069	81.81
430.292	104.81
430.514	79.81
430.736	94.81
430.958	88.81
431.18	73.81
431.402	82.81
431.624	80.81
431.846	77.81
432.068	89.81
432.29	67.81
432.512	81.81
432.734	86.81
432.956	89.81
433.178	100.81
433.4	86.81
433.622	100.81
433.844	81.81
434.066	94.81
434.287	82.81
434.509	85.81
434.731	89.81
434.953	79.81
435.175	87.81
435.397	81.81
435.618	86.81
435.84	81.81
436.062	80.81
436.284	88.81
436.505	84.81
436.727	86.81
436.949	98.81
437.17	82.81
437.392	95.81
437.614	93.81
437.835	75.81
438.057	94.81
438.278	91.81
438.5	90.81
438.721	94.81
438.943	95.81
439.165	80.81
439.386	75.81
439.608	84.81
439.829	99.81
440.05	94.81
440.272	72.81
440.493	86.81
440.715	89.81
440.936	85.81
441.158	81.81
441.379	84.81
441.6	91.81
441.822	89.81
442.043	88.81
442.264	93.81
442.486	79.81
442.707	84.81
442.928	97.81
443.149	82.81
443.371	94.81
443.592	85.81
443.813	100.81
444.034	90.81
444.255	82.81
444.476	88.81
444.698	95.81
444.919	82.81
445.14	158.81
445.361	125.81
445.582	81.81
445.803	94.81
446.024	93.81
446.245	84.81
446.466	88.81
446.687	82.81
446.908	82.81
447.129	81.81
447.35	90.81
447.571	80.81
447.792	88.81
448.013	84.81
448.234	79.81
448.455	87.81
448.675	92.81
448.896	67.81
449.117	78.81
449.338	89.81
449.559	100.81
449.779	90.81
450	92.81
450.221	80.81
450.442	76.81
450.662	90.81
450.883	94.81
451.104	90.81
451.324	92.81
451.545	83.81
451.766	83.81
451.986	90.81
452.207	84.81
452.428	94.81
452.648	81.81
452.869	88.81
453.089	84.81
453.31	86.81
453.53	85.81
453.751	97.81
453.971	83.81
454.192	89.81
454.412	86.81
454.633	82.81
454.853	77.81
455.073	78.81
455.294	89.81
455.514	89.81
455.734	73.81
455.955	92.81
456.175	84.81
456.395	88.81
456.616	87.81
456.836	84.81
457.056	84.81
457.276	77.81
457.497	67.81
457.717	81.81
457.937	78.81
458.157	88.81
458.377	76.81
458.598	82.81
458.818	101.81
459.038	70.81
459.258	95.81
459.478	87.81
459.698	87.81
459.918	104.81
460.138	77.81
460.358	76.81
460.578	80.81
460.798	83.81
461.018	82.81
461.238	75.81
461.458	87.81
461.678	72.81
461.898	102.81
462.118	89.81
462.338	89.81
462.558	79.81
462.777	79.81
462.997	85.81
463.217	79.81
463.437	86.81
463.657	104.81
463.876	82.81
464.096	94.81
464.316	77.81
464.536	86.81
464.755	84.81
464.975	89.81
465.195	100.81
465.414	88.81
465.634	95.81
465.854	96.81
466.073	94.81
466.293	76.81
466.512	78.81
466.732	89.81
466.951	82.81
467.171	88.81
467.391	94.81
467.61	94.81
467.829	89.81
468.049	78.81
468.268	71.81
468.488	90.81
468.707	92.81
468.927	88.81
469.146	97.81
469.365	97.81
469.585	88.81
469.804	89.81
470.023	90.81
470.243	89.81
470.462	105.81
470.681	106.81
470.901	104.81
471.12	87.81
471.339	89.81
471.558	102.81
471.777	86.81
471.997	90.81
472.216	98.81
472.435	87.81
472.654	79.81
472.873	87.81
473.092	95.81
473.311	95.81
473.53	89.81
473.749	98.81
473.968	98.81
474.187	76.81
474.406	86.81
474.625	93.81
474.844	90.81
475.063	96.81
475.282	89.81
475.501	84.81
475.72	92.81
475.939	87.81
476.158	90.81
476.377	91.81
476.596	88.81
476.814	88.81
477.033	94.81
477.252	83.81
477.471	82.81
477.69	90.81
477.908	93.81
478.127	89.81
478.346	92.81
478.564	77.81
478.783	86.81
479.002	82.81
479.22	95.81
479.439	108.81
479.658	90.81
479.876	85.81
480.095	77.81
480.313	98.81
480.532	71.81
480.751	77.81
480.969	91.81
481.188	77.81
481.406	89.81
481.624	76.81
481.843	100.81
482.061	97.81
482.28	98.81
482.498	85.81
482.717	84.81
482.935	76.81
483.153	76.81
483.372	84.81
483.59	97.81
483.808	66.81
484.027	76.81
484.245	87.81
484.463	70.81
484.681	94.81
484.9	82.81
485.118	79.81
485.336	89.81
485.554	83.81
485.772	102.81
485.99	86.81
486.209	86.81
486.427	80.81
486.645	91.81
486.863	90.81
487.081	106.81
487.299	108.81
487.517	102.81
487.735	102.81
487.953	101.81
488.171	102.81
488.389	106.81
488.607	101.81
488.825	77.81
489.043	91.81
489.261	89.81
489.479	83.81
489.696	82.81
489.914	96.81
490.132	90.81
490.35	78.81
490.568	80.81
490.786	86.81
491.003	85.81
491.221	92.81
491.439	85.81
491.657	92.81
491.874	92.81
492.092	82.81
492.31	102.81
492.527	84.81
492.745	105.81
492.963	95.81
493.18	91.81
493.398	98.81
493.615	85.81
493.833	85.81
494.05	92.81
494.268	84.81
494.485	82.81
494.703	93.81
494.92	86.81
495.138	100.81
495.355	100.81
495.573	101.81
495.79	89.81
496.008	108.81
496.225	98.81
496.442	93.81
496.66	110.81
496.877	97.81
497.094	95.81
497.312	95.81
497.529	87.81
497.746	97.81
497.963	84.81
498.181	91.81
498.398	86.81
498.615	79.81
498.832	94.81
499.049	101.81
499.267	90.81
499.484	74.81
499.701	84.81
499.918	104.81
500.135	86.81
500.352	87.81
500.569	82.81
500.786	78.81
501.003	91.81
501.22	92.81
501.437	87.81
501.654	91.81
501.871	97.81
502.088	90.81
502.305	104.81
502.522	89.81
502.739	101.81
502.956	95.81
503.172	92.81
503.389	90.81
503.606	81.81
503.823	90.81
504.04	86.81
504.256	96.81
504.473	91.81
504.69	89.81
504.907	90.81
505.123	87.81
505.34	103.81
505.557	84.81
505.773	84.81
505.99	103.81
506.207	86.81
506.423	76.81
506.64	87.81
506.856	95.81
507.073	89.81
507.289	100.81
507.506	100.81
507.722	85.81
507.939	92.81
508.155	76.81
508.372	102.81
508.588	97.81
508.805	104.81
509.021	95.81
509.238	94.81
509.454	82.81
509.67	84.81
509.887	93.81
510.103	97.81
510.319	84.81
510.536	88.81
510.752	89.81
510.968	89.81
511.184	92.81
511.401	97.81
511.617	83.81
511.833	90.81
512.049	86.81
512.265	91.81
512.481	82.81
512.698	94.81
512.914	101.81
513.13	90.81
513.346	89.81
513.562	97.81
513.778	86.81
513.994	97.81
514.21	85.81
514.426	73.81
514.642	76.81
514.858	103.81
515.074	64.81
515.29	80.81
515.506	77.81
515.721	89.81
515.937	76.81
516.153	90.81
516.369	92.81
516.585	90.81
516.801	84.81
517.016	81.81
517.232	90.81
517.448	89.81
517.664	75.81
517.879	70.81
518.095	84.81
518.311	83.81
518.527	82.81
518.742	85.81
518.958	73.81
519.173	78.81
