Data from KBr_2_HRD10591_00005.txt Node
Date: Mon Jan 19 13:12:53 EST 2026
User: Yrep
Spectrometer: HR+D1059
Trigger mode: 1
Integration Time (sec): 1.000000E-1
Scans to average: 1
Electric dark correction enabled: true
Nonlinearity correction enabled: false
Boxcar width: 0
XAxis mode: Wavelengths
Number of Pixels in Spectrum: 2048
>>>>>Begin Spectral Data<<<<<
223.165	-16.69
223.4	-16.69
223.635	-16.69
223.869	-16.69
224.104	-14.69
224.338	-11.69
224.573	-23.69
224.808	-33.69
225.042	-7.69
225.277	-5.69
225.511	4.31
225.746	10.31
225.98	12.31
226.215	19.31
226.449	13.31
226.683	23.31
226.918	24.31
227.152	23.31
227.387	26.31
227.621	52.31
227.856	52.31
228.09	52.31
228.324	53.31
228.559	51.31
228.793	56.31
229.027	51.31
229.262	68.31
229.496	58.31
229.73	68.31
229.964	61.31
230.199	63.31
230.433	58.31
230.667	79.31
230.901	76.31
231.136	67.31
231.37	80.31
231.604	78.31
231.838	72.31
232.072	92.31
232.306	74.31
232.541	74.31
232.775	72.31
233.009	76.31
233.243	75.31
233.477	78.31
233.711	78.31
233.945	79.31
234.179	84.31
234.413	66.31
234.647	79.31
234.881	64.31
235.115	82.31
235.349	77.31
235.583	74.31
235.817	80.31
236.051	79.31
236.285	82.31
236.519	66.31
236.753	61.31
236.987	75.31
237.221	62.31
237.455	70.31
237.689	62.31
237.922	57.31
238.156	81.31
238.39	64.31
238.624	89.31
238.858	76.31
239.091	78.31
239.325	62.31
239.559	71.31
239.793	70.31
240.027	75.31
240.26	79.31
240.494	72.31
240.728	65.31
240.961	74.31
241.195	80.31
241.429	68.31
241.662	62.31
241.896	68.31
242.13	54.31
242.363	70.31
242.597	64.31
242.83	77.31
243.064	82.31
243.298	68.31
243.531	72.31
243.765	71.31
243.998	84.31
244.232	80.31
244.465	66.31
244.699	75.31
244.932	84.31
245.166	70.31
245.399	67.31
245.633	75.31
245.866	76.31
246.099	71.31
246.333	73.31
246.566	71.31
246.8	74.31
247.033	92.31
247.266	91.31
247.5	73.31
247.733	60.31
247.966	58.31
248.2	74.31
248.433	63.31
248.666	83.31
248.899	64.31
249.133	79.31
249.366	86.31
249.599	66.31
249.832	89.31
250.066	84.31
250.299	76.31
250.532	88.31
250.765	82.31
250.998	79.31
251.231	89.31
251.465	75.31
251.698	67.31
251.931	74.31
252.164	69.31
252.397	81.31
252.63	78.31
252.863	56.31
253.096	73.31
253.329	72.31
253.562	89.31
253.795	90.31
254.028	83.31
254.261	77.31
254.494	90.31
254.727	79.31
254.96	70.31
255.193	64.31
255.426	90.31
255.659	76.31
255.892	89.31
256.124	78.31
256.357	75.31
256.59	78.31
256.823	63.31
257.056	66.31
257.289	79.31
257.521	68.31
257.754	71.31
257.987	78.31
258.22	73.31
258.452	86.31
258.685	77.31
258.918	86.31
259.151	73.31
259.383	78.31
259.616	64.31
259.849	73.31
260.081	86.31
260.314	73.31
260.547	76.31
260.779	76.31
261.012	73.31
261.244	74.31
261.477	79.31
261.71	76.31
261.942	61.31
262.175	77.31
262.407	59.31
262.64	64.31
262.872	71.31
263.105	79.31
263.337	72.31
263.57	86.31
263.802	78.31
264.035	84.31
264.267	83.31
264.499	91.31
264.732	85.31
264.964	77.31
265.197	78.31
265.429	79.31
265.661	82.31
265.894	88.31
266.126	82.31
266.358	96.31
266.591	88.31
266.823	81.31
267.055	75.31
267.287	77.31
267.52	83.31
267.752	81.31
267.984	91.31
268.216	77.31
268.448	79.31
268.681	77.31
268.913	86.31
269.145	72.31
269.377	82.31
269.609	81.31
269.841	89.31
270.073	80.31
270.306	78.31
270.538	77.31
270.77	93.31
271.002	75.31
271.234	86.31
271.466	78.31
271.698	76.31
271.93	79.31
272.162	91.31
272.394	80.31
272.626	94.31
272.858	80.31
273.09	79.31
273.322	83.31
273.553	77.31
273.785	88.31
274.017	64.31
274.249	92.31
274.481	83.31
274.713	71.31
274.945	83.31
275.176	86.31
275.408	86.31
275.64	100.31
275.872	75.31
276.104	84.31
276.335	86.31
276.567	86.31
276.799	75.31
277.031	91.31
277.262	87.31
277.494	85.31
277.726	74.31
277.957	65.31
278.189	85.31
278.421	65.31
278.652	89.31
278.884	79.31
279.115	88.31
279.347	72.31
279.579	78.31
279.81	80.31
280.042	78.31
280.273	73.31
280.505	68.31
280.736	79.31
280.968	75.31
281.199	82.31
281.431	79.31
281.662	80.31
281.894	83.31
282.125	82.31
282.356	86.31
282.588	83.31
282.819	89.31
283.051	89.31
283.282	71.31
283.513	83.31
283.745	85.31
283.976	76.31
284.207	80.31
284.439	84.31
284.67	70.31
284.901	71.31
285.132	78.31
285.364	81.31
285.595	87.31
285.826	89.31
286.057	84.31
286.288	80.31
286.52	95.31
286.751	86.31
286.982	93.31
287.213	92.31
287.444	82.31
287.675	77.31
287.906	87.31
288.138	73.31
288.369	66.31
288.6	96.31
288.831	89.31
289.062	72.31
289.293	83.31
289.524	84.31
289.755	88.31
289.986	90.31
290.217	65.31
290.448	85.31
290.679	86.31
290.91	90.31
291.141	82.31
291.371	84.31
291.602	77.31
291.833	76.31
292.064	78.31
292.295	79.31
292.526	84.31
292.757	85.31
292.987	88.31
293.218	98.31
293.449	76.31
293.68	73.31
293.91	84.31
294.141	79.31
294.372	86.31
294.603	89.31
294.833	94.31
295.064	88.31
295.295	82.31
295.525	90.31
295.756	95.31
295.987	69.31
296.217	78.31
296.448	91.31
296.679	89.31
296.909	73.31
297.14	81.31
297.37	77.31
297.601	86.31
297.831	87.31
298.062	80.31
298.292	84.31
298.523	80.31
298.753	92.31
298.984	90.31
299.214	76.31
299.445	80.31
299.675	70.31
299.905	86.31
300.136	81.31
300.366	82.31
300.597	79.31
300.827	83.31
301.057	93.31
301.288	79.31
301.518	72.31
301.748	84.31
301.979	78.31
302.209	83.31
302.439	88.31
302.669	60.31
302.9	68.31
303.13	82.31
303.36	79.31
303.59	81.31
303.82	100.31
304.051	82.31
304.281	69.31
304.511	86.31
304.741	85.31
304.971	86.31
305.201	93.31
305.431	81.31
305.661	78.31
305.891	72.31
306.121	76.31
306.352	77.31
306.582	99.31
306.812	69.31
307.042	68.31
307.272	86.31
307.502	74.31
307.731	75.31
307.961	95.31
308.191	79.31
308.421	84.31
308.651	81.31
308.881	71.31
309.111	78.31
309.341	78.31
309.571	74.31
309.8	74.31
310.03	77.31
310.26	81.31
310.49	95.31
310.72	89.31
310.949	88.31
311.179	88.31
311.409	67.31
311.639	80.31
311.868	81.31
312.098	91.31
312.328	93.31
312.557	79.31
312.787	83.31
313.017	92.31
313.246	86.31
313.476	79.31
313.706	70.31
313.935	78.31
314.165	78.31
314.394	87.31
314.624	72.31
314.853	79.31
315.083	79.31
315.312	77.31
315.542	78.31
315.771	83.31
316.001	76.31
316.23	99.31
316.46	78.31
316.689	87.31
316.919	92.31
317.148	91.31
317.377	76.31
317.607	86.31
317.836	74.31
318.065	72.31
318.295	81.31
318.524	75.31
318.753	86.31
318.983	67.31
319.212	77.31
319.441	77.31
319.67	78.31
319.9	90.31
320.129	81.31
320.358	88.31
320.587	84.31
320.816	75.31
321.046	101.31
321.275	82.31
321.504	75.31
321.733	76.31
321.962	88.31
322.191	88.31
322.42	77.31
322.649	86.31
322.878	88.31
323.108	91.31
323.337	69.31
323.566	76.31
323.795	80.31
324.024	87.31
324.253	85.31
324.482	87.31
324.71	72.31
324.939	96.31
325.168	83.31
325.397	87.31
325.626	79.31
325.855	90.31
326.084	86.31
326.313	89.31
326.542	89.31
326.77	71.31
326.999	81.31
327.228	76.31
327.457	91.31
327.686	97.31
327.914	82.31
328.143	97.31
328.372	90.31
328.6	85.31
328.829	96.31
329.058	83.31
329.287	80.31
329.515	80.31
329.744	98.31
329.972	85.31
330.201	89.31
330.43	89.31
330.658	84.31
330.887	70.31
331.115	87.31
331.344	76.31
331.572	96.31
331.801	78.31
332.03	72.31
332.258	90.31
332.486	68.31
332.715	89.31
332.943	91.31
333.172	92.31
333.4	95.31
333.629	87.31
333.857	82.31
334.085	86.31
334.314	73.31
334.542	71.31
334.771	70.31
334.999	91.31
335.227	79.31
335.455	82.31
335.684	85.31
335.912	84.31
336.14	79.31
336.369	82.31
336.597	81.31
336.825	88.31
337.053	77.31
337.281	76.31
337.51	79.31
337.738	78.31
337.966	82.31
338.194	84.31
338.422	75.31
338.65	86.31
338.878	86.31
339.106	85.31
339.334	85.31
339.562	82.31
339.79	68.31
340.018	91.31
340.246	74.31
340.474	88.31
340.702	94.31
340.93	104.31
341.158	89.31
341.386	81.31
341.614	98.31
341.842	73.31
342.07	72.31
342.298	87.31
342.526	74.31
342.754	82.31
342.981	94.31
343.209	86.31
343.437	95.31
343.665	88.31
343.893	74.31
344.12	86.31
344.348	98.31
344.576	88.31
344.804	95.31
345.031	95.31
345.259	80.31
345.487	93.31
345.714	98.31
345.942	72.31
346.17	80.31
346.397	91.31
346.625	92.31
346.853	84.31
347.08	83.31
347.308	78.31
347.535	78.31
347.763	93.31
347.99	79.31
348.218	74.31
348.445	77.31
348.673	101.31
348.9	88.31
349.128	84.31
349.355	87.31
349.583	84.31
349.81	86.31
350.037	96.31
350.265	86.31
350.492	82.31
350.72	89.31
350.947	72.31
351.174	91.31
351.402	71.31
351.629	101.31
351.856	76.31
352.083	85.31
352.311	74.31
352.538	83.31
352.765	80.31
352.992	103.31
353.22	87.31
353.447	92.31
353.674	80.31
353.901	74.31
354.128	91.31
354.355	79.31
354.583	91.31
354.81	83.31
355.037	77.31
355.264	85.31
355.491	92.31
355.718	91.31
355.945	79.31
356.172	85.31
356.399	73.31
356.626	79.31
356.853	88.31
357.08	79.31
357.307	100.31
357.534	82.31
357.761	71.31
357.988	78.31
358.215	84.31
358.441	82.31
358.668	80.31
358.895	77.31
359.122	85.31
359.349	90.31
359.576	88.31
359.802	98.31
360.029	78.31
360.256	88.31
360.483	87.31
360.709	78.31
360.936	104.31
361.163	81.31
361.39	78.31
361.616	88.31
361.843	94.31
362.07	83.31
362.296	82.31
362.523	83.31
362.749	93.31
362.976	79.31
363.203	80.31
363.429	83.31
363.656	91.31
363.882	90.31
364.109	90.31
364.335	83.31
364.562	86.31
364.788	79.31
365.015	84.31
365.241	86.31
365.468	85.31
365.694	76.31
365.92	94.31
366.147	78.31
366.373	81.31
366.599	78.31
366.826	72.31
367.052	70.31
367.278	71.31
367.505	86.31
367.731	111.31
367.957	90.31
368.184	78.31
368.41	78.31
368.636	78.31
368.862	69.31
369.089	82.31
369.315	88.31
369.541	81.31
369.767	88.31
369.993	89.31
370.219	88.31
370.445	79.31
370.672	90.31
370.898	89.31
371.124	96.31
371.35	90.31
371.576	86.31
371.802	74.31
372.028	76.31
372.254	80.31
372.48	78.31
372.706	84.31
372.932	73.31
373.158	84.31
373.384	94.31
373.61	107.31
373.835	76.31
374.061	74.31
374.287	82.31
374.513	72.31
374.739	73.31
374.965	89.31
375.191	78.31
375.416	74.31
375.642	91.31
375.868	92.31
376.094	79.31
376.319	85.31
376.545	91.31
376.771	97.31
376.997	70.31
377.222	82.31
377.448	69.31
377.674	82.31
377.899	90.31
378.125	80.31
378.35	85.31
378.576	65.31
378.802	82.31
379.027	88.31
379.253	78.31
379.478	81.31
379.704	79.31
379.929	85.31
380.155	64.31
380.38	80.31
380.606	84.31
380.831	81.31
381.057	78.31
381.282	86.31
381.507	89.31
381.733	74.31
381.958	91.31
382.184	82.31
382.409	101.31
382.634	79.31
382.86	77.31
383.085	83.31
383.31	93.31
383.535	80.31
383.761	92.31
383.986	79.31
384.211	85.31
384.436	85.31
384.662	90.31
384.887	72.31
385.112	78.31
385.337	88.31
385.562	74.31
385.787	94.31
386.013	77.31
386.238	83.31
386.463	86.31
386.688	86.31
386.913	83.31
387.138	90.31
387.363	86.31
387.588	79.31
387.813	72.31
388.038	94.31
388.263	87.31
388.488	74.31
388.713	81.31
388.938	90.31
389.163	75.31
389.387	77.31
389.612	84.31
389.837	74.31
390.062	85.31
390.287	88.31
390.512	75.31
390.736	80.31
390.961	76.31
391.186	93.31
391.411	87.31
391.636	75.31
391.86	71.31
392.085	83.31
392.31	74.31
392.534	80.31
392.759	76.31
392.984	83.31
393.208	73.31
393.433	96.31
393.658	79.31
393.882	75.31
394.107	94.31
394.331	76.31
394.556	85.31
394.78	79.31
395.005	82.31
395.229	82.31
395.454	81.31
395.678	98.31
395.903	78.31
396.127	81.31
396.352	65.31
396.576	83.31
396.801	82.31
397.025	78.31
397.249	79.31
397.474	83.31
397.698	90.31
397.922	92.31
398.147	77.31
398.371	89.31
398.595	80.31
398.82	80.31
399.044	92.31
399.268	84.31
399.492	83.31
399.717	86.31
399.941	93.31
400.165	76.31
400.389	69.31
400.613	85.31
400.837	74.31
401.062	83.31
401.286	74.31
401.51	86.31
401.734	100.31
401.958	79.31
402.182	74.31
402.406	65.31
402.63	77.31
402.854	77.31
403.078	82.31
403.302	87.31
403.526	77.31
403.75	86.31
403.974	86.31
404.198	122.31
404.422	195.31
404.645	214.31
404.869	160.31
405.093	110.31
405.317	100.31
405.541	89.31
405.765	89.31
405.988	64.31
406.212	80.31
406.436	81.31
406.66	78.31
406.883	91.31
407.107	82.31
407.331	87.31
407.555	90.31
407.778	86.31
408.002	86.31
408.226	79.31
408.449	89.31
408.673	80.31
408.896	75.31
409.12	79.31
409.344	75.31
409.567	87.31
409.791	81.31
410.014	79.31
410.238	100.31
410.461	92.31
410.685	80.31
410.908	72.31
411.132	65.31
411.355	87.31
411.578	94.31
411.802	111.31
412.025	88.31
412.249	91.31
412.472	74.31
412.695	92.31
412.919	83.31
413.142	87.31
413.365	94.31
413.589	76.31
413.812	92.31
414.035	94.31
414.258	71.31
414.482	81.31
414.705	86.31
414.928	88.31
415.151	81.31
415.374	90.31
415.597	92.31
415.821	77.31
416.044	77.31
416.267	87.31
416.49	94.31
416.713	77.31
416.936	72.31
417.159	77.31
417.382	87.31
417.605	90.31
417.828	82.31
418.051	90.31
418.274	90.31
418.497	74.31
418.72	86.31
418.943	82.31
419.166	88.31
419.389	81.31
419.611	71.31
419.834	77.31
420.057	79.31
420.28	88.31
420.503	81.31
420.726	92.31
420.948	75.31
421.171	75.31
421.394	95.31
421.617	78.31
421.839	73.31
422.062	94.31
422.285	78.31
422.507	82.31
422.73	91.31
422.953	86.31
423.175	79.31
423.398	78.31
423.621	86.31
423.843	74.31
424.066	82.31
424.288	100.31
424.511	91.31
424.733	79.31
424.956	67.31
425.178	80.31
425.401	74.31
425.623	75.31
425.846	86.31
426.068	74.31
426.291	95.31
426.513	89.31
426.735	84.31
426.958	81.31
427.18	63.31
427.402	99.31
427.625	74.31
427.847	78.31
428.069	91.31
428.292	72.31
428.514	85.31
428.736	79.31
428.958	70.31
429.181	78.31
429.403	83.31
429.625	89.31
429.847	78.31
430.069	70.31
430.292	67.31
430.514	85.31
430.736	82.31
430.958	72.31
431.18	93.31
431.402	87.31
431.624	78.31
431.846	74.31
432.068	82.31
432.29	77.31
432.512	88.31
432.734	84.31
432.956	83.31
433.178	88.31
433.4	79.31
433.622	99.31
433.844	79.31
434.066	69.31
434.287	74.31
434.509	70.31
434.731	70.31
434.953	85.31
435.175	86.31
435.397	67.31
435.618	79.31
435.84	82.31
436.062	85.31
436.284	79.31
436.505	68.31
436.727	77.31
436.949	77.31
437.17	73.31
437.392	89.31
437.614	81.31
437.835	79.31
438.057	74.31
438.278	75.31
438.5	74.31
438.721	90.31
438.943	77.31
439.165	75.31
439.386	88.31
439.608	85.31
439.829	75.31
440.05	86.31
440.272	89.31
440.493	74.31
440.715	78.31
440.936	71.31
441.158	104.31
441.379	91.31
441.6	72.31
441.822	84.31
442.043	85.31
442.264	82.31
442.486	78.31
442.707	84.31
442.928	81.31
443.149	75.31
443.371	92.31
443.592	88.31
443.813	77.31
444.034	82.31
444.255	95.31
444.476	88.31
444.698	96.31
444.919	78.31
445.14	157.31
445.361	117.31
445.582	95.31
445.803	82.31
446.024	91.31
446.245	77.31
446.466	91.31
446.687	89.31
446.908	83.31
447.129	94.31
447.35	87.31
447.571	83.31
447.792	87.31
448.013	72.31
448.234	88.31
448.455	83.31
448.675	83.31
448.896	74.31
449.117	81.31
449.338	84.31
449.559	82.31
449.779	80.31
450	72.31
450.221	61.31
450.442	88.31
450.662	77.31
450.883	79.31
451.104	84.31
451.324	83.31
451.545	83.31
451.766	84.31
451.986	77.31
452.207	85.31
452.428	94.31
452.648	84.31
452.869	89.31
453.089	78.31
453.31	82.31
453.53	89.31
453.751	88.31
453.971	94.31
454.192	75.31
454.412	83.31
454.633	80.31
454.853	65.31
455.073	70.31
455.294	84.31
455.514	90.31
455.734	71.31
455.955	79.31
456.175	89.31
456.395	94.31
456.616	75.31
456.836	92.31
457.056	77.31
457.276	66.31
457.497	78.31
457.717	84.31
457.937	84.31
458.157	78.31
458.377	82.31
458.598	90.31
458.818	90.31
459.038	89.31
459.258	91.31
459.478	90.31
459.698	75.31
459.918	88.31
460.138	81.31
460.358	72.31
460.578	89.31
460.798	66.31
461.018	94.31
461.238	87.31
461.458	77.31
461.678	85.31
461.898	97.31
462.118	92.31
462.338	84.31
462.558	79.31
462.777	84.31
462.997	85.31
463.217	86.31
463.437	81.31
463.657	77.31
463.876	85.31
464.096	84.31
464.316	79.31
464.536	80.31
464.755	66.31
464.975	83.31
465.195	86.31
465.414	78.31
465.634	88.31
465.854	82.31
466.073	92.31
466.293	82.31
466.512	83.31
466.732	77.31
466.951	83.31
467.171	77.31
467.391	91.31
467.61	77.31
467.829	91.31
468.049	92.31
468.268	79.31
468.488	83.31
468.707	72.31
468.927	89.31
469.146	88.31
469.365	82.31
469.585	90.31
469.804	84.31
470.023	81.31
470.243	82.31
470.462	85.31
470.681	86.31
470.901	72.31
471.12	86.31
471.339	69.31
471.558	79.31
471.777	78.31
471.997	85.31
472.216	93.31
472.435	82.31
472.654	71.31
472.873	91.31
473.092	88.31
473.311	71.31
473.53	61.31
473.749	79.31
473.968	79.31
474.187	90.31
474.406	87.31
474.625	88.31
474.844	79.31
475.063	83.31
475.282	83.31
475.501	95.31
475.72	77.31
475.939	75.31
476.158	80.31
476.377	77.31
476.596	94.31
476.814	79.31
477.033	85.31
477.252	86.31
477.471	77.31
477.69	84.31
477.908	85.31
478.127	90.31
478.346	76.31
478.564	68.31
478.783	90.31
479.002	94.31
479.22	88.31
479.439	95.31
479.658	88.31
479.876	88.31
480.095	92.31
480.313	95.31
480.532	72.31
480.751	94.31
480.969	81.31
481.188	86.31
481.406	83.31
481.624	75.31
481.843	87.31
482.061	88.31
482.28	82.31
482.498	86.31
482.717	81.31
482.935	81.31
483.153	90.31
483.372	98.31
483.59	79.31
483.808	106.31
484.027	98.31
484.245	85.31
484.463	66.31
484.681	80.31
484.9	70.31
485.118	86.31
485.336	80.31
485.554	82.31
485.772	80.31
485.99	94.31
486.209	82.31
486.427	83.31
486.645	96.31
486.863	90.31
487.081	91.31
487.299	94.31
487.517	93.31
487.735	77.31
487.953	109.31
488.171	76.31
488.389	76.31
488.607	83.31
488.825	86.31
489.043	83.31
489.261	75.31
489.479	74.31
489.696	93.31
489.914	81.31
490.132	92.31
490.35	89.31
490.568	102.31
490.786	87.31
491.003	84.31
491.221	90.31
491.439	98.31
491.657	75.31
491.874	98.31
492.092	87.31
492.31	99.31
492.527	82.31
492.745	86.31
492.963	94.31
493.18	93.31
493.398	92.31
493.615	82.31
493.833	89.31
494.05	86.31
494.268	74.31
494.485	78.31
494.703	85.31
494.92	80.31
495.138	85.31
495.355	79.31
495.573	92.31
495.79	101.31
496.008	104.31
496.225	82.31
496.442	96.31
496.66	99.31
496.877	87.31
497.094	102.31
497.312	95.31
497.529	82.31
497.746	100.31
497.963	84.31
498.181	79.31
498.398	85.31
498.615	93.31
498.832	78.31
499.049	80.31
499.267	98.31
499.484	91.31
499.701	92.31
499.918	91.31
500.135	98.31
500.352	93.31
500.569	77.31
500.786	98.31
501.003	83.31
501.22	81.31
501.437	70.31
501.654	77.31
501.871	78.31
502.088	83.31
502.305	80.31
502.522	70.31
502.739	87.31
502.956	85.31
503.172	75.31
503.389	78.31
503.606	76.31
503.823	96.31
504.04	86.31
504.256	95.31
504.473	77.31
504.69	82.31
504.907	97.31
505.123	79.31
505.34	91.31
505.557	75.31
505.773	82.31
505.99	90.31
506.207	97.31
506.423	84.31
506.64	86.31
506.856	88.31
507.073	78.31
507.289	85.31
507.506	98.31
507.722	84.31
507.939	97.31
508.155	80.31
508.372	89.31
508.588	80.31
508.805	78.31
509.021	91.31
509.238	88.31
509.454	92.31
509.67	83.31
509.887	87.31
510.103	96.31
510.319	86.31
510.536	80.31
510.752	87.31
510.968	88.31
511.184	79.31
511.401	101.31
511.617	107.31
511.833	91.31
512.049	84.31
512.265	86.31
512.481	100.31
512.698	74.31
512.914	84.31
513.13	90.31
513.346	79.31
513.562	88.31
513.778	81.31
513.994	85.31
514.21	86.31
514.426	73.31
514.642	102.31
514.858	95.31
515.074	85.31
515.29	91.31
515.506	77.31
515.721	78.31
515.937	80.31
516.153	82.31
516.369	81.31
516.585	95.31
516.801	79.31
517.016	86.31
517.232	92.31
517.448	83.31
517.664	91.31
517.879	77.31
518.095	86.31
518.311	68.31
518.527	66.31
518.742	93.31
518.958	74.31
519.173	82.31
519.389	78.31
519.605	89.31
519.82	83.31
