Data from KBr_2_HRD10591_00016.txt Node
Date: Mon Jan 19 13:12:58 EST 2026
User: Yrep
Spectrometer: HR+D1059
Trigger mode: 1
Integration Time (sec): 1.000000E-1
Scans to average: 1
Electric dark correction enabled: true
Nonlinearity correction enabled: false
Boxcar width: 0
XAxis mode: Wavelengths
Number of Pixels in Spectrum: 2048
>>>>>Begin Spectral Data<<<<<
223.165	-9.44
223.4	-9.44
223.635	-9.44
223.869	0.56
224.104	-21.44
224.338	-6.44
224.573	-17.44
224.808	-26.44
225.042	-16.44
225.277	1.56
225.511	-7.44
225.746	-0.44
225.98	-2.44
226.215	12.56
226.449	12.56
226.683	27.56
226.918	24.56
227.152	28.56
227.387	40.56
227.621	47.56
227.856	34.56
228.09	53.56
228.324	38.56
228.559	71.56
228.793	58.56
229.027	54.56
229.262	74.56
229.496	80.56
229.73	70.56
229.964	71.56
230.199	69.56
230.433	73.56
230.667	82.56
230.901	73.56
231.136	73.56
231.37	80.56
231.604	79.56
231.838	78.56
232.072	78.56
232.306	81.56
232.541	74.56
232.775	63.56
233.009	73.56
233.243	80.56
233.477	69.56
233.711	80.56
233.945	86.56
234.179	82.56
234.413	102.56
234.647	76.56
234.881	84.56
235.115	79.56
235.349	73.56
235.583	80.56
235.817	90.56
236.051	86.56
236.285	90.56
236.519	82.56
236.753	82.56
236.987	65.56
237.221	86.56
237.455	72.56
237.689	80.56
237.922	73.56
238.156	67.56
238.39	83.56
238.624	81.56
238.858	81.56
239.091	83.56
239.325	73.56
239.559	70.56
239.793	67.56
240.027	89.56
240.26	74.56
240.494	73.56
240.728	56.56
240.961	91.56
241.195	82.56
241.429	76.56
241.662	67.56
241.896	79.56
242.13	79.56
242.363	72.56
242.597	72.56
242.83	77.56
243.064	81.56
243.298	85.56
243.531	81.56
243.765	75.56
243.998	75.56
244.232	78.56
244.465	84.56
244.699	76.56
244.932	73.56
245.166	78.56
245.399	83.56
245.633	85.56
245.866	90.56
246.099	88.56
246.333	69.56
246.566	79.56
246.8	82.56
247.033	83.56
247.266	83.56
247.5	81.56
247.733	95.56
247.966	82.56
248.2	76.56
248.433	83.56
248.666	83.56
248.899	90.56
249.133	67.56
249.366	89.56
249.599	86.56
249.832	77.56
250.066	80.56
250.299	69.56
250.532	79.56
250.765	88.56
250.998	79.56
251.231	86.56
251.465	86.56
251.698	91.56
251.931	75.56
252.164	75.56
252.397	77.56
252.63	93.56
252.863	79.56
253.096	79.56
253.329	64.56
253.562	74.56
253.795	65.56
254.028	77.56
254.261	74.56
254.494	78.56
254.727	81.56
254.96	76.56
255.193	70.56
255.426	73.56
255.659	82.56
255.892	87.56
256.124	78.56
256.357	89.56
256.59	83.56
256.823	84.56
257.056	81.56
257.289	73.56
257.521	89.56
257.754	81.56
257.987	73.56
258.22	86.56
258.452	81.56
258.685	85.56
258.918	90.56
259.151	82.56
259.383	94.56
259.616	65.56
259.849	81.56
260.081	90.56
260.314	101.56
260.547	71.56
260.779	85.56
261.012	78.56
261.244	95.56
261.477	88.56
261.71	71.56
261.942	66.56
262.175	84.56
262.407	91.56
262.64	77.56
262.872	76.56
263.105	86.56
263.337	74.56
263.57	91.56
263.802	85.56
264.035	76.56
264.267	80.56
264.499	67.56
264.732	83.56
264.964	88.56
265.197	92.56
265.429	83.56
265.661	75.56
265.894	89.56
266.126	82.56
266.358	82.56
266.591	86.56
266.823	85.56
267.055	85.56
267.287	78.56
267.52	71.56
267.752	93.56
267.984	84.56
268.216	98.56
268.448	85.56
268.681	82.56
268.913	77.56
269.145	61.56
269.377	77.56
269.609	85.56
269.841	97.56
270.073	99.56
270.306	81.56
270.538	81.56
270.77	79.56
271.002	67.56
271.234	96.56
271.466	75.56
271.698	95.56
271.93	87.56
272.162	85.56
272.394	94.56
272.626	82.56
272.858	81.56
273.09	84.56
273.322	84.56
273.553	75.56
273.785	75.56
274.017	77.56
274.249	81.56
274.481	79.56
274.713	89.56
274.945	79.56
275.176	99.56
275.408	102.56
275.64	95.56
275.872	91.56
276.104	96.56
276.335	84.56
276.567	71.56
276.799	84.56
277.031	87.56
277.262	89.56
277.494	84.56
277.726	85.56
277.957	75.56
278.189	93.56
278.421	79.56
278.652	84.56
278.884	77.56
279.115	82.56
279.347	102.56
279.579	88.56
279.81	91.56
280.042	95.56
280.273	91.56
280.505	83.56
280.736	82.56
280.968	76.56
281.199	93.56
281.431	92.56
281.662	83.56
281.894	80.56
282.125	73.56
282.356	83.56
282.588	82.56
282.819	79.56
283.051	83.56
283.282	77.56
283.513	92.56
283.745	88.56
283.976	86.56
284.207	83.56
284.439	92.56
284.67	82.56
284.901	101.56
285.132	85.56
285.364	85.56
285.595	73.56
285.826	83.56
286.057	84.56
286.288	89.56
286.52	77.56
286.751	94.56
286.982	76.56
287.213	98.56
287.444	90.56
287.675	81.56
287.906	101.56
288.138	89.56
288.369	79.56
288.6	83.56
288.831	93.56
289.062	79.56
289.293	79.56
289.524	72.56
289.755	70.56
289.986	73.56
290.217	82.56
290.448	88.56
290.679	86.56
290.91	80.56
291.141	71.56
291.371	87.56
291.602	65.56
291.833	88.56
292.064	77.56
292.295	90.56
292.526	82.56
292.757	92.56
292.987	74.56
293.218	93.56
293.449	97.56
293.68	93.56
293.91	98.56
294.141	92.56
294.372	85.56
294.603	89.56
294.833	84.56
295.064	94.56
295.295	73.56
295.525	74.56
295.756	78.56
295.987	81.56
296.217	84.56
296.448	94.56
296.679	87.56
296.909	88.56
297.14	89.56
297.37	76.56
297.601	85.56
297.831	87.56
298.062	88.56
298.292	72.56
298.523	90.56
298.753	86.56
298.984	73.56
299.214	92.56
299.445	84.56
299.675	86.56
299.905	90.56
300.136	90.56
300.366	89.56
300.597	86.56
300.827	76.56
301.057	74.56
301.288	84.56
301.518	85.56
301.748	89.56
301.979	83.56
302.209	83.56
302.439	72.56
302.669	89.56
302.9	90.56
303.13	69.56
303.36	71.56
303.59	102.56
303.82	90.56
304.051	97.56
304.281	89.56
304.511	86.56
304.741	85.56
304.971	102.56
305.201	94.56
305.431	90.56
305.661	84.56
305.891	85.56
306.121	70.56
306.352	67.56
306.582	89.56
306.812	85.56
307.042	82.56
307.272	87.56
307.502	98.56
307.731	73.56
307.961	87.56
308.191	81.56
308.421	87.56
308.651	87.56
308.881	86.56
309.111	73.56
309.341	90.56
309.571	88.56
309.8	90.56
310.03	83.56
310.26	91.56
310.49	82.56
310.72	80.56
310.949	95.56
311.179	86.56
311.409	96.56
311.639	88.56
311.868	75.56
312.098	85.56
312.328	89.56
312.557	85.56
312.787	101.56
313.017	85.56
313.246	79.56
313.476	80.56
313.706	82.56
313.935	87.56
314.165	99.56
314.394	102.56
314.624	95.56
314.853	89.56
315.083	79.56
315.312	86.56
315.542	91.56
315.771	86.56
316.001	83.56
316.23	105.56
316.46	86.56
316.689	68.56
316.919	85.56
317.148	87.56
317.377	74.56
317.607	96.56
317.836	82.56
318.065	76.56
318.295	94.56
318.524	86.56
318.753	84.56
318.983	101.56
319.212	90.56
319.441	79.56
319.67	87.56
319.9	90.56
320.129	102.56
320.358	83.56
320.587	87.56
320.816	85.56
321.046	105.56
321.275	87.56
321.504	86.56
321.733	75.56
321.962	88.56
322.191	86.56
322.42	88.56
322.649	79.56
322.878	94.56
323.108	96.56
323.337	86.56
323.566	89.56
323.795	90.56
324.024	84.56
324.253	87.56
324.482	91.56
324.71	99.56
324.939	96.56
325.168	74.56
325.397	82.56
325.626	77.56
325.855	79.56
326.084	83.56
326.313	70.56
326.542	92.56
326.77	91.56
326.999	64.56
327.228	63.56
327.457	75.56
327.686	91.56
327.914	89.56
328.143	93.56
328.372	88.56
328.6	84.56
328.829	82.56
329.058	82.56
329.287	76.56
329.515	90.56
329.744	85.56
329.972	81.56
330.201	96.56
330.43	96.56
330.658	76.56
330.887	88.56
331.115	89.56
331.344	86.56
331.572	82.56
331.801	85.56
332.03	84.56
332.258	80.56
332.486	79.56
332.715	87.56
332.943	88.56
333.172	86.56
333.4	85.56
333.629	86.56
333.857	76.56
334.085	80.56
334.314	81.56
334.542	75.56
334.771	88.56
334.999	82.56
335.227	90.56
335.455	85.56
335.684	89.56
335.912	90.56
336.14	81.56
336.369	82.56
336.597	85.56
336.825	90.56
337.053	78.56
337.281	87.56
337.51	81.56
337.738	72.56
337.966	73.56
338.194	87.56
338.422	83.56
338.65	74.56
338.878	85.56
339.106	77.56
339.334	90.56
339.562	79.56
339.79	85.56
340.018	95.56
340.246	103.56
340.474	90.56
340.702	91.56
340.93	97.56
341.158	82.56
341.386	83.56
341.614	82.56
341.842	87.56
342.07	86.56
342.298	86.56
342.526	84.56
342.754	75.56
342.981	86.56
343.209	87.56
343.437	100.56
343.665	89.56
343.893	82.56
344.12	95.56
344.348	94.56
344.576	92.56
344.804	91.56
345.031	105.56
345.259	93.56
345.487	86.56
345.714	83.56
345.942	77.56
346.17	90.56
346.397	85.56
346.625	90.56
346.853	94.56
347.08	79.56
347.308	81.56
347.535	92.56
347.763	87.56
347.99	93.56
348.218	82.56
348.445	82.56
348.673	84.56
348.9	80.56
349.128	94.56
349.355	85.56
349.583	88.56
349.81	77.56
350.037	83.56
350.265	88.56
350.492	105.56
350.72	78.56
350.947	75.56
351.174	95.56
351.402	92.56
351.629	85.56
351.856	95.56
352.083	89.56
352.311	81.56
352.538	81.56
352.765	95.56
352.992	83.56
353.22	85.56
353.447	96.56
353.674	87.56
353.901	95.56
354.128	95.56
354.355	94.56
354.583	78.56
354.81	87.56
355.037	97.56
355.264	77.56
355.491	78.56
355.718	96.56
355.945	88.56
356.172	79.56
356.399	82.56
356.626	90.56
356.853	85.56
357.08	102.56
357.307	81.56
357.534	81.56
357.761	101.56
357.988	78.56
358.215	93.56
358.441	95.56
358.668	71.56
358.895	98.56
359.122	85.56
359.349	81.56
359.576	88.56
359.802	67.56
360.029	79.56
360.256	91.56
360.483	92.56
360.709	75.56
360.936	84.56
361.163	78.56
361.39	81.56
361.616	80.56
361.843	81.56
362.07	72.56
362.296	78.56
362.523	70.56
362.749	76.56
362.976	80.56
363.203	86.56
363.429	86.56
363.656	85.56
363.882	90.56
364.109	64.56
364.335	89.56
364.562	85.56
364.788	103.56
365.015	81.56
365.241	90.56
365.468	85.56
365.694	87.56
365.92	100.56
366.147	93.56
366.373	86.56
366.599	78.56
366.826	81.56
367.052	91.56
367.278	89.56
367.505	79.56
367.731	89.56
367.957	77.56
368.184	87.56
368.41	83.56
368.636	78.56
368.862	102.56
369.089	77.56
369.315	83.56
369.541	91.56
369.767	91.56
369.993	66.56
370.219	90.56
370.445	93.56
370.672	83.56
370.898	78.56
371.124	85.56
371.35	89.56
371.576	75.56
371.802	79.56
372.028	86.56
372.254	88.56
372.48	80.56
372.706	103.56
372.932	75.56
373.158	93.56
373.384	86.56
373.61	77.56
373.835	74.56
374.061	87.56
374.287	94.56
374.513	95.56
374.739	89.56
374.965	77.56
375.191	74.56
375.416	89.56
375.642	89.56
375.868	81.56
376.094	91.56
376.319	85.56
376.545	101.56
376.771	98.56
376.997	93.56
377.222	76.56
377.448	77.56
377.674	80.56
377.899	74.56
378.125	78.56
378.35	90.56
378.576	85.56
378.802	86.56
379.027	78.56
379.253	88.56
379.478	89.56
379.704	83.56
379.929	90.56
380.155	68.56
380.38	88.56
380.606	74.56
380.831	99.56
381.057	88.56
381.282	76.56
381.507	93.56
381.733	81.56
381.958	88.56
382.184	86.56
382.409	85.56
382.634	91.56
382.86	78.56
383.085	90.56
383.31	91.56
383.535	83.56
383.761	87.56
383.986	95.56
384.211	89.56
384.436	89.56
384.662	79.56
384.887	89.56
385.112	96.56
385.337	83.56
385.562	73.56
385.787	81.56
386.013	93.56
386.238	71.56
386.463	93.56
386.688	98.56
386.913	85.56
387.138	94.56
387.363	96.56
387.588	88.56
387.813	87.56
388.038	76.56
388.263	94.56
388.488	73.56
388.713	74.56
388.938	88.56
389.163	90.56
389.387	77.56
389.612	83.56
389.837	76.56
390.062	81.56
390.287	66.56
390.512	80.56
390.736	65.56
390.961	74.56
391.186	67.56
391.411	73.56
391.636	80.56
391.86	87.56
392.085	85.56
392.31	78.56
392.534	91.56
392.759	76.56
392.984	81.56
393.208	91.56
393.433	82.56
393.658	86.56
393.882	76.56
394.107	80.56
394.331	102.56
394.556	87.56
394.78	83.56
395.005	86.56
395.229	91.56
395.454	82.56
395.678	85.56
395.903	92.56
396.127	101.56
396.352	88.56
396.576	95.56
396.801	80.56
397.025	85.56
397.249	98.56
397.474	93.56
397.698	89.56
397.922	78.56
398.147	88.56
398.371	83.56
398.595	82.56
398.82	93.56
399.044	93.56
399.268	93.56
399.492	81.56
399.717	87.56
399.941	70.56
400.165	84.56
400.389	77.56
400.613	102.56
400.837	86.56
401.062	81.56
401.286	77.56
401.51	90.56
401.734	84.56
401.958	78.56
402.182	83.56
402.406	98.56
402.63	94.56
402.854	68.56
403.078	83.56
403.302	103.56
403.526	94.56
403.75	101.56
403.974	96.56
404.198	125.56
404.422	185.56
404.645	220.56
404.869	191.56
405.093	119.56
405.317	90.56
405.541	79.56
405.765	85.56
405.988	82.56
406.212	88.56
406.436	95.56
406.66	91.56
406.883	91.56
407.107	81.56
407.331	83.56
407.555	78.56
407.778	79.56
408.002	76.56
408.226	88.56
408.449	95.56
408.673	104.56
408.896	85.56
409.12	89.56
409.344	95.56
409.567	78.56
409.791	92.56
410.014	86.56
410.238	87.56
410.461	87.56
410.685	87.56
410.908	84.56
411.132	99.56
411.355	80.56
411.578	87.56
411.802	90.56
412.025	97.56
412.249	87.56
412.472	94.56
412.695	79.56
412.919	75.56
413.142	86.56
413.365	88.56
413.589	82.56
413.812	91.56
414.035	87.56
414.258	83.56
414.482	89.56
414.705	88.56
414.928	95.56
415.151	82.56
415.374	91.56
415.597	92.56
415.821	82.56
416.044	85.56
416.267	91.56
416.49	95.56
416.713	93.56
416.936	93.56
417.159	81.56
417.382	87.56
417.605	87.56
417.828	95.56
418.051	89.56
418.274	83.56
418.497	82.56
418.72	102.56
418.943	89.56
419.166	77.56
419.389	80.56
419.611	92.56
419.834	83.56
420.057	87.56
420.28	91.56
420.503	88.56
420.726	73.56
420.948	85.56
421.171	90.56
421.394	90.56
421.617	85.56
421.839	90.56
422.062	83.56
422.285	90.56
422.507	87.56
422.73	100.56
422.953	99.56
423.175	93.56
423.398	89.56
423.621	67.56
423.843	78.56
424.066	89.56
424.288	86.56
424.511	93.56
424.733	78.56
424.956	85.56
425.178	85.56
425.401	73.56
425.623	88.56
425.846	85.56
426.068	86.56
426.291	89.56
426.513	105.56
426.735	83.56
426.958	79.56
427.18	85.56
427.402	94.56
427.625	87.56
427.847	85.56
428.069	97.56
428.292	85.56
428.514	94.56
428.736	98.56
428.958	77.56
429.181	74.56
429.403	95.56
429.625	91.56
429.847	93.56
430.069	77.56
430.292	84.56
430.514	78.56
430.736	81.56
430.958	85.56
431.18	86.56
431.402	78.56
431.624	80.56
431.846	85.56
432.068	92.56
432.29	71.56
432.512	84.56
432.734	91.56
432.956	92.56
433.178	81.56
433.4	87.56
433.622	79.56
433.844	89.56
434.066	92.56
434.287	103.56
434.509	74.56
434.731	100.56
434.953	93.56
435.175	79.56
435.397	90.56
435.618	86.56
435.84	66.56
436.062	86.56
436.284	89.56
436.505	90.56
436.727	74.56
436.949	79.56
437.17	90.56
437.392	86.56
437.614	86.56
437.835	70.56
438.057	79.56
438.278	75.56
438.5	73.56
438.721	82.56
438.943	87.56
439.165	81.56
439.386	102.56
439.608	109.56
439.829	87.56
440.05	79.56
440.272	81.56
440.493	92.56
440.715	89.56
440.936	93.56
441.158	85.56
441.379	79.56
441.6	73.56
441.822	87.56
442.043	86.56
442.264	83.56
442.486	93.56
442.707	74.56
442.928	78.56
443.149	87.56
443.371	77.56
443.592	110.56
443.813	88.56
444.034	85.56
444.255	73.56
444.476	75.56
444.698	103.56
444.919	91.56
445.14	160.56
445.361	121.56
445.582	88.56
445.803	81.56
446.024	96.56
446.245	83.56
446.466	86.56
446.687	86.56
446.908	93.56
447.129	87.56
447.35	101.56
447.571	98.56
447.792	87.56
448.013	90.56
448.234	92.56
448.455	83.56
448.675	79.56
448.896	97.56
449.117	101.56
449.338	87.56
449.559	71.56
449.779	75.56
450	84.56
450.221	73.56
450.442	87.56
450.662	89.56
450.883	95.56
451.104	82.56
451.324	89.56
451.545	72.56
451.766	87.56
451.986	81.56
452.207	90.56
452.428	87.56
452.648	75.56
452.869	76.56
453.089	85.56
453.31	81.56
453.53	84.56
453.751	80.56
453.971	91.56
454.192	79.56
454.412	93.56
454.633	87.56
454.853	92.56
455.073	81.56
455.294	86.56
455.514	95.56
455.734	81.56
455.955	79.56
456.175	77.56
456.395	95.56
456.616	99.56
456.836	92.56
457.056	82.56
457.276	76.56
457.497	73.56
457.717	93.56
457.937	83.56
458.157	91.56
458.377	92.56
458.598	83.56
458.818	85.56
459.038	88.56
459.258	96.56
459.478	75.56
459.698	90.56
459.918	94.56
460.138	72.56
460.358	86.56
460.578	98.56
460.798	92.56
461.018	92.56
461.238	93.56
461.458	61.56
461.678	81.56
461.898	76.56
462.118	73.56
462.338	101.56
462.558	90.56
462.777	86.56
462.997	89.56
463.217	81.56
463.437	83.56
463.657	76.56
463.876	95.56
464.096	76.56
464.316	87.56
464.536	84.56
464.755	79.56
464.975	89.56
465.195	88.56
465.414	89.56
465.634	80.56
465.854	82.56
466.073	80.56
466.293	82.56
466.512	82.56
466.732	83.56
466.951	93.56
467.171	92.56
467.391	95.56
467.61	94.56
467.829	93.56
468.049	85.56
468.268	85.56
468.488	101.56
468.707	77.56
468.927	87.56
469.146	104.56
469.365	71.56
469.585	96.56
469.804	76.56
470.023	78.56
470.243	92.56
470.462	86.56
470.681	89.56
470.901	89.56
471.12	90.56
471.339	96.56
471.558	76.56
471.777	90.56
471.997	68.56
472.216	78.56
472.435	85.56
472.654	92.56
472.873	82.56
473.092	87.56
473.311	76.56
473.53	91.56
473.749	91.56
473.968	73.56
474.187	90.56
474.406	80.56
474.625	81.56
474.844	90.56
475.063	83.56
475.282	85.56
475.501	74.56
475.72	77.56
475.939	85.56
476.158	83.56
476.377	88.56
476.596	88.56
476.814	83.56
477.033	88.56
477.252	85.56
477.471	91.56
477.69	88.56
477.908	90.56
478.127	93.56
478.346	82.56
478.564	89.56
478.783	84.56
479.002	86.56
479.22	79.56
479.439	108.56
479.658	80.56
479.876	88.56
480.095	82.56
480.313	98.56
480.532	96.56
480.751	84.56
480.969	94.56
481.188	91.56
481.406	78.56
481.624	76.56
481.843	83.56
482.061	97.56
482.28	78.56
482.498	79.56
482.717	88.56
482.935	101.56
483.153	72.56
483.372	91.56
483.59	92.56
483.808	85.56
484.027	114.56
484.245	91.56
484.463	92.56
484.681	96.56
484.9	85.56
485.118	87.56
485.336	81.56
485.554	99.56
485.772	80.56
485.99	79.56
486.209	101.56
486.427	93.56
486.645	87.56
486.863	78.56
487.081	89.56
487.299	94.56
487.517	77.56
487.735	64.56
487.953	81.56
488.171	90.56
488.389	91.56
488.607	83.56
488.825	88.56
489.043	89.56
489.261	96.56
489.479	91.56
489.696	80.56
489.914	97.56
490.132	92.56
490.35	79.56
490.568	85.56
490.786	101.56
491.003	79.56
491.221	93.56
491.439	78.56
491.657	80.56
491.874	81.56
492.092	96.56
492.31	94.56
492.527	90.56
492.745	90.56
492.963	102.56
493.18	95.56
493.398	102.56
493.615	83.56
493.833	90.56
494.05	98.56
494.268	102.56
494.485	97.56
494.703	89.56
494.92	82.56
495.138	92.56
495.355	87.56
495.573	88.56
495.79	115.56
496.008	87.56
496.225	75.56
496.442	91.56
496.66	91.56
496.877	86.56
497.094	96.56
497.312	95.56
497.529	90.56
497.746	85.56
497.963	93.56
498.181	105.56
498.398	85.56
498.615	85.56
498.832	82.56
499.049	79.56
499.267	78.56
499.484	83.56
499.701	93.56
499.918	95.56
500.135	79.56
500.352	92.56
500.569	90.56
500.786	86.56
501.003	87.56
501.22	90.56
501.437	82.56
501.654	93.56
501.871	85.56
502.088	90.56
502.305	94.56
502.522	91.56
502.739	87.56
502.956	91.56
503.172	84.56
503.389	76.56
503.606	72.56
503.823	82.56
504.04	80.56
504.256	86.56
504.473	86.56
504.69	94.56
504.907	105.56
505.123	83.56
505.34	83.56
505.557	83.56
505.773	93.56
505.99	96.56
506.207	106.56
506.423	86.56
506.64	66.56
506.856	98.56
507.073	93.56
507.289	85.56
507.506	89.56
507.722	90.56
507.939	99.56
508.155	94.56
508.372	89.56
508.588	77.56
508.805	101.56
509.021	85.56
509.238	88.56
509.454	97.56
509.67	96.56
509.887	76.56
510.103	89.56
510.319	101.56
510.536	89.56
510.752	92.56
510.968	90.56
511.184	92.56
511.401	99.56
511.617	111.56
511.833	84.56
512.049	86.56
512.265	90.56
512.481	85.56
512.698	85.56
512.914	82.56
513.13	85.56
513.346	96.56
513.562	91.56
513.778	88.56
513.994	77.56
514.21	91.56
514.426	85.56
514.642	85.56
514.858	84.56
515.074	73.56
515.29	82.56
515.506	83.56
515.721	83.56
515.937	101.56
516.153	96.56
516.369	98.56
516.585	90.56
516.801	90.56
517.016	71.56
517.232	79.56
517.448	94.56
517.664	85.56
517.879	83.56
518.095	97.56
518.311	92.56
518.527	91.56
518.742	87.56
518.958	69.56
519.173	86.56
519.389	86.56
