Data from KBr_2_HRD10591_00033.txt Node
Date: Mon Jan 19 13:13:07 EST 2026
User: Yrep
Spectrometer: HR+D1059
Trigger mode: 1
Integration Time (sec): 1.000000E-1
Scans to average: 1
Electric dark correction enabled: true
Nonlinearity correction enabled: false
Boxcar width: 0
XAxis mode: Wavelengths
Number of Pixels in Spectrum: 2048
>>>>>Begin Spectral Data<<<<<
223.165	-23
223.4	-23
223.635	-23
223.869	-15
224.104	-17
224.338	-10
224.573	-24
224.808	-20
225.042	2
225.277	-1
225.511	11
225.746	12
225.98	8
226.215	13
226.449	13
226.683	10
226.918	17
227.152	24
227.387	30
227.621	35
227.856	51
228.09	55
228.324	48
228.559	55
228.793	66
229.027	60
229.262	67
229.496	70
229.73	63
229.964	76
230.199	77
230.433	69
230.667	77
230.901	64
231.136	80
231.37	88
231.604	73
231.838	72
232.072	83
232.306	81
232.541	71
232.775	76
233.009	77
233.243	75
233.477	85
233.711	89
233.945	74
234.179	91
234.413	77
234.647	99
234.881	78
235.115	71
235.349	77
235.583	73
235.817	79
236.051	84
236.285	79
236.519	94
236.753	68
236.987	83
237.221	71
237.455	81
237.689	84
237.922	60
238.156	81
238.39	79
238.624	62
238.858	59
239.091	67
239.325	78
239.559	81
239.793	69
240.027	76
240.26	77
240.494	83
240.728	65
240.961	84
241.195	75
241.429	53
241.662	64
241.896	75
242.13	66
242.363	75
242.597	75
242.83	72
243.064	73
243.298	74
243.531	78
243.765	79
243.998	74
244.232	60
244.465	82
244.699	83
244.932	71
245.166	65
245.399	78
245.633	74
245.866	79
246.099	78
246.333	69
246.566	66
246.8	63
247.033	71
247.266	82
247.5	86
247.733	79
247.966	76
248.2	81
248.433	64
248.666	79
248.899	76
249.133	74
249.366	76
249.599	77
249.832	70
250.066	85
250.299	86
250.532	75
250.765	87
250.998	72
251.231	71
251.465	87
251.698	78
251.931	81
252.164	84
252.397	73
252.63	61
252.863	81
253.096	79
253.329	79
253.562	75
253.795	84
254.028	74
254.261	71
254.494	87
254.727	87
254.96	76
255.193	86
255.426	75
255.659	87
255.892	76
256.124	79
256.357	87
256.59	87
256.823	76
257.056	89
257.289	79
257.521	77
257.754	83
257.987	75
258.22	92
258.452	81
258.685	85
258.918	82
259.151	85
259.383	87
259.616	79
259.849	79
260.081	85
260.314	66
260.547	82
260.779	79
261.012	66
261.244	78
261.477	87
261.71	80
261.942	76
262.175	75
262.407	77
262.64	88
262.872	83
263.105	71
263.337	78
263.57	81
263.802	79
264.035	78
264.267	77
264.499	82
264.732	84
264.964	80
265.197	84
265.429	73
265.661	75
265.894	74
266.126	91
266.358	84
266.591	80
266.823	79
267.055	97
267.287	80
267.52	78
267.752	80
267.984	81
268.216	81
268.448	84
268.681	86
268.913	81
269.145	92
269.377	71
269.609	87
269.841	90
270.073	87
270.306	89
270.538	80
270.77	74
271.002	85
271.234	80
271.466	79
271.698	72
271.93	73
272.162	74
272.394	81
272.626	75
272.858	77
273.09	71
273.322	75
273.553	74
273.785	76
274.017	72
274.249	82
274.481	83
274.713	81
274.945	79
275.176	80
275.408	90
275.64	75
275.872	79
276.104	79
276.335	80
276.567	83
276.799	74
277.031	82
277.262	100
277.494	92
277.726	77
277.957	79
278.189	78
278.421	89
278.652	91
278.884	83
279.115	78
279.347	89
279.579	84
279.81	99
280.042	75
280.273	83
280.505	75
280.736	75
280.968	70
281.199	73
281.431	86
281.662	92
281.894	86
282.125	81
282.356	84
282.588	78
282.819	88
283.051	86
283.282	69
283.513	83
283.745	79
283.976	80
284.207	78
284.439	95
284.67	91
284.901	90
285.132	85
285.364	77
285.595	85
285.826	91
286.057	74
286.288	66
286.52	75
286.751	78
286.982	77
287.213	92
287.444	75
287.675	78
287.906	81
288.138	80
288.369	89
288.6	81
288.831	70
289.062	95
289.293	85
289.524	83
289.755	92
289.986	95
290.217	69
290.448	76
290.679	72
290.91	86
291.141	81
291.371	88
291.602	75
291.833	67
292.064	84
292.295	85
292.526	66
292.757	73
292.987	97
293.218	75
293.449	81
293.68	76
293.91	100
294.141	88
294.372	75
294.603	88
294.833	95
295.064	87
295.295	94
295.525	91
295.756	86
295.987	93
296.217	80
296.448	71
296.679	79
296.909	85
297.14	83
297.37	91
297.601	80
297.831	80
298.062	81
298.292	95
298.523	91
298.753	108
298.984	69
299.214	83
299.445	78
299.675	82
299.905	85
300.136	92
300.366	96
300.597	91
300.827	101
301.057	73
301.288	84
301.518	89
301.748	89
301.979	110
302.209	82
302.439	77
302.669	86
302.9	74
303.13	95
303.36	73
303.59	83
303.82	67
304.051	83
304.281	87
304.511	77
304.741	83
304.971	86
305.201	66
305.431	73
305.661	87
305.891	81
306.121	86
306.352	88
306.582	91
306.812	87
307.042	100
307.272	74
307.502	88
307.731	80
307.961	85
308.191	91
308.421	87
308.651	96
308.881	80
309.111	82
309.341	87
309.571	87
309.8	89
310.03	77
310.26	88
310.49	93
310.72	79
310.949	79
311.179	76
311.409	92
311.639	89
311.868	85
312.098	80
312.328	89
312.557	89
312.787	81
313.017	78
313.246	76
313.476	115
313.706	91
313.935	99
314.165	82
314.394	75
314.624	88
314.853	92
315.083	59
315.312	84
315.542	87
315.771	98
316.001	88
316.23	85
316.46	80
316.689	88
316.919	71
317.148	71
317.377	95
317.607	81
317.836	86
318.065	87
318.295	88
318.524	73
318.753	89
318.983	80
319.212	89
319.441	80
319.67	90
319.9	89
320.129	85
320.358	80
320.587	94
320.816	82
321.046	83
321.275	87
321.504	96
321.733	99
321.962	87
322.191	83
322.42	86
322.649	83
322.878	80
323.108	87
323.337	69
323.566	93
323.795	77
324.024	74
324.253	88
324.482	80
324.71	93
324.939	91
325.168	84
325.397	88
325.626	84
325.855	77
326.084	76
326.313	91
326.542	86
326.77	104
326.999	94
327.228	94
327.457	77
327.686	83
327.914	77
328.143	99
328.372	71
328.6	85
328.829	83
329.058	81
329.287	85
329.515	80
329.744	97
329.972	87
330.201	72
330.43	92
330.658	83
330.887	87
331.115	78
331.344	76
331.572	72
331.801	94
332.03	78
332.258	82
332.486	78
332.715	79
332.943	65
333.172	84
333.4	77
333.629	85
333.857	92
334.085	92
334.314	77
334.542	90
334.771	88
334.999	82
335.227	90
335.455	78
335.684	77
335.912	84
336.14	80
336.369	89
336.597	87
336.825	87
337.053	77
337.281	83
337.51	81
337.738	80
337.966	96
338.194	101
338.422	86
338.65	95
338.878	96
339.106	86
339.334	92
339.562	89
339.79	80
340.018	75
340.246	93
340.474	92
340.702	80
340.93	91
341.158	81
341.386	78
341.614	86
341.842	80
342.07	90
342.298	74
342.526	109
342.754	83
342.981	80
343.209	87
343.437	85
343.665	93
343.893	87
344.12	88
344.348	93
344.576	93
344.804	102
345.031	87
345.259	95
345.487	93
345.714	95
345.942	91
346.17	83
346.397	90
346.625	94
346.853	88
347.08	85
347.308	87
347.535	77
347.763	85
347.99	82
348.218	91
348.445	88
348.673	86
348.9	95
349.128	79
349.355	82
349.583	92
349.81	78
350.037	83
350.265	82
350.492	80
350.72	85
350.947	105
351.174	80
351.402	95
351.629	89
351.856	92
352.083	90
352.311	73
352.538	99
352.765	73
352.992	88
353.22	87
353.447	81
353.674	84
353.901	79
354.128	81
354.355	81
354.583	90
354.81	84
355.037	92
355.264	77
355.491	75
355.718	77
355.945	83
356.172	72
356.399	77
356.626	78
356.853	75
357.08	78
357.307	80
357.534	85
357.761	96
357.988	93
358.215	81
358.441	80
358.668	96
358.895	78
359.122	94
359.349	71
359.576	75
359.802	82
360.029	85
360.256	93
360.483	89
360.709	93
360.936	92
361.163	88
361.39	75
361.616	88
361.843	77
362.07	75
362.296	79
362.523	72
362.749	73
362.976	75
363.203	93
363.429	84
363.656	103
363.882	83
364.109	75
364.335	80
364.562	64
364.788	66
365.015	89
365.241	90
365.468	89
365.694	74
365.92	85
366.147	87
366.373	86
366.599	75
366.826	82
367.052	80
367.278	88
367.505	91
367.731	92
367.957	96
368.184	100
368.41	90
368.636	104
368.862	82
369.089	87
369.315	84
369.541	97
369.767	95
369.993	99
370.219	91
370.445	76
370.672	79
370.898	83
371.124	75
371.35	79
371.576	79
371.802	84
372.028	84
372.254	94
372.48	91
372.706	85
372.932	77
373.158	86
373.384	100
373.61	89
373.835	82
374.061	79
374.287	92
374.513	91
374.739	83
374.965	88
375.191	78
375.416	75
375.642	83
375.868	92
376.094	85
376.319	72
376.545	92
376.771	80
376.997	83
377.222	69
377.448	81
377.674	90
377.899	88
378.125	80
378.35	88
378.576	89
378.802	75
379.027	89
379.253	91
379.478	83
379.704	85
379.929	101
380.155	83
380.38	77
380.606	82
380.831	68
381.057	81
381.282	87
381.507	85
381.733	86
381.958	79
382.184	91
382.409	73
382.634	93
382.86	80
383.085	93
383.31	90
383.535	91
383.761	94
383.986	88
384.211	76
384.436	72
384.662	73
384.887	86
385.112	77
385.337	87
385.562	97
385.787	83
386.013	99
386.238	80
386.463	81
386.688	82
386.913	64
387.138	87
387.363	88
387.588	85
387.813	72
388.038	85
388.263	91
388.488	85
388.713	74
388.938	74
389.163	84
389.387	79
389.612	78
389.837	79
390.062	79
390.287	79
390.512	88
390.736	91
390.961	78
391.186	90
391.411	87
391.636	87
391.86	83
392.085	92
392.31	89
392.534	87
392.759	85
392.984	91
393.208	91
393.433	90
393.658	96
393.882	87
394.107	90
394.331	92
394.556	83
394.78	87
395.005	84
395.229	85
395.454	85
395.678	84
395.903	73
396.127	81
396.352	77
396.576	83
396.801	81
397.025	86
397.249	78
397.474	88
397.698	79
397.922	71
398.147	77
398.371	81
398.595	71
398.82	86
399.044	81
399.268	88
399.492	75
399.717	91
399.941	83
400.165	74
400.389	76
400.613	90
400.837	78
401.062	88
401.286	81
401.51	91
401.734	85
401.958	89
402.182	80
402.406	66
402.63	85
402.854	82
403.078	83
403.302	104
403.526	69
403.75	87
403.974	104
404.198	124
404.422	233
404.645	269
404.869	227
405.093	139
405.317	87
405.541	95
405.765	90
405.988	92
406.212	80
406.436	89
406.66	91
406.883	80
407.107	90
407.331	93
407.555	74
407.778	81
408.002	85
408.226	77
408.449	87
408.673	86
408.896	96
409.12	96
409.344	77
409.567	73
409.791	88
410.014	82
410.238	84
410.461	92
410.685	100
410.908	92
411.132	85
411.355	96
411.578	95
411.802	90
412.025	79
412.249	85
412.472	87
412.695	81
412.919	79
413.142	94
413.365	83
413.589	76
413.812	90
414.035	93
414.258	83
414.482	97
414.705	85
414.928	82
415.151	87
415.374	73
415.597	71
415.821	76
416.044	72
416.267	77
416.49	98
416.713	88
416.936	89
417.159	83
417.382	75
417.605	73
417.828	87
418.051	84
418.274	84
418.497	77
418.72	101
418.943	92
419.166	92
419.389	83
419.611	91
419.834	99
420.057	83
420.28	110
420.503	96
420.726	83
420.948	84
421.171	83
421.394	99
421.617	80
421.839	74
422.062	93
422.285	91
422.507	89
422.73	88
422.953	90
423.175	85
423.398	82
423.621	90
423.843	70
424.066	72
424.288	91
424.511	83
424.733	92
424.956	76
425.178	84
425.401	100
425.623	81
425.846	79
426.068	91
426.291	105
426.513	81
426.735	97
426.958	90
427.18	87
427.402	78
427.625	75
427.847	83
428.069	84
428.292	70
428.514	103
428.736	87
428.958	77
429.181	77
429.403	90
429.625	97
429.847	85
430.069	71
430.292	92
430.514	90
430.736	77
430.958	75
431.18	94
431.402	83
431.624	96
431.846	75
432.068	77
432.29	86
432.512	87
432.734	76
432.956	71
433.178	79
433.4	87
433.622	88
433.844	87
434.066	75
434.287	78
434.509	86
434.731	92
434.953	101
435.175	81
435.397	86
435.618	77
435.84	85
436.062	84
436.284	88
436.505	91
436.727	92
436.949	96
437.17	87
437.392	87
437.614	87
437.835	62
438.057	87
438.278	69
438.5	88
438.721	104
438.943	103
439.165	86
439.386	94
439.608	84
439.829	82
440.05	102
440.272	110
440.493	89
440.715	83
440.936	81
441.158	87
441.379	82
441.6	87
441.822	94
442.043	73
442.264	89
442.486	91
442.707	78
442.928	91
443.149	89
443.371	96
443.592	96
443.813	100
444.034	81
444.255	79
444.476	72
444.698	80
444.919	81
445.14	167
445.361	122
445.582	96
445.803	87
446.024	82
446.245	70
446.466	88
446.687	87
446.908	74
447.129	99
447.35	85
447.571	89
447.792	80
448.013	96
448.234	89
448.455	89
448.675	99
448.896	66
449.117	96
449.338	83
449.559	96
449.779	76
450	76
450.221	83
450.442	94
450.662	101
450.883	76
451.104	86
451.324	84
451.545	70
451.766	92
451.986	82
452.207	87
452.428	84
452.648	84
452.869	89
453.089	70
453.31	73
453.53	93
453.751	85
453.971	88
454.192	87
454.412	90
454.633	93
454.853	81
455.073	83
455.294	83
455.514	95
455.734	88
455.955	83
456.175	86
456.395	77
456.616	78
456.836	86
457.056	86
457.276	70
457.497	86
457.717	92
457.937	89
458.157	80
458.377	71
458.598	103
458.818	73
459.038	79
459.258	84
459.478	77
459.698	78
459.918	79
460.138	95
460.358	79
460.578	84
460.798	96
461.018	81
461.238	75
461.458	64
461.678	85
461.898	79
462.118	93
462.338	81
462.558	87
462.777	83
462.997	96
463.217	68
463.437	84
463.657	83
463.876	98
464.096	80
464.316	95
464.536	88
464.755	88
464.975	84
465.195	71
465.414	92
465.634	76
465.854	88
466.073	90
466.293	86
466.512	97
466.732	75
466.951	77
467.171	86
467.391	90
467.61	81
467.829	86
468.049	69
468.268	87
468.488	84
468.707	69
468.927	87
469.146	85
469.365	85
469.585	95
469.804	89
470.023	87
470.243	89
470.462	99
470.681	91
470.901	73
471.12	88
471.339	89
471.558	96
471.777	72
471.997	78
472.216	84
472.435	75
472.654	98
472.873	78
473.092	79
473.311	87
473.53	104
473.749	84
473.968	77
474.187	84
474.406	89
474.625	99
474.844	83
475.063	79
475.282	81
475.501	84
475.72	105
475.939	94
476.158	97
476.377	87
476.596	78
476.814	72
477.033	84
477.252	103
477.471	91
477.69	88
477.908	89
478.127	81
478.346	102
478.564	89
478.783	99
479.002	83
479.22	74
479.439	77
479.658	81
479.876	99
480.095	101
480.313	116
480.532	79
480.751	86
480.969	90
481.188	78
481.406	89
481.624	73
481.843	80
482.061	83
482.28	84
482.498	97
482.717	84
482.935	77
483.153	94
483.372	96
483.59	88
483.808	96
484.027	88
484.245	84
484.463	88
484.681	96
484.9	96
485.118	86
485.336	89
485.554	88
485.772	92
485.99	95
486.209	95
486.427	86
486.645	87
486.863	80
487.081	91
487.299	95
487.517	100
487.735	104
487.953	88
488.171	90
488.389	96
488.607	89
488.825	97
489.043	92
489.261	100
489.479	88
489.696	90
489.914	99
490.132	92
490.35	95
490.568	87
490.786	100
491.003	85
491.221	92
491.439	108
491.657	95
491.874	118
492.092	90
492.31	93
492.527	85
492.745	104
492.963	102
493.18	86
493.398	102
493.615	85
493.833	86
494.05	102
494.268	86
494.485	88
494.703	79
494.92	78
495.138	88
495.355	81
495.573	93
495.79	99
496.008	103
496.225	87
496.442	96
496.66	86
496.877	105
497.094	104
497.312	92
497.529	96
497.746	88
497.963	96
498.181	100
498.398	97
498.615	77
498.832	74
499.049	90
499.267	100
499.484	73
499.701	86
499.918	91
500.135	89
500.352	92
500.569	94
500.786	100
501.003	78
501.22	85
501.437	83
501.654	93
501.871	93
502.088	91
502.305	89
502.522	82
502.739	72
502.956	81
503.172	75
503.389	81
503.606	95
503.823	83
504.04	88
504.256	81
504.473	91
504.69	107
504.907	109
505.123	96
505.34	92
505.557	89
505.773	88
505.99	96
506.207	68
506.423	65
506.64	93
506.856	85
507.073	74
507.289	95
507.506	88
507.722	72
507.939	88
508.155	84
508.372	73
508.588	88
508.805	94
509.021	80
509.238	73
509.454	94
509.67	93
509.887	101
510.103	91
510.319	80
510.536	109
510.752	76
510.968	95
511.184	92
511.401	83
511.617	107
511.833	92
512.049	87
512.265	88
512.481	94
512.698	85
512.914	71
513.13	79
513.346	86
513.562	102
513.778	85
513.994	85
514.21	76
514.426	79
514.642	83
514.858	79
515.074	92
515.29	94
515.506	84
515.721	87
515.937	98
516.153	88
516.369	105
516.585	93
516.801	86
517.016	100
517.232	72
517.448	80
517.664	82
517.879	87
518.095	78
518.311	83
518.527	90
518.742	81
518.958	80
519.173	79
519.389	88
519.605	84
519.82	93
520.036	72
520.251	89
520.467	72
520.682	76
520.898	93
521.113	86
521.329	98
521.544	96
521.76	93
521.975	77
522.19	93
522.406	96
522.621	90
522.836	107
523.052	85
523.267	85
523.482	81
523.698	94
523.913	94
524.128	82
524.343	77
524.559	101
524.774	84
524.989	89
525.204	84
525.419	90
525.634	90
525.849	70
526.064	83
526.28	89
526.495	73
526.71	93
526.925	94
527.14	90
527.355	81
527.57	84
527.785	93
527.999	81
528.214	97
528.429	72
528.644	85
528.859	92
529.074	91
529.289	91
529.503	80
529.718	71
529.933	92
530.148	92
530.363	91
530.577	99
530.792	102
531.007	77
531.221	94
531.436	85
531.651	94
531.865	85
532.08	86
532.295	91
532.509	107
532.724	111
532.938	99
533.153	93
533.367	96
533.582	82
533.796	84
534.011	88
534.225	114
534.44	129
534.654	99
534.868	107
535.083	117
535.297	95
535.511	122
535.726	94
535.94	81
536.154	100
536.369	112
536.583	116
536.797	121
537.011	89
537.225	91
537.44	84
537.654	83
537.868	74
538.082	76
538.296	86
538.51	93
538.724	78
538.938	103
539.153	85
539.367	85
539.581	89
539.795	85
540.009	84
540.222	97
540.436	86
540.65	87
540.864	92
541.078	81
541.292	85
541.506	85
541.72	95
541.934	99
542.147	82
542.361	88
542.575	79
542.789	85
543.002	96
543.216	85
543.43	92
543.644	100
543.857	79
544.071	98
544.285	86
544.498	94
544.712	100
544.925	99
545.139	90
545.352	93
545.566	108
545.779	106
545.993	89
546.206	89
546.42	101
546.633	89
546.847	93
547.06	99
547.274	75
547.487	89
547.7	82
547.914	102
548.127	79
548.34	85
548.554	83
548.767	91
548.98	84
549.193	80
549.407	89
549.62	80
549.833	95
550.046	75
550.259	102
550.473	89
550.686	93
550.899	97
551.112	91
551.325	97
551.538	92
551.751	94
551.964	80
552.177	75
552.39	95
552.603	76
552.816	92
553.029	88
553.242	96
553.455	95
553.667	90
553.88	99
554.093	81
554.306	102
554.519	80
554.732	99
554.944	92
555.157	90
555.37	94
555.583	93
555.795	96
556.008	76
556.221	91
556.433	86
556.646	75
556.859	86
557.071	95
557.284	96
557.496	91
557.709	84
557.921	97
558.134	88
558.346	82
558.559	91
558.771	100
558.984	87
559.196	82
559.409	89
559.621	88
559.833	82
560.046	87
560.258	94
560.47	86
560.683	89
560.895	83
561.107	83
561.32	83
561.532	79
561.744	84
561.956	92
562.168	94
562.381	91
562.593	87
562.805	77
563.017	81
563.229	107
563.441	93
563.653	90
563.865	91
564.077	86
564.289	85
564.501	82
564.713	84
564.925	83
565.137	92
565.349	95
565.561	72
565.773	97
565.985	101
566.197	83
566.408	99
566.62	90
566.832	83
567.044	100
567.255	87
567.467	84
567.679	103
567.891	94
568.102	69
568.314	96
568.526	77
568.737	101
568.949	106
569.161	93
569.372	96
569.584	105
569.795	87
570.007	94
570.218	87
570.43	96
570.641	84
570.853	81
571.064	90
571.276	107
571.487	97
571.698	93
571.91	77
572.121	91
572.333	98
572.544	83
572.755	95
572.966	81
573.178	91
573.389	88
573.6	78
573.811	71
574.023	91
574.234	94
574.445	99
574.656	93
574.867	89
575.078	100
575.289	87
575.501	91
575.712	80
575.923	85
576.134	85
576.345	88
576.556	92
576.767	86
576.978	84
577.188	107
577.399	82
577.61	83
577.821	80
578.032	95
578.243	84
578.454	124
578.665	114
578.875	109
579.086	100
579.297	90
579.508	77
579.718	87
579.929	94
580.14	108
580.35	128
580.561	136
580.772	119
580.982	108
581.193	96
581.403	102
581.614	105
581.825	88
582.035	107
582.246	99
582.456	84
582.667	92
582.877	93
583.087	78
583.298	103
583.508	131
583.719	105
583.929	84
584.139	96
584.35	92
584.56	95
584.77	66
584.981	103
585.191	93
585.401	95
585.611	85
585.821	99
586.032	98
586.242	87
586.452	91
586.662	81
586.872	71
587.082	73
587.292	97
587.502	91
587.713	93
587.923	110
588.133	106
588.343	126
588.553	146
588.762	203
588.972	426
