Data from KBr_2_HRD10591_00013.txt Node
Date: Mon Jan 19 13:12:57 EST 2026
User: Yrep
Spectrometer: HR+D1059
Trigger mode: 1
Integration Time (sec): 1.000000E-1
Scans to average: 1
Electric dark correction enabled: true
Nonlinearity correction enabled: false
Boxcar width: 0
XAxis mode: Wavelengths
Number of Pixels in Spectrum: 2048
>>>>>Begin Spectral Data<<<<<
223.165	-17.06
223.4	-17.06
223.635	-17.06
223.869	-25.06
224.104	-27.06
224.338	-28.06
224.573	-1.06
224.808	-4.06
225.042	-3.06
225.277	-5.06
225.511	-0.06
225.746	-0.06
225.98	0.94
226.215	19.94
226.449	14.94
226.683	19.94
226.918	31.94
227.152	22.94
227.387	41.94
227.621	54.94
227.856	50.94
228.09	47.94
228.324	55.94
228.559	52.94
228.793	62.94
229.027	77.94
229.262	81.94
229.496	54.94
229.73	69.94
229.964	83.94
230.199	74.94
230.433	79.94
230.667	80.94
230.901	88.94
231.136	64.94
231.37	82.94
231.604	86.94
231.838	78.94
232.072	79.94
232.306	71.94
232.541	76.94
232.775	81.94
233.009	90.94
233.243	75.94
233.477	74.94
233.711	96.94
233.945	87.94
234.179	88.94
234.413	69.94
234.647	76.94
234.881	91.94
235.115	82.94
235.349	79.94
235.583	80.94
235.817	84.94
236.051	86.94
236.285	81.94
236.519	74.94
236.753	84.94
236.987	68.94
237.221	75.94
237.455	74.94
237.689	72.94
237.922	85.94
238.156	82.94
238.39	76.94
238.624	78.94
238.858	77.94
239.091	68.94
239.325	77.94
239.559	81.94
239.793	77.94
240.027	87.94
240.26	74.94
240.494	75.94
240.728	72.94
240.961	85.94
241.195	69.94
241.429	85.94
241.662	80.94
241.896	82.94
242.13	73.94
242.363	79.94
242.597	74.94
242.83	84.94
243.064	64.94
243.298	53.94
243.531	78.94
243.765	64.94
243.998	80.94
244.232	74.94
244.465	74.94
244.699	80.94
244.932	86.94
245.166	81.94
245.399	78.94
245.633	62.94
245.866	63.94
246.099	83.94
246.333	77.94
246.566	77.94
246.8	81.94
247.033	86.94
247.266	85.94
247.5	80.94
247.733	72.94
247.966	90.94
248.2	62.94
248.433	76.94
248.666	80.94
248.899	74.94
249.133	82.94
249.366	80.94
249.599	86.94
249.832	81.94
250.066	88.94
250.299	84.94
250.532	86.94
250.765	77.94
250.998	94.94
251.231	74.94
251.465	91.94
251.698	75.94
251.931	85.94
252.164	75.94
252.397	72.94
252.63	79.94
252.863	74.94
253.096	79.94
253.329	69.94
253.562	84.94
253.795	83.94
254.028	83.94
254.261	78.94
254.494	77.94
254.727	75.94
254.96	79.94
255.193	78.94
255.426	84.94
255.659	54.94
255.892	81.94
256.124	87.94
256.357	68.94
256.59	83.94
256.823	78.94
257.056	81.94
257.289	75.94
257.521	88.94
257.754	70.94
257.987	72.94
258.22	73.94
258.452	78.94
258.685	99.94
258.918	87.94
259.151	89.94
259.383	91.94
259.616	62.94
259.849	93.94
260.081	77.94
260.314	82.94
260.547	71.94
260.779	94.94
261.012	92.94
261.244	80.94
261.477	87.94
261.71	76.94
261.942	76.94
262.175	90.94
262.407	62.94
262.64	75.94
262.872	75.94
263.105	83.94
263.337	83.94
263.57	95.94
263.802	79.94
264.035	74.94
264.267	64.94
264.499	66.94
264.732	76.94
264.964	73.94
265.197	79.94
265.429	84.94
265.661	78.94
265.894	83.94
266.126	90.94
266.358	82.94
266.591	72.94
266.823	87.94
267.055	79.94
267.287	79.94
267.52	89.94
267.752	77.94
267.984	85.94
268.216	77.94
268.448	75.94
268.681	103.94
268.913	93.94
269.145	76.94
269.377	82.94
269.609	72.94
269.841	90.94
270.073	88.94
270.306	81.94
270.538	86.94
270.77	78.94
271.002	88.94
271.234	82.94
271.466	84.94
271.698	92.94
271.93	88.94
272.162	83.94
272.394	83.94
272.626	89.94
272.858	92.94
273.09	74.94
273.322	81.94
273.553	100.94
273.785	95.94
274.017	76.94
274.249	83.94
274.481	78.94
274.713	82.94
274.945	95.94
275.176	74.94
275.408	82.94
275.64	81.94
275.872	76.94
276.104	76.94
276.335	81.94
276.567	79.94
276.799	87.94
277.031	79.94
277.262	87.94
277.494	90.94
277.726	86.94
277.957	95.94
278.189	85.94
278.421	78.94
278.652	78.94
278.884	80.94
279.115	80.94
279.347	92.94
279.579	78.94
279.81	78.94
280.042	83.94
280.273	86.94
280.505	80.94
280.736	84.94
280.968	80.94
281.199	92.94
281.431	90.94
281.662	81.94
281.894	79.94
282.125	84.94
282.356	84.94
282.588	99.94
282.819	80.94
283.051	90.94
283.282	81.94
283.513	95.94
283.745	88.94
283.976	92.94
284.207	76.94
284.439	82.94
284.67	71.94
284.901	83.94
285.132	88.94
285.364	89.94
285.595	74.94
285.826	99.94
286.057	91.94
286.288	80.94
286.52	85.94
286.751	78.94
286.982	67.94
287.213	72.94
287.444	90.94
287.675	87.94
287.906	88.94
288.138	93.94
288.369	89.94
288.6	91.94
288.831	75.94
289.062	89.94
289.293	82.94
289.524	89.94
289.755	88.94
289.986	74.94
290.217	83.94
290.448	80.94
290.679	89.94
290.91	78.94
291.141	78.94
291.371	93.94
291.602	89.94
291.833	90.94
292.064	90.94
292.295	82.94
292.526	82.94
292.757	79.94
292.987	80.94
293.218	88.94
293.449	97.94
293.68	79.94
293.91	82.94
294.141	92.94
294.372	97.94
294.603	86.94
294.833	88.94
295.064	78.94
295.295	79.94
295.525	87.94
295.756	84.94
295.987	98.94
296.217	86.94
296.448	91.94
296.679	84.94
296.909	86.94
297.14	77.94
297.37	102.94
297.601	62.94
297.831	78.94
298.062	82.94
298.292	84.94
298.523	96.94
298.753	86.94
298.984	87.94
299.214	82.94
299.445	88.94
299.675	88.94
299.905	90.94
300.136	90.94
300.366	88.94
300.597	75.94
300.827	99.94
301.057	103.94
301.288	78.94
301.518	95.94
301.748	84.94
301.979	113.94
302.209	93.94
302.439	85.94
302.669	85.94
302.9	97.94
303.13	84.94
303.36	86.94
303.59	68.94
303.82	74.94
304.051	88.94
304.281	90.94
304.511	92.94
304.741	80.94
304.971	80.94
305.201	86.94
305.431	90.94
305.661	88.94
305.891	71.94
306.121	102.94
306.352	95.94
306.582	86.94
306.812	82.94
307.042	86.94
307.272	91.94
307.502	77.94
307.731	94.94
307.961	93.94
308.191	79.94
308.421	98.94
308.651	80.94
308.881	80.94
309.111	86.94
309.341	87.94
309.571	102.94
309.8	84.94
310.03	76.94
310.26	74.94
310.49	90.94
310.72	93.94
310.949	75.94
311.179	91.94
311.409	94.94
311.639	88.94
311.868	82.94
312.098	100.94
312.328	90.94
312.557	92.94
312.787	106.94
313.017	75.94
313.246	88.94
313.476	83.94
313.706	90.94
313.935	109.94
314.165	93.94
314.394	80.94
314.624	93.94
314.853	95.94
315.083	93.94
315.312	79.94
315.542	86.94
315.771	91.94
316.001	79.94
316.23	89.94
316.46	82.94
316.689	74.94
316.919	95.94
317.148	82.94
317.377	87.94
317.607	96.94
317.836	87.94
318.065	88.94
318.295	71.94
318.524	70.94
318.753	94.94
318.983	96.94
319.212	103.94
319.441	92.94
319.67	88.94
319.9	82.94
320.129	88.94
320.358	80.94
320.587	92.94
320.816	95.94
321.046	88.94
321.275	90.94
321.504	84.94
321.733	98.94
321.962	95.94
322.191	88.94
322.42	81.94
322.649	95.94
322.878	89.94
323.108	99.94
323.337	100.94
323.566	79.94
323.795	80.94
324.024	97.94
324.253	92.94
324.482	96.94
324.71	87.94
324.939	93.94
325.168	98.94
325.397	95.94
325.626	98.94
325.855	96.94
326.084	90.94
326.313	89.94
326.542	71.94
326.77	94.94
326.999	76.94
327.228	96.94
327.457	90.94
327.686	82.94
327.914	91.94
328.143	84.94
328.372	92.94
328.6	75.94
328.829	86.94
329.058	83.94
329.287	81.94
329.515	83.94
329.744	95.94
329.972	113.94
330.201	102.94
330.43	112.94
330.658	97.94
330.887	92.94
331.115	86.94
331.344	91.94
331.572	83.94
331.801	95.94
332.03	80.94
332.258	93.94
332.486	88.94
332.715	94.94
332.943	77.94
333.172	94.94
333.4	75.94
333.629	104.94
333.857	74.94
334.085	80.94
334.314	92.94
334.542	95.94
334.771	75.94
334.999	82.94
335.227	83.94
335.455	79.94
335.684	81.94
335.912	82.94
336.14	75.94
336.369	85.94
336.597	69.94
336.825	100.94
337.053	91.94
337.281	94.94
337.51	83.94
337.738	88.94
337.966	88.94
338.194	86.94
338.422	72.94
338.65	83.94
338.878	60.94
339.106	103.94
339.334	95.94
339.562	99.94
339.79	96.94
340.018	99.94
340.246	88.94
340.474	100.94
340.702	78.94
340.93	86.94
341.158	82.94
341.386	86.94
341.614	88.94
341.842	86.94
342.07	102.94
342.298	99.94
342.526	106.94
342.754	95.94
342.981	75.94
343.209	76.94
343.437	87.94
343.665	91.94
343.893	81.94
344.12	100.94
344.348	87.94
344.576	106.94
344.804	114.94
345.031	93.94
345.259	94.94
345.487	90.94
345.714	87.94
345.942	75.94
346.17	95.94
346.397	94.94
346.625	82.94
346.853	93.94
347.08	67.94
347.308	87.94
347.535	107.94
347.763	84.94
347.99	84.94
348.218	88.94
348.445	80.94
348.673	90.94
348.9	96.94
349.128	89.94
349.355	82.94
349.583	102.94
349.81	83.94
350.037	97.94
350.265	98.94
350.492	80.94
350.72	81.94
350.947	77.94
351.174	80.94
351.402	92.94
351.629	83.94
351.856	82.94
352.083	82.94
352.311	90.94
352.538	81.94
352.765	96.94
352.992	98.94
353.22	90.94
353.447	86.94
353.674	106.94
353.901	91.94
354.128	93.94
354.355	76.94
354.583	82.94
354.81	83.94
355.037	82.94
355.264	74.94
355.491	91.94
355.718	88.94
355.945	99.94
356.172	84.94
356.399	83.94
356.626	97.94
356.853	88.94
357.08	89.94
357.307	89.94
357.534	88.94
357.761	76.94
357.988	86.94
358.215	87.94
358.441	84.94
358.668	78.94
358.895	84.94
359.122	94.94
359.349	65.94
359.576	74.94
359.802	78.94
360.029	93.94
360.256	103.94
360.483	84.94
360.709	82.94
360.936	104.94
361.163	95.94
361.39	105.94
361.616	103.94
361.843	95.94
362.07	90.94
362.296	99.94
362.523	84.94
362.749	99.94
362.976	88.94
363.203	76.94
363.429	73.94
363.656	81.94
363.882	82.94
364.109	104.94
364.335	106.94
364.562	83.94
364.788	85.94
365.015	94.94
365.241	91.94
365.468	99.94
365.694	84.94
365.92	95.94
366.147	72.94
366.373	85.94
366.599	92.94
366.826	91.94
367.052	86.94
367.278	95.94
367.505	75.94
367.731	88.94
367.957	84.94
368.184	81.94
368.41	89.94
368.636	105.94
368.862	87.94
369.089	86.94
369.315	90.94
369.541	93.94
369.767	78.94
369.993	90.94
370.219	75.94
370.445	90.94
370.672	90.94
370.898	85.94
371.124	85.94
371.35	100.94
371.576	83.94
371.802	80.94
372.028	87.94
372.254	70.94
372.48	79.94
372.706	77.94
372.932	82.94
373.158	76.94
373.384	85.94
373.61	81.94
373.835	88.94
374.061	97.94
374.287	105.94
374.513	84.94
374.739	84.94
374.965	86.94
375.191	87.94
375.416	81.94
375.642	82.94
375.868	92.94
376.094	80.94
376.319	80.94
376.545	96.94
376.771	87.94
376.997	94.94
377.222	94.94
377.448	83.94
377.674	88.94
377.899	87.94
378.125	85.94
378.35	82.94
378.576	96.94
378.802	96.94
379.027	77.94
379.253	81.94
379.478	83.94
379.704	85.94
379.929	102.94
380.155	83.94
380.38	79.94
380.606	94.94
380.831	82.94
381.057	77.94
381.282	80.94
381.507	90.94
381.733	81.94
381.958	88.94
382.184	82.94
382.409	88.94
382.634	94.94
382.86	76.94
383.085	91.94
383.31	86.94
383.535	83.94
383.761	78.94
383.986	80.94
384.211	82.94
384.436	95.94
384.662	86.94
384.887	87.94
385.112	73.94
385.337	91.94
385.562	99.94
385.787	81.94
386.013	87.94
386.238	100.94
386.463	86.94
386.688	102.94
386.913	78.94
387.138	79.94
387.363	83.94
387.588	96.94
387.813	76.94
388.038	88.94
388.263	81.94
388.488	85.94
388.713	80.94
388.938	78.94
389.163	79.94
389.387	88.94
389.612	78.94
389.837	66.94
390.062	92.94
390.287	84.94
390.512	85.94
390.736	83.94
390.961	89.94
391.186	78.94
391.411	94.94
391.636	87.94
391.86	84.94
392.085	91.94
392.31	94.94
392.534	93.94
392.759	84.94
392.984	82.94
393.208	88.94
393.433	115.94
393.658	112.94
393.882	97.94
394.107	76.94
394.331	88.94
394.556	86.94
394.78	86.94
395.005	80.94
395.229	91.94
395.454	90.94
395.678	94.94
395.903	84.94
396.127	86.94
396.352	86.94
396.576	91.94
396.801	84.94
397.025	98.94
397.249	80.94
397.474	96.94
397.698	87.94
397.922	87.94
398.147	82.94
398.371	81.94
398.595	86.94
398.82	93.94
399.044	89.94
399.268	90.94
399.492	96.94
399.717	83.94
399.941	80.94
400.165	93.94
400.389	81.94
400.613	85.94
400.837	102.94
401.062	92.94
401.286	84.94
401.51	73.94
401.734	85.94
401.958	96.94
402.182	97.94
402.406	103.94
402.63	86.94
402.854	89.94
403.078	88.94
403.302	93.94
403.526	80.94
403.75	88.94
403.974	110.94
404.198	147.94
404.422	247.94
404.645	290.94
404.869	239.94
405.093	138.94
405.317	94.94
405.541	88.94
405.765	98.94
405.988	96.94
406.212	90.94
406.436	87.94
406.66	92.94
406.883	95.94
407.107	91.94
407.331	107.94
407.555	93.94
407.778	82.94
408.002	87.94
408.226	102.94
408.449	74.94
408.673	84.94
408.896	97.94
409.12	94.94
409.344	90.94
409.567	84.94
409.791	73.94
410.014	80.94
410.238	86.94
410.461	90.94
410.685	87.94
410.908	89.94
411.132	92.94
411.355	97.94
411.578	102.94
411.802	98.94
412.025	74.94
412.249	88.94
412.472	75.94
412.695	107.94
412.919	88.94
413.142	92.94
413.365	74.94
413.589	99.94
413.812	73.94
414.035	79.94
414.258	94.94
414.482	83.94
414.705	81.94
414.928	106.94
415.151	88.94
415.374	90.94
415.597	87.94
415.821	84.94
416.044	83.94
416.267	94.94
416.49	89.94
416.713	93.94
416.936	107.94
417.159	83.94
417.382	96.94
417.605	94.94
417.828	79.94
418.051	78.94
418.274	97.94
418.497	87.94
418.72	86.94
418.943	94.94
419.166	101.94
419.389	90.94
419.611	107.94
419.834	87.94
420.057	86.94
420.28	83.94
420.503	95.94
420.726	88.94
420.948	89.94
421.171	80.94
421.394	78.94
421.617	90.94
421.839	84.94
422.062	82.94
422.285	99.94
422.507	97.94
422.73	109.94
422.953	114.94
423.175	86.94
423.398	87.94
423.621	89.94
423.843	91.94
424.066	96.94
424.288	101.94
424.511	86.94
424.733	83.94
424.956	79.94
425.178	96.94
425.401	89.94
425.623	87.94
425.846	109.94
426.068	90.94
426.291	77.94
426.513	89.94
426.735	90.94
426.958	100.94
427.18	90.94
427.402	96.94
427.625	98.94
427.847	84.94
428.069	82.94
428.292	78.94
428.514	81.94
428.736	96.94
428.958	94.94
429.181	72.94
429.403	82.94
429.625	85.94
429.847	92.94
430.069	94.94
430.292	93.94
430.514	100.94
430.736	83.94
430.958	84.94
431.18	79.94
431.402	75.94
431.624	84.94
431.846	72.94
432.068	96.94
432.29	83.94
432.512	102.94
432.734	78.94
432.956	86.94
433.178	77.94
433.4	75.94
433.622	102.94
433.844	99.94
434.066	87.94
434.287	95.94
434.509	87.94
434.731	77.94
434.953	79.94
435.175	77.94
435.397	94.94
435.618	85.94
435.84	96.94
436.062	95.94
436.284	107.94
436.505	86.94
436.727	90.94
436.949	95.94
437.17	85.94
437.392	94.94
437.614	83.94
437.835	95.94
438.057	95.94
438.278	79.94
438.5	89.94
438.721	85.94
438.943	98.94
439.165	89.94
439.386	92.94
439.608	97.94
439.829	92.94
440.05	80.94
440.272	84.94
440.493	99.94
440.715	79.94
440.936	80.94
441.158	100.94
441.379	92.94
441.6	87.94
441.822	80.94
442.043	114.94
442.264	80.94
442.486	89.94
442.707	90.94
442.928	92.94
443.149	96.94
443.371	98.94
443.592	98.94
443.813	91.94
444.034	91.94
444.255	106.94
444.476	91.94
444.698	70.94
444.919	89.94
445.14	164.94
445.361	128.94
445.582	95.94
445.803	80.94
446.024	104.94
446.245	106.94
446.466	90.94
446.687	93.94
446.908	91.94
447.129	85.94
447.35	93.94
447.571	85.94
447.792	95.94
448.013	80.94
448.234	91.94
448.455	92.94
448.675	87.94
448.896	96.94
449.117	82.94
449.338	88.94
449.559	102.94
449.779	78.94
450	86.94
450.221	101.94
450.442	86.94
450.662	98.94
450.883	82.94
451.104	80.94
451.324	75.94
451.545	87.94
451.766	89.94
451.986	83.94
452.207	82.94
452.428	97.94
452.648	88.94
452.869	88.94
453.089	79.94
453.31	86.94
453.53	106.94
453.751	89.94
453.971	81.94
454.192	90.94
454.412	97.94
454.633	100.94
454.853	99.94
455.073	89.94
455.294	73.94
455.514	79.94
455.734	86.94
455.955	74.94
456.175	93.94
456.395	85.94
456.616	92.94
456.836	86.94
457.056	89.94
457.276	83.94
457.497	82.94
457.717	102.94
457.937	82.94
458.157	80.94
458.377	74.94
458.598	80.94
458.818	95.94
459.038	92.94
459.258	75.94
459.478	88.94
459.698	81.94
459.918	82.94
460.138	100.94
460.358	95.94
460.578	107.94
460.798	92.94
461.018	78.94
461.238	90.94
461.458	82.94
461.678	86.94
461.898	80.94
462.118	94.94
462.338	87.94
462.558	92.94
462.777	99.94
462.997	90.94
463.217	92.94
463.437	97.94
463.657	94.94
463.876	96.94
464.096	87.94
464.316	86.94
464.536	107.94
464.755	90.94
464.975	86.94
465.195	103.94
465.414	92.94
465.634	102.94
465.854	88.94
466.073	91.94
466.293	94.94
466.512	78.94
466.732	101.94
466.951	94.94
467.171	86.94
467.391	91.94
467.61	101.94
467.829	89.94
468.049	81.94
468.268	84.94
468.488	85.94
468.707	88.94
468.927	94.94
469.146	89.94
469.365	100.94
469.585	102.94
469.804	94.94
470.023	99.94
470.243	97.94
470.462	75.94
470.681	89.94
470.901	87.94
471.12	94.94
471.339	74.94
471.558	101.94
471.777	88.94
471.997	98.94
472.216	95.94
472.435	94.94
472.654	99.94
472.873	102.94
473.092	95.94
473.311	90.94
473.53	100.94
473.749	100.94
473.968	90.94
474.187	85.94
474.406	94.94
474.625	92.94
474.844	94.94
475.063	82.94
475.282	90.94
475.501	80.94
475.72	95.94
475.939	77.94
476.158	95.94
476.377	90.94
476.596	86.94
476.814	84.94
477.033	87.94
477.252	85.94
477.471	90.94
477.69	97.94
477.908	90.94
478.127	95.94
478.346	86.94
478.564	94.94
478.783	96.94
479.002	97.94
479.22	94.94
479.439	93.94
479.658	88.94
479.876	94.94
480.095	96.94
480.313	87.94
480.532	84.94
480.751	77.94
480.969	96.94
481.188	86.94
481.406	97.94
481.624	83.94
481.843	90.94
482.061	91.94
482.28	98.94
482.498	100.94
482.717	86.94
482.935	87.94
483.153	102.94
483.372	86.94
483.59	86.94
483.808	80.94
484.027	94.94
484.245	94.94
484.463	88.94
484.681	104.94
484.9	103.94
485.118	95.94
485.336	92.94
485.554	94.94
485.772	94.94
485.99	89.94
486.209	92.94
486.427	95.94
486.645	91.94
486.863	93.94
487.081	89.94
487.299	97.94
487.517	89.94
487.735	83.94
487.953	95.94
488.171	94.94
488.389	103.94
488.607	93.94
488.825	84.94
489.043	86.94
489.261	84.94
489.479	72.94
489.696	89.94
489.914	82.94
490.132	92.94
490.35	88.94
490.568	88.94
490.786	87.94
491.003	94.94
491.221	90.94
491.439	91.94
491.657	99.94
491.874	91.94
492.092	89.94
492.31	103.94
492.527	103.94
492.745	100.94
492.963	100.94
493.18	88.94
493.398	116.94
493.615	104.94
493.833	98.94
494.05	78.94
494.268	99.94
494.485	108.94
494.703	82.94
494.92	91.94
495.138	101.94
495.355	86.94
495.573	86.94
495.79	106.94
496.008	113.94
496.225	110.94
496.442	92.94
496.66	98.94
496.877	96.94
497.094	105.94
497.312	86.94
497.529	99.94
497.746	90.94
497.963	110.94
498.181	108.94
498.398	93.94
498.615	106.94
498.832	94.94
499.049	88.94
499.267	87.94
499.484	98.94
499.701	90.94
499.918	91.94
500.135	79.94
500.352	86.94
500.569	85.94
500.786	99.94
501.003	84.94
501.22	94.94
501.437	91.94
501.654	83.94
501.871	90.94
502.088	89.94
502.305	83.94
502.522	102.94
502.739	92.94
502.956	88.94
503.172	96.94
503.389	76.94
503.606	95.94
503.823	105.94
504.04	96.94
504.256	93.94
504.473	91.94
504.69	101.94
504.907	99.94
505.123	108.94
505.34	91.94
505.557	95.94
505.773	81.94
505.99	88.94
506.207	88.94
506.423	96.94
506.64	78.94
506.856	88.94
507.073	96.94
507.289	96.94
507.506	98.94
507.722	95.94
507.939	102.94
508.155	97.94
508.372	88.94
508.588	98.94
508.805	90.94
509.021	89.94
509.238	100.94
509.454	99.94
509.67	90.94
509.887	96.94
510.103	104.94
510.319	106.94
510.536	111.94
510.752	107.94
510.968	97.94
511.184	88.94
511.401	88.94
511.617	101.94
511.833	91.94
512.049	94.94
512.265	96.94
512.481	87.94
512.698	99.94
512.914	93.94
513.13	81.94
513.346	105.94
513.562	82.94
513.778	78.94
513.994	81.94
514.21	97.94
514.426	94.94
514.642	84.94
514.858	100.94
515.074	96.94
515.29	102.94
515.506	87.94
515.721	88.94
515.937	87.94
516.153	100.94
516.369	88.94
516.585	93.94
516.801	94.94
517.016	96.94
517.232	90.94
517.448	90.94
517.664	88.94
517.879	90.94
518.095	84.94
518.311	87.94
518.527	94.94
