Data from KBr_2_HRD10591_00039.txt Node
Date: Mon Jan 19 13:13:10 EST 2026
User: Yrep
Spectrometer: HR+D1059
Trigger mode: 1
Integration Time (sec): 1.000000E-1
Scans to average: 1
Electric dark correction enabled: true
Nonlinearity correction enabled: false
Boxcar width: 0
XAxis mode: Wavelengths
Number of Pixels in Spectrum: 2048
>>>>>Begin Spectral Data<<<<<
223.165	-11.88
223.4	-11.88
223.635	-11.88
223.869	-8.88
224.104	-20.88
224.338	-25.88
224.573	-28.88
224.808	-11.88
225.042	-5.88
225.277	4.12
225.511	-2.88
225.746	10.12
225.98	2.12
226.215	13.12
226.449	13.12
226.683	17.12
226.918	33.12
227.152	24.12
227.387	37.12
227.621	49.12
227.856	53.12
228.09	51.12
228.324	49.12
228.559	50.12
228.793	57.12
229.027	66.12
229.262	66.12
229.496	69.12
229.73	67.12
229.964	63.12
230.199	70.12
230.433	72.12
230.667	78.12
230.901	81.12
231.136	83.12
231.37	72.12
231.604	74.12
231.838	78.12
232.072	82.12
232.306	85.12
232.541	93.12
232.775	73.12
233.009	75.12
233.243	70.12
233.477	102.12
233.711	95.12
233.945	80.12
234.179	76.12
234.413	87.12
234.647	72.12
234.881	78.12
235.115	79.12
235.349	73.12
235.583	77.12
235.817	66.12
236.051	86.12
236.285	75.12
236.519	89.12
236.753	72.12
236.987	61.12
237.221	85.12
237.455	76.12
237.689	79.12
237.922	81.12
238.156	78.12
238.39	77.12
238.624	73.12
238.858	81.12
239.091	64.12
239.325	84.12
239.559	86.12
239.793	78.12
240.027	84.12
240.26	74.12
240.494	69.12
240.728	79.12
240.961	74.12
241.195	79.12
241.429	73.12
241.662	65.12
241.896	71.12
242.13	79.12
242.363	85.12
242.597	63.12
242.83	77.12
243.064	87.12
243.298	61.12
243.531	53.12
243.765	70.12
243.998	74.12
244.232	75.12
244.465	72.12
244.699	79.12
244.932	79.12
245.166	70.12
245.399	68.12
245.633	78.12
245.866	85.12
246.099	85.12
246.333	62.12
246.566	74.12
246.8	64.12
247.033	79.12
247.266	73.12
247.5	78.12
247.733	65.12
247.966	66.12
248.2	73.12
248.433	79.12
248.666	78.12
248.899	80.12
249.133	87.12
249.366	78.12
249.599	64.12
249.832	72.12
250.066	81.12
250.299	73.12
250.532	78.12
250.765	72.12
250.998	73.12
251.231	82.12
251.465	88.12
251.698	81.12
251.931	86.12
252.164	72.12
252.397	87.12
252.63	83.12
252.863	70.12
253.096	69.12
253.329	84.12
253.562	68.12
253.795	77.12
254.028	83.12
254.261	80.12
254.494	85.12
254.727	86.12
254.96	85.12
255.193	82.12
255.426	75.12
255.659	82.12
255.892	81.12
256.124	69.12
256.357	80.12
256.59	80.12
256.823	83.12
257.056	89.12
257.289	73.12
257.521	83.12
257.754	75.12
257.987	59.12
258.22	79.12
258.452	77.12
258.685	80.12
258.918	83.12
259.151	84.12
259.383	94.12
259.616	98.12
259.849	79.12
260.081	72.12
260.314	79.12
260.547	80.12
260.779	89.12
261.012	76.12
261.244	67.12
261.477	91.12
261.71	89.12
261.942	69.12
262.175	75.12
262.407	88.12
262.64	76.12
262.872	87.12
263.105	81.12
263.337	87.12
263.57	79.12
263.802	82.12
264.035	71.12
264.267	85.12
264.499	86.12
264.732	87.12
264.964	76.12
265.197	64.12
265.429	87.12
265.661	86.12
265.894	89.12
266.126	100.12
266.358	76.12
266.591	77.12
266.823	76.12
267.055	76.12
267.287	93.12
267.52	89.12
267.752	74.12
267.984	94.12
268.216	74.12
268.448	71.12
268.681	80.12
268.913	79.12
269.145	91.12
269.377	87.12
269.609	89.12
269.841	84.12
270.073	85.12
270.306	61.12
270.538	77.12
270.77	77.12
271.002	75.12
271.234	76.12
271.466	76.12
271.698	77.12
271.93	69.12
272.162	96.12
272.394	88.12
272.626	80.12
272.858	77.12
273.09	78.12
273.322	79.12
273.553	73.12
273.785	90.12
274.017	85.12
274.249	95.12
274.481	77.12
274.713	62.12
274.945	92.12
275.176	106.12
275.408	85.12
275.64	87.12
275.872	91.12
276.104	65.12
276.335	64.12
276.567	77.12
276.799	89.12
277.031	92.12
277.262	90.12
277.494	92.12
277.726	80.12
277.957	96.12
278.189	94.12
278.421	85.12
278.652	82.12
278.884	94.12
279.115	87.12
279.347	79.12
279.579	94.12
279.81	79.12
280.042	91.12
280.273	81.12
280.505	87.12
280.736	64.12
280.968	72.12
281.199	63.12
281.431	80.12
281.662	94.12
281.894	85.12
282.125	84.12
282.356	88.12
282.588	96.12
282.819	84.12
283.051	74.12
283.282	74.12
283.513	90.12
283.745	80.12
283.976	76.12
284.207	90.12
284.439	81.12
284.67	86.12
284.901	94.12
285.132	79.12
285.364	79.12
285.595	82.12
285.826	82.12
286.057	74.12
286.288	77.12
286.52	83.12
286.751	68.12
286.982	80.12
287.213	81.12
287.444	74.12
287.675	67.12
287.906	91.12
288.138	88.12
288.369	90.12
288.6	75.12
288.831	75.12
289.062	81.12
289.293	102.12
289.524	72.12
289.755	94.12
289.986	84.12
290.217	87.12
290.448	84.12
290.679	94.12
290.91	90.12
291.141	78.12
291.371	96.12
291.602	84.12
291.833	80.12
292.064	76.12
292.295	84.12
292.526	85.12
292.757	77.12
292.987	90.12
293.218	91.12
293.449	68.12
293.68	84.12
293.91	70.12
294.141	86.12
294.372	92.12
294.603	85.12
294.833	84.12
295.064	88.12
295.295	86.12
295.525	78.12
295.756	80.12
295.987	76.12
296.217	77.12
296.448	73.12
296.679	99.12
296.909	86.12
297.14	82.12
297.37	92.12
297.601	82.12
297.831	93.12
298.062	86.12
298.292	88.12
298.523	85.12
298.753	89.12
298.984	80.12
299.214	80.12
299.445	77.12
299.675	88.12
299.905	63.12
300.136	81.12
300.366	84.12
300.597	82.12
300.827	76.12
301.057	89.12
301.288	81.12
301.518	84.12
301.748	84.12
301.979	97.12
302.209	62.12
302.439	82.12
302.669	78.12
302.9	90.12
303.13	70.12
303.36	67.12
303.59	92.12
303.82	98.12
304.051	79.12
304.281	86.12
304.511	92.12
304.741	87.12
304.971	72.12
305.201	76.12
305.431	95.12
305.661	97.12
305.891	103.12
306.121	97.12
306.352	77.12
306.582	72.12
306.812	89.12
307.042	96.12
307.272	87.12
307.502	75.12
307.731	89.12
307.961	89.12
308.191	74.12
308.421	77.12
308.651	91.12
308.881	97.12
309.111	92.12
309.341	78.12
309.571	87.12
309.8	88.12
310.03	78.12
310.26	90.12
310.49	85.12
310.72	71.12
310.949	77.12
311.179	74.12
311.409	79.12
311.639	86.12
311.868	79.12
312.098	81.12
312.328	82.12
312.557	84.12
312.787	84.12
313.017	71.12
313.246	65.12
313.476	63.12
313.706	80.12
313.935	89.12
314.165	94.12
314.394	82.12
314.624	84.12
314.853	86.12
315.083	85.12
315.312	72.12
315.542	70.12
315.771	94.12
316.001	76.12
316.23	65.12
316.46	78.12
316.689	95.12
316.919	73.12
317.148	86.12
317.377	88.12
317.607	84.12
317.836	78.12
318.065	101.12
318.295	73.12
318.524	81.12
318.753	101.12
318.983	76.12
319.212	90.12
319.441	86.12
319.67	90.12
319.9	89.12
320.129	90.12
320.358	98.12
320.587	92.12
320.816	89.12
321.046	86.12
321.275	81.12
321.504	79.12
321.733	86.12
321.962	75.12
322.191	73.12
322.42	86.12
322.649	74.12
322.878	94.12
323.108	88.12
323.337	74.12
323.566	84.12
323.795	81.12
324.024	82.12
324.253	99.12
324.482	80.12
324.71	100.12
324.939	87.12
325.168	87.12
325.397	93.12
325.626	88.12
325.855	81.12
326.084	105.12
326.313	83.12
326.542	76.12
326.77	87.12
326.999	66.12
327.228	79.12
327.457	80.12
327.686	85.12
327.914	95.12
328.143	89.12
328.372	89.12
328.6	68.12
328.829	66.12
329.058	79.12
329.287	82.12
329.515	73.12
329.744	93.12
329.972	74.12
330.201	94.12
330.43	78.12
330.658	85.12
330.887	79.12
331.115	73.12
331.344	66.12
331.572	76.12
331.801	95.12
332.03	78.12
332.258	82.12
332.486	73.12
332.715	85.12
332.943	85.12
333.172	68.12
333.4	68.12
333.629	82.12
333.857	89.12
334.085	89.12
334.314	88.12
334.542	88.12
334.771	85.12
334.999	85.12
335.227	85.12
335.455	94.12
335.684	99.12
335.912	86.12
336.14	83.12
336.369	77.12
336.597	83.12
336.825	71.12
337.053	79.12
337.281	78.12
337.51	82.12
337.738	97.12
337.966	93.12
338.194	80.12
338.422	80.12
338.65	86.12
338.878	92.12
339.106	81.12
339.334	98.12
339.562	90.12
339.79	76.12
340.018	82.12
340.246	89.12
340.474	92.12
340.702	93.12
340.93	80.12
341.158	97.12
341.386	87.12
341.614	77.12
341.842	84.12
342.07	77.12
342.298	90.12
342.526	90.12
342.754	84.12
342.981	82.12
343.209	79.12
343.437	86.12
343.665	73.12
343.893	84.12
344.12	86.12
344.348	90.12
344.576	79.12
344.804	90.12
345.031	87.12
345.259	86.12
345.487	84.12
345.714	76.12
345.942	84.12
346.17	86.12
346.397	71.12
346.625	82.12
346.853	88.12
347.08	84.12
347.308	81.12
347.535	69.12
347.763	75.12
347.99	74.12
348.218	84.12
348.445	90.12
348.673	103.12
348.9	72.12
349.128	90.12
349.355	76.12
349.583	80.12
349.81	85.12
350.037	82.12
350.265	71.12
350.492	80.12
350.72	88.12
350.947	94.12
351.174	95.12
351.402	73.12
351.629	72.12
351.856	69.12
352.083	76.12
352.311	87.12
352.538	90.12
352.765	88.12
352.992	83.12
353.22	93.12
353.447	92.12
353.674	88.12
353.901	84.12
354.128	72.12
354.355	73.12
354.583	75.12
354.81	79.12
355.037	78.12
355.264	88.12
355.491	89.12
355.718	79.12
355.945	89.12
356.172	84.12
356.399	82.12
356.626	95.12
356.853	74.12
357.08	80.12
357.307	80.12
357.534	90.12
357.761	84.12
357.988	107.12
358.215	90.12
358.441	84.12
358.668	93.12
358.895	76.12
359.122	78.12
359.349	85.12
359.576	87.12
359.802	82.12
360.029	66.12
360.256	81.12
360.483	83.12
360.709	98.12
360.936	80.12
361.163	78.12
361.39	77.12
361.616	78.12
361.843	84.12
362.07	97.12
362.296	76.12
362.523	82.12
362.749	97.12
362.976	86.12
363.203	89.12
363.429	77.12
363.656	85.12
363.882	70.12
364.109	82.12
364.335	79.12
364.562	78.12
364.788	83.12
365.015	79.12
365.241	86.12
365.468	81.12
365.694	83.12
365.92	97.12
366.147	91.12
366.373	81.12
366.599	90.12
366.826	82.12
367.052	76.12
367.278	84.12
367.505	84.12
367.731	100.12
367.957	77.12
368.184	84.12
368.41	96.12
368.636	84.12
368.862	92.12
369.089	84.12
369.315	93.12
369.541	80.12
369.767	90.12
369.993	64.12
370.219	72.12
370.445	79.12
370.672	100.12
370.898	91.12
371.124	79.12
371.35	85.12
371.576	80.12
371.802	88.12
372.028	77.12
372.254	78.12
372.48	82.12
372.706	91.12
372.932	73.12
373.158	88.12
373.384	80.12
373.61	90.12
373.835	103.12
374.061	80.12
374.287	71.12
374.513	85.12
374.739	84.12
374.965	76.12
375.191	81.12
375.416	85.12
375.642	73.12
375.868	80.12
376.094	88.12
376.319	80.12
376.545	84.12
376.771	88.12
376.997	92.12
377.222	82.12
377.448	69.12
377.674	80.12
377.899	79.12
378.125	70.12
378.35	79.12
378.576	82.12
378.802	92.12
379.027	90.12
379.253	77.12
379.478	90.12
379.704	81.12
379.929	75.12
380.155	59.12
380.38	77.12
380.606	81.12
380.831	70.12
381.057	87.12
381.282	89.12
381.507	76.12
381.733	81.12
381.958	81.12
382.184	70.12
382.409	87.12
382.634	81.12
382.86	80.12
383.085	84.12
383.31	80.12
383.535	85.12
383.761	104.12
383.986	85.12
384.211	64.12
384.436	82.12
384.662	71.12
384.887	82.12
385.112	88.12
385.337	89.12
385.562	81.12
385.787	94.12
386.013	71.12
386.238	88.12
386.463	82.12
386.688	89.12
386.913	78.12
387.138	79.12
387.363	83.12
387.588	96.12
387.813	84.12
388.038	94.12
388.263	62.12
388.488	87.12
388.713	80.12
388.938	79.12
389.163	93.12
389.387	87.12
389.612	84.12
389.837	93.12
390.062	89.12
390.287	69.12
390.512	85.12
390.736	93.12
390.961	88.12
391.186	90.12
391.411	89.12
391.636	77.12
391.86	79.12
392.085	87.12
392.31	85.12
392.534	78.12
392.759	88.12
392.984	75.12
393.208	97.12
393.433	75.12
393.658	88.12
393.882	86.12
394.107	87.12
394.331	83.12
394.556	72.12
394.78	76.12
395.005	79.12
395.229	66.12
395.454	80.12
395.678	83.12
395.903	89.12
396.127	87.12
396.352	79.12
396.576	93.12
396.801	79.12
397.025	83.12
397.249	90.12
397.474	95.12
397.698	90.12
397.922	102.12
398.147	98.12
398.371	93.12
398.595	75.12
398.82	75.12
399.044	66.12
399.268	97.12
399.492	78.12
399.717	91.12
399.941	85.12
400.165	88.12
400.389	63.12
400.613	88.12
400.837	93.12
401.062	82.12
401.286	73.12
401.51	88.12
401.734	76.12
401.958	84.12
402.182	90.12
402.406	81.12
402.63	87.12
402.854	93.12
403.078	71.12
403.302	88.12
403.526	88.12
403.75	93.12
403.974	88.12
404.198	96.12
404.422	95.12
404.645	129.12
404.869	112.12
405.093	102.12
405.317	84.12
405.541	85.12
405.765	95.12
405.988	82.12
406.212	74.12
406.436	86.12
406.66	86.12
406.883	69.12
407.107	76.12
407.331	79.12
407.555	96.12
407.778	74.12
408.002	77.12
408.226	75.12
408.449	75.12
408.673	71.12
408.896	72.12
409.12	81.12
409.344	87.12
409.567	86.12
409.791	82.12
410.014	91.12
410.238	80.12
410.461	89.12
410.685	72.12
410.908	90.12
411.132	83.12
411.355	78.12
411.578	91.12
411.802	95.12
412.025	77.12
412.249	73.12
412.472	77.12
412.695	82.12
412.919	82.12
413.142	85.12
413.365	84.12
413.589	94.12
413.812	76.12
414.035	102.12
414.258	76.12
414.482	86.12
414.705	85.12
414.928	84.12
415.151	85.12
415.374	92.12
415.597	84.12
415.821	80.12
416.044	69.12
416.267	72.12
416.49	82.12
416.713	79.12
416.936	90.12
417.159	97.12
417.382	80.12
417.605	83.12
417.828	82.12
418.051	80.12
418.274	94.12
418.497	90.12
418.72	95.12
418.943	80.12
419.166	85.12
419.389	78.12
419.611	84.12
419.834	89.12
420.057	97.12
420.28	88.12
420.503	85.12
420.726	78.12
420.948	80.12
421.171	86.12
421.394	85.12
421.617	92.12
421.839	78.12
422.062	94.12
422.285	89.12
422.507	94.12
422.73	85.12
422.953	84.12
423.175	77.12
423.398	102.12
423.621	81.12
423.843	86.12
424.066	88.12
424.288	88.12
424.511	90.12
424.733	92.12
424.956	92.12
425.178	81.12
425.401	91.12
425.623	76.12
425.846	88.12
426.068	59.12
426.291	85.12
426.513	78.12
426.735	86.12
426.958	88.12
427.18	70.12
427.402	77.12
427.625	93.12
427.847	105.12
428.069	95.12
428.292	102.12
428.514	86.12
428.736	94.12
428.958	79.12
429.181	67.12
429.403	101.12
429.625	84.12
429.847	87.12
430.069	88.12
430.292	81.12
430.514	98.12
430.736	77.12
430.958	86.12
431.18	85.12
431.402	97.12
431.624	75.12
431.846	86.12
432.068	80.12
432.29	87.12
432.512	69.12
432.734	91.12
432.956	97.12
433.178	104.12
433.4	91.12
433.622	74.12
433.844	78.12
434.066	92.12
434.287	79.12
434.509	76.12
434.731	92.12
434.953	69.12
435.175	90.12
435.397	101.12
435.618	85.12
435.84	84.12
436.062	75.12
436.284	88.12
436.505	74.12
436.727	84.12
436.949	88.12
437.17	92.12
437.392	65.12
437.614	92.12
437.835	81.12
438.057	81.12
438.278	71.12
438.5	86.12
438.721	87.12
438.943	73.12
439.165	79.12
439.386	86.12
439.608	79.12
439.829	88.12
440.05	93.12
440.272	77.12
440.493	83.12
440.715	81.12
440.936	73.12
441.158	106.12
441.379	84.12
441.6	70.12
441.822	84.12
442.043	100.12
442.264	77.12
442.486	74.12
442.707	93.12
442.928	88.12
443.149	82.12
443.371	80.12
443.592	73.12
443.813	92.12
444.034	83.12
444.255	82.12
444.476	70.12
444.698	82.12
444.919	100.12
445.14	172.12
445.361	121.12
445.582	95.12
445.803	88.12
446.024	78.12
446.245	90.12
446.466	77.12
446.687	76.12
446.908	86.12
447.129	81.12
447.35	88.12
447.571	88.12
447.792	87.12
448.013	89.12
448.234	81.12
448.455	84.12
448.675	100.12
448.896	81.12
449.117	88.12
449.338	90.12
449.559	87.12
449.779	76.12
450	92.12
450.221	97.12
450.442	82.12
450.662	80.12
450.883	84.12
451.104	81.12
451.324	84.12
451.545	70.12
451.766	91.12
451.986	75.12
452.207	72.12
452.428	83.12
452.648	74.12
452.869	88.12
453.089	88.12
453.31	95.12
453.53	84.12
453.751	74.12
453.971	83.12
454.192	80.12
454.412	72.12
454.633	71.12
454.853	77.12
455.073	80.12
455.294	88.12
455.514	80.12
455.734	81.12
455.955	84.12
456.175	78.12
456.395	78.12
456.616	92.12
456.836	95.12
457.056	72.12
457.276	86.12
457.497	75.12
457.717	73.12
457.937	86.12
458.157	78.12
458.377	85.12
458.598	95.12
458.818	80.12
459.038	84.12
459.258	86.12
459.478	77.12
459.698	91.12
459.918	77.12
460.138	78.12
460.358	74.12
460.578	81.12
460.798	80.12
461.018	76.12
461.238	76.12
461.458	85.12
461.678	86.12
461.898	79.12
462.118	80.12
462.338	83.12
462.558	82.12
462.777	66.12
462.997	83.12
463.217	72.12
463.437	78.12
463.657	89.12
463.876	101.12
464.096	92.12
464.316	72.12
464.536	84.12
464.755	85.12
464.975	81.12
465.195	91.12
465.414	86.12
465.634	61.12
465.854	65.12
466.073	70.12
466.293	85.12
466.512	80.12
466.732	86.12
466.951	87.12
467.171	81.12
467.391	84.12
467.61	87.12
467.829	78.12
468.049	81.12
468.268	97.12
468.488	80.12
468.707	93.12
468.927	75.12
469.146	85.12
469.365	85.12
469.585	73.12
469.804	96.12
470.023	89.12
470.243	86.12
470.462	80.12
470.681	70.12
470.901	73.12
471.12	91.12
471.339	92.12
471.558	83.12
471.777	74.12
471.997	91.12
472.216	72.12
472.435	72.12
472.654	81.12
472.873	79.12
473.092	71.12
473.311	86.12
473.53	77.12
473.749	91.12
473.968	81.12
474.187	95.12
474.406	87.12
474.625	85.12
474.844	69.12
475.063	82.12
475.282	81.12
475.501	82.12
475.72	71.12
475.939	106.12
476.158	74.12
476.377	88.12
476.596	68.12
476.814	81.12
477.033	87.12
477.252	81.12
477.471	80.12
477.69	84.12
477.908	80.12
478.127	84.12
478.346	65.12
478.564	82.12
478.783	77.12
479.002	76.12
479.22	76.12
479.439	96.12
479.658	86.12
479.876	78.12
480.095	59.12
480.313	84.12
480.532	82.12
480.751	84.12
480.969	80.12
481.188	77.12
481.406	80.12
481.624	80.12
481.843	75.12
482.061	71.12
482.28	90.12
482.498	71.12
482.717	68.12
482.935	85.12
483.153	93.12
483.372	86.12
483.59	84.12
483.808	78.12
484.027	87.12
484.245	88.12
484.463	87.12
484.681	104.12
484.9	97.12
485.118	74.12
485.336	101.12
485.554	82.12
485.772	76.12
485.99	83.12
486.209	91.12
486.427	75.12
486.645	80.12
486.863	92.12
487.081	80.12
487.299	91.12
487.517	90.12
487.735	96.12
487.953	89.12
488.171	94.12
488.389	96.12
488.607	90.12
488.825	75.12
489.043	84.12
489.261	86.12
489.479	77.12
489.696	106.12
489.914	83.12
490.132	81.12
490.35	88.12
490.568	76.12
490.786	87.12
491.003	84.12
491.221	94.12
491.439	87.12
491.657	85.12
491.874	95.12
492.092	92.12
492.31	87.12
492.527	74.12
492.745	89.12
492.963	89.12
493.18	95.12
493.398	82.12
493.615	81.12
493.833	80.12
494.05	87.12
494.268	86.12
494.485	88.12
494.703	104.12
494.92	85.12
495.138	97.12
495.355	98.12
495.573	93.12
495.79	90.12
496.008	93.12
496.225	103.12
496.442	96.12
496.66	93.12
496.877	86.12
497.094	94.12
497.312	93.12
497.529	73.12
497.746	82.12
497.963	97.12
498.181	93.12
498.398	81.12
498.615	80.12
498.832	89.12
499.049	86.12
499.267	85.12
499.484	88.12
499.701	90.12
499.918	88.12
500.135	92.12
500.352	92.12
500.569	94.12
500.786	90.12
501.003	71.12
501.22	100.12
501.437	93.12
501.654	77.12
501.871	90.12
502.088	76.12
502.305	88.12
502.522	78.12
502.739	97.12
502.956	93.12
503.172	90.12
503.389	86.12
503.606	71.12
503.823	80.12
504.04	75.12
504.256	85.12
504.473	84.12
504.69	92.12
504.907	77.12
505.123	93.12
505.34	87.12
505.557	85.12
505.773	89.12
505.99	80.12
506.207	89.12
506.423	82.12
506.64	85.12
506.856	94.12
507.073	82.12
507.289	81.12
507.506	65.12
507.722	77.12
507.939	80.12
508.155	86.12
508.372	101.12
508.588	89.12
508.805	90.12
509.021	70.12
509.238	78.12
509.454	77.12
509.67	73.12
509.887	75.12
510.103	86.12
510.319	77.12
510.536	68.12
510.752	72.12
510.968	77.12
511.184	86.12
511.401	94.12
511.617	83.12
511.833	81.12
512.049	65.12
512.265	86.12
512.481	88.12
512.698	81.12
512.914	80.12
513.13	80.12
513.346	85.12
513.562	89.12
513.778	78.12
513.994	80.12
514.21	87.12
514.426	75.12
514.642	85.12
514.858	91.12
515.074	77.12
515.29	82.12
515.506	77.12
515.721	84.12
515.937	75.12
516.153	78.12
516.369	81.12
516.585	78.12
516.801	98.12
517.016	73.12
517.232	75.12
517.448	81.12
517.664	78.12
517.879	91.12
518.095	91.12
518.311	93.12
518.527	88.12
518.742	76.12
518.958	80.12
519.173	86.12
519.389	90.12
519.605	76.12
519.82	81.12
