Data from KBr_2_HRD10591_00019.txt Node
Date: Mon Jan 19 13:13:00 EST 2026
User: Yrep
Spectrometer: HR+D1059
Trigger mode: 1
Integration Time (sec): 1.000000E-1
Scans to average: 1
Electric dark correction enabled: true
Nonlinearity correction enabled: false
Boxcar width: 0
XAxis mode: Wavelengths
Number of Pixels in Spectrum: 2048
>>>>>Begin Spectral Data<<<<<
223.165	-18.25
223.4	-18.25
223.635	-18.25
223.869	-22.25
224.104	-14.25
224.338	-16.25
224.573	-15.25
224.808	-26.25
225.042	-12.25
225.277	-16.25
225.511	0.75
225.746	7.75
225.98	18.75
226.215	17.75
226.449	18.75
226.683	9.75
226.918	39.75
227.152	27.75
227.387	40.75
227.621	39.75
227.856	42.75
228.09	43.75
228.324	60.75
228.559	76.75
228.793	74.75
229.027	77.75
229.262	66.75
229.496	78.75
229.73	76.75
229.964	77.75
230.199	73.75
230.433	76.75
230.667	84.75
230.901	85.75
231.136	89.75
231.37	69.75
231.604	90.75
231.838	89.75
232.072	81.75
232.306	95.75
232.541	80.75
232.775	75.75
233.009	73.75
233.243	82.75
233.477	81.75
233.711	81.75
233.945	84.75
234.179	92.75
234.413	92.75
234.647	85.75
234.881	70.75
235.115	76.75
235.349	77.75
235.583	71.75
235.817	86.75
236.051	83.75
236.285	77.75
236.519	61.75
236.753	78.75
236.987	87.75
237.221	76.75
237.455	83.75
237.689	64.75
237.922	78.75
238.156	66.75
238.39	63.75
238.624	74.75
238.858	84.75
239.091	84.75
239.325	81.75
239.559	73.75
239.793	76.75
240.027	79.75
240.26	61.75
240.494	71.75
240.728	64.75
240.961	80.75
241.195	70.75
241.429	64.75
241.662	87.75
241.896	81.75
242.13	84.75
242.363	65.75
242.597	74.75
242.83	96.75
243.064	86.75
243.298	76.75
243.531	81.75
243.765	82.75
243.998	82.75
244.232	77.75
244.465	62.75
244.699	80.75
244.932	67.75
245.166	67.75
245.399	85.75
245.633	79.75
245.866	79.75
246.099	64.75
246.333	79.75
246.566	67.75
246.8	89.75
247.033	71.75
247.266	71.75
247.5	76.75
247.733	71.75
247.966	83.75
248.2	81.75
248.433	71.75
248.666	81.75
248.899	83.75
249.133	78.75
249.366	80.75
249.599	84.75
249.832	82.75
250.066	87.75
250.299	79.75
250.532	78.75
250.765	78.75
250.998	75.75
251.231	83.75
251.465	89.75
251.698	87.75
251.931	64.75
252.164	78.75
252.397	91.75
252.63	83.75
252.863	76.75
253.096	78.75
253.329	91.75
253.562	84.75
253.795	98.75
254.028	85.75
254.261	89.75
254.494	80.75
254.727	72.75
254.96	74.75
255.193	79.75
255.426	76.75
255.659	86.75
255.892	91.75
256.124	96.75
256.357	87.75
256.59	95.75
256.823	74.75
257.056	73.75
257.289	71.75
257.521	86.75
257.754	91.75
257.987	77.75
258.22	84.75
258.452	93.75
258.685	67.75
258.918	83.75
259.151	72.75
259.383	81.75
259.616	72.75
259.849	91.75
260.081	64.75
260.314	83.75
260.547	71.75
260.779	77.75
261.012	88.75
261.244	77.75
261.477	76.75
261.71	70.75
261.942	76.75
262.175	78.75
262.407	88.75
262.64	80.75
262.872	63.75
263.105	93.75
263.337	90.75
263.57	82.75
263.802	72.75
264.035	88.75
264.267	86.75
264.499	90.75
264.732	77.75
264.964	85.75
265.197	85.75
265.429	89.75
265.661	94.75
265.894	72.75
266.126	96.75
266.358	82.75
266.591	76.75
266.823	86.75
267.055	76.75
267.287	75.75
267.52	78.75
267.752	80.75
267.984	80.75
268.216	87.75
268.448	94.75
268.681	87.75
268.913	92.75
269.145	79.75
269.377	90.75
269.609	83.75
269.841	98.75
270.073	89.75
270.306	75.75
270.538	87.75
270.77	85.75
271.002	77.75
271.234	83.75
271.466	87.75
271.698	78.75
271.93	80.75
272.162	89.75
272.394	81.75
272.626	71.75
272.858	79.75
273.09	98.75
273.322	77.75
273.553	75.75
273.785	88.75
274.017	95.75
274.249	80.75
274.481	77.75
274.713	91.75
274.945	84.75
275.176	93.75
275.408	86.75
275.64	94.75
275.872	91.75
276.104	80.75
276.335	84.75
276.567	81.75
276.799	78.75
277.031	82.75
277.262	81.75
277.494	98.75
277.726	89.75
277.957	88.75
278.189	83.75
278.421	73.75
278.652	73.75
278.884	83.75
279.115	83.75
279.347	84.75
279.579	87.75
279.81	79.75
280.042	88.75
280.273	87.75
280.505	93.75
280.736	85.75
280.968	69.75
281.199	74.75
281.431	87.75
281.662	84.75
281.894	87.75
282.125	87.75
282.356	74.75
282.588	85.75
282.819	87.75
283.051	83.75
283.282	82.75
283.513	91.75
283.745	77.75
283.976	79.75
284.207	87.75
284.439	76.75
284.67	93.75
284.901	87.75
285.132	78.75
285.364	75.75
285.595	107.75
285.826	88.75
286.057	101.75
286.288	83.75
286.52	83.75
286.751	95.75
286.982	96.75
287.213	99.75
287.444	90.75
287.675	84.75
287.906	79.75
288.138	89.75
288.369	96.75
288.6	92.75
288.831	96.75
289.062	97.75
289.293	95.75
289.524	94.75
289.755	88.75
289.986	81.75
290.217	92.75
290.448	83.75
290.679	79.75
290.91	90.75
291.141	87.75
291.371	92.75
291.602	94.75
291.833	85.75
292.064	77.75
292.295	71.75
292.526	69.75
292.757	72.75
292.987	91.75
293.218	93.75
293.449	74.75
293.68	90.75
293.91	90.75
294.141	100.75
294.372	87.75
294.603	88.75
294.833	91.75
295.064	79.75
295.295	99.75
295.525	93.75
295.756	84.75
295.987	89.75
296.217	84.75
296.448	89.75
296.679	89.75
296.909	86.75
297.14	80.75
297.37	85.75
297.601	88.75
297.831	96.75
298.062	94.75
298.292	84.75
298.523	72.75
298.753	77.75
298.984	88.75
299.214	93.75
299.445	102.75
299.675	92.75
299.905	83.75
300.136	75.75
300.366	83.75
300.597	90.75
300.827	94.75
301.057	97.75
301.288	83.75
301.518	103.75
301.748	96.75
301.979	93.75
302.209	84.75
302.439	84.75
302.669	99.75
302.9	92.75
303.13	90.75
303.36	95.75
303.59	86.75
303.82	85.75
304.051	84.75
304.281	79.75
304.511	97.75
304.741	84.75
304.971	64.75
305.201	88.75
305.431	93.75
305.661	84.75
305.891	73.75
306.121	84.75
306.352	97.75
306.582	84.75
306.812	88.75
307.042	102.75
307.272	96.75
307.502	87.75
307.731	90.75
307.961	95.75
308.191	90.75
308.421	91.75
308.651	85.75
308.881	81.75
309.111	87.75
309.341	89.75
309.571	91.75
309.8	94.75
310.03	83.75
310.26	76.75
310.49	76.75
310.72	81.75
310.949	81.75
311.179	85.75
311.409	81.75
311.639	98.75
311.868	87.75
312.098	88.75
312.328	103.75
312.557	101.75
312.787	94.75
313.017	92.75
313.246	79.75
313.476	95.75
313.706	98.75
313.935	87.75
314.165	91.75
314.394	90.75
314.624	86.75
314.853	82.75
315.083	93.75
315.312	76.75
315.542	104.75
315.771	100.75
316.001	78.75
316.23	89.75
316.46	91.75
316.689	78.75
316.919	93.75
317.148	87.75
317.377	81.75
317.607	78.75
317.836	87.75
318.065	83.75
318.295	90.75
318.524	92.75
318.753	98.75
318.983	92.75
319.212	90.75
319.441	85.75
319.67	91.75
319.9	91.75
320.129	82.75
320.358	81.75
320.587	77.75
320.816	78.75
321.046	89.75
321.275	84.75
321.504	78.75
321.733	92.75
321.962	91.75
322.191	98.75
322.42	86.75
322.649	94.75
322.878	90.75
323.108	93.75
323.337	94.75
323.566	93.75
323.795	96.75
324.024	90.75
324.253	103.75
324.482	92.75
324.71	93.75
324.939	93.75
325.168	90.75
325.397	92.75
325.626	88.75
325.855	81.75
326.084	88.75
326.313	92.75
326.542	81.75
326.77	96.75
326.999	99.75
327.228	93.75
327.457	83.75
327.686	91.75
327.914	93.75
328.143	96.75
328.372	79.75
328.6	85.75
328.829	93.75
329.058	92.75
329.287	71.75
329.515	96.75
329.744	84.75
329.972	84.75
330.201	85.75
330.43	85.75
330.658	84.75
330.887	79.75
331.115	99.75
331.344	84.75
331.572	90.75
331.801	84.75
332.03	87.75
332.258	96.75
332.486	96.75
332.715	92.75
332.943	97.75
333.172	101.75
333.4	87.75
333.629	85.75
333.857	107.75
334.085	92.75
334.314	87.75
334.542	94.75
334.771	85.75
334.999	89.75
335.227	78.75
335.455	99.75
335.684	99.75
335.912	97.75
336.14	94.75
336.369	98.75
336.597	79.75
336.825	94.75
337.053	93.75
337.281	89.75
337.51	80.75
337.738	104.75
337.966	91.75
338.194	94.75
338.422	95.75
338.65	89.75
338.878	76.75
339.106	92.75
339.334	90.75
339.562	108.75
339.79	90.75
340.018	90.75
340.246	85.75
340.474	89.75
340.702	85.75
340.93	87.75
341.158	91.75
341.386	92.75
341.614	86.75
341.842	87.75
342.07	89.75
342.298	96.75
342.526	93.75
342.754	90.75
342.981	108.75
343.209	92.75
343.437	103.75
343.665	85.75
343.893	97.75
344.12	100.75
344.348	97.75
344.576	107.75
344.804	124.75
345.031	101.75
345.259	89.75
345.487	95.75
345.714	88.75
345.942	106.75
346.17	114.75
346.397	83.75
346.625	78.75
346.853	91.75
347.08	88.75
347.308	93.75
347.535	92.75
347.763	99.75
347.99	100.75
348.218	87.75
348.445	95.75
348.673	107.75
348.9	105.75
349.128	81.75
349.355	98.75
349.583	73.75
349.81	87.75
350.037	99.75
350.265	99.75
350.492	83.75
350.72	76.75
350.947	79.75
351.174	93.75
351.402	91.75
351.629	84.75
351.856	96.75
352.083	89.75
352.311	96.75
352.538	81.75
352.765	105.75
352.992	88.75
353.22	100.75
353.447	95.75
353.674	97.75
353.901	93.75
354.128	91.75
354.355	86.75
354.583	92.75
354.81	97.75
355.037	98.75
355.264	89.75
355.491	103.75
355.718	77.75
355.945	88.75
356.172	92.75
356.399	76.75
356.626	82.75
356.853	96.75
357.08	88.75
357.307	93.75
357.534	99.75
357.761	93.75
357.988	80.75
358.215	87.75
358.441	92.75
358.668	99.75
358.895	97.75
359.122	88.75
359.349	77.75
359.576	83.75
359.802	79.75
360.029	99.75
360.256	96.75
360.483	99.75
360.709	87.75
360.936	105.75
361.163	89.75
361.39	99.75
361.616	97.75
361.843	95.75
362.07	80.75
362.296	80.75
362.523	88.75
362.749	87.75
362.976	92.75
363.203	95.75
363.429	99.75
363.656	107.75
363.882	92.75
364.109	79.75
364.335	95.75
364.562	98.75
364.788	88.75
365.015	83.75
365.241	90.75
365.468	95.75
365.694	86.75
365.92	78.75
366.147	80.75
366.373	83.75
366.599	79.75
366.826	85.75
367.052	104.75
367.278	99.75
367.505	86.75
367.731	93.75
367.957	99.75
368.184	81.75
368.41	81.75
368.636	87.75
368.862	82.75
369.089	89.75
369.315	91.75
369.541	92.75
369.767	76.75
369.993	77.75
370.219	76.75
370.445	96.75
370.672	89.75
370.898	95.75
371.124	99.75
371.35	84.75
371.576	91.75
371.802	95.75
372.028	90.75
372.254	90.75
372.48	89.75
372.706	78.75
372.932	89.75
373.158	102.75
373.384	94.75
373.61	87.75
373.835	84.75
374.061	97.75
374.287	84.75
374.513	74.75
374.739	86.75
374.965	95.75
375.191	88.75
375.416	101.75
375.642	91.75
375.868	103.75
376.094	95.75
376.319	93.75
376.545	77.75
376.771	78.75
376.997	90.75
377.222	82.75
377.448	96.75
377.674	85.75
377.899	87.75
378.125	80.75
378.35	87.75
378.576	93.75
378.802	83.75
379.027	100.75
379.253	87.75
379.478	91.75
379.704	77.75
379.929	92.75
380.155	81.75
380.38	87.75
380.606	84.75
380.831	82.75
381.057	112.75
381.282	92.75
381.507	93.75
381.733	95.75
381.958	101.75
382.184	85.75
382.409	85.75
382.634	93.75
382.86	89.75
383.085	90.75
383.31	81.75
383.535	78.75
383.761	91.75
383.986	85.75
384.211	104.75
384.436	111.75
384.662	96.75
384.887	84.75
385.112	92.75
385.337	72.75
385.562	91.75
385.787	93.75
386.013	98.75
386.238	98.75
386.463	90.75
386.688	107.75
386.913	70.75
387.138	79.75
387.363	93.75
387.588	96.75
387.813	83.75
388.038	89.75
388.263	82.75
388.488	87.75
388.713	98.75
388.938	79.75
389.163	83.75
389.387	98.75
389.612	92.75
389.837	106.75
390.062	89.75
390.287	82.75
390.512	78.75
390.736	87.75
390.961	95.75
391.186	86.75
391.411	90.75
391.636	89.75
391.86	93.75
392.085	96.75
392.31	93.75
392.534	96.75
392.759	79.75
392.984	103.75
393.208	89.75
393.433	83.75
393.658	92.75
393.882	77.75
394.107	95.75
394.331	106.75
394.556	95.75
394.78	89.75
395.005	86.75
395.229	93.75
395.454	104.75
395.678	81.75
395.903	80.75
396.127	91.75
396.352	83.75
396.576	94.75
396.801	105.75
397.025	74.75
397.249	89.75
397.474	102.75
397.698	103.75
397.922	89.75
398.147	79.75
398.371	82.75
398.595	79.75
398.82	78.75
399.044	87.75
399.268	85.75
399.492	109.75
399.717	98.75
399.941	88.75
400.165	88.75
400.389	80.75
400.613	86.75
400.837	87.75
401.062	89.75
401.286	83.75
401.51	89.75
401.734	88.75
401.958	98.75
402.182	93.75
402.406	81.75
402.63	82.75
402.854	90.75
403.078	79.75
403.302	88.75
403.526	92.75
403.75	114.75
403.974	118.75
404.198	175.75
404.422	254.75
404.645	276.75
404.869	224.75
405.093	150.75
405.317	109.75
405.541	89.75
405.765	93.75
405.988	90.75
406.212	94.75
406.436	79.75
406.66	87.75
406.883	79.75
407.107	93.75
407.331	76.75
407.555	83.75
407.778	92.75
408.002	79.75
408.226	90.75
408.449	99.75
408.673	82.75
408.896	88.75
409.12	83.75
409.344	91.75
409.567	81.75
409.791	89.75
410.014	83.75
410.238	87.75
410.461	83.75
410.685	89.75
410.908	96.75
411.132	93.75
411.355	82.75
411.578	98.75
411.802	88.75
412.025	70.75
412.249	94.75
412.472	98.75
412.695	90.75
412.919	89.75
413.142	84.75
413.365	87.75
413.589	88.75
413.812	90.75
414.035	83.75
414.258	95.75
414.482	92.75
414.705	99.75
414.928	90.75
415.151	88.75
415.374	83.75
415.597	89.75
415.821	82.75
416.044	84.75
416.267	92.75
416.49	93.75
416.713	95.75
416.936	97.75
417.159	91.75
417.382	96.75
417.605	83.75
417.828	91.75
418.051	93.75
418.274	93.75
418.497	88.75
418.72	90.75
418.943	99.75
419.166	101.75
419.389	87.75
419.611	97.75
419.834	88.75
420.057	91.75
420.28	90.75
420.503	92.75
420.726	84.75
420.948	102.75
421.171	85.75
421.394	85.75
421.617	91.75
421.839	85.75
422.062	93.75
422.285	98.75
422.507	88.75
422.73	84.75
422.953	83.75
423.175	95.75
423.398	93.75
423.621	98.75
423.843	95.75
424.066	80.75
424.288	95.75
424.511	90.75
424.733	101.75
424.956	96.75
425.178	95.75
425.401	87.75
425.623	90.75
425.846	91.75
426.068	90.75
426.291	82.75
426.513	94.75
426.735	97.75
426.958	85.75
427.18	87.75
427.402	95.75
427.625	75.75
427.847	91.75
428.069	90.75
428.292	73.75
428.514	95.75
428.736	100.75
428.958	99.75
429.181	106.75
429.403	96.75
429.625	91.75
429.847	85.75
430.069	84.75
430.292	104.75
430.514	94.75
430.736	86.75
430.958	86.75
431.18	86.75
431.402	87.75
431.624	80.75
431.846	92.75
432.068	75.75
432.29	100.75
432.512	87.75
432.734	81.75
432.956	95.75
433.178	88.75
433.4	84.75
433.622	89.75
433.844	89.75
434.066	105.75
434.287	92.75
434.509	83.75
434.731	94.75
434.953	86.75
435.175	93.75
435.397	93.75
435.618	91.75
435.84	80.75
436.062	85.75
436.284	100.75
436.505	83.75
436.727	87.75
436.949	80.75
437.17	78.75
437.392	78.75
437.614	91.75
437.835	96.75
438.057	91.75
438.278	87.75
438.5	96.75
438.721	91.75
438.943	87.75
439.165	77.75
439.386	98.75
439.608	93.75
439.829	87.75
440.05	90.75
440.272	87.75
440.493	84.75
440.715	99.75
440.936	93.75
441.158	80.75
441.379	87.75
441.6	91.75
441.822	84.75
442.043	94.75
442.264	89.75
442.486	76.75
442.707	79.75
442.928	83.75
443.149	83.75
443.371	81.75
443.592	95.75
443.813	83.75
444.034	94.75
444.255	93.75
444.476	97.75
444.698	79.75
444.919	98.75
445.14	152.75
445.361	126.75
445.582	91.75
445.803	83.75
446.024	99.75
446.245	89.75
446.466	96.75
446.687	90.75
446.908	93.75
447.129	90.75
447.35	91.75
447.571	95.75
447.792	88.75
448.013	84.75
448.234	91.75
448.455	96.75
448.675	95.75
448.896	88.75
449.117	72.75
449.338	93.75
449.559	98.75
449.779	84.75
450	92.75
450.221	97.75
450.442	81.75
450.662	92.75
450.883	81.75
451.104	97.75
451.324	94.75
451.545	88.75
451.766	88.75
451.986	100.75
452.207	97.75
452.428	90.75
452.648	90.75
452.869	83.75
453.089	76.75
453.31	92.75
453.53	91.75
453.751	92.75
453.971	91.75
454.192	95.75
454.412	94.75
454.633	95.75
454.853	89.75
455.073	90.75
455.294	81.75
455.514	80.75
455.734	94.75
455.955	89.75
456.175	99.75
456.395	103.75
456.616	92.75
456.836	95.75
457.056	86.75
457.276	77.75
457.497	87.75
457.717	81.75
457.937	104.75
458.157	88.75
458.377	82.75
458.598	86.75
458.818	101.75
459.038	85.75
459.258	92.75
459.478	82.75
459.698	85.75
459.918	84.75
460.138	84.75
460.358	88.75
460.578	80.75
460.798	95.75
461.018	81.75
461.238	80.75
461.458	83.75
461.678	100.75
461.898	82.75
462.118	92.75
462.338	80.75
462.558	90.75
462.777	97.75
462.997	83.75
463.217	84.75
463.437	84.75
463.657	90.75
463.876	92.75
464.096	87.75
464.316	86.75
464.536	81.75
464.755	96.75
464.975	78.75
465.195	80.75
465.414	89.75
465.634	91.75
465.854	93.75
466.073	90.75
466.293	83.75
466.512	83.75
466.732	96.75
466.951	87.75
467.171	89.75
467.391	84.75
467.61	100.75
467.829	90.75
468.049	84.75
468.268	89.75
468.488	108.75
468.707	83.75
468.927	72.75
469.146	95.75
469.365	89.75
469.585	110.75
469.804	91.75
470.023	86.75
470.243	97.75
470.462	84.75
470.681	115.75
470.901	97.75
471.12	94.75
471.339	97.75
471.558	96.75
471.777	81.75
471.997	83.75
472.216	93.75
472.435	82.75
472.654	97.75
472.873	79.75
473.092	82.75
473.311	90.75
473.53	106.75
473.749	105.75
473.968	98.75
474.187	97.75
474.406	96.75
474.625	86.75
474.844	99.75
475.063	79.75
475.282	82.75
475.501	80.75
475.72	104.75
475.939	98.75
476.158	99.75
476.377	101.75
476.596	97.75
476.814	79.75
477.033	83.75
477.252	90.75
477.471	96.75
477.69	93.75
477.908	99.75
478.127	83.75
478.346	104.75
478.564	99.75
478.783	90.75
479.002	95.75
479.22	90.75
479.439	89.75
479.658	83.75
479.876	96.75
480.095	81.75
480.313	104.75
480.532	80.75
480.751	91.75
480.969	92.75
481.188	107.75
481.406	113.75
481.624	89.75
481.843	89.75
482.061	99.75
482.28	98.75
482.498	84.75
482.717	84.75
482.935	85.75
483.153	94.75
483.372	88.75
483.59	104.75
483.808	96.75
484.027	79.75
484.245	92.75
484.463	99.75
484.681	87.75
484.9	104.75
485.118	92.75
485.336	97.75
485.554	92.75
485.772	86.75
485.99	85.75
486.209	89.75
486.427	95.75
486.645	89.75
486.863	89.75
487.081	88.75
487.299	87.75
487.517	90.75
487.735	82.75
487.953	93.75
488.171	95.75
488.389	93.75
488.607	87.75
488.825	99.75
489.043	92.75
489.261	93.75
489.479	93.75
489.696	91.75
489.914	90.75
490.132	87.75
490.35	96.75
490.568	84.75
490.786	96.75
491.003	88.75
491.221	83.75
491.439	101.75
491.657	92.75
491.874	105.75
492.092	100.75
492.31	91.75
492.527	91.75
492.745	84.75
492.963	103.75
493.18	101.75
493.398	95.75
493.615	103.75
493.833	78.75
494.05	85.75
494.268	103.75
494.485	97.75
494.703	104.75
494.92	103.75
495.138	97.75
495.355	98.75
495.573	93.75
495.79	96.75
496.008	96.75
496.225	102.75
496.442	89.75
496.66	94.75
496.877	96.75
497.094	79.75
497.312	93.75
497.529	98.75
497.746	97.75
497.963	99.75
498.181	87.75
498.398	95.75
498.615	97.75
498.832	95.75
499.049	91.75
499.267	100.75
499.484	89.75
499.701	96.75
499.918	95.75
500.135	99.75
500.352	90.75
500.569	99.75
500.786	103.75
501.003	89.75
501.22	85.75
501.437	106.75
501.654	99.75
501.871	93.75
502.088	92.75
502.305	107.75
502.522	91.75
502.739	95.75
502.956	89.75
503.172	99.75
503.389	88.75
503.606	93.75
503.823	85.75
504.04	105.75
504.256	79.75
504.473	104.75
504.69	97.75
504.907	96.75
505.123	96.75
505.34	88.75
505.557	82.75
505.773	96.75
505.99	111.75
506.207	93.75
506.423	90.75
506.64	80.75
506.856	97.75
507.073	93.75
507.289	90.75
507.506	94.75
507.722	83.75
507.939	87.75
508.155	91.75
508.372	95.75
508.588	98.75
508.805	100.75
509.021	94.75
509.238	109.75
509.454	92.75
509.67	100.75
509.887	95.75
510.103	100.75
510.319	103.75
510.536	99.75
510.752	101.75
510.968	100.75
511.184	97.75
511.401	109.75
511.617	105.75
511.833	94.75
512.049	95.75
512.265	92.75
512.481	98.75
512.698	100.75
512.914	107.75
513.13	92.75
513.346	94.75
513.562	85.75
513.778	87.75
513.994	87.75
514.21	88.75
514.426	89.75
514.642	98.75
514.858	95.75
515.074	94.75
515.29	93.75
515.506	99.75
515.721	90.75
515.937	77.75
516.153	95.75
516.369	84.75
516.585	97.75
516.801	100.75
517.016	99.75
517.232	85.75
517.448	93.75
517.664	80.75
517.879	93.75
518.095	99.75
518.311	101.75
518.527	80.75
