Data from KBr_2_HRD10591_00032.txt Node
Date: Mon Jan 19 13:13:06 EST 2026
User: Yrep
Spectrometer: HR+D1059
Trigger mode: 1
Integration Time (sec): 1.000000E-1
Scans to average: 1
Electric dark correction enabled: true
Nonlinearity correction enabled: false
Boxcar width: 0
XAxis mode: Wavelengths
Number of Pixels in Spectrum: 2048
>>>>>Begin Spectral Data<<<<<
223.165	-26.69
223.4	-26.69
223.635	-26.69
223.869	-12.69
224.104	-13.69
224.338	-12.69
224.573	-19.69
224.808	-12.69
225.042	4.31
225.277	-11.69
225.511	-15.69
225.746	11.31
225.98	-10.69
226.215	13.31
226.449	15.31
226.683	24.31
226.918	27.31
227.152	40.31
227.387	40.31
227.621	41.31
227.856	47.31
228.09	51.31
228.324	62.31
228.559	70.31
228.793	55.31
229.027	78.31
229.262	49.31
229.496	73.31
229.73	73.31
229.964	68.31
230.199	69.31
230.433	82.31
230.667	82.31
230.901	76.31
231.136	72.31
231.37	76.31
231.604	69.31
231.838	91.31
232.072	82.31
232.306	90.31
232.541	73.31
232.775	83.31
233.009	74.31
233.243	66.31
233.477	78.31
233.711	83.31
233.945	67.31
234.179	92.31
234.413	68.31
234.647	80.31
234.881	80.31
235.115	73.31
235.349	81.31
235.583	67.31
235.817	81.31
236.051	74.31
236.285	75.31
236.519	92.31
236.753	68.31
236.987	71.31
237.221	73.31
237.455	70.31
237.689	74.31
237.922	67.31
238.156	86.31
238.39	74.31
238.624	82.31
238.858	84.31
239.091	90.31
239.325	81.31
239.559	78.31
239.793	81.31
240.027	72.31
240.26	77.31
240.494	88.31
240.728	68.31
240.961	60.31
241.195	73.31
241.429	83.31
241.662	65.31
241.896	73.31
242.13	58.31
242.363	75.31
242.597	87.31
242.83	75.31
243.064	80.31
243.298	85.31
243.531	80.31
243.765	81.31
243.998	83.31
244.232	83.31
244.465	74.31
244.699	75.31
244.932	75.31
245.166	88.31
245.399	85.31
245.633	82.31
245.866	74.31
246.099	88.31
246.333	80.31
246.566	79.31
246.8	72.31
247.033	69.31
247.266	82.31
247.5	78.31
247.733	77.31
247.966	76.31
248.2	82.31
248.433	82.31
248.666	78.31
248.899	74.31
249.133	72.31
249.366	83.31
249.599	74.31
249.832	79.31
250.066	77.31
250.299	81.31
250.532	86.31
250.765	68.31
250.998	76.31
251.231	82.31
251.465	82.31
251.698	73.31
251.931	78.31
252.164	83.31
252.397	76.31
252.63	81.31
252.863	82.31
253.096	90.31
253.329	74.31
253.562	81.31
253.795	78.31
254.028	80.31
254.261	72.31
254.494	79.31
254.727	76.31
254.96	83.31
255.193	89.31
255.426	84.31
255.659	76.31
255.892	79.31
256.124	74.31
256.357	96.31
256.59	74.31
256.823	98.31
257.056	90.31
257.289	90.31
257.521	97.31
257.754	68.31
257.987	81.31
258.22	82.31
258.452	73.31
258.685	79.31
258.918	67.31
259.151	73.31
259.383	72.31
259.616	82.31
259.849	81.31
260.081	88.31
260.314	71.31
260.547	79.31
260.779	86.31
261.012	70.31
261.244	68.31
261.477	80.31
261.71	79.31
261.942	79.31
262.175	81.31
262.407	78.31
262.64	76.31
262.872	66.31
263.105	77.31
263.337	92.31
263.57	94.31
263.802	66.31
264.035	77.31
264.267	88.31
264.499	72.31
264.732	87.31
264.964	95.31
265.197	64.31
265.429	77.31
265.661	88.31
265.894	73.31
266.126	80.31
266.358	90.31
266.591	86.31
266.823	90.31
267.055	79.31
267.287	79.31
267.52	99.31
267.752	86.31
267.984	69.31
268.216	78.31
268.448	84.31
268.681	79.31
268.913	82.31
269.145	80.31
269.377	82.31
269.609	86.31
269.841	82.31
270.073	74.31
270.306	76.31
270.538	79.31
270.77	89.31
271.002	82.31
271.234	82.31
271.466	75.31
271.698	88.31
271.93	80.31
272.162	75.31
272.394	82.31
272.626	86.31
272.858	81.31
273.09	79.31
273.322	80.31
273.553	82.31
273.785	92.31
274.017	90.31
274.249	77.31
274.481	81.31
274.713	82.31
274.945	71.31
275.176	76.31
275.408	97.31
275.64	74.31
275.872	73.31
276.104	94.31
276.335	91.31
276.567	97.31
276.799	84.31
277.031	95.31
277.262	94.31
277.494	89.31
277.726	87.31
277.957	86.31
278.189	92.31
278.421	86.31
278.652	89.31
278.884	88.31
279.115	79.31
279.347	83.31
279.579	80.31
279.81	87.31
280.042	72.31
280.273	84.31
280.505	78.31
280.736	82.31
280.968	77.31
281.199	80.31
281.431	80.31
281.662	106.31
281.894	82.31
282.125	83.31
282.356	83.31
282.588	91.31
282.819	80.31
283.051	79.31
283.282	86.31
283.513	90.31
283.745	85.31
283.976	84.31
284.207	77.31
284.439	82.31
284.67	94.31
284.901	93.31
285.132	95.31
285.364	80.31
285.595	83.31
285.826	93.31
286.057	75.31
286.288	89.31
286.52	96.31
286.751	75.31
286.982	82.31
287.213	90.31
287.444	69.31
287.675	94.31
287.906	87.31
288.138	71.31
288.369	85.31
288.6	89.31
288.831	83.31
289.062	86.31
289.293	86.31
289.524	79.31
289.755	85.31
289.986	78.31
290.217	67.31
290.448	86.31
290.679	68.31
290.91	101.31
291.141	82.31
291.371	78.31
291.602	74.31
291.833	97.31
292.064	82.31
292.295	83.31
292.526	74.31
292.757	83.31
292.987	86.31
293.218	93.31
293.449	96.31
293.68	86.31
293.91	98.31
294.141	77.31
294.372	75.31
294.603	93.31
294.833	82.31
295.064	83.31
295.295	78.31
295.525	89.31
295.756	88.31
295.987	83.31
296.217	80.31
296.448	80.31
296.679	82.31
296.909	91.31
297.14	94.31
297.37	79.31
297.601	93.31
297.831	79.31
298.062	75.31
298.292	97.31
298.523	81.31
298.753	79.31
298.984	84.31
299.214	96.31
299.445	77.31
299.675	94.31
299.905	72.31
300.136	82.31
300.366	91.31
300.597	89.31
300.827	87.31
301.057	86.31
301.288	83.31
301.518	82.31
301.748	91.31
301.979	97.31
302.209	86.31
302.439	92.31
302.669	86.31
302.9	92.31
303.13	89.31
303.36	96.31
303.59	97.31
303.82	92.31
304.051	87.31
304.281	82.31
304.511	74.31
304.741	84.31
304.971	83.31
305.201	88.31
305.431	81.31
305.661	90.31
305.891	81.31
306.121	91.31
306.352	97.31
306.582	75.31
306.812	83.31
307.042	92.31
307.272	82.31
307.502	86.31
307.731	81.31
307.961	94.31
308.191	99.31
308.421	83.31
308.651	86.31
308.881	87.31
309.111	89.31
309.341	91.31
309.571	88.31
309.8	86.31
310.03	84.31
310.26	99.31
310.49	92.31
310.72	90.31
310.949	81.31
311.179	91.31
311.409	89.31
311.639	89.31
311.868	92.31
312.098	79.31
312.328	90.31
312.557	75.31
312.787	93.31
313.017	87.31
313.246	80.31
313.476	79.31
313.706	81.31
313.935	74.31
314.165	82.31
314.394	90.31
314.624	97.31
314.853	89.31
315.083	82.31
315.312	86.31
315.542	97.31
315.771	84.31
316.001	92.31
316.23	91.31
316.46	90.31
316.689	99.31
316.919	90.31
317.148	88.31
317.377	88.31
317.607	81.31
317.836	81.31
318.065	89.31
318.295	86.31
318.524	82.31
318.753	76.31
318.983	86.31
319.212	90.31
319.441	91.31
319.67	80.31
319.9	87.31
320.129	90.31
320.358	96.31
320.587	72.31
320.816	86.31
321.046	65.31
321.275	86.31
321.504	84.31
321.733	89.31
321.962	86.31
322.191	80.31
322.42	80.31
322.649	107.31
322.878	80.31
323.108	99.31
323.337	94.31
323.566	87.31
323.795	76.31
324.024	76.31
324.253	84.31
324.482	96.31
324.71	76.31
324.939	70.31
325.168	76.31
325.397	79.31
325.626	98.31
325.855	92.31
326.084	70.31
326.313	75.31
326.542	88.31
326.77	81.31
326.999	92.31
327.228	80.31
327.457	79.31
327.686	77.31
327.914	89.31
328.143	90.31
328.372	91.31
328.6	90.31
328.829	80.31
329.058	94.31
329.287	80.31
329.515	77.31
329.744	96.31
329.972	98.31
330.201	92.31
330.43	95.31
330.658	88.31
330.887	88.31
331.115	105.31
331.344	91.31
331.572	78.31
331.801	83.31
332.03	86.31
332.258	94.31
332.486	101.31
332.715	85.31
332.943	84.31
333.172	92.31
333.4	79.31
333.629	62.31
333.857	102.31
334.085	90.31
334.314	96.31
334.542	89.31
334.771	83.31
334.999	82.31
335.227	87.31
335.455	88.31
335.684	85.31
335.912	88.31
336.14	84.31
336.369	69.31
336.597	84.31
336.825	81.31
337.053	89.31
337.281	86.31
337.51	84.31
337.738	91.31
337.966	99.31
338.194	83.31
338.422	90.31
338.65	88.31
338.878	75.31
339.106	84.31
339.334	77.31
339.562	71.31
339.79	90.31
340.018	84.31
340.246	70.31
340.474	86.31
340.702	93.31
340.93	90.31
341.158	81.31
341.386	96.31
341.614	86.31
341.842	82.31
342.07	84.31
342.298	93.31
342.526	94.31
342.754	92.31
342.981	89.31
343.209	83.31
343.437	92.31
343.665	70.31
343.893	80.31
344.12	97.31
344.348	92.31
344.576	102.31
344.804	90.31
345.031	97.31
345.259	91.31
345.487	95.31
345.714	98.31
345.942	73.31
346.17	88.31
346.397	76.31
346.625	94.31
346.853	94.31
347.08	106.31
347.308	76.31
347.535	77.31
347.763	86.31
347.99	91.31
348.218	90.31
348.445	83.31
348.673	90.31
348.9	88.31
349.128	91.31
349.355	85.31
349.583	83.31
349.81	95.31
350.037	91.31
350.265	93.31
350.492	95.31
350.72	79.31
350.947	91.31
351.174	76.31
351.402	92.31
351.629	81.31
351.856	82.31
352.083	77.31
352.311	88.31
352.538	90.31
352.765	89.31
352.992	91.31
353.22	94.31
353.447	80.31
353.674	77.31
353.901	90.31
354.128	94.31
354.355	93.31
354.583	81.31
354.81	94.31
355.037	90.31
355.264	87.31
355.491	96.31
355.718	84.31
355.945	81.31
356.172	88.31
356.399	75.31
356.626	81.31
356.853	78.31
357.08	92.31
357.307	76.31
357.534	72.31
357.761	90.31
357.988	84.31
358.215	89.31
358.441	88.31
358.668	83.31
358.895	89.31
359.122	90.31
359.349	87.31
359.576	86.31
359.802	71.31
360.029	96.31
360.256	102.31
360.483	90.31
360.709	100.31
360.936	96.31
361.163	86.31
361.39	95.31
361.616	80.31
361.843	90.31
362.07	82.31
362.296	72.31
362.523	97.31
362.749	92.31
362.976	88.31
363.203	98.31
363.429	94.31
363.656	83.31
363.882	86.31
364.109	90.31
364.335	74.31
364.562	77.31
364.788	75.31
365.015	86.31
365.241	91.31
365.468	94.31
365.694	80.31
365.92	96.31
366.147	92.31
366.373	94.31
366.599	82.31
366.826	88.31
367.052	83.31
367.278	78.31
367.505	83.31
367.731	86.31
367.957	84.31
368.184	80.31
368.41	80.31
368.636	75.31
368.862	95.31
369.089	80.31
369.315	79.31
369.541	83.31
369.767	69.31
369.993	82.31
370.219	94.31
370.445	76.31
370.672	84.31
370.898	81.31
371.124	96.31
371.35	92.31
371.576	76.31
371.802	82.31
372.028	64.31
372.254	83.31
372.48	81.31
372.706	83.31
372.932	86.31
373.158	92.31
373.384	82.31
373.61	91.31
373.835	75.31
374.061	81.31
374.287	103.31
374.513	91.31
374.739	87.31
374.965	87.31
375.191	90.31
375.416	92.31
375.642	87.31
375.868	98.31
376.094	90.31
376.319	77.31
376.545	74.31
376.771	78.31
376.997	87.31
377.222	73.31
377.448	84.31
377.674	73.31
377.899	87.31
378.125	96.31
378.35	74.31
378.576	86.31
378.802	76.31
379.027	74.31
379.253	71.31
379.478	85.31
379.704	84.31
379.929	70.31
380.155	91.31
380.38	86.31
380.606	82.31
380.831	100.31
381.057	95.31
381.282	84.31
381.507	88.31
381.733	100.31
381.958	92.31
382.184	95.31
382.409	78.31
382.634	87.31
382.86	76.31
383.085	75.31
383.31	85.31
383.535	88.31
383.761	80.31
383.986	83.31
384.211	76.31
384.436	86.31
384.662	78.31
384.887	78.31
385.112	73.31
385.337	90.31
385.562	75.31
385.787	82.31
386.013	69.31
386.238	81.31
386.463	76.31
386.688	92.31
386.913	95.31
387.138	76.31
387.363	72.31
387.588	81.31
387.813	99.31
388.038	82.31
388.263	81.31
388.488	85.31
388.713	73.31
388.938	98.31
389.163	71.31
389.387	73.31
389.612	84.31
389.837	82.31
390.062	82.31
390.287	80.31
390.512	87.31
390.736	77.31
390.961	103.31
391.186	78.31
391.411	81.31
391.636	84.31
391.86	90.31
392.085	90.31
392.31	84.31
392.534	79.31
392.759	99.31
392.984	71.31
393.208	87.31
393.433	82.31
393.658	80.31
393.882	76.31
394.107	81.31
394.331	78.31
394.556	74.31
394.78	76.31
395.005	85.31
395.229	88.31
395.454	84.31
395.678	91.31
395.903	89.31
396.127	79.31
396.352	88.31
396.576	69.31
396.801	84.31
397.025	89.31
397.249	78.31
397.474	92.31
397.698	86.31
397.922	96.31
398.147	81.31
398.371	102.31
398.595	75.31
398.82	90.31
399.044	80.31
399.268	82.31
399.492	86.31
399.717	86.31
399.941	80.31
400.165	77.31
400.389	75.31
400.613	82.31
400.837	89.31
401.062	79.31
401.286	82.31
401.51	97.31
401.734	87.31
401.958	90.31
402.182	81.31
402.406	81.31
402.63	75.31
402.854	85.31
403.078	80.31
403.302	85.31
403.526	86.31
403.75	77.31
403.974	97.31
404.198	124.31
404.422	182.31
404.645	206.31
404.869	164.31
405.093	122.31
405.317	96.31
405.541	80.31
405.765	93.31
405.988	79.31
406.212	92.31
406.436	91.31
406.66	99.31
406.883	82.31
407.107	76.31
407.331	82.31
407.555	97.31
407.778	78.31
408.002	86.31
408.226	86.31
408.449	85.31
408.673	78.31
408.896	74.31
409.12	77.31
409.344	95.31
409.567	80.31
409.791	89.31
410.014	91.31
410.238	91.31
410.461	94.31
410.685	81.31
410.908	82.31
411.132	88.31
411.355	82.31
411.578	90.31
411.802	91.31
412.025	90.31
412.249	100.31
412.472	79.31
412.695	82.31
412.919	80.31
413.142	80.31
413.365	90.31
413.589	84.31
413.812	92.31
414.035	90.31
414.258	90.31
414.482	78.31
414.705	85.31
414.928	74.31
415.151	83.31
415.374	92.31
415.597	95.31
415.821	84.31
416.044	84.31
416.267	91.31
416.49	102.31
416.713	72.31
416.936	82.31
417.159	86.31
417.382	82.31
417.605	80.31
417.828	100.31
418.051	89.31
418.274	82.31
418.497	98.31
418.72	83.31
418.943	85.31
419.166	84.31
419.389	70.31
419.611	90.31
419.834	90.31
420.057	89.31
420.28	86.31
420.503	93.31
420.726	76.31
420.948	74.31
421.171	91.31
421.394	76.31
421.617	98.31
421.839	80.31
422.062	89.31
422.285	72.31
422.507	82.31
422.73	95.31
422.953	92.31
423.175	98.31
423.398	90.31
423.621	78.31
423.843	102.31
424.066	94.31
424.288	86.31
424.511	87.31
424.733	71.31
424.956	85.31
425.178	93.31
425.401	89.31
425.623	87.31
425.846	86.31
426.068	78.31
426.291	78.31
426.513	93.31
426.735	87.31
426.958	96.31
427.18	90.31
427.402	94.31
427.625	80.31
427.847	77.31
428.069	94.31
428.292	86.31
428.514	74.31
428.736	84.31
428.958	77.31
429.181	84.31
429.403	75.31
429.625	95.31
429.847	92.31
430.069	78.31
430.292	93.31
430.514	88.31
430.736	83.31
430.958	90.31
431.18	93.31
431.402	89.31
431.624	91.31
431.846	83.31
432.068	81.31
432.29	83.31
432.512	87.31
432.734	75.31
432.956	93.31
433.178	81.31
433.4	88.31
433.622	92.31
433.844	84.31
434.066	92.31
434.287	79.31
434.509	72.31
434.731	84.31
434.953	81.31
435.175	74.31
435.397	85.31
435.618	77.31
435.84	98.31
436.062	83.31
436.284	81.31
436.505	80.31
436.727	85.31
436.949	71.31
437.17	83.31
437.392	75.31
437.614	94.31
437.835	97.31
438.057	87.31
438.278	75.31
438.5	80.31
438.721	85.31
438.943	80.31
439.165	78.31
439.386	84.31
439.608	91.31
439.829	75.31
440.05	97.31
440.272	87.31
440.493	82.31
440.715	74.31
440.936	81.31
441.158	87.31
441.379	81.31
441.6	65.31
441.822	92.31
442.043	87.31
442.264	83.31
442.486	84.31
442.707	87.31
442.928	84.31
443.149	102.31
443.371	80.31
443.592	84.31
443.813	89.31
444.034	95.31
444.255	87.31
444.476	95.31
444.698	78.31
444.919	89.31
445.14	153.31
445.361	118.31
445.582	84.31
445.803	96.31
446.024	84.31
446.245	95.31
446.466	86.31
446.687	95.31
446.908	93.31
447.129	90.31
447.35	87.31
447.571	82.31
447.792	87.31
448.013	92.31
448.234	77.31
448.455	87.31
448.675	92.31
448.896	86.31
449.117	89.31
449.338	83.31
449.559	94.31
449.779	85.31
450	88.31
450.221	99.31
450.442	85.31
450.662	90.31
450.883	100.31
451.104	84.31
451.324	81.31
451.545	88.31
451.766	88.31
451.986	81.31
452.207	96.31
452.428	84.31
452.648	90.31
452.869	87.31
453.089	94.31
453.31	90.31
453.53	91.31
453.751	79.31
453.971	90.31
454.192	72.31
454.412	87.31
454.633	107.31
454.853	105.31
455.073	84.31
455.294	80.31
455.514	96.31
455.734	96.31
455.955	87.31
456.175	97.31
456.395	90.31
456.616	80.31
456.836	100.31
457.056	93.31
457.276	76.31
457.497	97.31
457.717	87.31
457.937	79.31
458.157	74.31
458.377	71.31
458.598	83.31
458.818	84.31
459.038	81.31
459.258	88.31
459.478	73.31
459.698	81.31
459.918	92.31
460.138	95.31
460.358	84.31
460.578	86.31
460.798	89.31
461.018	81.31
461.238	79.31
461.458	89.31
461.678	88.31
461.898	79.31
462.118	74.31
462.338	90.31
462.558	83.31
462.777	87.31
462.997	82.31
463.217	81.31
463.437	79.31
463.657	81.31
463.876	84.31
464.096	92.31
464.316	81.31
464.536	89.31
464.755	87.31
464.975	93.31
465.195	77.31
465.414	86.31
465.634	83.31
465.854	87.31
466.073	96.31
466.293	96.31
466.512	84.31
466.732	80.31
466.951	91.31
467.171	68.31
467.391	95.31
467.61	90.31
467.829	81.31
468.049	92.31
468.268	92.31
468.488	81.31
468.707	87.31
468.927	92.31
469.146	94.31
469.365	91.31
469.585	99.31
469.804	83.31
470.023	95.31
470.243	89.31
470.462	98.31
470.681	99.31
470.901	91.31
471.12	74.31
471.339	87.31
471.558	91.31
471.777	94.31
471.997	89.31
472.216	78.31
472.435	87.31
472.654	97.31
472.873	89.31
473.092	80.31
473.311	94.31
473.53	89.31
473.749	74.31
473.968	104.31
474.187	88.31
474.406	96.31
474.625	90.31
474.844	95.31
475.063	85.31
475.282	84.31
475.501	83.31
475.72	85.31
475.939	83.31
476.158	91.31
476.377	91.31
476.596	87.31
476.814	93.31
477.033	93.31
477.252	97.31
477.471	78.31
477.69	80.31
477.908	93.31
478.127	79.31
478.346	88.31
478.564	79.31
478.783	78.31
479.002	76.31
479.22	78.31
479.439	82.31
479.658	82.31
479.876	90.31
480.095	88.31
480.313	84.31
480.532	89.31
480.751	77.31
480.969	74.31
481.188	88.31
481.406	91.31
481.624	91.31
481.843	95.31
482.061	92.31
482.28	74.31
482.498	82.31
482.717	95.31
482.935	76.31
483.153	77.31
483.372	90.31
483.59	88.31
483.808	88.31
484.027	90.31
484.245	92.31
484.463	90.31
484.681	82.31
484.9	86.31
485.118	88.31
485.336	99.31
485.554	105.31
485.772	96.31
485.99	102.31
486.209	90.31
486.427	74.31
486.645	105.31
486.863	87.31
487.081	76.31
487.299	78.31
487.517	85.31
487.735	91.31
487.953	81.31
488.171	96.31
488.389	95.31
488.607	89.31
488.825	98.31
489.043	93.31
489.261	99.31
489.479	96.31
489.696	108.31
489.914	100.31
490.132	99.31
490.35	92.31
490.568	78.31
490.786	66.31
491.003	98.31
491.221	94.31
491.439	92.31
491.657	90.31
491.874	110.31
492.092	95.31
492.31	82.31
492.527	72.31
492.745	95.31
492.963	110.31
493.18	100.31
493.398	83.31
493.615	98.31
493.833	90.31
494.05	96.31
494.268	104.31
494.485	84.31
494.703	83.31
494.92	103.31
495.138	105.31
495.355	81.31
495.573	103.31
495.79	97.31
496.008	88.31
496.225	92.31
496.442	91.31
496.66	97.31
496.877	91.31
497.094	92.31
497.312	91.31
497.529	97.31
497.746	89.31
497.963	102.31
498.181	102.31
498.398	94.31
498.615	101.31
498.832	90.31
499.049	89.31
499.267	95.31
499.484	93.31
499.701	91.31
499.918	95.31
500.135	113.31
500.352	93.31
500.569	77.31
500.786	90.31
501.003	92.31
501.22	93.31
501.437	89.31
501.654	95.31
501.871	88.31
502.088	102.31
502.305	86.31
502.522	89.31
502.739	90.31
502.956	89.31
503.172	79.31
503.389	83.31
503.606	95.31
503.823	103.31
504.04	88.31
504.256	92.31
504.473	94.31
504.69	87.31
504.907	93.31
505.123	111.31
505.34	103.31
505.557	78.31
505.773	81.31
505.99	76.31
506.207	88.31
506.423	78.31
506.64	95.31
506.856	105.31
507.073	95.31
507.289	91.31
507.506	79.31
507.722	87.31
507.939	112.31
508.155	88.31
508.372	95.31
508.588	95.31
508.805	96.31
509.021	86.31
509.238	103.31
509.454	83.31
509.67	83.31
509.887	88.31
510.103	90.31
510.319	83.31
510.536	94.31
510.752	94.31
510.968	76.31
511.184	94.31
511.401	94.31
511.617	92.31
511.833	89.31
512.049	88.31
512.265	99.31
512.481	83.31
512.698	72.31
512.914	82.31
513.13	94.31
513.346	75.31
513.562	83.31
513.778	95.31
513.994	96.31
514.21	93.31
514.426	86.31
514.642	74.31
514.858	78.31
515.074	87.31
515.29	83.31
515.506	72.31
515.721	82.31
515.937	97.31
516.153	84.31
516.369	93.31
516.585	95.31
516.801	94.31
517.016	81.31
517.232	83.31
517.448	94.31
517.664	86.31
517.879	75.31
518.095	82.31
518.311	82.31
518.527	91.31
518.742	92.31
518.958	90.31
519.173	108.31
519.389	88.31
