Data from KBr_2_HRD10591_00044.txt Node
Date: Mon Jan 19 13:13:12 EST 2026
User: Yrep
Spectrometer: HR+D1059
Trigger mode: 1
Integration Time (sec): 1.000000E-1
Scans to average: 1
Electric dark correction enabled: true
Nonlinearity correction enabled: false
Boxcar width: 0
XAxis mode: Wavelengths
Number of Pixels in Spectrum: 2048
>>>>>Begin Spectral Data<<<<<
223.165	-14.06
223.4	-14.06
223.635	-14.06
223.869	-20.06
224.104	-26.06
224.338	-13.06
224.573	-13.06
224.808	-18.06
225.042	-0.06
225.277	-0.06
225.511	-4.06
225.746	-10.06
225.98	5.94
226.215	6.94
226.449	20.94
226.683	23.94
226.918	36.94
227.152	23.94
227.387	32.94
227.621	31.94
227.856	48.94
228.09	47.94
228.324	44.94
228.559	54.94
228.793	58.94
229.027	62.94
229.262	71.94
229.496	62.94
229.73	64.94
229.964	76.94
230.199	66.94
230.433	64.94
230.667	70.94
230.901	79.94
231.136	83.94
231.37	81.94
231.604	87.94
231.838	90.94
232.072	68.94
232.306	82.94
232.541	69.94
232.775	80.94
233.009	79.94
233.243	86.94
233.477	88.94
233.711	83.94
233.945	80.94
234.179	70.94
234.413	71.94
234.647	75.94
234.881	70.94
235.115	99.94
235.349	56.94
235.583	78.94
235.817	86.94
236.051	66.94
236.285	71.94
236.519	80.94
236.753	69.94
236.987	81.94
237.221	78.94
237.455	73.94
237.689	67.94
237.922	79.94
238.156	81.94
238.39	82.94
238.624	74.94
238.858	77.94
239.091	62.94
239.325	67.94
239.559	80.94
239.793	73.94
240.027	91.94
240.26	80.94
240.494	72.94
240.728	60.94
240.961	68.94
241.195	71.94
241.429	77.94
241.662	68.94
241.896	74.94
242.13	87.94
242.363	75.94
242.597	82.94
242.83	73.94
243.064	64.94
243.298	72.94
243.531	83.94
243.765	80.94
243.998	71.94
244.232	82.94
244.465	63.94
244.699	64.94
244.932	76.94
245.166	70.94
245.399	78.94
245.633	81.94
245.866	62.94
246.099	65.94
246.333	76.94
246.566	71.94
246.8	76.94
247.033	62.94
247.266	74.94
247.5	70.94
247.733	79.94
247.966	76.94
248.2	78.94
248.433	61.94
248.666	83.94
248.899	60.94
249.133	81.94
249.366	75.94
249.599	74.94
249.832	79.94
250.066	84.94
250.299	79.94
250.532	83.94
250.765	63.94
250.998	78.94
251.231	90.94
251.465	78.94
251.698	64.94
251.931	93.94
252.164	82.94
252.397	63.94
252.63	75.94
252.863	73.94
253.096	68.94
253.329	77.94
253.562	83.94
253.795	83.94
254.028	93.94
254.261	72.94
254.494	84.94
254.727	74.94
254.96	76.94
255.193	80.94
255.426	84.94
255.659	82.94
255.892	79.94
256.124	70.94
256.357	78.94
256.59	72.94
256.823	75.94
257.056	80.94
257.289	55.94
257.521	74.94
257.754	64.94
257.987	72.94
258.22	82.94
258.452	90.94
258.685	83.94
258.918	82.94
259.151	89.94
259.383	84.94
259.616	84.94
259.849	72.94
260.081	92.94
260.314	75.94
260.547	72.94
260.779	76.94
261.012	83.94
261.244	64.94
261.477	80.94
261.71	84.94
261.942	71.94
262.175	102.94
262.407	77.94
262.64	87.94
262.872	77.94
263.105	76.94
263.337	84.94
263.57	76.94
263.802	95.94
264.035	83.94
264.267	76.94
264.499	90.94
264.732	83.94
264.964	80.94
265.197	92.94
265.429	86.94
265.661	77.94
265.894	73.94
266.126	80.94
266.358	84.94
266.591	86.94
266.823	88.94
267.055	73.94
267.287	79.94
267.52	76.94
267.752	90.94
267.984	75.94
268.216	82.94
268.448	90.94
268.681	72.94
268.913	87.94
269.145	68.94
269.377	87.94
269.609	85.94
269.841	85.94
270.073	63.94
270.306	60.94
270.538	76.94
270.77	82.94
271.002	80.94
271.234	83.94
271.466	107.94
271.698	76.94
271.93	82.94
272.162	86.94
272.394	74.94
272.626	79.94
272.858	84.94
273.09	88.94
273.322	87.94
273.553	80.94
273.785	88.94
274.017	68.94
274.249	79.94
274.481	85.94
274.713	79.94
274.945	86.94
275.176	68.94
275.408	75.94
275.64	86.94
275.872	90.94
276.104	77.94
276.335	91.94
276.567	79.94
276.799	75.94
277.031	85.94
277.262	86.94
277.494	75.94
277.726	78.94
277.957	74.94
278.189	91.94
278.421	76.94
278.652	67.94
278.884	97.94
279.115	78.94
279.347	82.94
279.579	74.94
279.81	77.94
280.042	77.94
280.273	72.94
280.505	74.94
280.736	82.94
280.968	92.94
281.199	79.94
281.431	92.94
281.662	78.94
281.894	84.94
282.125	70.94
282.356	76.94
282.588	93.94
282.819	61.94
283.051	77.94
283.282	78.94
283.513	92.94
283.745	74.94
283.976	84.94
284.207	88.94
284.439	90.94
284.67	89.94
284.901	90.94
285.132	83.94
285.364	77.94
285.595	83.94
285.826	85.94
286.057	87.94
286.288	91.94
286.52	80.94
286.751	85.94
286.982	90.94
287.213	91.94
287.444	77.94
287.675	84.94
287.906	74.94
288.138	73.94
288.369	76.94
288.6	81.94
288.831	71.94
289.062	93.94
289.293	96.94
289.524	91.94
289.755	94.94
289.986	76.94
290.217	91.94
290.448	74.94
290.679	75.94
290.91	89.94
291.141	54.94
291.371	75.94
291.602	83.94
291.833	85.94
292.064	86.94
292.295	83.94
292.526	78.94
292.757	66.94
292.987	76.94
293.218	75.94
293.449	76.94
293.68	82.94
293.91	80.94
294.141	89.94
294.372	92.94
294.603	89.94
294.833	82.94
295.064	75.94
295.295	85.94
295.525	79.94
295.756	83.94
295.987	80.94
296.217	94.94
296.448	85.94
296.679	87.94
296.909	78.94
297.14	94.94
297.37	88.94
297.601	102.94
297.831	94.94
298.062	87.94
298.292	89.94
298.523	88.94
298.753	84.94
298.984	80.94
299.214	72.94
299.445	100.94
299.675	90.94
299.905	92.94
300.136	87.94
300.366	82.94
300.597	90.94
300.827	70.94
301.057	88.94
301.288	85.94
301.518	87.94
301.748	90.94
301.979	95.94
302.209	86.94
302.439	87.94
302.669	82.94
302.9	90.94
303.13	82.94
303.36	75.94
303.59	56.94
303.82	87.94
304.051	89.94
304.281	95.94
304.511	89.94
304.741	87.94
304.971	84.94
305.201	91.94
305.431	82.94
305.661	78.94
305.891	84.94
306.121	91.94
306.352	76.94
306.582	92.94
306.812	91.94
307.042	94.94
307.272	82.94
307.502	92.94
307.731	95.94
307.961	82.94
308.191	76.94
308.421	78.94
308.651	85.94
308.881	84.94
309.111	82.94
309.341	86.94
309.571	94.94
309.8	82.94
310.03	74.94
310.26	92.94
310.49	88.94
310.72	76.94
310.949	85.94
311.179	89.94
311.409	99.94
311.639	84.94
311.868	77.94
312.098	98.94
312.328	85.94
312.557	91.94
312.787	82.94
313.017	86.94
313.246	71.94
313.476	84.94
313.706	92.94
313.935	80.94
314.165	79.94
314.394	84.94
314.624	72.94
314.853	90.94
315.083	95.94
315.312	87.94
315.542	91.94
315.771	98.94
316.001	68.94
316.23	90.94
316.46	81.94
316.689	77.94
316.919	100.94
317.148	82.94
317.377	84.94
317.607	90.94
317.836	81.94
318.065	82.94
318.295	88.94
318.524	71.94
318.753	70.94
318.983	75.94
319.212	88.94
319.441	83.94
319.67	66.94
319.9	81.94
320.129	87.94
320.358	93.94
320.587	81.94
320.816	84.94
321.046	92.94
321.275	87.94
321.504	85.94
321.733	83.94
321.962	94.94
322.191	79.94
322.42	91.94
322.649	90.94
322.878	69.94
323.108	96.94
323.337	99.94
323.566	73.94
323.795	74.94
324.024	87.94
324.253	74.94
324.482	99.94
324.71	73.94
324.939	80.94
325.168	74.94
325.397	82.94
325.626	74.94
325.855	86.94
326.084	85.94
326.313	90.94
326.542	85.94
326.77	87.94
326.999	77.94
327.228	100.94
327.457	86.94
327.686	82.94
327.914	86.94
328.143	71.94
328.372	82.94
328.6	67.94
328.829	78.94
329.058	86.94
329.287	108.94
329.515	94.94
329.744	91.94
329.972	100.94
330.201	94.94
330.43	84.94
330.658	89.94
330.887	91.94
331.115	90.94
331.344	90.94
331.572	87.94
331.801	91.94
332.03	83.94
332.258	83.94
332.486	70.94
332.715	74.94
332.943	81.94
333.172	85.94
333.4	71.94
333.629	82.94
333.857	78.94
334.085	94.94
334.314	88.94
334.542	70.94
334.771	81.94
334.999	90.94
335.227	68.94
335.455	77.94
335.684	88.94
335.912	77.94
336.14	86.94
336.369	72.94
336.597	84.94
336.825	92.94
337.053	85.94
337.281	82.94
337.51	89.94
337.738	84.94
337.966	87.94
338.194	92.94
338.422	90.94
338.65	89.94
338.878	89.94
339.106	78.94
339.334	77.94
339.562	87.94
339.79	85.94
340.018	76.94
340.246	102.94
340.474	86.94
340.702	75.94
340.93	78.94
341.158	73.94
341.386	85.94
341.614	75.94
341.842	86.94
342.07	85.94
342.298	84.94
342.526	94.94
342.754	82.94
342.981	89.94
343.209	87.94
343.437	88.94
343.665	80.94
343.893	87.94
344.12	72.94
344.348	86.94
344.576	95.94
344.804	107.94
345.031	86.94
345.259	82.94
345.487	82.94
345.714	88.94
345.942	92.94
346.17	94.94
346.397	81.94
346.625	77.94
346.853	78.94
347.08	72.94
347.308	95.94
347.535	82.94
347.763	82.94
347.99	82.94
348.218	93.94
348.445	87.94
348.673	87.94
348.9	88.94
349.128	78.94
349.355	74.94
349.583	81.94
349.81	85.94
350.037	92.94
350.265	93.94
350.492	85.94
350.72	87.94
350.947	85.94
351.174	88.94
351.402	76.94
351.629	78.94
351.856	83.94
352.083	89.94
352.311	86.94
352.538	93.94
352.765	90.94
352.992	103.94
353.22	80.94
353.447	78.94
353.674	76.94
353.901	98.94
354.128	93.94
354.355	79.94
354.583	99.94
354.81	89.94
355.037	86.94
355.264	71.94
355.491	86.94
355.718	84.94
355.945	84.94
356.172	73.94
356.399	95.94
356.626	75.94
356.853	86.94
357.08	78.94
357.307	94.94
357.534	95.94
357.761	92.94
357.988	91.94
358.215	73.94
358.441	86.94
358.668	82.94
358.895	92.94
359.122	90.94
359.349	84.94
359.576	69.94
359.802	75.94
360.029	68.94
360.256	78.94
360.483	82.94
360.709	87.94
360.936	87.94
361.163	76.94
361.39	82.94
361.616	83.94
361.843	87.94
362.07	96.94
362.296	92.94
362.523	75.94
362.749	68.94
362.976	76.94
363.203	84.94
363.429	89.94
363.656	86.94
363.882	77.94
364.109	73.94
364.335	93.94
364.562	90.94
364.788	94.94
365.015	74.94
365.241	78.94
365.468	86.94
365.694	74.94
365.92	93.94
366.147	88.94
366.373	85.94
366.599	86.94
366.826	82.94
367.052	93.94
367.278	77.94
367.505	86.94
367.731	84.94
367.957	88.94
368.184	77.94
368.41	81.94
368.636	87.94
368.862	90.94
369.089	84.94
369.315	79.94
369.541	75.94
369.767	75.94
369.993	91.94
370.219	86.94
370.445	74.94
370.672	80.94
370.898	91.94
371.124	84.94
371.35	80.94
371.576	86.94
371.802	95.94
372.028	91.94
372.254	78.94
372.48	92.94
372.706	85.94
372.932	75.94
373.158	76.94
373.384	74.94
373.61	83.94
373.835	83.94
374.061	78.94
374.287	84.94
374.513	85.94
374.739	89.94
374.965	72.94
375.191	86.94
375.416	90.94
375.642	98.94
375.868	84.94
376.094	73.94
376.319	76.94
376.545	65.94
376.771	82.94
376.997	89.94
377.222	81.94
377.448	85.94
377.674	80.94
377.899	73.94
378.125	92.94
378.35	85.94
378.576	80.94
378.802	73.94
379.027	92.94
379.253	99.94
379.478	70.94
379.704	72.94
379.929	77.94
380.155	84.94
380.38	80.94
380.606	82.94
380.831	88.94
381.057	82.94
381.282	87.94
381.507	82.94
381.733	86.94
381.958	86.94
382.184	80.94
382.409	81.94
382.634	82.94
382.86	92.94
383.085	93.94
383.31	79.94
383.535	83.94
383.761	90.94
383.986	86.94
384.211	74.94
384.436	88.94
384.662	93.94
384.887	70.94
385.112	76.94
385.337	77.94
385.562	75.94
385.787	87.94
386.013	79.94
386.238	94.94
386.463	100.94
386.688	110.94
386.913	106.94
387.138	86.94
387.363	82.94
387.588	88.94
387.813	92.94
388.038	84.94
388.263	86.94
388.488	67.94
388.713	92.94
388.938	94.94
389.163	79.94
389.387	85.94
389.612	82.94
389.837	94.94
390.062	87.94
390.287	88.94
390.512	86.94
390.736	72.94
390.961	83.94
391.186	83.94
391.411	86.94
391.636	91.94
391.86	86.94
392.085	86.94
392.31	80.94
392.534	76.94
392.759	92.94
392.984	93.94
393.208	88.94
393.433	70.94
393.658	83.94
393.882	87.94
394.107	72.94
394.331	74.94
394.556	86.94
394.78	92.94
395.005	98.94
395.229	86.94
395.454	79.94
395.678	79.94
395.903	92.94
396.127	84.94
396.352	78.94
396.576	79.94
396.801	82.94
397.025	80.94
397.249	86.94
397.474	82.94
397.698	86.94
397.922	92.94
398.147	81.94
398.371	75.94
398.595	84.94
398.82	93.94
399.044	75.94
399.268	80.94
399.492	88.94
399.717	85.94
399.941	86.94
400.165	80.94
400.389	82.94
400.613	75.94
400.837	89.94
401.062	77.94
401.286	75.94
401.51	87.94
401.734	98.94
401.958	78.94
402.182	73.94
402.406	78.94
402.63	92.94
402.854	86.94
403.078	90.94
403.302	90.94
403.526	96.94
403.75	95.94
403.974	97.94
404.198	162.94
404.422	224.94
404.645	291.94
404.869	229.94
405.093	148.94
405.317	108.94
405.541	87.94
405.765	91.94
405.988	95.94
406.212	85.94
406.436	81.94
406.66	99.94
406.883	74.94
407.107	86.94
407.331	91.94
407.555	78.94
407.778	90.94
408.002	73.94
408.226	87.94
408.449	87.94
408.673	88.94
408.896	85.94
409.12	78.94
409.344	93.94
409.567	75.94
409.791	89.94
410.014	92.94
410.238	86.94
410.461	85.94
410.685	80.94
410.908	92.94
411.132	78.94
411.355	81.94
411.578	85.94
411.802	86.94
412.025	93.94
412.249	83.94
412.472	88.94
412.695	78.94
412.919	93.94
413.142	82.94
413.365	87.94
413.589	85.94
413.812	79.94
414.035	85.94
414.258	84.94
414.482	80.94
414.705	71.94
414.928	78.94
415.151	76.94
415.374	97.94
415.597	83.94
415.821	88.94
416.044	78.94
416.267	85.94
416.49	100.94
416.713	82.94
416.936	94.94
417.159	89.94
417.382	82.94
417.605	83.94
417.828	87.94
418.051	93.94
418.274	92.94
418.497	78.94
418.72	79.94
418.943	78.94
419.166	91.94
419.389	75.94
419.611	98.94
419.834	80.94
420.057	86.94
420.28	78.94
420.503	85.94
420.726	77.94
420.948	85.94
421.171	80.94
421.394	91.94
421.617	74.94
421.839	86.94
422.062	76.94
422.285	88.94
422.507	90.94
422.73	94.94
422.953	89.94
423.175	100.94
423.398	98.94
423.621	88.94
423.843	83.94
424.066	64.94
424.288	82.94
424.511	82.94
424.733	68.94
424.956	74.94
425.178	91.94
425.401	90.94
425.623	83.94
425.846	78.94
426.068	66.94
426.291	80.94
426.513	82.94
426.735	89.94
426.958	88.94
427.18	92.94
427.402	82.94
427.625	93.94
427.847	79.94
428.069	87.94
428.292	82.94
428.514	82.94
428.736	83.94
428.958	70.94
429.181	81.94
429.403	73.94
429.625	75.94
429.847	84.94
430.069	86.94
430.292	101.94
430.514	89.94
430.736	79.94
430.958	90.94
431.18	68.94
431.402	83.94
431.624	86.94
431.846	83.94
432.068	79.94
432.29	86.94
432.512	83.94
432.734	89.94
432.956	103.94
433.178	92.94
433.4	86.94
433.622	101.94
433.844	82.94
434.066	81.94
434.287	74.94
434.509	87.94
434.731	82.94
434.953	78.94
435.175	79.94
435.397	85.94
435.618	86.94
435.84	88.94
436.062	90.94
436.284	99.94
436.505	86.94
436.727	88.94
436.949	92.94
437.17	72.94
437.392	82.94
437.614	101.94
437.835	84.94
438.057	78.94
438.278	72.94
438.5	87.94
438.721	78.94
438.943	93.94
439.165	103.94
439.386	86.94
439.608	92.94
439.829	83.94
440.05	92.94
440.272	79.94
440.493	79.94
440.715	102.94
440.936	86.94
441.158	86.94
441.379	89.94
441.6	75.94
441.822	68.94
442.043	98.94
442.264	89.94
442.486	86.94
442.707	90.94
442.928	89.94
443.149	78.94
443.371	86.94
443.592	93.94
443.813	79.94
444.034	82.94
444.255	101.94
444.476	91.94
444.698	74.94
444.919	94.94
445.14	157.94
445.361	127.94
445.582	70.94
445.803	83.94
446.024	89.94
446.245	93.94
446.466	88.94
446.687	86.94
446.908	82.94
447.129	92.94
447.35	92.94
447.571	83.94
447.792	81.94
448.013	93.94
448.234	87.94
448.455	81.94
448.675	93.94
448.896	93.94
449.117	82.94
449.338	77.94
449.559	92.94
449.779	87.94
450	73.94
450.221	85.94
450.442	82.94
450.662	77.94
450.883	92.94
451.104	76.94
451.324	89.94
451.545	87.94
451.766	98.94
451.986	91.94
452.207	80.94
452.428	102.94
452.648	102.94
452.869	87.94
453.089	101.94
453.31	70.94
453.53	89.94
453.751	78.94
453.971	86.94
454.192	80.94
454.412	73.94
454.633	84.94
454.853	95.94
455.073	76.94
455.294	75.94
455.514	84.94
455.734	76.94
455.955	86.94
456.175	76.94
456.395	83.94
456.616	91.94
456.836	74.94
457.056	84.94
457.276	98.94
457.497	78.94
457.717	92.94
457.937	83.94
458.157	98.94
458.377	83.94
458.598	87.94
458.818	96.94
459.038	83.94
459.258	82.94
459.478	86.94
459.698	83.94
459.918	87.94
460.138	72.94
460.358	75.94
460.578	73.94
460.798	90.94
461.018	83.94
461.238	96.94
461.458	89.94
461.678	79.94
461.898	93.94
462.118	82.94
462.338	90.94
462.558	98.94
462.777	78.94
462.997	102.94
463.217	87.94
463.437	98.94
463.657	76.94
463.876	86.94
464.096	77.94
464.316	78.94
464.536	80.94
464.755	83.94
464.975	80.94
465.195	85.94
465.414	75.94
465.634	86.94
465.854	80.94
466.073	85.94
466.293	78.94
466.512	80.94
466.732	77.94
466.951	72.94
467.171	86.94
467.391	78.94
467.61	70.94
467.829	90.94
468.049	90.94
468.268	86.94
468.488	92.94
468.707	95.94
468.927	102.94
469.146	89.94
469.365	70.94
469.585	82.94
469.804	88.94
470.023	73.94
470.243	80.94
470.462	86.94
470.681	83.94
470.901	68.94
471.12	93.94
471.339	89.94
471.558	90.94
471.777	87.94
471.997	75.94
472.216	76.94
472.435	88.94
472.654	88.94
472.873	86.94
473.092	84.94
473.311	93.94
473.53	92.94
473.749	87.94
473.968	95.94
474.187	90.94
474.406	96.94
474.625	96.94
474.844	77.94
475.063	95.94
475.282	82.94
475.501	88.94
475.72	89.94
475.939	79.94
476.158	84.94
476.377	82.94
476.596	89.94
476.814	81.94
477.033	92.94
477.252	87.94
477.471	91.94
477.69	92.94
477.908	90.94
478.127	96.94
478.346	84.94
478.564	94.94
478.783	88.94
479.002	92.94
479.22	78.94
479.439	87.94
479.658	75.94
479.876	86.94
480.095	88.94
480.313	102.94
480.532	84.94
480.751	89.94
480.969	85.94
481.188	66.94
481.406	89.94
481.624	86.94
481.843	91.94
482.061	88.94
482.28	91.94
482.498	76.94
482.717	102.94
482.935	93.94
483.153	90.94
483.372	83.94
483.59	84.94
483.808	85.94
484.027	82.94
484.245	87.94
484.463	86.94
484.681	94.94
484.9	88.94
485.118	95.94
485.336	101.94
485.554	100.94
485.772	97.94
485.99	88.94
486.209	72.94
486.427	82.94
486.645	88.94
486.863	86.94
487.081	85.94
487.299	93.94
487.517	67.94
487.735	78.94
487.953	95.94
488.171	88.94
488.389	92.94
488.607	95.94
488.825	79.94
489.043	98.94
489.261	95.94
489.479	87.94
489.696	76.94
489.914	96.94
490.132	86.94
490.35	96.94
490.568	90.94
490.786	93.94
491.003	95.94
491.221	107.94
491.439	90.94
491.657	89.94
491.874	102.94
492.092	91.94
492.31	92.94
492.527	90.94
492.745	93.94
492.963	83.94
493.18	89.94
493.398	92.94
493.615	74.94
493.833	95.94
494.05	84.94
494.268	89.94
494.485	98.94
494.703	90.94
494.92	102.94
495.138	99.94
495.355	85.94
495.573	81.94
495.79	88.94
496.008	94.94
496.225	98.94
496.442	100.94
496.66	90.94
496.877	92.94
497.094	94.94
497.312	84.94
497.529	83.94
497.746	107.94
497.963	80.94
498.181	82.94
498.398	81.94
498.615	86.94
498.832	110.94
499.049	92.94
499.267	89.94
499.484	92.94
499.701	90.94
499.918	86.94
500.135	86.94
500.352	85.94
500.569	91.94
500.786	93.94
501.003	79.94
501.22	98.94
501.437	86.94
501.654	91.94
501.871	93.94
502.088	77.94
502.305	88.94
502.522	81.94
502.739	81.94
502.956	102.94
503.172	82.94
503.389	71.94
503.606	75.94
503.823	77.94
504.04	84.94
504.256	91.94
504.473	93.94
504.69	90.94
504.907	85.94
505.123	90.94
505.34	70.94
505.557	91.94
505.773	91.94
505.99	75.94
506.207	92.94
506.423	82.94
506.64	80.94
506.856	95.94
507.073	87.94
507.289	81.94
507.506	87.94
507.722	82.94
507.939	87.94
508.155	80.94
508.372	94.94
508.588	86.94
508.805	99.94
509.021	98.94
509.238	86.94
509.454	91.94
509.67	93.94
509.887	109.94
510.103	91.94
510.319	94.94
510.536	80.94
510.752	100.94
510.968	96.94
511.184	82.94
511.401	102.94
511.617	96.94
511.833	96.94
512.049	115.94
512.265	88.94
512.481	88.94
512.698	99.94
512.914	90.94
513.13	94.94
513.346	93.94
513.562	88.94
513.778	78.94
513.994	76.94
514.21	106.94
514.426	87.94
514.642	73.94
514.858	88.94
515.074	77.94
515.29	87.94
515.506	76.94
515.721	94.94
515.937	85.94
516.153	78.94
516.369	94.94
516.585	79.94
516.801	87.94
517.016	91.94
517.232	84.94
517.448	64.94
517.664	89.94
517.879	90.94
518.095	82.94
518.311	88.94
518.527	82.94
518.742	86.94
518.958	74.94
519.173	71.94
519.389	91.94
519.605	104.94
