Data from KBr_2_HRD10591_00012.txt Node
Date: Mon Jan 19 13:12:56 EST 2026
User: Yrep
Spectrometer: HR+D1059
Trigger mode: 1
Integration Time (sec): 1.000000E-1
Scans to average: 1
Electric dark correction enabled: true
Nonlinearity correction enabled: false
Boxcar width: 0
XAxis mode: Wavelengths
Number of Pixels in Spectrum: 2048
>>>>>Begin Spectral Data<<<<<
223.165	-28.5
223.4	-28.5
223.635	-28.5
223.869	-32.5
224.104	-22.5
224.338	-10.5
224.573	-7.5
224.808	-12.5
225.042	3.5
225.277	-6.5
225.511	4.5
225.746	10.5
225.98	4.5
226.215	9.5
226.449	7.5
226.683	12.5
226.918	27.5
227.152	40.5
227.387	49.5
227.621	44.5
227.856	42.5
228.09	52.5
228.324	43.5
228.559	62.5
228.793	52.5
229.027	66.5
229.262	70.5
229.496	56.5
229.73	65.5
229.964	63.5
230.199	65.5
230.433	81.5
230.667	74.5
230.901	67.5
231.136	75.5
231.37	85.5
231.604	82.5
231.838	95.5
232.072	80.5
232.306	92.5
232.541	83.5
232.775	75.5
233.009	87.5
233.243	81.5
233.477	76.5
233.711	70.5
233.945	71.5
234.179	87.5
234.413	72.5
234.647	73.5
234.881	69.5
235.115	67.5
235.349	79.5
235.583	91.5
235.817	75.5
236.051	85.5
236.285	75.5
236.519	77.5
236.753	82.5
236.987	69.5
237.221	90.5
237.455	87.5
237.689	75.5
237.922	63.5
238.156	81.5
238.39	90.5
238.624	72.5
238.858	60.5
239.091	85.5
239.325	83.5
239.559	76.5
239.793	77.5
240.027	86.5
240.26	87.5
240.494	83.5
240.728	81.5
240.961	67.5
241.195	73.5
241.429	67.5
241.662	69.5
241.896	84.5
242.13	87.5
242.363	75.5
242.597	69.5
242.83	86.5
243.064	78.5
243.298	70.5
243.531	96.5
243.765	75.5
243.998	71.5
244.232	78.5
244.465	65.5
244.699	85.5
244.932	92.5
245.166	84.5
245.399	68.5
245.633	70.5
245.866	84.5
246.099	77.5
246.333	94.5
246.566	68.5
246.8	66.5
247.033	73.5
247.266	84.5
247.5	62.5
247.733	76.5
247.966	77.5
248.2	88.5
248.433	83.5
248.666	67.5
248.899	84.5
249.133	80.5
249.366	88.5
249.599	66.5
249.832	79.5
250.066	71.5
250.299	86.5
250.532	66.5
250.765	83.5
250.998	80.5
251.231	78.5
251.465	74.5
251.698	80.5
251.931	64.5
252.164	83.5
252.397	79.5
252.63	87.5
252.863	91.5
253.096	73.5
253.329	84.5
253.562	82.5
253.795	69.5
254.028	76.5
254.261	76.5
254.494	89.5
254.727	85.5
254.96	79.5
255.193	87.5
255.426	80.5
255.659	69.5
255.892	75.5
256.124	62.5
256.357	80.5
256.59	84.5
256.823	83.5
257.056	83.5
257.289	71.5
257.521	69.5
257.754	80.5
257.987	66.5
258.22	95.5
258.452	67.5
258.685	76.5
258.918	90.5
259.151	63.5
259.383	61.5
259.616	69.5
259.849	81.5
260.081	84.5
260.314	71.5
260.547	73.5
260.779	85.5
261.012	71.5
261.244	81.5
261.477	94.5
261.71	80.5
261.942	75.5
262.175	78.5
262.407	79.5
262.64	77.5
262.872	83.5
263.105	74.5
263.337	69.5
263.57	92.5
263.802	75.5
264.035	85.5
264.267	85.5
264.499	86.5
264.732	78.5
264.964	90.5
265.197	85.5
265.429	89.5
265.661	74.5
265.894	80.5
266.126	81.5
266.358	88.5
266.591	71.5
266.823	84.5
267.055	76.5
267.287	86.5
267.52	70.5
267.752	85.5
267.984	86.5
268.216	66.5
268.448	85.5
268.681	85.5
268.913	94.5
269.145	76.5
269.377	91.5
269.609	88.5
269.841	73.5
270.073	97.5
270.306	98.5
270.538	68.5
270.77	64.5
271.002	76.5
271.234	79.5
271.466	84.5
271.698	93.5
271.93	89.5
272.162	81.5
272.394	86.5
272.626	77.5
272.858	81.5
273.09	68.5
273.322	80.5
273.553	88.5
273.785	88.5
274.017	59.5
274.249	85.5
274.481	81.5
274.713	95.5
274.945	81.5
275.176	86.5
275.408	90.5
275.64	84.5
275.872	82.5
276.104	77.5
276.335	94.5
276.567	80.5
276.799	79.5
277.031	94.5
277.262	75.5
277.494	79.5
277.726	95.5
277.957	78.5
278.189	84.5
278.421	80.5
278.652	75.5
278.884	71.5
279.115	82.5
279.347	79.5
279.579	92.5
279.81	94.5
280.042	93.5
280.273	87.5
280.505	75.5
280.736	78.5
280.968	78.5
281.199	75.5
281.431	76.5
281.662	83.5
281.894	91.5
282.125	81.5
282.356	80.5
282.588	87.5
282.819	69.5
283.051	81.5
283.282	85.5
283.513	86.5
283.745	99.5
283.976	94.5
284.207	87.5
284.439	77.5
284.67	85.5
284.901	87.5
285.132	95.5
285.364	75.5
285.595	70.5
285.826	83.5
286.057	84.5
286.288	81.5
286.52	79.5
286.751	81.5
286.982	83.5
287.213	78.5
287.444	82.5
287.675	99.5
287.906	89.5
288.138	87.5
288.369	83.5
288.6	99.5
288.831	83.5
289.062	78.5
289.293	80.5
289.524	94.5
289.755	79.5
289.986	88.5
290.217	89.5
290.448	92.5
290.679	89.5
290.91	87.5
291.141	80.5
291.371	81.5
291.602	88.5
291.833	73.5
292.064	78.5
292.295	78.5
292.526	82.5
292.757	85.5
292.987	91.5
293.218	91.5
293.449	81.5
293.68	86.5
293.91	73.5
294.141	87.5
294.372	93.5
294.603	76.5
294.833	85.5
295.064	98.5
295.295	91.5
295.525	85.5
295.756	90.5
295.987	83.5
296.217	77.5
296.448	88.5
296.679	77.5
296.909	83.5
297.14	100.5
297.37	87.5
297.601	93.5
297.831	84.5
298.062	79.5
298.292	93.5
298.523	85.5
298.753	86.5
298.984	76.5
299.214	93.5
299.445	108.5
299.675	87.5
299.905	94.5
300.136	76.5
300.366	78.5
300.597	86.5
300.827	88.5
301.057	83.5
301.288	86.5
301.518	90.5
301.748	84.5
301.979	88.5
302.209	94.5
302.439	81.5
302.669	65.5
302.9	89.5
303.13	86.5
303.36	88.5
303.59	88.5
303.82	88.5
304.051	90.5
304.281	82.5
304.511	96.5
304.741	92.5
304.971	84.5
305.201	90.5
305.431	75.5
305.661	91.5
305.891	85.5
306.121	63.5
306.352	83.5
306.582	85.5
306.812	78.5
307.042	87.5
307.272	75.5
307.502	87.5
307.731	87.5
307.961	93.5
308.191	84.5
308.421	85.5
308.651	91.5
308.881	89.5
309.111	84.5
309.341	79.5
309.571	90.5
309.8	86.5
310.03	77.5
310.26	75.5
310.49	95.5
310.72	81.5
310.949	83.5
311.179	90.5
311.409	96.5
311.639	81.5
311.868	74.5
312.098	88.5
312.328	91.5
312.557	92.5
312.787	88.5
313.017	93.5
313.246	88.5
313.476	73.5
313.706	78.5
313.935	86.5
314.165	77.5
314.394	98.5
314.624	80.5
314.853	91.5
315.083	99.5
315.312	69.5
315.542	90.5
315.771	100.5
316.001	87.5
316.23	80.5
316.46	98.5
316.689	89.5
316.919	84.5
317.148	79.5
317.377	92.5
317.607	92.5
317.836	100.5
318.065	99.5
318.295	61.5
318.524	80.5
318.753	87.5
318.983	72.5
319.212	84.5
319.441	74.5
319.67	75.5
319.9	80.5
320.129	83.5
320.358	85.5
320.587	87.5
320.816	91.5
321.046	95.5
321.275	96.5
321.504	85.5
321.733	95.5
321.962	93.5
322.191	92.5
322.42	96.5
322.649	79.5
322.878	84.5
323.108	90.5
323.337	89.5
323.566	85.5
323.795	83.5
324.024	102.5
324.253	84.5
324.482	97.5
324.71	83.5
324.939	93.5
325.168	80.5
325.397	86.5
325.626	82.5
325.855	93.5
326.084	75.5
326.313	83.5
326.542	94.5
326.77	95.5
326.999	91.5
327.228	87.5
327.457	88.5
327.686	78.5
327.914	93.5
328.143	78.5
328.372	78.5
328.6	88.5
328.829	90.5
329.058	80.5
329.287	76.5
329.515	79.5
329.744	92.5
329.972	103.5
330.201	107.5
330.43	99.5
330.658	81.5
330.887	75.5
331.115	80.5
331.344	94.5
331.572	69.5
331.801	76.5
332.03	87.5
332.258	85.5
332.486	85.5
332.715	82.5
332.943	86.5
333.172	81.5
333.4	84.5
333.629	78.5
333.857	80.5
334.085	92.5
334.314	87.5
334.542	80.5
334.771	70.5
334.999	80.5
335.227	75.5
335.455	78.5
335.684	99.5
335.912	76.5
336.14	95.5
336.369	87.5
336.597	87.5
336.825	86.5
337.053	82.5
337.281	71.5
337.51	81.5
337.738	76.5
337.966	86.5
338.194	82.5
338.422	92.5
338.65	88.5
338.878	83.5
339.106	85.5
339.334	77.5
339.562	88.5
339.79	99.5
340.018	80.5
340.246	94.5
340.474	97.5
340.702	77.5
340.93	99.5
341.158	87.5
341.386	81.5
341.614	90.5
341.842	97.5
342.07	79.5
342.298	83.5
342.526	86.5
342.754	85.5
342.981	83.5
343.209	93.5
343.437	103.5
343.665	84.5
343.893	83.5
344.12	108.5
344.348	87.5
344.576	106.5
344.804	117.5
345.031	84.5
345.259	103.5
345.487	83.5
345.714	87.5
345.942	77.5
346.17	74.5
346.397	93.5
346.625	88.5
346.853	90.5
347.08	76.5
347.308	85.5
347.535	89.5
347.763	94.5
347.99	99.5
348.218	83.5
348.445	77.5
348.673	84.5
348.9	91.5
349.128	97.5
349.355	84.5
349.583	75.5
349.81	89.5
350.037	95.5
350.265	95.5
350.492	65.5
350.72	92.5
350.947	83.5
351.174	88.5
351.402	83.5
351.629	87.5
351.856	78.5
352.083	61.5
352.311	89.5
352.538	89.5
352.765	89.5
352.992	90.5
353.22	84.5
353.447	100.5
353.674	92.5
353.901	82.5
354.128	80.5
354.355	99.5
354.583	79.5
354.81	87.5
355.037	81.5
355.264	84.5
355.491	86.5
355.718	83.5
355.945	85.5
356.172	87.5
356.399	78.5
356.626	92.5
356.853	94.5
357.08	83.5
357.307	82.5
357.534	88.5
357.761	80.5
357.988	92.5
358.215	80.5
358.441	79.5
358.668	83.5
358.895	104.5
359.122	78.5
359.349	75.5
359.576	87.5
359.802	76.5
360.029	90.5
360.256	86.5
360.483	71.5
360.709	84.5
360.936	96.5
361.163	85.5
361.39	90.5
361.616	89.5
361.843	75.5
362.07	85.5
362.296	77.5
362.523	80.5
362.749	95.5
362.976	91.5
363.203	101.5
363.429	91.5
363.656	84.5
363.882	78.5
364.109	81.5
364.335	89.5
364.562	78.5
364.788	96.5
365.015	111.5
365.241	85.5
365.468	91.5
365.694	83.5
365.92	86.5
366.147	75.5
366.373	85.5
366.599	87.5
366.826	84.5
367.052	78.5
367.278	81.5
367.505	93.5
367.731	86.5
367.957	95.5
368.184	103.5
368.41	75.5
368.636	83.5
368.862	86.5
369.089	94.5
369.315	81.5
369.541	70.5
369.767	79.5
369.993	84.5
370.219	64.5
370.445	80.5
370.672	96.5
370.898	84.5
371.124	89.5
371.35	77.5
371.576	106.5
371.802	95.5
372.028	81.5
372.254	89.5
372.48	84.5
372.706	77.5
372.932	96.5
373.158	81.5
373.384	74.5
373.61	80.5
373.835	83.5
374.061	81.5
374.287	86.5
374.513	101.5
374.739	87.5
374.965	94.5
375.191	86.5
375.416	76.5
375.642	78.5
375.868	84.5
376.094	87.5
376.319	81.5
376.545	91.5
376.771	100.5
376.997	83.5
377.222	85.5
377.448	88.5
377.674	92.5
377.899	77.5
378.125	86.5
378.35	80.5
378.576	89.5
378.802	81.5
379.027	85.5
379.253	95.5
379.478	88.5
379.704	92.5
379.929	86.5
380.155	79.5
380.38	88.5
380.606	92.5
380.831	87.5
381.057	85.5
381.282	84.5
381.507	73.5
381.733	81.5
381.958	71.5
382.184	88.5
382.409	87.5
382.634	77.5
382.86	87.5
383.085	95.5
383.31	89.5
383.535	72.5
383.761	74.5
383.986	81.5
384.211	85.5
384.436	88.5
384.662	93.5
384.887	84.5
385.112	77.5
385.337	95.5
385.562	86.5
385.787	83.5
386.013	91.5
386.238	84.5
386.463	77.5
386.688	86.5
386.913	89.5
387.138	80.5
387.363	79.5
387.588	88.5
387.813	87.5
388.038	81.5
388.263	80.5
388.488	78.5
388.713	95.5
388.938	88.5
389.163	94.5
389.387	111.5
389.612	82.5
389.837	86.5
390.062	70.5
390.287	82.5
390.512	83.5
390.736	89.5
390.961	86.5
391.186	86.5
391.411	68.5
391.636	85.5
391.86	92.5
392.085	91.5
392.31	79.5
392.534	79.5
392.759	87.5
392.984	92.5
393.208	93.5
393.433	77.5
393.658	78.5
393.882	79.5
394.107	82.5
394.331	80.5
394.556	70.5
394.78	71.5
395.005	78.5
395.229	84.5
395.454	85.5
395.678	83.5
395.903	87.5
396.127	78.5
396.352	75.5
396.576	87.5
396.801	88.5
397.025	79.5
397.249	80.5
397.474	94.5
397.698	87.5
397.922	83.5
398.147	91.5
398.371	75.5
398.595	80.5
398.82	105.5
399.044	87.5
399.268	75.5
399.492	87.5
399.717	80.5
399.941	86.5
400.165	95.5
400.389	94.5
400.613	83.5
400.837	87.5
401.062	84.5
401.286	73.5
401.51	110.5
401.734	89.5
401.958	87.5
402.182	83.5
402.406	100.5
402.63	89.5
402.854	97.5
403.078	91.5
403.302	95.5
403.526	111.5
403.75	99.5
403.974	109.5
404.198	201.5
404.422	339.5
404.645	394.5
404.869	311.5
405.093	191.5
405.317	96.5
405.541	100.5
405.765	95.5
405.988	80.5
406.212	73.5
406.436	92.5
406.66	89.5
406.883	83.5
407.107	89.5
407.331	93.5
407.555	107.5
407.778	92.5
408.002	86.5
408.226	89.5
408.449	87.5
408.673	84.5
408.896	81.5
409.12	79.5
409.344	94.5
409.567	80.5
409.791	83.5
410.014	85.5
410.238	92.5
410.461	72.5
410.685	89.5
410.908	77.5
411.132	89.5
411.355	88.5
411.578	88.5
411.802	78.5
412.025	86.5
412.249	83.5
412.472	68.5
412.695	93.5
412.919	95.5
413.142	85.5
413.365	80.5
413.589	97.5
413.812	78.5
414.035	89.5
414.258	82.5
414.482	79.5
414.705	88.5
414.928	103.5
415.151	91.5
415.374	91.5
415.597	87.5
415.821	79.5
416.044	92.5
416.267	90.5
416.49	87.5
416.713	91.5
416.936	77.5
417.159	84.5
417.382	80.5
417.605	88.5
417.828	89.5
418.051	86.5
418.274	85.5
418.497	90.5
418.72	93.5
418.943	107.5
419.166	81.5
419.389	87.5
419.611	103.5
419.834	86.5
420.057	66.5
420.28	83.5
420.503	97.5
420.726	78.5
420.948	84.5
421.171	91.5
421.394	85.5
421.617	81.5
421.839	76.5
422.062	75.5
422.285	72.5
422.507	82.5
422.73	79.5
422.953	99.5
423.175	102.5
423.398	95.5
423.621	102.5
423.843	83.5
424.066	90.5
424.288	85.5
424.511	102.5
424.733	83.5
424.956	81.5
425.178	99.5
425.401	87.5
425.623	89.5
425.846	96.5
426.068	79.5
426.291	88.5
426.513	73.5
426.735	101.5
426.958	84.5
427.18	91.5
427.402	81.5
427.625	85.5
427.847	97.5
428.069	88.5
428.292	90.5
428.514	84.5
428.736	83.5
428.958	81.5
429.181	81.5
429.403	88.5
429.625	87.5
429.847	88.5
430.069	87.5
430.292	88.5
430.514	92.5
430.736	102.5
430.958	85.5
431.18	92.5
431.402	75.5
431.624	101.5
431.846	93.5
432.068	89.5
432.29	84.5
432.512	76.5
432.734	87.5
432.956	78.5
433.178	88.5
433.4	86.5
433.622	89.5
433.844	83.5
434.066	91.5
434.287	76.5
434.509	80.5
434.731	91.5
434.953	75.5
435.175	91.5
435.397	95.5
435.618	88.5
435.84	60.5
436.062	79.5
436.284	95.5
436.505	85.5
436.727	91.5
436.949	81.5
437.17	78.5
437.392	94.5
437.614	91.5
437.835	91.5
438.057	84.5
438.278	86.5
438.5	74.5
438.721	79.5
438.943	75.5
439.165	96.5
439.386	88.5
439.608	101.5
439.829	87.5
440.05	87.5
440.272	94.5
440.493	84.5
440.715	81.5
440.936	84.5
441.158	90.5
441.379	83.5
441.6	83.5
441.822	89.5
442.043	86.5
442.264	83.5
442.486	85.5
442.707	68.5
442.928	72.5
443.149	84.5
443.371	81.5
443.592	103.5
443.813	83.5
444.034	92.5
444.255	67.5
444.476	100.5
444.698	84.5
444.919	83.5
445.14	167.5
445.361	120.5
445.582	96.5
445.803	83.5
446.024	90.5
446.245	79.5
446.466	77.5
446.687	78.5
446.908	86.5
447.129	90.5
447.35	93.5
447.571	97.5
447.792	91.5
448.013	91.5
448.234	106.5
448.455	80.5
448.675	87.5
448.896	89.5
449.117	96.5
449.338	86.5
449.559	81.5
449.779	75.5
450	85.5
450.221	90.5
450.442	80.5
450.662	83.5
450.883	88.5
451.104	109.5
451.324	95.5
451.545	87.5
451.766	67.5
451.986	84.5
452.207	85.5
452.428	83.5
452.648	69.5
452.869	96.5
453.089	91.5
453.31	87.5
453.53	82.5
453.751	88.5
453.971	78.5
454.192	105.5
454.412	75.5
454.633	87.5
454.853	88.5
455.073	88.5
455.294	99.5
455.514	88.5
455.734	76.5
455.955	80.5
456.175	90.5
456.395	79.5
456.616	76.5
456.836	85.5
457.056	91.5
457.276	92.5
457.497	86.5
457.717	95.5
457.937	78.5
458.157	73.5
458.377	75.5
458.598	94.5
458.818	64.5
459.038	77.5
459.258	79.5
459.478	84.5
459.698	83.5
459.918	79.5
460.138	81.5
460.358	80.5
460.578	103.5
460.798	90.5
461.018	82.5
461.238	90.5
461.458	82.5
461.678	95.5
461.898	100.5
462.118	91.5
462.338	88.5
462.558	89.5
462.777	87.5
462.997	81.5
463.217	90.5
463.437	91.5
463.657	71.5
463.876	80.5
464.096	100.5
464.316	85.5
464.536	99.5
464.755	105.5
464.975	101.5
465.195	102.5
465.414	97.5
465.634	95.5
465.854	94.5
466.073	87.5
466.293	69.5
466.512	78.5
466.732	91.5
466.951	99.5
467.171	95.5
467.391	83.5
467.61	83.5
467.829	80.5
468.049	88.5
468.268	106.5
468.488	103.5
468.707	87.5
468.927	95.5
469.146	77.5
469.365	88.5
469.585	90.5
469.804	83.5
470.023	81.5
470.243	80.5
470.462	86.5
470.681	95.5
470.901	91.5
471.12	81.5
471.339	90.5
471.558	77.5
471.777	76.5
471.997	76.5
472.216	78.5
472.435	91.5
472.654	90.5
472.873	99.5
473.092	89.5
473.311	79.5
473.53	89.5
473.749	97.5
473.968	97.5
474.187	68.5
474.406	75.5
474.625	90.5
474.844	96.5
475.063	85.5
475.282	85.5
475.501	91.5
475.72	86.5
475.939	91.5
476.158	96.5
476.377	84.5
476.596	78.5
476.814	103.5
477.033	89.5
477.252	80.5
477.471	87.5
477.69	91.5
477.908	89.5
478.127	77.5
478.346	72.5
478.564	93.5
478.783	86.5
479.002	101.5
479.22	83.5
479.439	81.5
479.658	80.5
479.876	80.5
480.095	83.5
480.313	91.5
480.532	74.5
480.751	76.5
480.969	95.5
481.188	88.5
481.406	93.5
481.624	102.5
481.843	96.5
482.061	94.5
482.28	93.5
482.498	89.5
482.717	86.5
482.935	86.5
483.153	83.5
483.372	92.5
483.59	108.5
483.808	93.5
484.027	89.5
484.245	92.5
484.463	93.5
484.681	103.5
484.9	94.5
485.118	108.5
485.336	91.5
485.554	96.5
485.772	85.5
485.99	103.5
486.209	89.5
486.427	92.5
486.645	84.5
486.863	94.5
487.081	92.5
487.299	89.5
487.517	96.5
487.735	90.5
487.953	79.5
488.171	104.5
488.389	93.5
488.607	85.5
488.825	79.5
489.043	96.5
489.261	94.5
489.479	82.5
489.696	80.5
489.914	77.5
490.132	101.5
490.35	96.5
490.568	90.5
490.786	97.5
491.003	104.5
491.221	101.5
491.439	81.5
491.657	95.5
491.874	96.5
492.092	101.5
492.31	105.5
492.527	92.5
492.745	85.5
492.963	89.5
493.18	99.5
493.398	101.5
493.615	95.5
493.833	101.5
494.05	103.5
494.268	106.5
494.485	100.5
494.703	102.5
494.92	96.5
495.138	95.5
495.355	105.5
495.573	93.5
495.79	98.5
496.008	106.5
496.225	107.5
496.442	103.5
496.66	101.5
496.877	93.5
497.094	87.5
497.312	88.5
497.529	100.5
497.746	81.5
497.963	89.5
498.181	89.5
498.398	87.5
498.615	86.5
498.832	91.5
499.049	90.5
499.267	91.5
499.484	88.5
499.701	78.5
499.918	91.5
500.135	104.5
500.352	92.5
500.569	101.5
500.786	91.5
501.003	89.5
501.22	100.5
501.437	90.5
501.654	85.5
501.871	95.5
502.088	99.5
502.305	104.5
502.522	99.5
502.739	99.5
502.956	85.5
503.172	91.5
503.389	84.5
503.606	81.5
503.823	94.5
504.04	100.5
504.256	93.5
504.473	103.5
504.69	105.5
504.907	94.5
505.123	103.5
505.34	101.5
505.557	81.5
505.773	96.5
505.99	82.5
506.207	75.5
506.423	93.5
506.64	94.5
506.856	94.5
507.073	94.5
507.289	85.5
507.506	84.5
507.722	95.5
507.939	105.5
508.155	86.5
508.372	92.5
508.588	91.5
508.805	96.5
509.021	113.5
509.238	92.5
509.454	102.5
509.67	107.5
509.887	97.5
510.103	89.5
510.319	110.5
510.536	92.5
510.752	103.5
510.968	103.5
511.184	94.5
511.401	95.5
511.617	105.5
511.833	107.5
512.049	109.5
512.265	105.5
512.481	90.5
512.698	102.5
512.914	92.5
513.13	97.5
513.346	93.5
513.562	94.5
513.778	100.5
513.994	93.5
514.21	79.5
514.426	84.5
514.642	78.5
514.858	103.5
515.074	91.5
515.29	94.5
515.506	87.5
515.721	99.5
515.937	88.5
516.153	88.5
516.369	93.5
516.585	69.5
516.801	69.5
517.016	87.5
517.232	86.5
517.448	72.5
517.664	80.5
517.879	94.5
518.095	88.5
518.311	81.5
518.527	82.5
518.742	94.5
518.958	86.5
519.173	87.5
519.389	79.5
519.605	103.5
519.82	91.5
520.036	90.5
520.251	94.5
520.467	89.5
520.682	84.5
520.898	80.5
521.113	86.5
521.329	87.5
521.544	95.5
521.76	94.5
521.975	83.5
522.19	88.5
522.406	99.5
522.621	77.5
522.836	106.5
523.052	88.5
523.267	90.5
523.482	86.5
523.698	73.5
523.913	83.5
524.128	90.5
524.343	84.5
524.559	92.5
524.774	88.5
524.989	86.5
525.204	88.5
525.419	83.5
525.634	105.5
525.849	81.5
526.064	88.5
526.28	99.5
526.495	88.5
526.71	91.5
526.925	87.5
527.14	83.5
527.355	91.5
527.57	95.5
527.785	107.5
527.999	92.5
528.214	96.5
528.429	103.5
528.644	94.5
528.859	90.5
529.074	92.5
529.289	78.5
529.503	79.5
529.718	90.5
529.933	91.5
530.148	87.5
530.363	85.5
530.577	87.5
530.792	86.5
531.007	97.5
531.221	90.5
531.436	94.5
531.651	96.5
531.865	90.5
532.08	96.5
532.295	106.5
532.509	105.5
532.724	109.5
532.938	108.5
533.153	92.5
533.367	97.5
533.582	103.5
533.796	90.5
534.011	115.5
534.225	124.5
534.44	132.5
534.654	135.5
534.868	121.5
535.083	119.5
535.297	94.5
535.511	126.5
535.726	104.5
535.94	111.5
536.154	125.5
536.369	124.5
536.583	121.5
536.797	113.5
537.011	89.5
537.225	105.5
537.44	91.5
537.654	96.5
537.868	80.5
538.082	98.5
538.296	103.5
538.51	77.5
538.724	96.5
