Data from KBr_2_HRD10591_00035.txt Node
Date: Mon Jan 19 13:13:08 EST 2026
User: Yrep
Spectrometer: HR+D1059
Trigger mode: 1
Integration Time (sec): 1.000000E-1
Scans to average: 1
Electric dark correction enabled: true
Nonlinearity correction enabled: false
Boxcar width: 0
XAxis mode: Wavelengths
Number of Pixels in Spectrum: 2048
>>>>>Begin Spectral Data<<<<<
223.165	-5.81
223.4	-5.81
223.635	-5.81
223.869	-24.81
224.104	-13.81
224.338	-7.81
224.573	-19.81
224.808	-17.81
225.042	-22.81
225.277	-16.81
225.511	-5.81
225.746	8.19
225.98	8.19
226.215	13.19
226.449	18.19
226.683	8.19
226.918	39.19
227.152	40.19
227.387	41.19
227.621	39.19
227.856	38.19
228.09	32.19
228.324	32.19
228.559	38.19
228.793	46.19
229.027	53.19
229.262	76.19
229.496	60.19
229.73	70.19
229.964	71.19
230.199	68.19
230.433	76.19
230.667	69.19
230.901	69.19
231.136	88.19
231.37	80.19
231.604	69.19
231.838	82.19
232.072	80.19
232.306	74.19
232.541	68.19
232.775	70.19
233.009	80.19
233.243	72.19
233.477	77.19
233.711	87.19
233.945	70.19
234.179	80.19
234.413	73.19
234.647	72.19
234.881	81.19
235.115	75.19
235.349	80.19
235.583	63.19
235.817	86.19
236.051	88.19
236.285	71.19
236.519	68.19
236.753	74.19
236.987	79.19
237.221	75.19
237.455	72.19
237.689	80.19
237.922	65.19
238.156	65.19
238.39	76.19
238.624	74.19
238.858	76.19
239.091	74.19
239.325	71.19
239.559	68.19
239.793	79.19
240.027	77.19
240.26	70.19
240.494	62.19
240.728	65.19
240.961	66.19
241.195	69.19
241.429	66.19
241.662	70.19
241.896	59.19
242.13	66.19
242.363	71.19
242.597	72.19
242.83	82.19
243.064	76.19
243.298	70.19
243.531	63.19
243.765	81.19
243.998	68.19
244.232	75.19
244.465	72.19
244.699	73.19
244.932	78.19
245.166	69.19
245.399	74.19
245.633	71.19
245.866	75.19
246.099	74.19
246.333	67.19
246.566	59.19
246.8	82.19
247.033	79.19
247.266	59.19
247.5	66.19
247.733	74.19
247.966	74.19
248.2	82.19
248.433	77.19
248.666	74.19
248.899	71.19
249.133	66.19
249.366	87.19
249.599	67.19
249.832	72.19
250.066	85.19
250.299	72.19
250.532	72.19
250.765	73.19
250.998	66.19
251.231	68.19
251.465	72.19
251.698	74.19
251.931	83.19
252.164	84.19
252.397	73.19
252.63	80.19
252.863	77.19
253.096	68.19
253.329	66.19
253.562	74.19
253.795	82.19
254.028	75.19
254.261	68.19
254.494	78.19
254.727	86.19
254.96	81.19
255.193	66.19
255.426	62.19
255.659	66.19
255.892	68.19
256.124	63.19
256.357	73.19
256.59	83.19
256.823	71.19
257.056	74.19
257.289	68.19
257.521	74.19
257.754	78.19
257.987	84.19
258.22	76.19
258.452	93.19
258.685	74.19
258.918	73.19
259.151	83.19
259.383	88.19
259.616	79.19
259.849	84.19
260.081	77.19
260.314	56.19
260.547	69.19
260.779	70.19
261.012	65.19
261.244	81.19
261.477	97.19
261.71	84.19
261.942	64.19
262.175	73.19
262.407	74.19
262.64	89.19
262.872	92.19
263.105	63.19
263.337	73.19
263.57	80.19
263.802	75.19
264.035	76.19
264.267	83.19
264.499	71.19
264.732	88.19
264.964	81.19
265.197	97.19
265.429	78.19
265.661	79.19
265.894	77.19
266.126	72.19
266.358	80.19
266.591	74.19
266.823	74.19
267.055	69.19
267.287	66.19
267.52	73.19
267.752	89.19
267.984	73.19
268.216	66.19
268.448	75.19
268.681	74.19
268.913	66.19
269.145	81.19
269.377	69.19
269.609	66.19
269.841	94.19
270.073	89.19
270.306	84.19
270.538	82.19
270.77	65.19
271.002	73.19
271.234	96.19
271.466	87.19
271.698	68.19
271.93	72.19
272.162	83.19
272.394	87.19
272.626	62.19
272.858	60.19
273.09	67.19
273.322	74.19
273.553	81.19
273.785	82.19
274.017	80.19
274.249	67.19
274.481	85.19
274.713	95.19
274.945	78.19
275.176	74.19
275.408	79.19
275.64	72.19
275.872	75.19
276.104	78.19
276.335	84.19
276.567	74.19
276.799	69.19
277.031	79.19
277.262	80.19
277.494	66.19
277.726	85.19
277.957	74.19
278.189	83.19
278.421	81.19
278.652	87.19
278.884	94.19
279.115	86.19
279.347	72.19
279.579	72.19
279.81	78.19
280.042	77.19
280.273	86.19
280.505	80.19
280.736	76.19
280.968	85.19
281.199	78.19
281.431	98.19
281.662	80.19
281.894	94.19
282.125	67.19
282.356	85.19
282.588	79.19
282.819	82.19
283.051	81.19
283.282	84.19
283.513	84.19
283.745	89.19
283.976	88.19
284.207	69.19
284.439	89.19
284.67	80.19
284.901	83.19
285.132	73.19
285.364	77.19
285.595	70.19
285.826	73.19
286.057	80.19
286.288	84.19
286.52	80.19
286.751	76.19
286.982	73.19
287.213	88.19
287.444	65.19
287.675	83.19
287.906	101.19
288.138	78.19
288.369	73.19
288.6	82.19
288.831	82.19
289.062	75.19
289.293	82.19
289.524	76.19
289.755	98.19
289.986	80.19
290.217	90.19
290.448	81.19
290.679	76.19
290.91	81.19
291.141	68.19
291.371	68.19
291.602	88.19
291.833	106.19
292.064	88.19
292.295	67.19
292.526	78.19
292.757	76.19
292.987	87.19
293.218	78.19
293.449	70.19
293.68	73.19
293.91	75.19
294.141	70.19
294.372	62.19
294.603	90.19
294.833	81.19
295.064	74.19
295.295	86.19
295.525	74.19
295.756	76.19
295.987	67.19
296.217	93.19
296.448	94.19
296.679	84.19
296.909	80.19
297.14	76.19
297.37	80.19
297.601	84.19
297.831	58.19
298.062	78.19
298.292	70.19
298.523	87.19
298.753	81.19
298.984	78.19
299.214	72.19
299.445	80.19
299.675	76.19
299.905	77.19
300.136	76.19
300.366	84.19
300.597	68.19
300.827	82.19
301.057	70.19
301.288	90.19
301.518	81.19
301.748	86.19
301.979	95.19
302.209	91.19
302.439	78.19
302.669	75.19
302.9	82.19
303.13	79.19
303.36	80.19
303.59	91.19
303.82	84.19
304.051	83.19
304.281	80.19
304.511	81.19
304.741	92.19
304.971	74.19
305.201	90.19
305.431	89.19
305.661	79.19
305.891	85.19
306.121	70.19
306.352	96.19
306.582	79.19
306.812	83.19
307.042	77.19
307.272	93.19
307.502	93.19
307.731	72.19
307.961	80.19
308.191	80.19
308.421	74.19
308.651	73.19
308.881	73.19
309.111	89.19
309.341	88.19
309.571	78.19
309.8	73.19
310.03	82.19
310.26	65.19
310.49	83.19
310.72	84.19
310.949	89.19
311.179	87.19
311.409	81.19
311.639	75.19
311.868	66.19
312.098	82.19
312.328	83.19
312.557	86.19
312.787	65.19
313.017	82.19
313.246	84.19
313.476	88.19
313.706	78.19
313.935	72.19
314.165	94.19
314.394	75.19
314.624	74.19
314.853	73.19
315.083	81.19
315.312	72.19
315.542	88.19
315.771	81.19
316.001	93.19
316.23	82.19
316.46	69.19
316.689	82.19
316.919	90.19
317.148	74.19
317.377	86.19
317.607	81.19
317.836	85.19
318.065	66.19
318.295	77.19
318.524	77.19
318.753	78.19
318.983	72.19
319.212	86.19
319.441	70.19
319.67	84.19
319.9	70.19
320.129	78.19
320.358	88.19
320.587	81.19
320.816	85.19
321.046	85.19
321.275	71.19
321.504	72.19
321.733	98.19
321.962	77.19
322.191	79.19
322.42	78.19
322.649	81.19
322.878	92.19
323.108	74.19
323.337	80.19
323.566	78.19
323.795	74.19
324.024	81.19
324.253	86.19
324.482	90.19
324.71	83.19
324.939	95.19
325.168	88.19
325.397	82.19
325.626	78.19
325.855	90.19
326.084	88.19
326.313	81.19
326.542	76.19
326.77	72.19
326.999	82.19
327.228	80.19
327.457	83.19
327.686	98.19
327.914	73.19
328.143	80.19
328.372	75.19
328.6	81.19
328.829	80.19
329.058	92.19
329.287	90.19
329.515	80.19
329.744	87.19
329.972	94.19
330.201	82.19
330.43	88.19
330.658	77.19
330.887	54.19
331.115	86.19
331.344	86.19
331.572	89.19
331.801	84.19
332.03	94.19
332.258	89.19
332.486	91.19
332.715	76.19
332.943	88.19
333.172	79.19
333.4	84.19
333.629	90.19
333.857	89.19
334.085	85.19
334.314	84.19
334.542	66.19
334.771	72.19
334.999	63.19
335.227	86.19
335.455	78.19
335.684	88.19
335.912	85.19
336.14	90.19
336.369	78.19
336.597	77.19
336.825	88.19
337.053	81.19
337.281	70.19
337.51	73.19
337.738	88.19
337.966	87.19
338.194	84.19
338.422	72.19
338.65	91.19
338.878	72.19
339.106	61.19
339.334	88.19
339.562	73.19
339.79	78.19
340.018	81.19
340.246	74.19
340.474	79.19
340.702	93.19
340.93	75.19
341.158	87.19
341.386	91.19
341.614	83.19
341.842	83.19
342.07	75.19
342.298	76.19
342.526	75.19
342.754	70.19
342.981	72.19
343.209	70.19
343.437	102.19
343.665	74.19
343.893	85.19
344.12	85.19
344.348	92.19
344.576	94.19
344.804	82.19
345.031	86.19
345.259	76.19
345.487	73.19
345.714	76.19
345.942	88.19
346.17	81.19
346.397	73.19
346.625	72.19
346.853	84.19
347.08	75.19
347.308	74.19
347.535	75.19
347.763	71.19
347.99	83.19
348.218	90.19
348.445	76.19
348.673	74.19
348.9	89.19
349.128	84.19
349.355	82.19
349.583	69.19
349.81	78.19
350.037	74.19
350.265	90.19
350.492	75.19
350.72	84.19
350.947	76.19
351.174	76.19
351.402	71.19
351.629	76.19
351.856	76.19
352.083	85.19
352.311	94.19
352.538	93.19
352.765	86.19
352.992	98.19
353.22	101.19
353.447	77.19
353.674	84.19
353.901	83.19
354.128	81.19
354.355	90.19
354.583	87.19
354.81	86.19
355.037	86.19
355.264	86.19
355.491	70.19
355.718	81.19
355.945	74.19
356.172	78.19
356.399	90.19
356.626	73.19
356.853	76.19
357.08	73.19
357.307	87.19
357.534	80.19
357.761	89.19
357.988	89.19
358.215	82.19
358.441	90.19
358.668	90.19
358.895	92.19
359.122	75.19
359.349	83.19
359.576	71.19
359.802	72.19
360.029	82.19
360.256	66.19
360.483	85.19
360.709	85.19
360.936	88.19
361.163	80.19
361.39	85.19
361.616	74.19
361.843	71.19
362.07	80.19
362.296	79.19
362.523	68.19
362.749	69.19
362.976	96.19
363.203	90.19
363.429	88.19
363.656	88.19
363.882	99.19
364.109	77.19
364.335	83.19
364.562	78.19
364.788	64.19
365.015	77.19
365.241	80.19
365.468	85.19
365.694	85.19
365.92	90.19
366.147	83.19
366.373	84.19
366.599	85.19
366.826	83.19
367.052	68.19
367.278	83.19
367.505	63.19
367.731	76.19
367.957	81.19
368.184	89.19
368.41	87.19
368.636	74.19
368.862	76.19
369.089	89.19
369.315	76.19
369.541	71.19
369.767	72.19
369.993	69.19
370.219	75.19
370.445	91.19
370.672	78.19
370.898	74.19
371.124	81.19
371.35	68.19
371.576	73.19
371.802	81.19
372.028	73.19
372.254	84.19
372.48	78.19
372.706	86.19
372.932	100.19
373.158	78.19
373.384	75.19
373.61	94.19
373.835	81.19
374.061	82.19
374.287	87.19
374.513	84.19
374.739	81.19
374.965	80.19
375.191	76.19
375.416	70.19
375.642	88.19
375.868	75.19
376.094	68.19
376.319	69.19
376.545	72.19
376.771	66.19
376.997	93.19
377.222	85.19
377.448	97.19
377.674	85.19
377.899	77.19
378.125	73.19
378.35	69.19
378.576	72.19
378.802	87.19
379.027	85.19
379.253	80.19
379.478	82.19
379.704	75.19
379.929	76.19
380.155	86.19
380.38	70.19
380.606	70.19
380.831	98.19
381.057	75.19
381.282	85.19
381.507	75.19
381.733	80.19
381.958	80.19
382.184	75.19
382.409	72.19
382.634	82.19
382.86	90.19
383.085	84.19
383.31	80.19
383.535	87.19
383.761	87.19
383.986	84.19
384.211	79.19
384.436	71.19
384.662	80.19
384.887	83.19
385.112	92.19
385.337	88.19
385.562	74.19
385.787	67.19
386.013	85.19
386.238	90.19
386.463	83.19
386.688	62.19
386.913	99.19
387.138	80.19
387.363	79.19
387.588	85.19
387.813	61.19
388.038	82.19
388.263	84.19
388.488	85.19
388.713	80.19
388.938	65.19
389.163	61.19
389.387	83.19
389.612	89.19
389.837	88.19
390.062	96.19
390.287	90.19
390.512	83.19
390.736	69.19
390.961	86.19
391.186	80.19
391.411	73.19
391.636	67.19
391.86	87.19
392.085	85.19
392.31	86.19
392.534	84.19
392.759	84.19
392.984	84.19
393.208	70.19
393.433	79.19
393.658	80.19
393.882	84.19
394.107	72.19
394.331	73.19
394.556	92.19
394.78	79.19
395.005	79.19
395.229	75.19
395.454	76.19
395.678	87.19
395.903	88.19
396.127	78.19
396.352	85.19
396.576	77.19
396.801	85.19
397.025	75.19
397.249	81.19
397.474	99.19
397.698	95.19
397.922	81.19
398.147	80.19
398.371	76.19
398.595	69.19
398.82	70.19
399.044	71.19
399.268	90.19
399.492	73.19
399.717	83.19
399.941	68.19
400.165	73.19
400.389	78.19
400.613	90.19
400.837	80.19
401.062	97.19
401.286	85.19
401.51	74.19
401.734	79.19
401.958	82.19
402.182	77.19
402.406	74.19
402.63	84.19
402.854	72.19
403.078	86.19
403.302	92.19
403.526	97.19
403.75	83.19
403.974	85.19
404.198	118.19
404.422	150.19
404.645	161.19
404.869	138.19
405.093	108.19
405.317	87.19
405.541	85.19
405.765	107.19
405.988	79.19
406.212	80.19
406.436	77.19
406.66	84.19
406.883	74.19
407.107	94.19
407.331	77.19
407.555	77.19
407.778	77.19
408.002	83.19
408.226	78.19
408.449	82.19
408.673	92.19
408.896	85.19
409.12	91.19
409.344	73.19
409.567	93.19
409.791	80.19
410.014	89.19
410.238	72.19
410.461	79.19
410.685	85.19
410.908	85.19
411.132	84.19
411.355	90.19
411.578	89.19
411.802	88.19
412.025	81.19
412.249	86.19
412.472	72.19
412.695	78.19
412.919	71.19
413.142	84.19
413.365	76.19
413.589	91.19
413.812	80.19
414.035	85.19
414.258	73.19
414.482	62.19
414.705	71.19
414.928	76.19
415.151	89.19
415.374	87.19
415.597	92.19
415.821	80.19
416.044	85.19
416.267	76.19
416.49	66.19
416.713	83.19
416.936	93.19
417.159	82.19
417.382	78.19
417.605	74.19
417.828	84.19
418.051	71.19
418.274	68.19
418.497	85.19
418.72	80.19
418.943	83.19
419.166	93.19
419.389	74.19
419.611	78.19
419.834	90.19
420.057	73.19
420.28	78.19
420.503	78.19
420.726	77.19
420.948	86.19
421.171	82.19
421.394	73.19
421.617	89.19
421.839	92.19
422.062	81.19
422.285	82.19
422.507	90.19
422.73	75.19
422.953	71.19
423.175	72.19
423.398	81.19
423.621	90.19
423.843	79.19
424.066	90.19
424.288	69.19
424.511	69.19
424.733	78.19
424.956	69.19
425.178	78.19
425.401	77.19
425.623	79.19
425.846	84.19
426.068	78.19
426.291	72.19
426.513	82.19
426.735	83.19
426.958	83.19
427.18	97.19
427.402	77.19
427.625	80.19
427.847	81.19
428.069	88.19
428.292	76.19
428.514	69.19
428.736	78.19
428.958	68.19
429.181	99.19
429.403	83.19
429.625	73.19
429.847	71.19
430.069	68.19
430.292	82.19
430.514	80.19
430.736	78.19
430.958	74.19
431.18	71.19
431.402	101.19
431.624	87.19
431.846	80.19
432.068	82.19
432.29	82.19
432.512	78.19
432.734	83.19
432.956	80.19
433.178	81.19
433.4	85.19
433.622	84.19
433.844	101.19
434.066	87.19
434.287	78.19
434.509	86.19
434.731	87.19
434.953	86.19
435.175	82.19
435.397	85.19
435.618	89.19
435.84	84.19
436.062	100.19
436.284	75.19
436.505	76.19
436.727	68.19
436.949	78.19
437.17	83.19
437.392	75.19
437.614	77.19
437.835	91.19
438.057	72.19
438.278	72.19
438.5	69.19
438.721	78.19
438.943	80.19
439.165	79.19
439.386	87.19
439.608	84.19
439.829	80.19
440.05	83.19
440.272	73.19
440.493	78.19
440.715	90.19
440.936	75.19
441.158	76.19
441.379	94.19
441.6	88.19
441.822	84.19
442.043	85.19
442.264	65.19
442.486	88.19
442.707	68.19
442.928	84.19
443.149	87.19
443.371	77.19
443.592	74.19
443.813	81.19
444.034	88.19
444.255	73.19
444.476	78.19
444.698	86.19
444.919	76.19
445.14	145.19
445.361	117.19
445.582	103.19
445.803	70.19
446.024	78.19
446.245	74.19
446.466	75.19
446.687	83.19
446.908	79.19
447.129	77.19
447.35	84.19
447.571	82.19
447.792	93.19
448.013	74.19
448.234	77.19
448.455	83.19
448.675	86.19
448.896	83.19
449.117	86.19
449.338	91.19
449.559	83.19
449.779	83.19
450	78.19
450.221	71.19
450.442	78.19
450.662	94.19
450.883	89.19
451.104	83.19
451.324	81.19
451.545	77.19
451.766	87.19
451.986	68.19
452.207	91.19
452.428	70.19
452.648	74.19
452.869	77.19
453.089	83.19
453.31	75.19
453.53	67.19
453.751	83.19
453.971	78.19
454.192	86.19
454.412	66.19
454.633	68.19
454.853	62.19
455.073	77.19
455.294	73.19
455.514	74.19
455.734	89.19
455.955	65.19
456.175	91.19
456.395	79.19
456.616	83.19
456.836	78.19
457.056	64.19
457.276	84.19
457.497	78.19
457.717	84.19
457.937	77.19
458.157	88.19
458.377	86.19
458.598	70.19
458.818	84.19
459.038	74.19
459.258	85.19
459.478	76.19
459.698	80.19
459.918	84.19
460.138	80.19
460.358	70.19
460.578	73.19
460.798	93.19
461.018	90.19
461.238	67.19
461.458	65.19
461.678	96.19
461.898	84.19
462.118	85.19
462.338	88.19
462.558	76.19
462.777	73.19
462.997	80.19
463.217	72.19
463.437	91.19
463.657	81.19
463.876	84.19
464.096	84.19
464.316	84.19
464.536	77.19
464.755	72.19
464.975	83.19
465.195	76.19
465.414	81.19
465.634	86.19
465.854	80.19
466.073	74.19
466.293	97.19
466.512	74.19
466.732	70.19
466.951	85.19
467.171	86.19
467.391	84.19
467.61	95.19
467.829	81.19
468.049	84.19
468.268	83.19
468.488	72.19
468.707	84.19
468.927	76.19
469.146	73.19
469.365	78.19
469.585	80.19
469.804	84.19
470.023	76.19
470.243	82.19
470.462	80.19
470.681	89.19
470.901	80.19
471.12	84.19
471.339	80.19
471.558	71.19
471.777	77.19
471.997	79.19
472.216	70.19
472.435	70.19
472.654	68.19
472.873	72.19
473.092	73.19
473.311	83.19
473.53	74.19
473.749	66.19
473.968	71.19
474.187	74.19
474.406	75.19
474.625	75.19
474.844	72.19
475.063	85.19
475.282	85.19
475.501	92.19
475.72	88.19
475.939	83.19
476.158	80.19
476.377	79.19
476.596	76.19
476.814	75.19
477.033	73.19
477.252	80.19
477.471	78.19
477.69	77.19
477.908	70.19
478.127	79.19
478.346	86.19
478.564	79.19
478.783	86.19
479.002	76.19
479.22	74.19
479.439	82.19
479.658	81.19
479.876	82.19
480.095	83.19
480.313	85.19
480.532	85.19
480.751	86.19
480.969	81.19
481.188	73.19
481.406	77.19
481.624	89.19
481.843	78.19
482.061	80.19
482.28	75.19
482.498	80.19
482.717	70.19
482.935	100.19
483.153	76.19
483.372	110.19
483.59	83.19
483.808	70.19
484.027	89.19
484.245	64.19
484.463	72.19
484.681	85.19
484.9	87.19
485.118	80.19
485.336	83.19
485.554	74.19
485.772	77.19
485.99	71.19
486.209	78.19
486.427	77.19
486.645	72.19
486.863	92.19
487.081	77.19
487.299	86.19
487.517	76.19
487.735	79.19
487.953	92.19
488.171	67.19
488.389	62.19
488.607	70.19
488.825	91.19
489.043	62.19
489.261	84.19
489.479	85.19
489.696	81.19
489.914	72.19
490.132	90.19
490.35	88.19
490.568	83.19
490.786	74.19
491.003	76.19
491.221	86.19
491.439	90.19
491.657	74.19
491.874	102.19
492.092	87.19
492.31	86.19
492.527	102.19
492.745	79.19
492.963	84.19
493.18	86.19
493.398	91.19
493.615	94.19
493.833	97.19
494.05	89.19
494.268	92.19
494.485	80.19
494.703	84.19
494.92	93.19
495.138	88.19
495.355	88.19
495.573	76.19
495.79	89.19
496.008	94.19
496.225	90.19
496.442	89.19
496.66	77.19
496.877	89.19
497.094	98.19
497.312	85.19
497.529	87.19
497.746	79.19
497.963	82.19
498.181	88.19
498.398	77.19
498.615	86.19
498.832	81.19
499.049	80.19
499.267	78.19
499.484	96.19
499.701	84.19
499.918	81.19
500.135	72.19
500.352	76.19
500.569	70.19
500.786	89.19
501.003	76.19
501.22	90.19
501.437	81.19
501.654	84.19
501.871	67.19
502.088	76.19
502.305	91.19
502.522	66.19
502.739	84.19
502.956	85.19
503.172	80.19
503.389	81.19
503.606	84.19
503.823	94.19
504.04	90.19
504.256	77.19
504.473	89.19
504.69	77.19
504.907	83.19
505.123	82.19
505.34	85.19
505.557	80.19
505.773	90.19
505.99	71.19
506.207	75.19
506.423	77.19
506.64	70.19
506.856	85.19
507.073	72.19
507.289	82.19
507.506	86.19
507.722	83.19
507.939	77.19
508.155	76.19
508.372	88.19
508.588	80.19
508.805	94.19
509.021	77.19
509.238	84.19
509.454	74.19
509.67	86.19
509.887	81.19
510.103	92.19
510.319	88.19
510.536	87.19
510.752	86.19
510.968	83.19
511.184	68.19
511.401	82.19
511.617	100.19
511.833	82.19
512.049	95.19
512.265	84.19
512.481	78.19
512.698	89.19
512.914	78.19
513.13	90.19
513.346	68.19
513.562	89.19
513.778	80.19
513.994	71.19
514.21	84.19
514.426	74.19
514.642	82.19
514.858	75.19
515.074	80.19
515.29	83.19
515.506	71.19
515.721	66.19
515.937	84.19
516.153	69.19
516.369	72.19
516.585	66.19
516.801	86.19
517.016	77.19
517.232	86.19
517.448	80.19
517.664	92.19
517.879	75.19
518.095	80.19
518.311	68.19
518.527	90.19
518.742	73.19
518.958	65.19
519.173	79.19
519.389	82.19
519.605	72.19
519.82	83.19
520.036	80.19
