Data from KBr_2_HRD10591_00028.txt Node
Date: Mon Jan 19 13:13:04 EST 2026
User: Yrep
Spectrometer: HR+D1059
Trigger mode: 1
Integration Time (sec): 1.000000E-1
Scans to average: 1
Electric dark correction enabled: true
Nonlinearity correction enabled: false
Boxcar width: 0
XAxis mode: Wavelengths
Number of Pixels in Spectrum: 2048
>>>>>Begin Spectral Data<<<<<
223.165	-36.88
223.4	-36.88
223.635	-36.88
223.869	-10.88
224.104	-1.88
224.338	-18.88
224.573	-15.88
224.808	-12.88
225.042	-16.88
225.277	4.12
225.511	10.12
225.746	17.12
225.98	2.12
226.215	9.12
226.449	18.12
226.683	2.12
226.918	20.12
227.152	31.12
227.387	32.12
227.621	41.12
227.856	50.12
228.09	36.12
228.324	73.12
228.559	44.12
228.793	54.12
229.027	54.12
229.262	64.12
229.496	78.12
229.73	74.12
229.964	79.12
230.199	72.12
230.433	71.12
230.667	64.12
230.901	71.12
231.136	74.12
231.37	81.12
231.604	85.12
231.838	77.12
232.072	81.12
232.306	85.12
232.541	77.12
232.775	76.12
233.009	88.12
233.243	95.12
233.477	78.12
233.711	99.12
233.945	79.12
234.179	88.12
234.413	79.12
234.647	78.12
234.881	83.12
235.115	79.12
235.349	76.12
235.583	84.12
235.817	90.12
236.051	79.12
236.285	79.12
236.519	81.12
236.753	64.12
236.987	83.12
237.221	84.12
237.455	89.12
237.689	75.12
237.922	86.12
238.156	82.12
238.39	91.12
238.624	66.12
238.858	86.12
239.091	78.12
239.325	60.12
239.559	82.12
239.793	77.12
240.027	76.12
240.26	63.12
240.494	73.12
240.728	81.12
240.961	79.12
241.195	84.12
241.429	81.12
241.662	73.12
241.896	72.12
242.13	78.12
242.363	69.12
242.597	81.12
242.83	76.12
243.064	65.12
243.298	84.12
243.531	68.12
243.765	82.12
243.998	88.12
244.232	87.12
244.465	68.12
244.699	72.12
244.932	74.12
245.166	77.12
245.399	85.12
245.633	82.12
245.866	75.12
246.099	79.12
246.333	74.12
246.566	83.12
246.8	79.12
247.033	79.12
247.266	74.12
247.5	77.12
247.733	81.12
247.966	77.12
248.2	90.12
248.433	98.12
248.666	87.12
248.899	62.12
249.133	84.12
249.366	89.12
249.599	80.12
249.832	76.12
250.066	82.12
250.299	77.12
250.532	83.12
250.765	86.12
250.998	74.12
251.231	69.12
251.465	93.12
251.698	73.12
251.931	77.12
252.164	78.12
252.397	82.12
252.63	75.12
252.863	71.12
253.096	72.12
253.329	78.12
253.562	90.12
253.795	74.12
254.028	87.12
254.261	79.12
254.494	74.12
254.727	82.12
254.96	82.12
255.193	73.12
255.426	79.12
255.659	80.12
255.892	78.12
256.124	84.12
256.357	67.12
256.59	78.12
256.823	80.12
257.056	78.12
257.289	75.12
257.521	75.12
257.754	71.12
257.987	76.12
258.22	96.12
258.452	86.12
258.685	77.12
258.918	73.12
259.151	81.12
259.383	78.12
259.616	89.12
259.849	75.12
260.081	75.12
260.314	89.12
260.547	72.12
260.779	79.12
261.012	74.12
261.244	79.12
261.477	69.12
261.71	86.12
261.942	76.12
262.175	96.12
262.407	81.12
262.64	78.12
262.872	77.12
263.105	67.12
263.337	94.12
263.57	79.12
263.802	89.12
264.035	86.12
264.267	74.12
264.499	76.12
264.732	89.12
264.964	74.12
265.197	91.12
265.429	98.12
265.661	76.12
265.894	92.12
266.126	78.12
266.358	92.12
266.591	96.12
266.823	73.12
267.055	98.12
267.287	80.12
267.52	90.12
267.752	82.12
267.984	80.12
268.216	80.12
268.448	79.12
268.681	80.12
268.913	82.12
269.145	78.12
269.377	82.12
269.609	81.12
269.841	99.12
270.073	82.12
270.306	94.12
270.538	73.12
270.77	84.12
271.002	77.12
271.234	98.12
271.466	66.12
271.698	86.12
271.93	72.12
272.162	95.12
272.394	80.12
272.626	84.12
272.858	86.12
273.09	82.12
273.322	72.12
273.553	89.12
273.785	91.12
274.017	81.12
274.249	77.12
274.481	66.12
274.713	79.12
274.945	88.12
275.176	98.12
275.408	77.12
275.64	94.12
275.872	78.12
276.104	102.12
276.335	91.12
276.567	80.12
276.799	83.12
277.031	82.12
277.262	78.12
277.494	84.12
277.726	95.12
277.957	91.12
278.189	81.12
278.421	92.12
278.652	94.12
278.884	78.12
279.115	100.12
279.347	89.12
279.579	86.12
279.81	92.12
280.042	97.12
280.273	91.12
280.505	89.12
280.736	86.12
280.968	93.12
281.199	88.12
281.431	99.12
281.662	70.12
281.894	81.12
282.125	87.12
282.356	79.12
282.588	82.12
282.819	96.12
283.051	78.12
283.282	85.12
283.513	90.12
283.745	88.12
283.976	94.12
284.207	84.12
284.439	86.12
284.67	86.12
284.901	96.12
285.132	64.12
285.364	79.12
285.595	80.12
285.826	86.12
286.057	86.12
286.288	80.12
286.52	88.12
286.751	87.12
286.982	93.12
287.213	84.12
287.444	73.12
287.675	82.12
287.906	86.12
288.138	94.12
288.369	91.12
288.6	88.12
288.831	99.12
289.062	91.12
289.293	95.12
289.524	87.12
289.755	88.12
289.986	85.12
290.217	98.12
290.448	97.12
290.679	80.12
290.91	69.12
291.141	86.12
291.371	85.12
291.602	70.12
291.833	83.12
292.064	77.12
292.295	78.12
292.526	74.12
292.757	80.12
292.987	86.12
293.218	89.12
293.449	86.12
293.68	78.12
293.91	77.12
294.141	84.12
294.372	75.12
294.603	71.12
294.833	75.12
295.064	88.12
295.295	72.12
295.525	89.12
295.756	91.12
295.987	91.12
296.217	91.12
296.448	72.12
296.679	84.12
296.909	88.12
297.14	83.12
297.37	91.12
297.601	89.12
297.831	74.12
298.062	82.12
298.292	77.12
298.523	88.12
298.753	94.12
298.984	76.12
299.214	96.12
299.445	94.12
299.675	82.12
299.905	92.12
300.136	80.12
300.366	78.12
300.597	90.12
300.827	92.12
301.057	82.12
301.288	77.12
301.518	88.12
301.748	81.12
301.979	80.12
302.209	75.12
302.439	81.12
302.669	87.12
302.9	85.12
303.13	87.12
303.36	82.12
303.59	80.12
303.82	84.12
304.051	85.12
304.281	86.12
304.511	89.12
304.741	90.12
304.971	81.12
305.201	95.12
305.431	98.12
305.661	81.12
305.891	89.12
306.121	87.12
306.352	84.12
306.582	82.12
306.812	100.12
307.042	87.12
307.272	88.12
307.502	90.12
307.731	93.12
307.961	83.12
308.191	74.12
308.421	86.12
308.651	87.12
308.881	80.12
309.111	75.12
309.341	71.12
309.571	80.12
309.8	78.12
310.03	81.12
310.26	82.12
310.49	79.12
310.72	74.12
310.949	84.12
311.179	84.12
311.409	87.12
311.639	89.12
311.868	87.12
312.098	101.12
312.328	84.12
312.557	98.12
312.787	82.12
313.017	84.12
313.246	83.12
313.476	86.12
313.706	88.12
313.935	91.12
314.165	90.12
314.394	78.12
314.624	90.12
314.853	89.12
315.083	87.12
315.312	92.12
315.542	75.12
315.771	80.12
316.001	92.12
316.23	90.12
316.46	94.12
316.689	95.12
316.919	71.12
317.148	96.12
317.377	89.12
317.607	106.12
317.836	91.12
318.065	89.12
318.295	90.12
318.524	82.12
318.753	90.12
318.983	76.12
319.212	95.12
319.441	88.12
319.67	90.12
319.9	82.12
320.129	92.12
320.358	82.12
320.587	100.12
320.816	65.12
321.046	66.12
321.275	78.12
321.504	86.12
321.733	74.12
321.962	89.12
322.191	78.12
322.42	89.12
322.649	87.12
322.878	72.12
323.108	72.12
323.337	96.12
323.566	88.12
323.795	92.12
324.024	86.12
324.253	92.12
324.482	84.12
324.71	91.12
324.939	92.12
325.168	102.12
325.397	89.12
325.626	85.12
325.855	90.12
326.084	89.12
326.313	87.12
326.542	82.12
326.77	82.12
326.999	89.12
327.228	84.12
327.457	88.12
327.686	102.12
327.914	87.12
328.143	92.12
328.372	78.12
328.6	100.12
328.829	79.12
329.058	81.12
329.287	90.12
329.515	86.12
329.744	102.12
329.972	92.12
330.201	89.12
330.43	102.12
330.658	81.12
330.887	94.12
331.115	82.12
331.344	72.12
331.572	85.12
331.801	88.12
332.03	99.12
332.258	74.12
332.486	90.12
332.715	83.12
332.943	91.12
333.172	76.12
333.4	85.12
333.629	89.12
333.857	104.12
334.085	82.12
334.314	86.12
334.542	106.12
334.771	92.12
334.999	80.12
335.227	84.12
335.455	88.12
335.684	90.12
335.912	79.12
336.14	82.12
336.369	91.12
336.597	107.12
336.825	90.12
337.053	104.12
337.281	86.12
337.51	93.12
337.738	78.12
337.966	80.12
338.194	76.12
338.422	81.12
338.65	87.12
338.878	81.12
339.106	79.12
339.334	90.12
339.562	90.12
339.79	94.12
340.018	90.12
340.246	86.12
340.474	93.12
340.702	79.12
340.93	88.12
341.158	99.12
341.386	90.12
341.614	82.12
341.842	87.12
342.07	92.12
342.298	104.12
342.526	83.12
342.754	79.12
342.981	74.12
343.209	84.12
343.437	108.12
343.665	83.12
343.893	94.12
344.12	84.12
344.348	79.12
344.576	102.12
344.804	106.12
345.031	98.12
345.259	87.12
345.487	76.12
345.714	80.12
345.942	86.12
346.17	77.12
346.397	80.12
346.625	92.12
346.853	93.12
347.08	88.12
347.308	96.12
347.535	75.12
347.763	88.12
347.99	90.12
348.218	88.12
348.445	62.12
348.673	96.12
348.9	89.12
349.128	90.12
349.355	75.12
349.583	84.12
349.81	88.12
350.037	76.12
350.265	96.12
350.492	88.12
350.72	79.12
350.947	90.12
351.174	72.12
351.402	75.12
351.629	81.12
351.856	68.12
352.083	88.12
352.311	83.12
352.538	86.12
352.765	86.12
352.992	105.12
353.22	84.12
353.447	86.12
353.674	93.12
353.901	91.12
354.128	84.12
354.355	80.12
354.583	74.12
354.81	89.12
355.037	75.12
355.264	98.12
355.491	85.12
355.718	90.12
355.945	91.12
356.172	91.12
356.399	81.12
356.626	76.12
356.853	76.12
357.08	98.12
357.307	85.12
357.534	75.12
357.761	88.12
357.988	91.12
358.215	90.12
358.441	78.12
358.668	90.12
358.895	105.12
359.122	92.12
359.349	93.12
359.576	77.12
359.802	85.12
360.029	90.12
360.256	78.12
360.483	100.12
360.709	74.12
360.936	88.12
361.163	81.12
361.39	90.12
361.616	93.12
361.843	79.12
362.07	79.12
362.296	71.12
362.523	95.12
362.749	88.12
362.976	87.12
363.203	96.12
363.429	69.12
363.656	93.12
363.882	96.12
364.109	81.12
364.335	81.12
364.562	90.12
364.788	93.12
365.015	88.12
365.241	80.12
365.468	89.12
365.694	87.12
365.92	73.12
366.147	82.12
366.373	76.12
366.599	92.12
366.826	88.12
367.052	96.12
367.278	80.12
367.505	84.12
367.731	80.12
367.957	86.12
368.184	78.12
368.41	87.12
368.636	72.12
368.862	86.12
369.089	90.12
369.315	90.12
369.541	76.12
369.767	66.12
369.993	73.12
370.219	77.12
370.445	82.12
370.672	90.12
370.898	83.12
371.124	83.12
371.35	81.12
371.576	79.12
371.802	71.12
372.028	72.12
372.254	80.12
372.48	94.12
372.706	84.12
372.932	84.12
373.158	73.12
373.384	96.12
373.61	99.12
373.835	75.12
374.061	95.12
374.287	83.12
374.513	82.12
374.739	72.12
374.965	96.12
375.191	87.12
375.416	77.12
375.642	77.12
375.868	93.12
376.094	78.12
376.319	76.12
376.545	81.12
376.771	77.12
376.997	84.12
377.222	99.12
377.448	83.12
377.674	100.12
377.899	88.12
378.125	82.12
378.35	78.12
378.576	89.12
378.802	92.12
379.027	89.12
379.253	93.12
379.478	78.12
379.704	100.12
379.929	83.12
380.155	87.12
380.38	79.12
380.606	78.12
380.831	90.12
381.057	87.12
381.282	87.12
381.507	89.12
381.733	94.12
381.958	91.12
382.184	84.12
382.409	90.12
382.634	84.12
382.86	88.12
383.085	83.12
383.31	77.12
383.535	91.12
383.761	96.12
383.986	78.12
384.211	78.12
384.436	95.12
384.662	92.12
384.887	94.12
385.112	72.12
385.337	81.12
385.562	91.12
385.787	77.12
386.013	88.12
386.238	84.12
386.463	88.12
386.688	86.12
386.913	77.12
387.138	82.12
387.363	82.12
387.588	85.12
387.813	80.12
388.038	81.12
388.263	82.12
388.488	81.12
388.713	82.12
388.938	80.12
389.163	78.12
389.387	72.12
389.612	94.12
389.837	85.12
390.062	88.12
390.287	86.12
390.512	73.12
390.736	89.12
390.961	91.12
391.186	89.12
391.411	90.12
391.636	95.12
391.86	85.12
392.085	87.12
392.31	79.12
392.534	86.12
392.759	91.12
392.984	99.12
393.208	89.12
393.433	80.12
393.658	76.12
393.882	94.12
394.107	90.12
394.331	98.12
394.556	88.12
394.78	88.12
395.005	81.12
395.229	89.12
395.454	87.12
395.678	76.12
395.903	95.12
396.127	87.12
396.352	70.12
396.576	87.12
396.801	102.12
397.025	78.12
397.249	95.12
397.474	96.12
397.698	88.12
397.922	90.12
398.147	92.12
398.371	78.12
398.595	76.12
398.82	96.12
399.044	80.12
399.268	72.12
399.492	79.12
399.717	86.12
399.941	87.12
400.165	78.12
400.389	95.12
400.613	86.12
400.837	67.12
401.062	92.12
401.286	80.12
401.51	76.12
401.734	85.12
401.958	79.12
402.182	91.12
402.406	88.12
402.63	87.12
402.854	87.12
403.078	71.12
403.302	80.12
403.526	90.12
403.75	87.12
403.974	97.12
404.198	105.12
404.422	132.12
404.645	168.12
404.869	132.12
405.093	106.12
405.317	99.12
405.541	80.12
405.765	92.12
405.988	95.12
406.212	90.12
406.436	88.12
406.66	83.12
406.883	74.12
407.107	83.12
407.331	77.12
407.555	88.12
407.778	87.12
408.002	85.12
408.226	82.12
408.449	72.12
408.673	83.12
408.896	86.12
409.12	88.12
409.344	89.12
409.567	91.12
409.791	89.12
410.014	93.12
410.238	89.12
410.461	96.12
410.685	77.12
410.908	81.12
411.132	92.12
411.355	92.12
411.578	89.12
411.802	91.12
412.025	94.12
412.249	85.12
412.472	76.12
412.695	80.12
412.919	84.12
413.142	84.12
413.365	79.12
413.589	91.12
413.812	79.12
414.035	74.12
414.258	84.12
414.482	88.12
414.705	90.12
414.928	88.12
415.151	74.12
415.374	103.12
415.597	102.12
415.821	76.12
416.044	72.12
416.267	72.12
416.49	87.12
416.713	89.12
416.936	83.12
417.159	93.12
417.382	95.12
417.605	88.12
417.828	88.12
418.051	91.12
418.274	90.12
418.497	77.12
418.72	80.12
418.943	78.12
419.166	98.12
419.389	87.12
419.611	78.12
419.834	86.12
420.057	90.12
420.28	85.12
420.503	96.12
420.726	86.12
420.948	72.12
421.171	85.12
421.394	78.12
421.617	85.12
421.839	98.12
422.062	78.12
422.285	74.12
422.507	56.12
422.73	80.12
422.953	74.12
423.175	90.12
423.398	89.12
423.621	95.12
423.843	95.12
424.066	69.12
424.288	84.12
424.511	85.12
424.733	77.12
424.956	77.12
425.178	81.12
425.401	86.12
425.623	80.12
425.846	93.12
426.068	83.12
426.291	85.12
426.513	83.12
426.735	86.12
426.958	94.12
427.18	82.12
427.402	78.12
427.625	70.12
427.847	95.12
428.069	92.12
428.292	100.12
428.514	88.12
428.736	88.12
428.958	88.12
429.181	76.12
429.403	91.12
429.625	90.12
429.847	84.12
430.069	85.12
430.292	92.12
430.514	69.12
430.736	80.12
430.958	74.12
431.18	86.12
431.402	100.12
431.624	88.12
431.846	69.12
432.068	82.12
432.29	99.12
432.512	98.12
432.734	82.12
432.956	79.12
433.178	99.12
433.4	79.12
433.622	88.12
433.844	88.12
434.066	92.12
434.287	81.12
434.509	74.12
434.731	73.12
434.953	92.12
435.175	80.12
435.397	79.12
435.618	93.12
435.84	89.12
436.062	84.12
436.284	77.12
436.505	87.12
436.727	80.12
436.949	97.12
437.17	98.12
437.392	85.12
437.614	87.12
437.835	87.12
438.057	82.12
438.278	93.12
438.5	76.12
438.721	86.12
438.943	82.12
439.165	91.12
439.386	95.12
439.608	94.12
439.829	84.12
440.05	91.12
440.272	80.12
440.493	87.12
440.715	80.12
440.936	75.12
441.158	88.12
441.379	77.12
441.6	79.12
441.822	87.12
442.043	93.12
442.264	96.12
442.486	55.12
442.707	79.12
442.928	87.12
443.149	72.12
443.371	80.12
443.592	82.12
443.813	74.12
444.034	88.12
444.255	99.12
444.476	87.12
444.698	99.12
444.919	78.12
445.14	163.12
445.361	116.12
445.582	89.12
445.803	98.12
446.024	93.12
446.245	100.12
446.466	84.12
446.687	86.12
446.908	89.12
447.129	67.12
447.35	88.12
447.571	89.12
447.792	84.12
448.013	95.12
448.234	90.12
448.455	83.12
448.675	87.12
448.896	87.12
449.117	88.12
449.338	85.12
449.559	97.12
449.779	92.12
450	103.12
450.221	96.12
450.442	72.12
450.662	90.12
450.883	90.12
451.104	87.12
451.324	74.12
451.545	102.12
451.766	82.12
451.986	105.12
452.207	80.12
452.428	85.12
452.648	104.12
452.869	77.12
453.089	78.12
453.31	84.12
453.53	84.12
453.751	80.12
453.971	93.12
454.192	81.12
454.412	67.12
454.633	93.12
454.853	78.12
455.073	90.12
455.294	98.12
455.514	93.12
455.734	86.12
455.955	97.12
456.175	86.12
456.395	95.12
456.616	82.12
456.836	74.12
457.056	80.12
457.276	80.12
457.497	108.12
457.717	79.12
457.937	80.12
458.157	77.12
458.377	80.12
458.598	83.12
458.818	105.12
459.038	104.12
459.258	83.12
459.478	80.12
459.698	71.12
459.918	91.12
460.138	77.12
460.358	94.12
460.578	87.12
460.798	79.12
461.018	77.12
461.238	80.12
461.458	76.12
461.678	79.12
461.898	82.12
462.118	83.12
462.338	80.12
462.558	81.12
462.777	90.12
462.997	93.12
463.217	90.12
463.437	92.12
463.657	83.12
463.876	81.12
464.096	90.12
464.316	77.12
464.536	83.12
464.755	91.12
464.975	69.12
465.195	83.12
465.414	88.12
465.634	95.12
465.854	91.12
466.073	73.12
466.293	68.12
466.512	93.12
466.732	86.12
466.951	78.12
467.171	95.12
467.391	92.12
467.61	75.12
467.829	83.12
468.049	77.12
468.268	91.12
468.488	86.12
468.707	87.12
468.927	95.12
469.146	77.12
469.365	81.12
469.585	94.12
469.804	82.12
470.023	76.12
470.243	82.12
470.462	88.12
470.681	100.12
470.901	90.12
471.12	84.12
471.339	88.12
471.558	93.12
471.777	86.12
471.997	81.12
472.216	79.12
472.435	93.12
472.654	96.12
472.873	93.12
473.092	75.12
473.311	79.12
473.53	82.12
473.749	97.12
473.968	82.12
474.187	84.12
474.406	86.12
474.625	90.12
474.844	97.12
475.063	83.12
475.282	98.12
475.501	72.12
475.72	92.12
475.939	85.12
476.158	80.12
476.377	78.12
476.596	78.12
476.814	97.12
477.033	80.12
477.252	84.12
477.471	93.12
477.69	78.12
477.908	82.12
478.127	83.12
478.346	81.12
478.564	89.12
478.783	74.12
479.002	94.12
479.22	83.12
479.439	89.12
479.658	78.12
479.876	81.12
480.095	74.12
480.313	87.12
480.532	86.12
480.751	77.12
480.969	85.12
481.188	81.12
481.406	74.12
481.624	88.12
481.843	88.12
482.061	66.12
482.28	83.12
482.498	95.12
482.717	80.12
482.935	97.12
483.153	85.12
483.372	90.12
483.59	95.12
483.808	75.12
484.027	88.12
484.245	86.12
484.463	79.12
484.681	78.12
484.9	88.12
485.118	101.12
485.336	92.12
485.554	91.12
485.772	89.12
485.99	73.12
486.209	94.12
486.427	96.12
486.645	86.12
486.863	86.12
487.081	83.12
487.299	83.12
487.517	95.12
487.735	68.12
487.953	80.12
488.171	89.12
488.389	92.12
488.607	87.12
488.825	82.12
489.043	95.12
489.261	94.12
489.479	98.12
489.696	103.12
489.914	88.12
490.132	95.12
490.35	80.12
490.568	95.12
490.786	91.12
491.003	82.12
491.221	92.12
491.439	105.12
491.657	86.12
491.874	94.12
492.092	92.12
492.31	105.12
492.527	89.12
492.745	99.12
492.963	102.12
493.18	95.12
493.398	88.12
493.615	79.12
493.833	83.12
494.05	96.12
494.268	101.12
494.485	91.12
494.703	88.12
494.92	99.12
495.138	104.12
495.355	83.12
495.573	88.12
495.79	81.12
496.008	92.12
496.225	85.12
496.442	97.12
496.66	102.12
496.877	84.12
497.094	110.12
497.312	96.12
497.529	76.12
497.746	89.12
497.963	100.12
498.181	98.12
498.398	93.12
498.615	89.12
498.832	84.12
499.049	90.12
499.267	97.12
499.484	82.12
499.701	94.12
499.918	98.12
500.135	93.12
500.352	97.12
500.569	83.12
500.786	95.12
501.003	91.12
501.22	90.12
501.437	95.12
501.654	93.12
501.871	96.12
502.088	79.12
502.305	95.12
502.522	83.12
502.739	93.12
502.956	75.12
503.172	98.12
503.389	81.12
503.606	69.12
503.823	86.12
504.04	102.12
504.256	88.12
504.473	98.12
504.69	78.12
504.907	94.12
505.123	103.12
505.34	79.12
505.557	86.12
505.773	92.12
505.99	91.12
506.207	93.12
506.423	88.12
506.64	89.12
506.856	82.12
507.073	98.12
507.289	87.12
507.506	90.12
507.722	104.12
507.939	83.12
508.155	88.12
508.372	82.12
508.588	93.12
508.805	92.12
509.021	94.12
509.238	89.12
509.454	93.12
509.67	90.12
509.887	81.12
510.103	96.12
510.319	96.12
510.536	76.12
510.752	100.12
510.968	92.12
511.184	91.12
511.401	87.12
511.617	88.12
511.833	96.12
512.049	83.12
512.265	87.12
512.481	81.12
512.698	78.12
512.914	96.12
513.13	86.12
513.346	94.12
513.562	84.12
513.778	90.12
513.994	95.12
514.21	95.12
514.426	89.12
514.642	95.12
514.858	90.12
515.074	83.12
515.29	92.12
515.506	83.12
515.721	90.12
515.937	87.12
516.153	89.12
516.369	87.12
516.585	96.12
516.801	98.12
517.016	91.12
517.232	87.12
517.448	97.12
517.664	76.12
517.879	87.12
518.095	90.12
518.311	97.12
518.527	77.12
518.742	87.12
518.958	83.12
519.173	95.12
519.389	91.12
519.605	98.12
