Data from KBr_2_HRD10591_00025.txt Node
Date: Mon Jan 19 13:13:03 EST 2026
User: Yrep
Spectrometer: HR+D1059
Trigger mode: 1
Integration Time (sec): 1.000000E-1
Scans to average: 1
Electric dark correction enabled: true
Nonlinearity correction enabled: false
Boxcar width: 0
XAxis mode: Wavelengths
Number of Pixels in Spectrum: 2048
>>>>>Begin Spectral Data<<<<<
223.165	-13.06
223.4	-13.06
223.635	-13.06
223.869	-19.06
224.104	-21.06
224.338	-18.06
224.573	-16.06
224.808	-17.06
225.042	-17.06
225.277	-3.06
225.511	-7.06
225.746	10.94
225.98	10.94
226.215	5.94
226.449	25.94
226.683	18.94
226.918	18.94
227.152	39.94
227.387	52.94
227.621	45.94
227.856	44.94
228.09	50.94
228.324	49.94
228.559	57.94
228.793	54.94
229.027	52.94
229.262	60.94
229.496	58.94
229.73	79.94
229.964	74.94
230.199	74.94
230.433	80.94
230.667	69.94
230.901	84.94
231.136	81.94
231.37	86.94
231.604	82.94
231.838	80.94
232.072	85.94
232.306	76.94
232.541	86.94
232.775	69.94
233.009	86.94
233.243	67.94
233.477	79.94
233.711	87.94
233.945	89.94
234.179	76.94
234.413	80.94
234.647	90.94
234.881	74.94
235.115	69.94
235.349	84.94
235.583	82.94
235.817	88.94
236.051	75.94
236.285	79.94
236.519	87.94
236.753	80.94
236.987	74.94
237.221	85.94
237.455	79.94
237.689	72.94
237.922	69.94
238.156	70.94
238.39	71.94
238.624	65.94
238.858	65.94
239.091	69.94
239.325	75.94
239.559	72.94
239.793	76.94
240.027	70.94
240.26	80.94
240.494	81.94
240.728	86.94
240.961	85.94
241.195	80.94
241.429	73.94
241.662	73.94
241.896	72.94
242.13	68.94
242.363	68.94
242.597	75.94
242.83	89.94
243.064	85.94
243.298	84.94
243.531	80.94
243.765	77.94
243.998	80.94
244.232	88.94
244.465	87.94
244.699	76.94
244.932	64.94
245.166	85.94
245.399	86.94
245.633	71.94
245.866	70.94
246.099	70.94
246.333	74.94
246.566	81.94
246.8	80.94
247.033	82.94
247.266	73.94
247.5	76.94
247.733	66.94
247.966	65.94
248.2	79.94
248.433	71.94
248.666	77.94
248.899	72.94
249.133	73.94
249.366	85.94
249.599	73.94
249.832	74.94
250.066	80.94
250.299	72.94
250.532	69.94
250.765	90.94
250.998	74.94
251.231	76.94
251.465	85.94
251.698	85.94
251.931	78.94
252.164	70.94
252.397	74.94
252.63	75.94
252.863	76.94
253.096	68.94
253.329	73.94
253.562	81.94
253.795	79.94
254.028	64.94
254.261	85.94
254.494	75.94
254.727	95.94
254.96	76.94
255.193	83.94
255.426	79.94
255.659	93.94
255.892	87.94
256.124	68.94
256.357	77.94
256.59	69.94
256.823	73.94
257.056	90.94
257.289	68.94
257.521	81.94
257.754	70.94
257.987	74.94
258.22	83.94
258.452	82.94
258.685	76.94
258.918	74.94
259.151	70.94
259.383	83.94
259.616	84.94
259.849	80.94
260.081	92.94
260.314	87.94
260.547	86.94
260.779	84.94
261.012	76.94
261.244	79.94
261.477	93.94
261.71	74.94
261.942	80.94
262.175	82.94
262.407	74.94
262.64	81.94
262.872	67.94
263.105	86.94
263.337	81.94
263.57	83.94
263.802	75.94
264.035	80.94
264.267	97.94
264.499	72.94
264.732	80.94
264.964	91.94
265.197	80.94
265.429	95.94
265.661	77.94
265.894	80.94
266.126	98.94
266.358	86.94
266.591	79.94
266.823	89.94
267.055	77.94
267.287	83.94
267.52	70.94
267.752	88.94
267.984	86.94
268.216	80.94
268.448	84.94
268.681	100.94
268.913	88.94
269.145	84.94
269.377	82.94
269.609	79.94
269.841	78.94
270.073	80.94
270.306	80.94
270.538	76.94
270.77	78.94
271.002	75.94
271.234	92.94
271.466	90.94
271.698	87.94
271.93	88.94
272.162	93.94
272.394	80.94
272.626	68.94
272.858	97.94
273.09	81.94
273.322	88.94
273.553	84.94
273.785	84.94
274.017	79.94
274.249	99.94
274.481	88.94
274.713	83.94
274.945	92.94
275.176	81.94
275.408	62.94
275.64	76.94
275.872	77.94
276.104	68.94
276.335	89.94
276.567	87.94
276.799	68.94
277.031	81.94
277.262	84.94
277.494	80.94
277.726	84.94
277.957	73.94
278.189	89.94
278.421	72.94
278.652	79.94
278.884	80.94
279.115	88.94
279.347	81.94
279.579	74.94
279.81	64.94
280.042	80.94
280.273	83.94
280.505	79.94
280.736	89.94
280.968	74.94
281.199	103.94
281.431	92.94
281.662	81.94
281.894	91.94
282.125	91.94
282.356	79.94
282.588	81.94
282.819	96.94
283.051	81.94
283.282	74.94
283.513	75.94
283.745	74.94
283.976	98.94
284.207	84.94
284.439	87.94
284.67	86.94
284.901	87.94
285.132	75.94
285.364	86.94
285.595	91.94
285.826	85.94
286.057	96.94
286.288	86.94
286.52	82.94
286.751	80.94
286.982	65.94
287.213	82.94
287.444	91.94
287.675	96.94
287.906	79.94
288.138	78.94
288.369	72.94
288.6	84.94
288.831	82.94
289.062	98.94
289.293	80.94
289.524	76.94
289.755	79.94
289.986	75.94
290.217	85.94
290.448	89.94
290.679	84.94
290.91	95.94
291.141	91.94
291.371	79.94
291.602	92.94
291.833	79.94
292.064	92.94
292.295	92.94
292.526	90.94
292.757	92.94
292.987	81.94
293.218	76.94
293.449	79.94
293.68	86.94
293.91	83.94
294.141	94.94
294.372	97.94
294.603	93.94
294.833	71.94
295.064	83.94
295.295	103.94
295.525	83.94
295.756	87.94
295.987	89.94
296.217	73.94
296.448	85.94
296.679	89.94
296.909	80.94
297.14	104.94
297.37	86.94
297.601	79.94
297.831	95.94
298.062	86.94
298.292	84.94
298.523	88.94
298.753	88.94
298.984	84.94
299.214	84.94
299.445	92.94
299.675	79.94
299.905	86.94
300.136	80.94
300.366	86.94
300.597	89.94
300.827	88.94
301.057	87.94
301.288	90.94
301.518	83.94
301.748	78.94
301.979	102.94
302.209	78.94
302.439	72.94
302.669	74.94
302.9	94.94
303.13	74.94
303.36	89.94
303.59	84.94
303.82	81.94
304.051	98.94
304.281	78.94
304.511	76.94
304.741	75.94
304.971	88.94
305.201	81.94
305.431	97.94
305.661	89.94
305.891	80.94
306.121	86.94
306.352	101.94
306.582	94.94
306.812	88.94
307.042	78.94
307.272	77.94
307.502	96.94
307.731	79.94
307.961	88.94
308.191	88.94
308.421	88.94
308.651	79.94
308.881	83.94
309.111	92.94
309.341	82.94
309.571	82.94
309.8	89.94
310.03	90.94
310.26	92.94
310.49	76.94
310.72	76.94
310.949	77.94
311.179	77.94
311.409	87.94
311.639	80.94
311.868	86.94
312.098	84.94
312.328	95.94
312.557	87.94
312.787	82.94
313.017	91.94
313.246	91.94
313.476	95.94
313.706	85.94
313.935	90.94
314.165	79.94
314.394	91.94
314.624	92.94
314.853	89.94
315.083	86.94
315.312	94.94
315.542	72.94
315.771	97.94
316.001	94.94
316.23	87.94
316.46	91.94
316.689	83.94
316.919	74.94
317.148	86.94
317.377	92.94
317.607	79.94
317.836	81.94
318.065	88.94
318.295	82.94
318.524	98.94
318.753	89.94
318.983	80.94
319.212	90.94
319.441	77.94
319.67	86.94
319.9	87.94
320.129	94.94
320.358	82.94
320.587	85.94
320.816	71.94
321.046	74.94
321.275	94.94
321.504	81.94
321.733	92.94
321.962	95.94
322.191	74.94
322.42	89.94
322.649	90.94
322.878	106.94
323.108	86.94
323.337	95.94
323.566	86.94
323.795	98.94
324.024	83.94
324.253	76.94
324.482	94.94
324.71	91.94
324.939	94.94
325.168	77.94
325.397	85.94
325.626	86.94
325.855	78.94
326.084	85.94
326.313	89.94
326.542	78.94
326.77	97.94
326.999	94.94
327.228	93.94
327.457	88.94
327.686	96.94
327.914	84.94
328.143	89.94
328.372	92.94
328.6	78.94
328.829	88.94
329.058	84.94
329.287	82.94
329.515	89.94
329.744	90.94
329.972	91.94
330.201	109.94
330.43	96.94
330.658	102.94
330.887	78.94
331.115	87.94
331.344	101.94
331.572	80.94
331.801	91.94
332.03	98.94
332.258	88.94
332.486	85.94
332.715	77.94
332.943	91.94
333.172	94.94
333.4	85.94
333.629	81.94
333.857	81.94
334.085	86.94
334.314	85.94
334.542	89.94
334.771	80.94
334.999	82.94
335.227	89.94
335.455	85.94
335.684	87.94
335.912	90.94
336.14	95.94
336.369	87.94
336.597	82.94
336.825	94.94
337.053	82.94
337.281	87.94
337.51	88.94
337.738	91.94
337.966	88.94
338.194	82.94
338.422	82.94
338.65	85.94
338.878	78.94
339.106	88.94
339.334	90.94
339.562	66.94
339.79	73.94
340.018	86.94
340.246	72.94
340.474	95.94
340.702	85.94
340.93	86.94
341.158	79.94
341.386	80.94
341.614	84.94
341.842	91.94
342.07	74.94
342.298	81.94
342.526	77.94
342.754	88.94
342.981	90.94
343.209	91.94
343.437	118.94
343.665	86.94
343.893	92.94
344.12	89.94
344.348	89.94
344.576	106.94
344.804	97.94
345.031	88.94
345.259	80.94
345.487	81.94
345.714	77.94
345.942	85.94
346.17	78.94
346.397	82.94
346.625	82.94
346.853	88.94
347.08	85.94
347.308	81.94
347.535	88.94
347.763	96.94
347.99	84.94
348.218	81.94
348.445	73.94
348.673	80.94
348.9	76.94
349.128	83.94
349.355	79.94
349.583	77.94
349.81	75.94
350.037	89.94
350.265	84.94
350.492	95.94
350.72	80.94
350.947	81.94
351.174	84.94
351.402	94.94
351.629	84.94
351.856	85.94
352.083	70.94
352.311	84.94
352.538	90.94
352.765	85.94
352.992	85.94
353.22	97.94
353.447	91.94
353.674	88.94
353.901	84.94
354.128	90.94
354.355	85.94
354.583	84.94
354.81	87.94
355.037	85.94
355.264	90.94
355.491	101.94
355.718	94.94
355.945	82.94
356.172	85.94
356.399	88.94
356.626	82.94
356.853	85.94
357.08	92.94
357.307	101.94
357.534	90.94
357.761	86.94
357.988	101.94
358.215	82.94
358.441	79.94
358.668	89.94
358.895	96.94
359.122	93.94
359.349	100.94
359.576	102.94
359.802	92.94
360.029	96.94
360.256	77.94
360.483	86.94
360.709	93.94
360.936	91.94
361.163	93.94
361.39	104.94
361.616	97.94
361.843	78.94
362.07	83.94
362.296	103.94
362.523	74.94
362.749	76.94
362.976	93.94
363.203	83.94
363.429	82.94
363.656	78.94
363.882	89.94
364.109	80.94
364.335	81.94
364.562	75.94
364.788	103.94
365.015	88.94
365.241	79.94
365.468	90.94
365.694	83.94
365.92	73.94
366.147	82.94
366.373	94.94
366.599	87.94
366.826	92.94
367.052	87.94
367.278	84.94
367.505	94.94
367.731	86.94
367.957	78.94
368.184	81.94
368.41	88.94
368.636	87.94
368.862	97.94
369.089	89.94
369.315	85.94
369.541	93.94
369.767	93.94
369.993	71.94
370.219	82.94
370.445	103.94
370.672	83.94
370.898	92.94
371.124	80.94
371.35	85.94
371.576	90.94
371.802	76.94
372.028	84.94
372.254	79.94
372.48	83.94
372.706	91.94
372.932	89.94
373.158	88.94
373.384	96.94
373.61	99.94
373.835	84.94
374.061	75.94
374.287	82.94
374.513	90.94
374.739	78.94
374.965	86.94
375.191	86.94
375.416	75.94
375.642	82.94
375.868	91.94
376.094	88.94
376.319	75.94
376.545	97.94
376.771	78.94
376.997	92.94
377.222	84.94
377.448	80.94
377.674	91.94
377.899	78.94
378.125	77.94
378.35	84.94
378.576	72.94
378.802	77.94
379.027	80.94
379.253	77.94
379.478	76.94
379.704	92.94
379.929	79.94
380.155	95.94
380.38	81.94
380.606	75.94
380.831	78.94
381.057	93.94
381.282	88.94
381.507	84.94
381.733	90.94
381.958	94.94
382.184	96.94
382.409	100.94
382.634	90.94
382.86	80.94
383.085	82.94
383.31	81.94
383.535	72.94
383.761	84.94
383.986	73.94
384.211	85.94
384.436	68.94
384.662	80.94
384.887	76.94
385.112	76.94
385.337	85.94
385.562	85.94
385.787	89.94
386.013	83.94
386.238	85.94
386.463	73.94
386.688	97.94
386.913	85.94
387.138	87.94
387.363	90.94
387.588	85.94
387.813	85.94
388.038	86.94
388.263	93.94
388.488	93.94
388.713	74.94
388.938	82.94
389.163	83.94
389.387	88.94
389.612	88.94
389.837	82.94
390.062	88.94
390.287	79.94
390.512	88.94
390.736	78.94
390.961	87.94
391.186	84.94
391.411	80.94
391.636	86.94
391.86	89.94
392.085	84.94
392.31	89.94
392.534	82.94
392.759	75.94
392.984	94.94
393.208	80.94
393.433	85.94
393.658	108.94
393.882	79.94
394.107	90.94
394.331	91.94
394.556	84.94
394.78	91.94
395.005	100.94
395.229	96.94
395.454	80.94
395.678	92.94
395.903	88.94
396.127	89.94
396.352	86.94
396.576	90.94
396.801	96.94
397.025	80.94
397.249	83.94
397.474	88.94
397.698	70.94
397.922	92.94
398.147	104.94
398.371	76.94
398.595	88.94
398.82	88.94
399.044	79.94
399.268	80.94
399.492	97.94
399.717	86.94
399.941	79.94
400.165	74.94
400.389	89.94
400.613	80.94
400.837	86.94
401.062	96.94
401.286	71.94
401.51	74.94
401.734	88.94
401.958	103.94
402.182	92.94
402.406	84.94
402.63	98.94
402.854	90.94
403.078	89.94
403.302	92.94
403.526	94.94
403.75	90.94
403.974	128.94
404.198	156.94
404.422	242.94
404.645	285.94
404.869	228.94
405.093	153.94
405.317	107.94
405.541	100.94
405.765	79.94
405.988	88.94
406.212	80.94
406.436	87.94
406.66	89.94
406.883	82.94
407.107	93.94
407.331	76.94
407.555	88.94
407.778	73.94
408.002	81.94
408.226	92.94
408.449	88.94
408.673	96.94
408.896	95.94
409.12	79.94
409.344	82.94
409.567	91.94
409.791	92.94
410.014	82.94
410.238	98.94
410.461	82.94
410.685	77.94
410.908	91.94
411.132	80.94
411.355	74.94
411.578	89.94
411.802	92.94
412.025	100.94
412.249	87.94
412.472	82.94
412.695	102.94
412.919	86.94
413.142	88.94
413.365	96.94
413.589	76.94
413.812	91.94
414.035	89.94
414.258	77.94
414.482	90.94
414.705	80.94
414.928	86.94
415.151	86.94
415.374	92.94
415.597	84.94
415.821	83.94
416.044	77.94
416.267	89.94
416.49	103.94
416.713	92.94
416.936	98.94
417.159	82.94
417.382	81.94
417.605	79.94
417.828	81.94
418.051	85.94
418.274	89.94
418.497	71.94
418.72	77.94
418.943	84.94
419.166	75.94
419.389	90.94
419.611	90.94
419.834	93.94
420.057	95.94
420.28	88.94
420.503	102.94
420.726	84.94
420.948	90.94
421.171	74.94
421.394	95.94
421.617	82.94
421.839	90.94
422.062	96.94
422.285	88.94
422.507	108.94
422.73	108.94
422.953	107.94
423.175	92.94
423.398	98.94
423.621	98.94
423.843	93.94
424.066	90.94
424.288	92.94
424.511	89.94
424.733	76.94
424.956	89.94
425.178	61.94
425.401	90.94
425.623	85.94
425.846	78.94
426.068	88.94
426.291	88.94
426.513	70.94
426.735	95.94
426.958	85.94
427.18	87.94
427.402	78.94
427.625	92.94
427.847	89.94
428.069	92.94
428.292	82.94
428.514	92.94
428.736	102.94
428.958	99.94
429.181	94.94
429.403	101.94
429.625	85.94
429.847	84.94
430.069	94.94
430.292	85.94
430.514	79.94
430.736	82.94
430.958	89.94
431.18	81.94
431.402	103.94
431.624	90.94
431.846	84.94
432.068	106.94
432.29	93.94
432.512	75.94
432.734	80.94
432.956	75.94
433.178	95.94
433.4	100.94
433.622	77.94
433.844	83.94
434.066	100.94
434.287	94.94
434.509	83.94
434.731	77.94
434.953	93.94
435.175	73.94
435.397	87.94
435.618	85.94
435.84	86.94
436.062	88.94
436.284	91.94
436.505	92.94
436.727	86.94
436.949	89.94
437.17	95.94
437.392	86.94
437.614	80.94
437.835	94.94
438.057	104.94
438.278	91.94
438.5	83.94
438.721	93.94
438.943	105.94
439.165	78.94
439.386	84.94
439.608	100.94
439.829	86.94
440.05	94.94
440.272	81.94
440.493	89.94
440.715	81.94
440.936	97.94
441.158	89.94
441.379	84.94
441.6	77.94
441.822	82.94
442.043	82.94
442.264	89.94
442.486	84.94
442.707	87.94
442.928	80.94
443.149	80.94
443.371	86.94
443.592	76.94
443.813	85.94
444.034	78.94
444.255	97.94
444.476	100.94
444.698	86.94
444.919	88.94
445.14	154.94
445.361	127.94
445.582	76.94
445.803	88.94
446.024	104.94
446.245	101.94
446.466	90.94
446.687	91.94
446.908	83.94
447.129	88.94
447.35	87.94
447.571	101.94
447.792	91.94
448.013	83.94
448.234	102.94
448.455	86.94
448.675	96.94
448.896	83.94
449.117	91.94
449.338	90.94
449.559	108.94
449.779	95.94
450	90.94
450.221	78.94
450.442	90.94
450.662	85.94
450.883	83.94
451.104	84.94
451.324	82.94
451.545	106.94
451.766	88.94
451.986	82.94
452.207	90.94
452.428	93.94
452.648	98.94
452.869	95.94
453.089	66.94
453.31	79.94
453.53	80.94
453.751	100.94
453.971	91.94
454.192	81.94
454.412	80.94
454.633	91.94
454.853	89.94
455.073	79.94
455.294	88.94
455.514	88.94
455.734	89.94
455.955	96.94
456.175	92.94
456.395	97.94
456.616	95.94
456.836	94.94
457.056	85.94
457.276	91.94
457.497	76.94
457.717	80.94
457.937	88.94
458.157	99.94
458.377	76.94
458.598	91.94
458.818	74.94
459.038	66.94
459.258	90.94
459.478	91.94
459.698	73.94
459.918	71.94
460.138	93.94
460.358	81.94
460.578	84.94
460.798	87.94
461.018	82.94
461.238	96.94
461.458	88.94
461.678	98.94
461.898	80.94
462.118	98.94
462.338	102.94
462.558	83.94
462.777	80.94
462.997	89.94
463.217	82.94
463.437	93.94
463.657	82.94
463.876	78.94
464.096	89.94
464.316	75.94
464.536	76.94
464.755	86.94
464.975	80.94
465.195	84.94
465.414	87.94
465.634	79.94
465.854	84.94
466.073	93.94
466.293	84.94
466.512	90.94
466.732	79.94
466.951	84.94
467.171	86.94
467.391	97.94
467.61	93.94
467.829	97.94
468.049	105.94
468.268	82.94
468.488	96.94
468.707	79.94
468.927	74.94
469.146	93.94
469.365	96.94
469.585	76.94
469.804	97.94
470.023	97.94
470.243	89.94
470.462	86.94
470.681	84.94
470.901	90.94
471.12	87.94
471.339	88.94
471.558	104.94
471.777	102.94
471.997	89.94
472.216	93.94
472.435	90.94
472.654	87.94
472.873	73.94
473.092	80.94
473.311	91.94
473.53	84.94
473.749	93.94
473.968	90.94
474.187	88.94
474.406	80.94
474.625	75.94
474.844	94.94
475.063	80.94
475.282	82.94
475.501	74.94
475.72	90.94
475.939	73.94
476.158	86.94
476.377	78.94
476.596	88.94
476.814	90.94
477.033	77.94
477.252	87.94
477.471	88.94
477.69	100.94
477.908	84.94
478.127	90.94
478.346	94.94
478.564	87.94
478.783	95.94
479.002	84.94
479.22	88.94
479.439	83.94
479.658	94.94
479.876	83.94
480.095	86.94
480.313	86.94
480.532	96.94
480.751	86.94
480.969	87.94
481.188	78.94
481.406	103.94
481.624	92.94
481.843	92.94
482.061	87.94
482.28	109.94
482.498	104.94
482.717	95.94
482.935	92.94
483.153	88.94
483.372	86.94
483.59	106.94
483.808	89.94
484.027	92.94
484.245	96.94
484.463	92.94
484.681	86.94
484.9	96.94
485.118	114.94
485.336	95.94
485.554	98.94
485.772	84.94
485.99	80.94
486.209	78.94
486.427	94.94
486.645	73.94
486.863	85.94
487.081	90.94
487.299	68.94
487.517	98.94
487.735	95.94
487.953	90.94
488.171	98.94
488.389	80.94
488.607	95.94
488.825	93.94
489.043	79.94
489.261	89.94
489.479	105.94
489.696	93.94
489.914	85.94
490.132	102.94
490.35	81.94
490.568	89.94
490.786	98.94
491.003	106.94
491.221	84.94
491.439	95.94
491.657	105.94
491.874	96.94
492.092	98.94
492.31	107.94
492.527	109.94
492.745	104.94
492.963	110.94
493.18	125.94
493.398	105.94
493.615	96.94
493.833	108.94
494.05	72.94
494.268	108.94
494.485	102.94
494.703	92.94
494.92	80.94
495.138	98.94
495.355	104.94
495.573	100.94
495.79	85.94
496.008	98.94
496.225	84.94
496.442	87.94
496.66	107.94
496.877	99.94
497.094	97.94
497.312	92.94
497.529	81.94
497.746	84.94
497.963	88.94
498.181	102.94
498.398	88.94
498.615	94.94
498.832	94.94
499.049	93.94
499.267	105.94
499.484	104.94
499.701	110.94
499.918	93.94
500.135	94.94
500.352	89.94
500.569	91.94
500.786	97.94
501.003	110.94
501.22	75.94
501.437	92.94
501.654	81.94
501.871	80.94
502.088	106.94
502.305	112.94
502.522	92.94
502.739	97.94
502.956	94.94
503.172	106.94
503.389	100.94
503.606	96.94
503.823	97.94
504.04	86.94
504.256	84.94
504.473	92.94
504.69	102.94
504.907	103.94
505.123	108.94
505.34	91.94
505.557	92.94
505.773	84.94
505.99	94.94
506.207	92.94
506.423	94.94
506.64	106.94
506.856	94.94
507.073	109.94
507.289	102.94
507.506	88.94
507.722	98.94
507.939	86.94
508.155	89.94
508.372	103.94
508.588	105.94
508.805	101.94
509.021	83.94
509.238	91.94
509.454	84.94
509.67	92.94
509.887	90.94
510.103	106.94
510.319	102.94
510.536	97.94
510.752	82.94
510.968	93.94
511.184	94.94
511.401	89.94
511.617	108.94
511.833	102.94
512.049	94.94
512.265	104.94
512.481	88.94
512.698	72.94
512.914	86.94
513.13	95.94
513.346	95.94
513.562	97.94
513.778	93.94
513.994	81.94
514.21	92.94
514.426	88.94
514.642	84.94
514.858	101.94
515.074	103.94
515.29	83.94
515.506	105.94
515.721	92.94
515.937	76.94
516.153	75.94
516.369	72.94
516.585	95.94
516.801	91.94
517.016	86.94
517.232	81.94
517.448	88.94
517.664	94.94
517.879	93.94
518.095	86.94
518.311	98.94
518.527	80.94
518.742	92.94
