Data from KBr_2_HRD10591_00049.txt Node
Date: Mon Jan 19 13:13:15 EST 2026
User: Yrep
Spectrometer: HR+D1059
Trigger mode: 1
Integration Time (sec): 1.000000E-1
Scans to average: 1
Electric dark correction enabled: true
Nonlinearity correction enabled: false
Boxcar width: 0
XAxis mode: Wavelengths
Number of Pixels in Spectrum: 2048
>>>>>Begin Spectral Data<<<<<
223.165	-9.19
223.4	-9.19
223.635	-9.19
223.869	-29.19
224.104	-4.19
224.338	-14.19
224.573	-6.19
224.808	-6.19
225.042	-14.19
225.277	-8.19
225.511	-6.19
225.746	-10.19
225.98	18.81
226.215	15.81
226.449	21.81
226.683	12.81
226.918	16.81
227.152	21.81
227.387	41.81
227.621	47.81
227.856	41.81
228.09	50.81
228.324	49.81
228.559	56.81
228.793	70.81
229.027	57.81
229.262	72.81
229.496	70.81
229.73	84.81
229.964	83.81
230.199	87.81
230.433	83.81
230.667	80.81
230.901	80.81
231.136	92.81
231.37	78.81
231.604	78.81
231.838	88.81
232.072	83.81
232.306	78.81
232.541	83.81
232.775	91.81
233.009	91.81
233.243	94.81
233.477	91.81
233.711	88.81
233.945	90.81
234.179	82.81
234.413	98.81
234.647	90.81
234.881	83.81
235.115	96.81
235.349	95.81
235.583	90.81
235.817	85.81
236.051	83.81
236.285	87.81
236.519	73.81
236.753	91.81
236.987	73.81
237.221	93.81
237.455	96.81
237.689	102.81
237.922	91.81
238.156	101.81
238.39	94.81
238.624	105.81
238.858	86.81
239.091	83.81
239.325	101.81
239.559	97.81
239.793	87.81
240.027	97.81
240.26	88.81
240.494	103.81
240.728	81.81
240.961	90.81
241.195	88.81
241.429	86.81
241.662	84.81
241.896	94.81
242.13	88.81
242.363	105.81
242.597	85.81
242.83	82.81
243.064	85.81
243.298	96.81
243.531	93.81
243.765	104.81
243.998	94.81
244.232	107.81
244.465	107.81
244.699	104.81
244.932	102.81
245.166	89.81
245.399	99.81
245.633	101.81
245.866	114.81
246.099	91.81
246.333	99.81
246.566	99.81
246.8	105.81
247.033	109.81
247.266	113.81
247.5	113.81
247.733	103.81
247.966	102.81
248.2	99.81
248.433	108.81
248.666	104.81
248.899	98.81
249.133	73.81
249.366	104.81
249.599	103.81
249.832	93.81
250.066	105.81
250.299	109.81
250.532	98.81
250.765	111.81
250.998	112.81
251.231	89.81
251.465	108.81
251.698	106.81
251.931	97.81
252.164	114.81
252.397	95.81
252.63	113.81
252.863	123.81
253.096	99.81
253.329	106.81
253.562	98.81
253.795	111.81
254.028	117.81
254.261	108.81
254.494	113.81
254.727	114.81
254.96	99.81
255.193	113.81
255.426	112.81
255.659	108.81
255.892	116.81
256.124	106.81
256.357	115.81
256.59	124.81
256.823	128.81
257.056	120.81
257.289	106.81
257.521	111.81
257.754	112.81
257.987	121.81
258.22	119.81
258.452	125.81
258.685	121.81
258.918	126.81
259.151	109.81
259.383	131.81
259.616	105.81
259.849	125.81
260.081	126.81
260.314	117.81
260.547	128.81
260.779	117.81
261.012	124.81
261.244	115.81
261.477	126.81
261.71	110.81
261.942	131.81
262.175	120.81
262.407	122.81
262.64	135.81
262.872	133.81
263.105	144.81
263.337	134.81
263.57	130.81
263.802	137.81
264.035	121.81
264.267	120.81
264.499	137.81
264.732	123.81
264.964	142.81
265.197	150.81
265.429	129.81
265.661	135.81
265.894	121.81
266.126	129.81
266.358	131.81
266.591	136.81
266.823	133.81
267.055	131.81
267.287	131.81
267.52	128.81
267.752	147.81
267.984	133.81
268.216	139.81
268.448	134.81
268.681	153.81
268.913	136.81
269.145	131.81
269.377	131.81
269.609	128.81
269.841	126.81
270.073	135.81
270.306	143.81
270.538	137.81
270.77	127.81
271.002	141.81
271.234	143.81
271.466	130.81
271.698	135.81
271.93	139.81
272.162	134.81
272.394	137.81
272.626	158.81
272.858	165.81
273.09	131.81
273.322	141.81
273.553	147.81
273.785	149.81
274.017	152.81
274.249	131.81
274.481	153.81
274.713	162.81
274.945	149.81
275.176	129.81
275.408	141.81
275.64	137.81
275.872	166.81
276.104	137.81
276.335	143.81
276.567	146.81
276.799	168.81
277.031	149.81
277.262	146.81
277.494	153.81
277.726	155.81
277.957	159.81
278.189	158.81
278.421	153.81
278.652	154.81
278.884	138.81
279.115	150.81
279.347	145.81
279.579	169.81
279.81	162.81
280.042	161.81
280.273	160.81
280.505	159.81
280.736	179.81
280.968	171.81
281.199	169.81
281.431	146.81
281.662	159.81
281.894	157.81
282.125	179.81
282.356	165.81
282.588	165.81
282.819	174.81
283.051	168.81
283.282	176.81
283.513	162.81
283.745	159.81
283.976	181.81
284.207	159.81
284.439	168.81
284.67	160.81
284.901	150.81
285.132	165.81
285.364	188.81
285.595	181.81
285.826	169.81
286.057	173.81
286.288	169.81
286.52	179.81
286.751	171.81
286.982	180.81
287.213	173.81
287.444	171.81
287.675	169.81
287.906	166.81
288.138	161.81
288.369	176.81
288.6	165.81
288.831	173.81
289.062	180.81
289.293	190.81
289.524	159.81
289.755	182.81
289.986	190.81
290.217	168.81
290.448	185.81
290.679	172.81
290.91	189.81
291.141	177.81
291.371	186.81
291.602	172.81
291.833	189.81
292.064	190.81
292.295	185.81
292.526	185.81
292.757	190.81
292.987	193.81
293.218	193.81
293.449	188.81
293.68	179.81
293.91	183.81
294.141	200.81
294.372	160.81
294.603	183.81
294.833	184.81
295.064	187.81
295.295	200.81
295.525	175.81
295.756	183.81
295.987	170.81
296.217	192.81
296.448	190.81
296.679	198.81
296.909	193.81
297.14	192.81
297.37	202.81
297.601	209.81
297.831	197.81
298.062	190.81
298.292	196.81
298.523	208.81
298.753	195.81
298.984	190.81
299.214	176.81
299.445	193.81
299.675	199.81
299.905	211.81
300.136	215.81
300.366	195.81
300.597	191.81
300.827	211.81
301.057	192.81
301.288	214.81
301.518	205.81
301.748	204.81
301.979	190.81
302.209	193.81
302.439	203.81
302.669	210.81
302.9	200.81
303.13	193.81
303.36	207.81
303.59	210.81
303.82	203.81
304.051	207.81
304.281	213.81
304.511	207.81
304.741	199.81
304.971	211.81
305.201	208.81
305.431	199.81
305.661	208.81
305.891	206.81
306.121	207.81
306.352	221.81
306.582	229.81
306.812	217.81
307.042	224.81
307.272	205.81
307.502	191.81
307.731	205.81
307.961	214.81
308.191	204.81
308.421	219.81
308.651	203.81
308.881	210.81
309.111	210.81
309.341	230.81
309.571	223.81
309.8	217.81
310.03	226.81
310.26	221.81
310.49	213.81
310.72	217.81
310.949	223.81
311.179	221.81
311.409	208.81
311.639	217.81
311.868	208.81
312.098	222.81
312.328	229.81
312.557	222.81
312.787	208.81
313.017	215.81
313.246	236.81
313.476	227.81
313.706	233.81
313.935	224.81
314.165	235.81
314.394	239.81
314.624	237.81
314.853	217.81
315.083	231.81
315.312	226.81
315.542	232.81
315.771	205.81
316.001	222.81
316.23	221.81
316.46	221.81
316.689	215.81
316.919	214.81
317.148	224.81
317.377	227.81
317.607	230.81
317.836	233.81
318.065	229.81
318.295	226.81
318.524	222.81
318.753	239.81
318.983	239.81
319.212	219.81
319.441	243.81
319.67	220.81
319.9	233.81
320.129	229.81
320.358	227.81
320.587	239.81
320.816	224.81
321.046	224.81
321.275	242.81
321.504	238.81
321.733	240.81
321.962	248.81
322.191	241.81
322.42	224.81
322.649	258.81
322.878	259.81
323.108	238.81
323.337	233.81
323.566	255.81
323.795	242.81
324.024	230.81
324.253	221.81
324.482	245.81
324.71	251.81
324.939	264.81
325.168	238.81
325.397	226.81
325.626	231.81
325.855	251.81
326.084	244.81
326.313	255.81
326.542	251.81
326.77	240.81
326.999	248.81
327.228	238.81
327.457	265.81
327.686	247.81
327.914	243.81
328.143	259.81
328.372	240.81
328.6	224.81
328.829	239.81
329.058	242.81
329.287	263.81
329.515	241.81
329.744	256.81
329.972	256.81
330.201	269.81
330.43	258.81
330.658	244.81
330.887	243.81
331.115	268.81
331.344	272.81
331.572	276.81
331.801	273.81
332.03	264.81
332.258	243.81
332.486	262.81
332.715	280.81
332.943	280.81
333.172	271.81
333.4	260.81
333.629	288.81
333.857	285.81
334.085	296.81
334.314	309.81
334.542	286.81
334.771	290.81
334.999	273.81
335.227	303.81
335.455	286.81
335.684	300.81
335.912	285.81
336.14	298.81
336.369	297.81
336.597	283.81
336.825	293.81
337.053	288.81
337.281	278.81
337.51	268.81
337.738	256.81
337.966	286.81
338.194	277.81
338.422	256.81
338.65	280.81
338.878	279.81
339.106	289.81
339.334	301.81
339.562	288.81
339.79	277.81
340.018	286.81
340.246	275.81
340.474	274.81
340.702	285.81
340.93	278.81
341.158	272.81
341.386	286.81
341.614	299.81
341.842	293.81
342.07	280.81
342.298	253.81
342.526	247.81
342.754	287.81
342.981	280.81
343.209	266.81
343.437	288.81
343.665	287.81
343.893	297.81
344.12	318.81
344.348	287.81
344.576	281.81
344.804	301.81
345.031	290.81
345.259	275.81
345.487	282.81
345.714	235.81
345.942	259.81
346.17	258.81
346.397	261.81
346.625	258.81
346.853	263.81
347.08	256.81
347.308	255.81
347.535	263.81
347.763	252.81
347.99	251.81
348.218	275.81
348.445	264.81
348.673	262.81
348.9	245.81
349.128	257.81
349.355	258.81
349.583	258.81
349.81	259.81
350.037	256.81
350.265	262.81
350.492	267.81
350.72	271.81
350.947	259.81
351.174	240.81
351.402	249.81
351.629	274.81
351.856	267.81
352.083	258.81
352.311	271.81
352.538	255.81
352.765	252.81
352.992	282.81
353.22	260.81
353.447	243.81
353.674	269.81
353.901	258.81
354.128	265.81
354.355	266.81
354.583	289.81
354.81	262.81
355.037	269.81
355.264	279.81
355.491	253.81
355.718	254.81
355.945	274.81
356.172	254.81
356.399	266.81
356.626	280.81
356.853	256.81
357.08	246.81
357.307	262.81
357.534	266.81
357.761	251.81
357.988	266.81
358.215	277.81
358.441	259.81
358.668	250.81
358.895	257.81
359.122	271.81
359.349	256.81
359.576	256.81
359.802	266.81
360.029	273.81
360.256	260.81
360.483	264.81
360.709	266.81
360.936	268.81
361.163	269.81
361.39	262.81
361.616	258.81
361.843	263.81
362.07	277.81
362.296	268.81
362.523	274.81
362.749	271.81
362.976	270.81
363.203	258.81
363.429	252.81
363.656	267.81
363.882	254.81
364.109	268.81
364.335	261.81
364.562	272.81
364.788	267.81
365.015	256.81
365.241	263.81
365.468	273.81
365.694	264.81
365.92	279.81
366.147	251.81
366.373	256.81
366.599	259.81
366.826	256.81
367.052	256.81
367.278	272.81
367.505	273.81
367.731	281.81
367.957	272.81
368.184	263.81
368.41	264.81
368.636	289.81
368.862	262.81
369.089	246.81
369.315	249.81
369.541	255.81
369.767	279.81
369.993	273.81
370.219	293.81
370.445	278.81
370.672	293.81
370.898	281.81
371.124	280.81
371.35	290.81
371.576	272.81
371.802	299.81
372.028	283.81
372.254	277.81
372.48	271.81
372.706	292.81
372.932	274.81
373.158	289.81
373.384	290.81
373.61	267.81
373.835	293.81
374.061	301.81
374.287	280.81
374.513	278.81
374.739	278.81
374.965	268.81
375.191	295.81
375.416	288.81
375.642	284.81
375.868	301.81
376.094	280.81
376.319	291.81
376.545	289.81
376.771	294.81
376.997	289.81
377.222	284.81
377.448	287.81
377.674	272.81
377.899	269.81
378.125	274.81
378.35	296.81
378.576	275.81
378.802	283.81
379.027	296.81
379.253	269.81
379.478	289.81
379.704	258.81
379.929	281.81
380.155	276.81
380.38	287.81
380.606	285.81
380.831	292.81
381.057	285.81
381.282	289.81
381.507	290.81
381.733	284.81
381.958	289.81
382.184	304.81
382.409	299.81
382.634	303.81
382.86	298.81
383.085	317.81
383.31	313.81
383.535	311.81
383.761	301.81
383.986	309.81
384.211	305.81
384.436	302.81
384.662	310.81
384.887	312.81
385.112	309.81
385.337	305.81
385.562	314.81
385.787	338.81
386.013	331.81
386.238	302.81
386.463	319.81
386.688	347.81
386.913	311.81
387.138	305.81
387.363	337.81
387.588	291.81
387.813	309.81
388.038	324.81
388.263	333.81
388.488	323.81
388.713	322.81
388.938	329.81
389.163	319.81
389.387	310.81
389.612	317.81
389.837	306.81
390.062	330.81
390.287	315.81
390.512	346.81
390.736	336.81
390.961	334.81
391.186	322.81
391.411	332.81
391.636	341.81
391.86	358.81
392.085	347.81
392.31	318.81
392.534	343.81
392.759	337.81
392.984	340.81
393.208	347.81
393.433	337.81
393.658	353.81
393.882	355.81
394.107	330.81
394.331	332.81
394.556	327.81
394.78	342.81
395.005	348.81
395.229	348.81
395.454	357.81
395.678	351.81
395.903	357.81
396.127	341.81
396.352	358.81
396.576	357.81
396.801	338.81
397.025	346.81
397.249	352.81
397.474	365.81
397.698	367.81
397.922	349.81
398.147	372.81
398.371	361.81
398.595	376.81
398.82	397.81
399.044	399.81
399.268	442.81
399.492	450.81
399.717	467.81
399.941	455.81
400.165	422.81
400.389	422.81
400.613	387.81
400.837	403.81
401.062	378.81
401.286	392.81
401.51	376.81
401.734	361.81
401.958	377.81
402.182	374.81
402.406	368.81
402.63	351.81
402.854	402.81
403.078	396.81
403.302	400.81
403.526	421.81
403.75	422.81
403.974	425.81
404.198	479.81
404.422	585.81
404.645	661.81
404.869	592.81
405.093	500.81
405.317	427.81
405.541	421.81
405.765	398.81
405.988	407.81
406.212	411.81
406.436	405.81
406.66	394.81
406.883	395.81
407.107	413.81
407.331	426.81
407.555	426.81
407.778	409.81
408.002	430.81
408.226	413.81
408.449	402.81
408.673	388.81
408.896	395.81
409.12	392.81
409.344	385.81
409.567	380.81
409.791	384.81
410.014	381.81
410.238	374.81
410.461	394.81
410.685	402.81
410.908	366.81
411.132	405.81
411.355	369.81
411.578	359.81
411.802	378.81
412.025	388.81
412.249	381.81
412.472	362.81
412.695	376.81
412.919	363.81
413.142	360.81
413.365	377.81
413.589	366.81
413.812	357.81
414.035	366.81
414.258	362.81
414.482	366.81
414.705	382.81
414.928	370.81
415.151	377.81
415.374	367.81
415.597	369.81
415.821	353.81
416.044	343.81
416.267	341.81
416.49	353.81
416.713	335.81
416.936	369.81
417.159	362.81
417.382	362.81
417.605	342.81
417.828	369.81
418.051	384.81
418.274	366.81
418.497	368.81
418.72	352.81
418.943	369.81
419.166	400.81
419.389	385.81
419.611	402.81
419.834	381.81
420.057	369.81
420.28	360.81
420.503	335.81
420.726	357.81
420.948	345.81
421.171	359.81
421.394	356.81
421.617	335.81
421.839	360.81
422.062	351.81
422.285	365.81
422.507	372.81
422.73	364.81
422.953	382.81
423.175	337.81
423.398	359.81
423.621	351.81
423.843	366.81
424.066	366.81
424.288	371.81
424.511	345.81
424.733	368.81
424.956	343.81
425.178	352.81
425.401	345.81
425.623	349.81
425.846	337.81
426.068	364.81
426.291	345.81
426.513	363.81
426.735	360.81
426.958	338.81
427.18	346.81
427.402	330.81
427.625	331.81
427.847	334.81
428.069	326.81
428.292	334.81
428.514	335.81
428.736	337.81
428.958	335.81
429.181	337.81
429.403	329.81
429.625	343.81
429.847	337.81
430.069	321.81
430.292	326.81
430.514	326.81
430.736	344.81
430.958	318.81
431.18	322.81
431.402	330.81
431.624	322.81
431.846	314.81
432.068	315.81
432.29	319.81
432.512	337.81
432.734	323.81
432.956	323.81
433.178	331.81
433.4	331.81
433.622	345.81
433.844	323.81
434.066	330.81
434.287	338.81
434.509	332.81
434.731	331.81
434.953	332.81
435.175	355.81
435.397	354.81
435.618	338.81
435.84	334.81
436.062	341.81
436.284	336.81
436.505	337.81
436.727	328.81
436.949	331.81
437.17	316.81
437.392	323.81
437.614	326.81
437.835	322.81
438.057	329.81
438.278	317.81
438.5	322.81
438.721	319.81
438.943	318.81
439.165	308.81
439.386	331.81
439.608	315.81
439.829	332.81
440.05	325.81
440.272	324.81
440.493	310.81
440.715	339.81
440.936	341.81
441.158	346.81
441.379	336.81
441.6	362.81
441.822	346.81
442.043	353.81
442.264	340.81
442.486	339.81
442.707	337.81
442.928	331.81
443.149	335.81
443.371	352.81
443.592	358.81
443.813	358.81
444.034	330.81
444.255	332.81
444.476	354.81
444.698	370.81
444.919	368.81
445.14	461.81
445.361	369.81
445.582	353.81
445.803	366.81
446.024	325.81
446.245	341.81
446.466	321.81
446.687	331.81
446.908	324.81
447.129	332.81
447.35	317.81
447.571	320.81
447.792	301.81
448.013	305.81
448.234	302.81
448.455	318.81
448.675	311.81
448.896	309.81
449.117	316.81
449.338	296.81
449.559	309.81
449.779	320.81
450	310.81
450.221	309.81
450.442	311.81
450.662	317.81
450.883	306.81
451.104	303.81
451.324	295.81
451.545	303.81
451.766	304.81
451.986	306.81
452.207	310.81
452.428	299.81
452.648	300.81
452.869	301.81
453.089	302.81
453.31	285.81
453.53	289.81
453.751	307.81
453.971	309.81
454.192	288.81
454.412	295.81
454.633	311.81
454.853	293.81
455.073	286.81
455.294	299.81
455.514	301.81
455.734	303.81
455.955	308.81
456.175	293.81
456.395	298.81
456.616	312.81
456.836	285.81
457.056	301.81
457.276	282.81
457.497	285.81
457.717	281.81
457.937	295.81
458.157	297.81
458.377	310.81
458.598	311.81
458.818	316.81
459.038	320.81
459.258	333.81
459.478	324.81
459.698	316.81
459.918	337.81
460.138	351.81
460.358	334.81
460.578	339.81
460.798	349.81
461.018	386.81
461.238	352.81
461.458	367.81
461.678	361.81
461.898	349.81
462.118	371.81
462.338	371.81
462.558	376.81
462.777	391.81
462.997	393.81
463.217	424.81
463.437	415.81
463.657	399.81
463.876	406.81
464.096	398.81
464.316	388.81
464.536	394.81
464.755	368.81
464.975	386.81
465.195	343.81
465.414	355.81
465.634	336.81
465.854	332.81
466.073	341.81
466.293	335.81
466.512	325.81
466.732	351.81
466.951	332.81
467.171	335.81
467.391	346.81
467.61	346.81
467.829	338.81
468.049	345.81
468.268	323.81
468.488	338.81
468.707	336.81
468.927	337.81
469.146	338.81
469.365	337.81
469.585	351.81
469.804	348.81
470.023	360.81
470.243	371.81
470.462	367.81
470.681	384.81
470.901	373.81
471.12	355.81
471.339	355.81
471.558	336.81
471.777	332.81
471.997	331.81
472.216	338.81
472.435	333.81
472.654	324.81
472.873	337.81
473.092	330.81
473.311	317.81
473.53	350.81
473.749	334.81
473.968	338.81
474.187	334.81
474.406	319.81
474.625	331.81
474.844	349.81
475.063	328.81
475.282	335.81
475.501	341.81
475.72	339.81
475.939	354.81
476.158	347.81
476.377	372.81
476.596	357.81
476.814	367.81
477.033	352.81
477.252	357.81
477.471	355.81
477.69	383.81
477.908	391.81
478.127	397.81
478.346	416.81
478.564	408.81
478.783	424.81
479.002	432.81
479.22	382.81
479.439	393.81
479.658	377.81
479.876	395.81
480.095	373.81
480.313	409.81
480.532	416.81
480.751	399.81
480.969	399.81
481.188	395.81
481.406	408.81
481.624	393.81
481.843	374.81
482.061	387.81
482.28	380.81
482.498	394.81
482.717	395.81
482.935	377.81
483.153	359.81
483.372	389.81
483.59	365.81
483.808	369.81
484.027	368.81
484.245	370.81
484.463	372.81
484.681	390.81
484.9	395.81
485.118	377.81
485.336	386.81
485.554	371.81
485.772	375.81
485.99	393.81
486.209	388.81
486.427	375.81
486.645	382.81
486.863	359.81
487.081	368.81
487.299	385.81
487.517	368.81
487.735	377.81
487.953	384.81
488.171	383.81
488.389	391.81
488.607	401.81
488.825	375.81
489.043	388.81
489.261	367.81
489.479	361.81
489.696	394.81
489.914	383.81
490.132	391.81
490.35	401.81
490.568	386.81
490.786	400.81
491.003	366.81
491.221	395.81
491.439	390.81
491.657	404.81
491.874	400.81
492.092	403.81
492.31	418.81
492.527	437.81
492.745	406.81
492.963	413.81
493.18	407.81
493.398	423.81
493.615	415.81
493.833	413.81
494.05	416.81
494.268	406.81
494.485	410.81
494.703	411.81
494.92	410.81
495.138	409.81
495.355	402.81
495.573	415.81
495.79	412.81
496.008	422.81
496.225	435.81
496.442	423.81
496.66	441.81
496.877	441.81
497.094	435.81
497.312	421.81
497.529	465.81
497.746	464.81
497.963	450.81
498.181	454.81
498.398	463.81
498.615	487.81
498.832	503.81
499.049	524.81
499.267	542.81
499.484	574.81
499.701	603.81
499.918	648.81
500.135	690.81
500.352	736.81
500.569	722.81
500.786	727.81
501.003	684.81
501.22	641.81
501.437	648.81
501.654	609.81
501.871	552.81
502.088	517.81
502.305	511.81
502.522	498.81
502.739	467.81
502.956	472.81
503.172	472.81
503.389	453.81
503.606	447.81
503.823	420.81
