Data from KBr_2_HRD10591_00045.txt Node
Date: Mon Jan 19 13:13:13 EST 2026
User: Yrep
Spectrometer: HR+D1059
Trigger mode: 1
Integration Time (sec): 1.000000E-1
Scans to average: 1
Electric dark correction enabled: true
Nonlinearity correction enabled: false
Boxcar width: 0
XAxis mode: Wavelengths
Number of Pixels in Spectrum: 2048
>>>>>Begin Spectral Data<<<<<
223.165	-8.19
223.4	-8.19
223.635	-8.19
223.869	-25.19
224.104	-12.19
224.338	-10.19
224.573	-12.19
224.808	-21.19
225.042	-3.19
225.277	-10.19
225.511	-11.19
225.746	-7.19
225.98	14.81
226.215	11.81
226.449	19.81
226.683	24.81
226.918	8.81
227.152	40.81
227.387	38.81
227.621	47.81
227.856	27.81
228.09	50.81
228.324	54.81
228.559	63.81
228.793	56.81
229.027	63.81
229.262	62.81
229.496	68.81
229.73	74.81
229.964	67.81
230.199	87.81
230.433	70.81
230.667	82.81
230.901	77.81
231.136	77.81
231.37	80.81
231.604	80.81
231.838	97.81
232.072	82.81
232.306	67.81
232.541	83.81
232.775	65.81
233.009	81.81
233.243	80.81
233.477	76.81
233.711	74.81
233.945	93.81
234.179	71.81
234.413	69.81
234.647	82.81
234.881	71.81
235.115	64.81
235.349	79.81
235.583	72.81
235.817	73.81
236.051	72.81
236.285	85.81
236.519	79.81
236.753	84.81
236.987	78.81
237.221	79.81
237.455	70.81
237.689	71.81
237.922	82.81
238.156	75.81
238.39	75.81
238.624	88.81
238.858	84.81
239.091	73.81
239.325	68.81
239.559	76.81
239.793	70.81
240.027	64.81
240.26	71.81
240.494	72.81
240.728	78.81
240.961	72.81
241.195	81.81
241.429	78.81
241.662	72.81
241.896	71.81
242.13	71.81
242.363	76.81
242.597	90.81
242.83	66.81
243.064	73.81
243.298	72.81
243.531	63.81
243.765	72.81
243.998	75.81
244.232	72.81
244.465	76.81
244.699	72.81
244.932	68.81
245.166	65.81
245.399	82.81
245.633	84.81
245.866	73.81
246.099	68.81
246.333	87.81
246.566	77.81
246.8	62.81
247.033	84.81
247.266	76.81
247.5	84.81
247.733	77.81
247.966	80.81
248.2	68.81
248.433	74.81
248.666	73.81
248.899	79.81
249.133	78.81
249.366	81.81
249.599	82.81
249.832	81.81
250.066	90.81
250.299	77.81
250.532	71.81
250.765	75.81
250.998	70.81
251.231	74.81
251.465	72.81
251.698	82.81
251.931	66.81
252.164	91.81
252.397	64.81
252.63	87.81
252.863	71.81
253.096	52.81
253.329	69.81
253.562	78.81
253.795	66.81
254.028	78.81
254.261	86.81
254.494	66.81
254.727	68.81
254.96	91.81
255.193	80.81
255.426	74.81
255.659	62.81
255.892	71.81
256.124	84.81
256.357	76.81
256.59	87.81
256.823	77.81
257.056	85.81
257.289	75.81
257.521	72.81
257.754	80.81
257.987	77.81
258.22	67.81
258.452	94.81
258.685	59.81
258.918	75.81
259.151	84.81
259.383	90.81
259.616	63.81
259.849	92.81
260.081	83.81
260.314	82.81
260.547	78.81
260.779	68.81
261.012	65.81
261.244	88.81
261.477	104.81
261.71	79.81
261.942	87.81
262.175	74.81
262.407	66.81
262.64	75.81
262.872	78.81
263.105	79.81
263.337	83.81
263.57	87.81
263.802	88.81
264.035	87.81
264.267	69.81
264.499	75.81
264.732	72.81
264.964	79.81
265.197	81.81
265.429	76.81
265.661	67.81
265.894	78.81
266.126	79.81
266.358	75.81
266.591	88.81
266.823	84.81
267.055	68.81
267.287	80.81
267.52	67.81
267.752	89.81
267.984	91.81
268.216	80.81
268.448	72.81
268.681	82.81
268.913	74.81
269.145	76.81
269.377	74.81
269.609	75.81
269.841	86.81
270.073	90.81
270.306	72.81
270.538	88.81
270.77	95.81
271.002	84.81
271.234	91.81
271.466	72.81
271.698	70.81
271.93	92.81
272.162	78.81
272.394	84.81
272.626	74.81
272.858	84.81
273.09	84.81
273.322	88.81
273.553	75.81
273.785	81.81
274.017	80.81
274.249	81.81
274.481	79.81
274.713	72.81
274.945	81.81
275.176	82.81
275.408	95.81
275.64	79.81
275.872	82.81
276.104	88.81
276.335	85.81
276.567	86.81
276.799	79.81
277.031	80.81
277.262	90.81
277.494	87.81
277.726	88.81
277.957	88.81
278.189	87.81
278.421	82.81
278.652	78.81
278.884	87.81
279.115	86.81
279.347	79.81
279.579	74.81
279.81	82.81
280.042	101.81
280.273	80.81
280.505	78.81
280.736	86.81
280.968	82.81
281.199	79.81
281.431	89.81
281.662	73.81
281.894	69.81
282.125	93.81
282.356	71.81
282.588	97.81
282.819	93.81
283.051	74.81
283.282	86.81
283.513	69.81
283.745	78.81
283.976	99.81
284.207	88.81
284.439	92.81
284.67	85.81
284.901	68.81
285.132	70.81
285.364	63.81
285.595	77.81
285.826	76.81
286.057	88.81
286.288	84.81
286.52	71.81
286.751	67.81
286.982	83.81
287.213	93.81
287.444	98.81
287.675	84.81
287.906	85.81
288.138	78.81
288.369	85.81
288.6	90.81
288.831	95.81
289.062	93.81
289.293	69.81
289.524	91.81
289.755	81.81
289.986	75.81
290.217	70.81
290.448	92.81
290.679	74.81
290.91	80.81
291.141	86.81
291.371	93.81
291.602	92.81
291.833	70.81
292.064	74.81
292.295	95.81
292.526	77.81
292.757	82.81
292.987	73.81
293.218	88.81
293.449	80.81
293.68	86.81
293.91	80.81
294.141	84.81
294.372	91.81
294.603	89.81
294.833	87.81
295.064	76.81
295.295	94.81
295.525	79.81
295.756	76.81
295.987	83.81
296.217	86.81
296.448	80.81
296.679	82.81
296.909	74.81
297.14	79.81
297.37	83.81
297.601	73.81
297.831	63.81
298.062	72.81
298.292	74.81
298.523	77.81
298.753	85.81
298.984	85.81
299.214	80.81
299.445	79.81
299.675	66.81
299.905	72.81
300.136	75.81
300.366	77.81
300.597	77.81
300.827	77.81
301.057	80.81
301.288	86.81
301.518	63.81
301.748	84.81
301.979	98.81
302.209	88.81
302.439	77.81
302.669	71.81
302.9	71.81
303.13	82.81
303.36	75.81
303.59	87.81
303.82	90.81
304.051	85.81
304.281	83.81
304.511	88.81
304.741	81.81
304.971	78.81
305.201	76.81
305.431	89.81
305.661	90.81
305.891	88.81
306.121	82.81
306.352	75.81
306.582	84.81
306.812	87.81
307.042	80.81
307.272	76.81
307.502	92.81
307.731	102.81
307.961	95.81
308.191	80.81
308.421	70.81
308.651	74.81
308.881	93.81
309.111	81.81
309.341	74.81
309.571	65.81
309.8	80.81
310.03	71.81
310.26	80.81
310.49	80.81
310.72	87.81
310.949	80.81
311.179	87.81
311.409	76.81
311.639	72.81
311.868	72.81
312.098	73.81
312.328	84.81
312.557	90.81
312.787	79.81
313.017	68.81
313.246	92.81
313.476	70.81
313.706	87.81
313.935	79.81
314.165	78.81
314.394	85.81
314.624	70.81
314.853	73.81
315.083	98.81
315.312	94.81
315.542	76.81
315.771	75.81
316.001	91.81
316.23	72.81
316.46	68.81
316.689	84.81
316.919	81.81
317.148	74.81
317.377	73.81
317.607	81.81
317.836	87.81
318.065	68.81
318.295	91.81
318.524	76.81
318.753	85.81
318.983	89.81
319.212	79.81
319.441	80.81
319.67	86.81
319.9	90.81
320.129	78.81
320.358	79.81
320.587	78.81
320.816	80.81
321.046	72.81
321.275	83.81
321.504	79.81
321.733	65.81
321.962	70.81
322.191	91.81
322.42	80.81
322.649	87.81
322.878	88.81
323.108	99.81
323.337	84.81
323.566	84.81
323.795	83.81
324.024	87.81
324.253	82.81
324.482	79.81
324.71	84.81
324.939	82.81
325.168	79.81
325.397	86.81
325.626	87.81
325.855	92.81
326.084	91.81
326.313	90.81
326.542	91.81
326.77	76.81
326.999	77.81
327.228	78.81
327.457	80.81
327.686	82.81
327.914	78.81
328.143	85.81
328.372	79.81
328.6	80.81
328.829	83.81
329.058	79.81
329.287	81.81
329.515	64.81
329.744	82.81
329.972	86.81
330.201	88.81
330.43	80.81
330.658	84.81
330.887	86.81
331.115	88.81
331.344	101.81
331.572	88.81
331.801	85.81
332.03	78.81
332.258	86.81
332.486	87.81
332.715	81.81
332.943	85.81
333.172	84.81
333.4	89.81
333.629	90.81
333.857	80.81
334.085	84.81
334.314	89.81
334.542	89.81
334.771	64.81
334.999	86.81
335.227	90.81
335.455	84.81
335.684	86.81
335.912	95.81
336.14	86.81
336.369	86.81
336.597	79.81
336.825	79.81
337.053	83.81
337.281	77.81
337.51	80.81
337.738	92.81
337.966	79.81
338.194	76.81
338.422	88.81
338.65	92.81
338.878	87.81
339.106	83.81
339.334	95.81
339.562	71.81
339.79	71.81
340.018	81.81
340.246	80.81
340.474	84.81
340.702	69.81
340.93	90.81
341.158	82.81
341.386	82.81
341.614	82.81
341.842	100.81
342.07	89.81
342.298	78.81
342.526	85.81
342.754	90.81
342.981	93.81
343.209	75.81
343.437	90.81
343.665	90.81
343.893	85.81
344.12	99.81
344.348	88.81
344.576	77.81
344.804	96.81
345.031	93.81
345.259	78.81
345.487	82.81
345.714	75.81
345.942	78.81
346.17	107.81
346.397	91.81
346.625	80.81
346.853	83.81
347.08	83.81
347.308	81.81
347.535	90.81
347.763	85.81
347.99	74.81
348.218	77.81
348.445	81.81
348.673	79.81
348.9	84.81
349.128	85.81
349.355	78.81
349.583	89.81
349.81	90.81
350.037	87.81
350.265	88.81
350.492	83.81
350.72	85.81
350.947	78.81
351.174	89.81
351.402	87.81
351.629	94.81
351.856	84.81
352.083	79.81
352.311	96.81
352.538	87.81
352.765	89.81
352.992	80.81
353.22	84.81
353.447	91.81
353.674	87.81
353.901	69.81
354.128	95.81
354.355	85.81
354.583	87.81
354.81	87.81
355.037	85.81
355.264	86.81
355.491	79.81
355.718	82.81
355.945	87.81
356.172	73.81
356.399	89.81
356.626	84.81
356.853	82.81
357.08	95.81
357.307	83.81
357.534	85.81
357.761	85.81
357.988	91.81
358.215	104.81
358.441	84.81
358.668	74.81
358.895	76.81
359.122	83.81
359.349	87.81
359.576	79.81
359.802	85.81
360.029	87.81
360.256	89.81
360.483	93.81
360.709	80.81
360.936	84.81
361.163	72.81
361.39	80.81
361.616	88.81
361.843	90.81
362.07	83.81
362.296	90.81
362.523	76.81
362.749	80.81
362.976	87.81
363.203	86.81
363.429	87.81
363.656	94.81
363.882	83.81
364.109	80.81
364.335	84.81
364.562	90.81
364.788	94.81
365.015	84.81
365.241	84.81
365.468	82.81
365.694	84.81
365.92	74.81
366.147	73.81
366.373	92.81
366.599	86.81
366.826	76.81
367.052	91.81
367.278	84.81
367.505	83.81
367.731	87.81
367.957	89.81
368.184	80.81
368.41	76.81
368.636	88.81
368.862	62.81
369.089	70.81
369.315	88.81
369.541	92.81
369.767	95.81
369.993	99.81
370.219	65.81
370.445	85.81
370.672	93.81
370.898	101.81
371.124	84.81
371.35	68.81
371.576	90.81
371.802	81.81
372.028	85.81
372.254	91.81
372.48	80.81
372.706	83.81
372.932	66.81
373.158	99.81
373.384	86.81
373.61	88.81
373.835	77.81
374.061	84.81
374.287	72.81
374.513	70.81
374.739	88.81
374.965	86.81
375.191	86.81
375.416	83.81
375.642	86.81
375.868	88.81
376.094	108.81
376.319	98.81
376.545	89.81
376.771	85.81
376.997	74.81
377.222	75.81
377.448	99.81
377.674	81.81
377.899	82.81
378.125	77.81
378.35	66.81
378.576	87.81
378.802	77.81
379.027	82.81
379.253	86.81
379.478	106.81
379.704	92.81
379.929	89.81
380.155	83.81
380.38	94.81
380.606	81.81
380.831	83.81
381.057	83.81
381.282	90.81
381.507	74.81
381.733	79.81
381.958	96.81
382.184	78.81
382.409	61.81
382.634	80.81
382.86	96.81
383.085	92.81
383.31	79.81
383.535	78.81
383.761	87.81
383.986	74.81
384.211	84.81
384.436	78.81
384.662	74.81
384.887	89.81
385.112	90.81
385.337	86.81
385.562	92.81
385.787	90.81
386.013	75.81
386.238	78.81
386.463	73.81
386.688	88.81
386.913	80.81
387.138	82.81
387.363	86.81
387.588	86.81
387.813	76.81
388.038	83.81
388.263	85.81
388.488	71.81
388.713	79.81
388.938	77.81
389.163	84.81
389.387	75.81
389.612	75.81
389.837	80.81
390.062	85.81
390.287	80.81
390.512	80.81
390.736	85.81
390.961	76.81
391.186	86.81
391.411	77.81
391.636	73.81
391.86	75.81
392.085	86.81
392.31	84.81
392.534	77.81
392.759	78.81
392.984	98.81
393.208	90.81
393.433	94.81
393.658	86.81
393.882	86.81
394.107	82.81
394.331	87.81
394.556	69.81
394.78	75.81
395.005	85.81
395.229	90.81
395.454	83.81
395.678	84.81
395.903	88.81
396.127	80.81
396.352	89.81
396.576	82.81
396.801	76.81
397.025	111.81
397.249	67.81
397.474	77.81
397.698	90.81
397.922	77.81
398.147	76.81
398.371	86.81
398.595	59.81
398.82	86.81
399.044	86.81
399.268	93.81
399.492	76.81
399.717	86.81
399.941	89.81
400.165	89.81
400.389	100.81
400.613	84.81
400.837	75.81
401.062	83.81
401.286	91.81
401.51	78.81
401.734	82.81
401.958	75.81
402.182	100.81
402.406	88.81
402.63	72.81
402.854	71.81
403.078	84.81
403.302	68.81
403.526	100.81
403.75	76.81
403.974	102.81
404.198	117.81
404.422	150.81
404.645	150.81
404.869	148.81
405.093	114.81
405.317	93.81
405.541	83.81
405.765	76.81
405.988	93.81
406.212	86.81
406.436	96.81
406.66	55.81
406.883	78.81
407.107	84.81
407.331	78.81
407.555	92.81
407.778	80.81
408.002	76.81
408.226	80.81
408.449	83.81
408.673	82.81
408.896	82.81
409.12	84.81
409.344	83.81
409.567	87.81
409.791	89.81
410.014	100.81
410.238	88.81
410.461	84.81
410.685	80.81
410.908	79.81
411.132	68.81
411.355	87.81
411.578	91.81
411.802	89.81
412.025	82.81
412.249	78.81
412.472	86.81
412.695	76.81
412.919	83.81
413.142	91.81
413.365	84.81
413.589	84.81
413.812	81.81
414.035	90.81
414.258	83.81
414.482	83.81
414.705	76.81
414.928	87.81
415.151	72.81
415.374	64.81
415.597	90.81
415.821	86.81
416.044	84.81
416.267	77.81
416.49	77.81
416.713	101.81
416.936	74.81
417.159	79.81
417.382	74.81
417.605	86.81
417.828	81.81
418.051	71.81
418.274	82.81
418.497	74.81
418.72	72.81
418.943	93.81
419.166	90.81
419.389	76.81
419.611	87.81
419.834	90.81
420.057	79.81
420.28	75.81
420.503	77.81
420.726	80.81
420.948	83.81
421.171	89.81
421.394	76.81
421.617	84.81
421.839	79.81
422.062	88.81
422.285	86.81
422.507	70.81
422.73	72.81
422.953	78.81
423.175	89.81
423.398	96.81
423.621	91.81
423.843	92.81
424.066	88.81
424.288	84.81
424.511	90.81
424.733	76.81
424.956	80.81
425.178	89.81
425.401	78.81
425.623	94.81
425.846	87.81
426.068	77.81
426.291	77.81
426.513	78.81
426.735	77.81
426.958	86.81
427.18	75.81
427.402	81.81
427.625	79.81
427.847	80.81
428.069	83.81
428.292	90.81
428.514	69.81
428.736	84.81
428.958	78.81
429.181	68.81
429.403	74.81
429.625	93.81
429.847	71.81
430.069	88.81
430.292	93.81
430.514	86.81
430.736	82.81
430.958	83.81
431.18	80.81
431.402	76.81
431.624	88.81
431.846	88.81
432.068	65.81
432.29	85.81
432.512	88.81
432.734	75.81
432.956	76.81
433.178	90.81
433.4	66.81
433.622	82.81
433.844	79.81
434.066	98.81
434.287	83.81
434.509	72.81
434.731	82.81
434.953	90.81
435.175	82.81
435.397	81.81
435.618	90.81
435.84	78.81
436.062	94.81
436.284	84.81
436.505	80.81
436.727	89.81
436.949	95.81
437.17	75.81
437.392	75.81
437.614	89.81
437.835	91.81
438.057	88.81
438.278	91.81
438.5	75.81
438.721	82.81
438.943	98.81
439.165	91.81
439.386	70.81
439.608	98.81
439.829	86.81
440.05	76.81
440.272	93.81
440.493	94.81
440.715	87.81
440.936	94.81
441.158	93.81
441.379	83.81
441.6	94.81
441.822	74.81
442.043	81.81
442.264	79.81
442.486	71.81
442.707	89.81
442.928	84.81
443.149	80.81
443.371	85.81
443.592	90.81
443.813	77.81
444.034	79.81
444.255	72.81
444.476	86.81
444.698	87.81
444.919	91.81
445.14	153.81
445.361	116.81
445.582	91.81
445.803	91.81
446.024	72.81
446.245	77.81
446.466	90.81
446.687	72.81
446.908	80.81
447.129	69.81
447.35	78.81
447.571	92.81
447.792	67.81
448.013	93.81
448.234	96.81
448.455	69.81
448.675	83.81
448.896	86.81
449.117	74.81
449.338	89.81
449.559	98.81
449.779	92.81
450	95.81
450.221	85.81
450.442	91.81
450.662	77.81
450.883	92.81
451.104	86.81
451.324	86.81
451.545	79.81
451.766	73.81
451.986	78.81
452.207	87.81
452.428	81.81
452.648	86.81
452.869	70.81
453.089	78.81
453.31	88.81
453.53	105.81
453.751	88.81
453.971	84.81
454.192	71.81
454.412	85.81
454.633	86.81
454.853	91.81
455.073	82.81
455.294	74.81
455.514	87.81
455.734	86.81
455.955	70.81
456.175	90.81
456.395	75.81
456.616	76.81
456.836	85.81
457.056	80.81
457.276	66.81
457.497	100.81
457.717	98.81
457.937	86.81
458.157	80.81
458.377	81.81
458.598	59.81
458.818	75.81
459.038	74.81
459.258	76.81
459.478	69.81
459.698	78.81
459.918	88.81
460.138	93.81
460.358	86.81
460.578	79.81
460.798	87.81
461.018	81.81
461.238	73.81
461.458	88.81
461.678	81.81
461.898	90.81
462.118	91.81
462.338	98.81
462.558	80.81
462.777	93.81
462.997	78.81
463.217	86.81
463.437	77.81
463.657	85.81
463.876	104.81
464.096	84.81
464.316	76.81
464.536	82.81
464.755	84.81
464.975	64.81
465.195	73.81
465.414	84.81
465.634	78.81
465.854	93.81
466.073	92.81
466.293	71.81
466.512	82.81
466.732	93.81
466.951	76.81
467.171	84.81
467.391	78.81
467.61	84.81
467.829	83.81
468.049	90.81
468.268	84.81
468.488	81.81
468.707	82.81
468.927	75.81
469.146	82.81
469.365	86.81
469.585	82.81
469.804	81.81
470.023	96.81
470.243	87.81
470.462	77.81
470.681	72.81
470.901	76.81
471.12	80.81
471.339	90.81
471.558	75.81
471.777	95.81
471.997	78.81
472.216	83.81
472.435	84.81
472.654	78.81
472.873	85.81
473.092	94.81
473.311	79.81
473.53	90.81
473.749	88.81
473.968	94.81
474.187	87.81
474.406	73.81
474.625	73.81
474.844	98.81
475.063	92.81
475.282	79.81
475.501	88.81
475.72	98.81
475.939	103.81
476.158	87.81
476.377	82.81
476.596	89.81
476.814	83.81
477.033	96.81
477.252	82.81
477.471	88.81
477.69	80.81
477.908	82.81
478.127	85.81
478.346	83.81
478.564	81.81
478.783	75.81
479.002	86.81
479.22	72.81
479.439	101.81
479.658	87.81
479.876	76.81
480.095	76.81
480.313	82.81
480.532	80.81
480.751	93.81
480.969	76.81
481.188	80.81
481.406	86.81
481.624	88.81
481.843	75.81
482.061	87.81
482.28	84.81
482.498	86.81
482.717	91.81
482.935	82.81
483.153	87.81
483.372	93.81
483.59	88.81
483.808	89.81
484.027	87.81
484.245	99.81
484.463	76.81
484.681	83.81
484.9	92.81
485.118	87.81
485.336	90.81
485.554	88.81
485.772	90.81
485.99	90.81
486.209	88.81
486.427	80.81
486.645	73.81
486.863	82.81
487.081	94.81
487.299	87.81
487.517	102.81
487.735	85.81
487.953	83.81
488.171	88.81
488.389	85.81
488.607	86.81
488.825	83.81
489.043	78.81
489.261	87.81
489.479	91.81
489.696	83.81
489.914	78.81
490.132	74.81
490.35	86.81
490.568	85.81
490.786	94.81
491.003	94.81
491.221	95.81
491.439	84.81
491.657	100.81
491.874	91.81
492.092	90.81
492.31	92.81
492.527	75.81
492.745	70.81
492.963	100.81
493.18	97.81
493.398	84.81
493.615	82.81
493.833	101.81
494.05	91.81
494.268	87.81
494.485	89.81
494.703	86.81
494.92	92.81
495.138	76.81
495.355	85.81
495.573	86.81
495.79	89.81
496.008	95.81
496.225	88.81
496.442	92.81
496.66	94.81
496.877	91.81
497.094	101.81
497.312	94.81
497.529	82.81
497.746	80.81
497.963	82.81
498.181	80.81
498.398	77.81
498.615	90.81
498.832	91.81
499.049	84.81
499.267	83.81
499.484	80.81
499.701	89.81
499.918	93.81
500.135	82.81
500.352	88.81
500.569	79.81
500.786	84.81
501.003	86.81
501.22	79.81
501.437	88.81
501.654	78.81
501.871	88.81
502.088	79.81
502.305	84.81
502.522	86.81
502.739	90.81
502.956	81.81
503.172	95.81
503.389	82.81
503.606	80.81
503.823	86.81
504.04	81.81
504.256	76.81
504.473	86.81
504.69	87.81
504.907	96.81
505.123	71.81
505.34	75.81
505.557	82.81
505.773	102.81
505.99	88.81
506.207	78.81
506.423	95.81
506.64	98.81
506.856	83.81
507.073	70.81
507.289	78.81
507.506	91.81
507.722	83.81
507.939	89.81
508.155	95.81
508.372	75.81
508.588	86.81
508.805	90.81
509.021	93.81
509.238	93.81
509.454	102.81
509.67	92.81
509.887	85.81
510.103	101.81
510.319	85.81
510.536	86.81
510.752	87.81
510.968	86.81
511.184	86.81
511.401	96.81
511.617	82.81
511.833	79.81
512.049	76.81
512.265	84.81
512.481	88.81
512.698	99.81
512.914	95.81
513.13	80.81
513.346	85.81
513.562	87.81
513.778	79.81
513.994	85.81
514.21	92.81
514.426	75.81
514.642	77.81
514.858	79.81
515.074	86.81
515.29	93.81
515.506	80.81
515.721	70.81
515.937	82.81
516.153	78.81
516.369	97.81
516.585	73.81
516.801	75.81
517.016	87.81
517.232	77.81
517.448	79.81
517.664	77.81
517.879	66.81
518.095	78.81
518.311	82.81
518.527	75.81
518.742	88.81
518.958	101.81
519.173	84.81
519.389	83.81
519.605	95.81
519.82	77.81
