Data from KBr_2_HRD10591_00017.txt Node
Date: Mon Jan 19 13:12:59 EST 2026
User: Yrep
Spectrometer: HR+D1059
Trigger mode: 1
Integration Time (sec): 1.000000E-1
Scans to average: 1
Electric dark correction enabled: true
Nonlinearity correction enabled: false
Boxcar width: 0
XAxis mode: Wavelengths
Number of Pixels in Spectrum: 2048
>>>>>Begin Spectral Data<<<<<
223.165	-14.25
223.4	-14.25
223.635	-14.25
223.869	-19.25
224.104	-1.25
224.338	-27.25
224.573	-22.25
224.808	-20.25
225.042	-12.25
225.277	6.75
225.511	-1.25
225.746	0.75
225.98	12.75
226.215	15.75
226.449	30.75
226.683	6.75
226.918	22.75
227.152	21.75
227.387	37.75
227.621	40.75
227.856	48.75
228.09	59.75
228.324	52.75
228.559	60.75
228.793	65.75
229.027	64.75
229.262	66.75
229.496	50.75
229.73	62.75
229.964	56.75
230.199	74.75
230.433	65.75
230.667	67.75
230.901	72.75
231.136	85.75
231.37	73.75
231.604	80.75
231.838	76.75
232.072	83.75
232.306	80.75
232.541	80.75
232.775	73.75
233.009	77.75
233.243	70.75
233.477	76.75
233.711	76.75
233.945	73.75
234.179	76.75
234.413	86.75
234.647	83.75
234.881	78.75
235.115	73.75
235.349	78.75
235.583	70.75
235.817	80.75
236.051	79.75
236.285	80.75
236.519	84.75
236.753	79.75
236.987	74.75
237.221	64.75
237.455	65.75
237.689	69.75
237.922	84.75
238.156	71.75
238.39	73.75
238.624	87.75
238.858	76.75
239.091	69.75
239.325	72.75
239.559	78.75
239.793	67.75
240.027	84.75
240.26	91.75
240.494	69.75
240.728	78.75
240.961	74.75
241.195	88.75
241.429	94.75
241.662	68.75
241.896	66.75
242.13	70.75
242.363	84.75
242.597	64.75
242.83	76.75
243.064	67.75
243.298	70.75
243.531	72.75
243.765	64.75
243.998	78.75
244.232	63.75
244.465	74.75
244.699	72.75
244.932	69.75
245.166	68.75
245.399	86.75
245.633	74.75
245.866	81.75
246.099	68.75
246.333	92.75
246.566	71.75
246.8	77.75
247.033	63.75
247.266	80.75
247.5	86.75
247.733	84.75
247.966	77.75
248.2	73.75
248.433	71.75
248.666	66.75
248.899	86.75
249.133	78.75
249.366	69.75
249.599	82.75
249.832	80.75
250.066	69.75
250.299	73.75
250.532	81.75
250.765	79.75
250.998	69.75
251.231	91.75
251.465	77.75
251.698	83.75
251.931	80.75
252.164	79.75
252.397	81.75
252.63	96.75
252.863	77.75
253.096	81.75
253.329	78.75
253.562	80.75
253.795	72.75
254.028	79.75
254.261	58.75
254.494	81.75
254.727	73.75
254.96	80.75
255.193	96.75
255.426	86.75
255.659	80.75
255.892	85.75
256.124	74.75
256.357	75.75
256.59	74.75
256.823	66.75
257.056	72.75
257.289	91.75
257.521	76.75
257.754	85.75
257.987	90.75
258.22	90.75
258.452	83.75
258.685	83.75
258.918	82.75
259.151	79.75
259.383	78.75
259.616	81.75
259.849	87.75
260.081	84.75
260.314	79.75
260.547	81.75
260.779	76.75
261.012	79.75
261.244	63.75
261.477	70.75
261.71	77.75
261.942	76.75
262.175	88.75
262.407	84.75
262.64	81.75
262.872	79.75
263.105	72.75
263.337	84.75
263.57	80.75
263.802	100.75
264.035	85.75
264.267	67.75
264.499	76.75
264.732	81.75
264.964	75.75
265.197	82.75
265.429	80.75
265.661	95.75
265.894	70.75
266.126	74.75
266.358	76.75
266.591	86.75
266.823	62.75
267.055	87.75
267.287	70.75
267.52	80.75
267.752	78.75
267.984	91.75
268.216	74.75
268.448	81.75
268.681	79.75
268.913	78.75
269.145	65.75
269.377	82.75
269.609	79.75
269.841	85.75
270.073	84.75
270.306	72.75
270.538	79.75
270.77	76.75
271.002	71.75
271.234	83.75
271.466	90.75
271.698	77.75
271.93	89.75
272.162	93.75
272.394	95.75
272.626	85.75
272.858	82.75
273.09	69.75
273.322	70.75
273.553	82.75
273.785	73.75
274.017	77.75
274.249	84.75
274.481	93.75
274.713	78.75
274.945	70.75
275.176	56.75
275.408	89.75
275.64	69.75
275.872	75.75
276.104	75.75
276.335	80.75
276.567	78.75
276.799	77.75
277.031	74.75
277.262	81.75
277.494	87.75
277.726	87.75
277.957	77.75
278.189	78.75
278.421	85.75
278.652	87.75
278.884	85.75
279.115	84.75
279.347	82.75
279.579	77.75
279.81	72.75
280.042	77.75
280.273	78.75
280.505	94.75
280.736	73.75
280.968	78.75
281.199	88.75
281.431	78.75
281.662	72.75
281.894	72.75
282.125	95.75
282.356	73.75
282.588	85.75
282.819	92.75
283.051	63.75
283.282	95.75
283.513	72.75
283.745	79.75
283.976	80.75
284.207	81.75
284.439	89.75
284.67	94.75
284.901	91.75
285.132	79.75
285.364	83.75
285.595	75.75
285.826	75.75
286.057	87.75
286.288	96.75
286.52	77.75
286.751	80.75
286.982	94.75
287.213	78.75
287.444	93.75
287.675	76.75
287.906	89.75
288.138	85.75
288.369	80.75
288.6	80.75
288.831	89.75
289.062	67.75
289.293	92.75
289.524	84.75
289.755	77.75
289.986	80.75
290.217	85.75
290.448	86.75
290.679	80.75
290.91	80.75
291.141	88.75
291.371	88.75
291.602	78.75
291.833	60.75
292.064	100.75
292.295	98.75
292.526	92.75
292.757	76.75
292.987	92.75
293.218	77.75
293.449	91.75
293.68	82.75
293.91	80.75
294.141	87.75
294.372	71.75
294.603	76.75
294.833	93.75
295.064	94.75
295.295	73.75
295.525	85.75
295.756	82.75
295.987	77.75
296.217	77.75
296.448	88.75
296.679	86.75
296.909	96.75
297.14	80.75
297.37	79.75
297.601	70.75
297.831	84.75
298.062	81.75
298.292	79.75
298.523	82.75
298.753	88.75
298.984	82.75
299.214	87.75
299.445	90.75
299.675	89.75
299.905	90.75
300.136	88.75
300.366	95.75
300.597	81.75
300.827	82.75
301.057	83.75
301.288	89.75
301.518	85.75
301.748	81.75
301.979	100.75
302.209	91.75
302.439	81.75
302.669	86.75
302.9	87.75
303.13	81.75
303.36	90.75
303.59	93.75
303.82	81.75
304.051	89.75
304.281	72.75
304.511	79.75
304.741	84.75
304.971	88.75
305.201	102.75
305.431	82.75
305.661	81.75
305.891	92.75
306.121	76.75
306.352	70.75
306.582	86.75
306.812	88.75
307.042	83.75
307.272	79.75
307.502	86.75
307.731	95.75
307.961	90.75
308.191	86.75
308.421	79.75
308.651	79.75
308.881	85.75
309.111	78.75
309.341	73.75
309.571	94.75
309.8	89.75
310.03	78.75
310.26	95.75
310.49	70.75
310.72	84.75
310.949	87.75
311.179	86.75
311.409	91.75
311.639	84.75
311.868	85.75
312.098	81.75
312.328	79.75
312.557	84.75
312.787	77.75
313.017	89.75
313.246	101.75
313.476	101.75
313.706	77.75
313.935	89.75
314.165	82.75
314.394	87.75
314.624	91.75
314.853	85.75
315.083	86.75
315.312	102.75
315.542	79.75
315.771	71.75
316.001	102.75
316.23	93.75
316.46	86.75
316.689	88.75
316.919	74.75
317.148	77.75
317.377	89.75
317.607	88.75
317.836	88.75
318.065	89.75
318.295	95.75
318.524	93.75
318.753	81.75
318.983	73.75
319.212	87.75
319.441	101.75
319.67	79.75
319.9	88.75
320.129	82.75
320.358	74.75
320.587	73.75
320.816	88.75
321.046	84.75
321.275	89.75
321.504	81.75
321.733	77.75
321.962	84.75
322.191	80.75
322.42	86.75
322.649	82.75
322.878	96.75
323.108	100.75
323.337	103.75
323.566	80.75
323.795	87.75
324.024	101.75
324.253	88.75
324.482	92.75
324.71	73.75
324.939	78.75
325.168	88.75
325.397	81.75
325.626	89.75
325.855	95.75
326.084	78.75
326.313	78.75
326.542	93.75
326.77	94.75
326.999	88.75
327.228	88.75
327.457	85.75
327.686	81.75
327.914	100.75
328.143	90.75
328.372	89.75
328.6	89.75
328.829	92.75
329.058	82.75
329.287	76.75
329.515	85.75
329.744	88.75
329.972	76.75
330.201	96.75
330.43	101.75
330.658	84.75
330.887	77.75
331.115	87.75
331.344	77.75
331.572	91.75
331.801	79.75
332.03	85.75
332.258	83.75
332.486	80.75
332.715	76.75
332.943	101.75
333.172	87.75
333.4	77.75
333.629	76.75
333.857	76.75
334.085	88.75
334.314	96.75
334.542	87.75
334.771	83.75
334.999	97.75
335.227	81.75
335.455	85.75
335.684	88.75
335.912	83.75
336.14	84.75
336.369	88.75
336.597	75.75
336.825	81.75
337.053	69.75
337.281	73.75
337.51	90.75
337.738	76.75
337.966	77.75
338.194	78.75
338.422	80.75
338.65	72.75
338.878	90.75
339.106	104.75
339.334	94.75
339.562	90.75
339.79	76.75
340.018	97.75
340.246	86.75
340.474	81.75
340.702	83.75
340.93	83.75
341.158	78.75
341.386	71.75
341.614	81.75
341.842	80.75
342.07	87.75
342.298	80.75
342.526	96.75
342.754	83.75
342.981	97.75
343.209	77.75
343.437	93.75
343.665	83.75
343.893	83.75
344.12	87.75
344.348	91.75
344.576	76.75
344.804	77.75
345.031	80.75
345.259	78.75
345.487	73.75
345.714	82.75
345.942	95.75
346.17	92.75
346.397	89.75
346.625	79.75
346.853	78.75
347.08	80.75
347.308	77.75
347.535	84.75
347.763	78.75
347.99	87.75
348.218	76.75
348.445	94.75
348.673	92.75
348.9	92.75
349.128	89.75
349.355	95.75
349.583	70.75
349.81	82.75
350.037	84.75
350.265	96.75
350.492	80.75
350.72	89.75
350.947	86.75
351.174	85.75
351.402	71.75
351.629	82.75
351.856	74.75
352.083	66.75
352.311	68.75
352.538	81.75
352.765	86.75
352.992	93.75
353.22	88.75
353.447	75.75
353.674	74.75
353.901	93.75
354.128	78.75
354.355	89.75
354.583	84.75
354.81	73.75
355.037	80.75
355.264	69.75
355.491	86.75
355.718	89.75
355.945	74.75
356.172	95.75
356.399	77.75
356.626	80.75
356.853	80.75
357.08	94.75
357.307	76.75
357.534	80.75
357.761	81.75
357.988	78.75
358.215	81.75
358.441	91.75
358.668	72.75
358.895	73.75
359.122	88.75
359.349	84.75
359.576	88.75
359.802	71.75
360.029	82.75
360.256	85.75
360.483	81.75
360.709	80.75
360.936	88.75
361.163	82.75
361.39	77.75
361.616	88.75
361.843	87.75
362.07	100.75
362.296	93.75
362.523	98.75
362.749	91.75
362.976	82.75
363.203	95.75
363.429	76.75
363.656	84.75
363.882	82.75
364.109	87.75
364.335	83.75
364.562	79.75
364.788	86.75
365.015	86.75
365.241	77.75
365.468	81.75
365.694	67.75
365.92	93.75
366.147	92.75
366.373	75.75
366.599	78.75
366.826	78.75
367.052	88.75
367.278	78.75
367.505	93.75
367.731	94.75
367.957	84.75
368.184	88.75
368.41	85.75
368.636	71.75
368.862	87.75
369.089	93.75
369.315	93.75
369.541	103.75
369.767	85.75
369.993	82.75
370.219	89.75
370.445	86.75
370.672	94.75
370.898	78.75
371.124	76.75
371.35	80.75
371.576	74.75
371.802	70.75
372.028	87.75
372.254	92.75
372.48	83.75
372.706	95.75
372.932	73.75
373.158	97.75
373.384	94.75
373.61	89.75
373.835	74.75
374.061	77.75
374.287	92.75
374.513	80.75
374.739	90.75
374.965	81.75
375.191	71.75
375.416	96.75
375.642	84.75
375.868	79.75
376.094	77.75
376.319	82.75
376.545	82.75
376.771	75.75
376.997	70.75
377.222	73.75
377.448	81.75
377.674	81.75
377.899	79.75
378.125	80.75
378.35	95.75
378.576	84.75
378.802	74.75
379.027	82.75
379.253	87.75
379.478	85.75
379.704	98.75
379.929	89.75
380.155	70.75
380.38	90.75
380.606	81.75
380.831	81.75
381.057	87.75
381.282	93.75
381.507	83.75
381.733	93.75
381.958	88.75
382.184	72.75
382.409	87.75
382.634	78.75
382.86	83.75
383.085	86.75
383.31	82.75
383.535	84.75
383.761	76.75
383.986	79.75
384.211	80.75
384.436	76.75
384.662	79.75
384.887	93.75
385.112	82.75
385.337	89.75
385.562	84.75
385.787	93.75
386.013	67.75
386.238	88.75
386.463	79.75
386.688	96.75
386.913	77.75
387.138	68.75
387.363	64.75
387.588	73.75
387.813	84.75
388.038	85.75
388.263	82.75
388.488	85.75
388.713	81.75
388.938	70.75
389.163	85.75
389.387	77.75
389.612	85.75
389.837	91.75
390.062	88.75
390.287	73.75
390.512	78.75
390.736	84.75
390.961	92.75
391.186	83.75
391.411	87.75
391.636	87.75
391.86	79.75
392.085	84.75
392.31	77.75
392.534	86.75
392.759	92.75
392.984	78.75
393.208	91.75
393.433	91.75
393.658	88.75
393.882	82.75
394.107	77.75
394.331	91.75
394.556	80.75
394.78	80.75
395.005	82.75
395.229	80.75
395.454	90.75
395.678	87.75
395.903	82.75
396.127	80.75
396.352	78.75
396.576	78.75
396.801	91.75
397.025	82.75
397.249	105.75
397.474	101.75
397.698	94.75
397.922	89.75
398.147	92.75
398.371	80.75
398.595	82.75
398.82	72.75
399.044	92.75
399.268	77.75
399.492	81.75
399.717	82.75
399.941	76.75
400.165	81.75
400.389	79.75
400.613	84.75
400.837	81.75
401.062	88.75
401.286	73.75
401.51	86.75
401.734	87.75
401.958	89.75
402.182	87.75
402.406	88.75
402.63	85.75
402.854	83.75
403.078	77.75
403.302	89.75
403.526	78.75
403.75	85.75
403.974	89.75
404.198	110.75
404.422	143.75
404.645	148.75
404.869	129.75
405.093	106.75
405.317	85.75
405.541	86.75
405.765	73.75
405.988	85.75
406.212	89.75
406.436	86.75
406.66	87.75
406.883	93.75
407.107	98.75
407.331	81.75
407.555	93.75
407.778	90.75
408.002	87.75
408.226	96.75
408.449	94.75
408.673	87.75
408.896	83.75
409.12	95.75
409.344	76.75
409.567	74.75
409.791	74.75
410.014	89.75
410.238	75.75
410.461	84.75
410.685	83.75
410.908	85.75
411.132	85.75
411.355	105.75
411.578	98.75
411.802	86.75
412.025	85.75
412.249	84.75
412.472	83.75
412.695	77.75
412.919	79.75
413.142	77.75
413.365	72.75
413.589	90.75
413.812	85.75
414.035	81.75
414.258	82.75
414.482	88.75
414.705	76.75
414.928	84.75
415.151	85.75
415.374	97.75
415.597	82.75
415.821	86.75
416.044	85.75
416.267	90.75
416.49	97.75
416.713	79.75
416.936	71.75
417.159	87.75
417.382	82.75
417.605	95.75
417.828	75.75
418.051	86.75
418.274	90.75
418.497	90.75
418.72	89.75
418.943	87.75
419.166	78.75
419.389	81.75
419.611	79.75
419.834	79.75
420.057	88.75
420.28	86.75
420.503	78.75
420.726	94.75
420.948	83.75
421.171	91.75
421.394	89.75
421.617	82.75
421.839	76.75
422.062	76.75
422.285	74.75
422.507	72.75
422.73	93.75
422.953	87.75
423.175	86.75
423.398	70.75
423.621	85.75
423.843	76.75
424.066	89.75
424.288	86.75
424.511	80.75
424.733	87.75
424.956	84.75
425.178	89.75
425.401	106.75
425.623	89.75
425.846	74.75
426.068	85.75
426.291	88.75
426.513	85.75
426.735	92.75
426.958	89.75
427.18	85.75
427.402	88.75
427.625	102.75
427.847	75.75
428.069	80.75
428.292	86.75
428.514	80.75
428.736	88.75
428.958	82.75
429.181	73.75
429.403	73.75
429.625	77.75
429.847	89.75
430.069	81.75
430.292	77.75
430.514	84.75
430.736	67.75
430.958	81.75
431.18	89.75
431.402	84.75
431.624	79.75
431.846	79.75
432.068	87.75
432.29	87.75
432.512	71.75
432.734	80.75
432.956	86.75
433.178	81.75
433.4	85.75
433.622	97.75
433.844	90.75
434.066	75.75
434.287	62.75
434.509	85.75
434.731	84.75
434.953	87.75
435.175	86.75
435.397	87.75
435.618	77.75
435.84	79.75
436.062	75.75
436.284	92.75
436.505	83.75
436.727	91.75
436.949	81.75
437.17	94.75
437.392	81.75
437.614	88.75
437.835	97.75
438.057	87.75
438.278	87.75
438.5	93.75
438.721	97.75
438.943	87.75
439.165	84.75
439.386	75.75
439.608	87.75
439.829	81.75
440.05	110.75
440.272	82.75
440.493	90.75
440.715	79.75
440.936	96.75
441.158	80.75
441.379	79.75
441.6	87.75
441.822	94.75
442.043	89.75
442.264	88.75
442.486	77.75
442.707	88.75
442.928	88.75
443.149	79.75
443.371	97.75
443.592	92.75
443.813	86.75
444.034	85.75
444.255	92.75
444.476	82.75
444.698	84.75
444.919	72.75
445.14	163.75
445.361	114.75
445.582	78.75
445.803	80.75
446.024	100.75
446.245	88.75
446.466	90.75
446.687	95.75
446.908	70.75
447.129	82.75
447.35	79.75
447.571	95.75
447.792	82.75
448.013	84.75
448.234	89.75
448.455	82.75
448.675	91.75
448.896	68.75
449.117	85.75
449.338	73.75
449.559	86.75
449.779	75.75
450	81.75
450.221	92.75
450.442	88.75
450.662	90.75
450.883	73.75
451.104	93.75
451.324	85.75
451.545	92.75
451.766	88.75
451.986	90.75
452.207	82.75
452.428	70.75
452.648	85.75
452.869	77.75
453.089	82.75
453.31	66.75
453.53	79.75
453.751	97.75
453.971	70.75
454.192	80.75
454.412	88.75
454.633	85.75
454.853	87.75
455.073	90.75
455.294	105.75
455.514	102.75
455.734	84.75
455.955	95.75
456.175	72.75
456.395	89.75
456.616	84.75
456.836	68.75
457.056	72.75
457.276	78.75
457.497	80.75
457.717	77.75
457.937	86.75
458.157	69.75
458.377	81.75
458.598	78.75
458.818	70.75
459.038	95.75
459.258	83.75
459.478	93.75
459.698	77.75
459.918	91.75
460.138	81.75
460.358	82.75
460.578	85.75
460.798	77.75
461.018	89.75
461.238	80.75
461.458	89.75
461.678	86.75
461.898	79.75
462.118	76.75
462.338	77.75
462.558	83.75
462.777	80.75
462.997	90.75
463.217	87.75
463.437	81.75
463.657	89.75
463.876	93.75
464.096	98.75
464.316	80.75
464.536	75.75
464.755	76.75
464.975	84.75
465.195	89.75
465.414	82.75
465.634	74.75
465.854	79.75
466.073	81.75
466.293	81.75
466.512	91.75
466.732	84.75
466.951	91.75
467.171	102.75
467.391	91.75
467.61	89.75
467.829	91.75
468.049	90.75
468.268	90.75
468.488	79.75
468.707	79.75
468.927	95.75
469.146	86.75
469.365	73.75
469.585	71.75
469.804	102.75
470.023	80.75
470.243	76.75
470.462	84.75
470.681	88.75
470.901	76.75
471.12	72.75
471.339	82.75
471.558	80.75
471.777	87.75
471.997	84.75
472.216	78.75
472.435	93.75
472.654	74.75
472.873	91.75
473.092	82.75
473.311	87.75
473.53	80.75
473.749	102.75
473.968	79.75
474.187	86.75
474.406	85.75
474.625	87.75
474.844	93.75
475.063	81.75
475.282	88.75
475.501	82.75
475.72	79.75
475.939	84.75
476.158	89.75
476.377	81.75
476.596	81.75
476.814	97.75
477.033	89.75
477.252	74.75
477.471	78.75
477.69	73.75
477.908	86.75
478.127	86.75
478.346	78.75
478.564	89.75
478.783	89.75
479.002	86.75
479.22	90.75
479.439	92.75
479.658	80.75
479.876	84.75
480.095	97.75
480.313	92.75
480.532	69.75
480.751	75.75
480.969	87.75
481.188	91.75
481.406	85.75
481.624	94.75
481.843	94.75
482.061	80.75
482.28	86.75
482.498	80.75
482.717	83.75
482.935	78.75
483.153	76.75
483.372	90.75
483.59	87.75
483.808	92.75
484.027	92.75
484.245	101.75
484.463	86.75
484.681	89.75
484.9	94.75
485.118	83.75
485.336	84.75
485.554	86.75
485.772	79.75
485.99	76.75
486.209	85.75
486.427	87.75
486.645	96.75
486.863	88.75
487.081	83.75
487.299	89.75
487.517	106.75
487.735	80.75
487.953	92.75
488.171	65.75
488.389	92.75
488.607	91.75
488.825	73.75
489.043	86.75
489.261	86.75
489.479	105.75
489.696	88.75
489.914	78.75
490.132	86.75
490.35	90.75
490.568	80.75
490.786	89.75
491.003	76.75
491.221	85.75
491.439	86.75
491.657	86.75
491.874	86.75
492.092	97.75
492.31	76.75
492.527	89.75
492.745	95.75
492.963	97.75
493.18	94.75
493.398	91.75
493.615	96.75
493.833	89.75
494.05	90.75
494.268	96.75
494.485	89.75
494.703	89.75
494.92	85.75
495.138	81.75
495.355	88.75
495.573	88.75
495.79	92.75
496.008	97.75
496.225	89.75
496.442	77.75
496.66	88.75
496.877	84.75
497.094	121.75
497.312	97.75
497.529	96.75
497.746	86.75
497.963	91.75
498.181	82.75
498.398	92.75
498.615	90.75
498.832	77.75
499.049	89.75
499.267	85.75
499.484	78.75
499.701	84.75
499.918	93.75
500.135	90.75
500.352	102.75
500.569	84.75
500.786	77.75
501.003	96.75
501.22	89.75
501.437	104.75
501.654	96.75
501.871	72.75
502.088	102.75
502.305	95.75
502.522	76.75
502.739	99.75
502.956	99.75
503.172	103.75
503.389	75.75
503.606	91.75
503.823	90.75
504.04	77.75
504.256	79.75
504.473	90.75
504.69	78.75
504.907	73.75
505.123	82.75
505.34	82.75
505.557	81.75
505.773	80.75
505.99	76.75
506.207	94.75
506.423	86.75
506.64	89.75
506.856	88.75
507.073	87.75
507.289	88.75
507.506	84.75
507.722	85.75
507.939	70.75
508.155	66.75
508.372	83.75
508.588	102.75
508.805	98.75
509.021	90.75
509.238	89.75
509.454	86.75
509.67	81.75
509.887	97.75
510.103	87.75
510.319	108.75
510.536	86.75
510.752	82.75
510.968	84.75
511.184	88.75
511.401	93.75
511.617	94.75
511.833	100.75
512.049	74.75
512.265	75.75
512.481	91.75
512.698	89.75
512.914	82.75
513.13	83.75
513.346	68.75
513.562	80.75
513.778	73.75
513.994	88.75
514.21	92.75
514.426	79.75
514.642	88.75
514.858	83.75
515.074	87.75
515.29	95.75
515.506	88.75
515.721	84.75
515.937	95.75
516.153	74.75
516.369	80.75
516.585	79.75
516.801	99.75
517.016	89.75
517.232	99.75
517.448	80.75
517.664	80.75
517.879	73.75
518.095	66.75
518.311	66.75
518.527	76.75
518.742	70.75
518.958	82.75
519.173	81.75
519.389	90.75
519.605	77.75
