Data from KBr_2_HRD10591_00003.txt Node
Date: Mon Jan 19 13:12:52 EST 2026
User: Yrep
Spectrometer: HR+D1059
Trigger mode: 1
Integration Time (sec): 1.000000E-1
Scans to average: 1
Electric dark correction enabled: true
Nonlinearity correction enabled: false
Boxcar width: 0
XAxis mode: Wavelengths
Number of Pixels in Spectrum: 2048
>>>>>Begin Spectral Data<<<<<
223.165	-21.75
223.4	-21.75
223.635	-21.75
223.869	-20.75
224.104	-24.75
224.338	-11.75
224.573	-4.75
224.808	-26.75
225.042	-0.75
225.277	-0.75
225.511	5.25
225.746	2.25
225.98	6.25
226.215	12.25
226.449	18.25
226.683	11.25
226.918	24.25
227.152	32.25
227.387	46.25
227.621	52.25
227.856	42.25
228.09	43.25
228.324	48.25
228.559	61.25
228.793	63.25
229.027	52.25
229.262	52.25
229.496	63.25
229.73	60.25
229.964	65.25
230.199	68.25
230.433	80.25
230.667	80.25
230.901	82.25
231.136	85.25
231.37	67.25
231.604	81.25
231.838	74.25
232.072	80.25
232.306	74.25
232.541	91.25
232.775	84.25
233.009	96.25
233.243	80.25
233.477	78.25
233.711	83.25
233.945	81.25
234.179	76.25
234.413	84.25
234.647	84.25
234.881	85.25
235.115	90.25
235.349	86.25
235.583	77.25
235.817	80.25
236.051	77.25
236.285	80.25
236.519	71.25
236.753	85.25
236.987	77.25
237.221	78.25
237.455	72.25
237.689	83.25
237.922	70.25
238.156	69.25
238.39	76.25
238.624	76.25
238.858	70.25
239.091	86.25
239.325	71.25
239.559	77.25
239.793	82.25
240.027	84.25
240.26	70.25
240.494	70.25
240.728	73.25
240.961	74.25
241.195	65.25
241.429	76.25
241.662	72.25
241.896	66.25
242.13	74.25
242.363	73.25
242.597	70.25
242.83	73.25
243.064	78.25
243.298	87.25
243.531	77.25
243.765	82.25
243.998	77.25
244.232	85.25
244.465	69.25
244.699	76.25
244.932	69.25
245.166	70.25
245.399	73.25
245.633	77.25
245.866	74.25
246.099	73.25
246.333	82.25
246.566	78.25
246.8	67.25
247.033	57.25
247.266	86.25
247.5	77.25
247.733	66.25
247.966	83.25
248.2	63.25
248.433	85.25
248.666	78.25
248.899	84.25
249.133	65.25
249.366	88.25
249.599	81.25
249.832	81.25
250.066	87.25
250.299	81.25
250.532	78.25
250.765	58.25
250.998	73.25
251.231	82.25
251.465	82.25
251.698	80.25
251.931	82.25
252.164	79.25
252.397	80.25
252.63	77.25
252.863	82.25
253.096	80.25
253.329	87.25
253.562	90.25
253.795	98.25
254.028	89.25
254.261	77.25
254.494	77.25
254.727	72.25
254.96	75.25
255.193	81.25
255.426	70.25
255.659	84.25
255.892	82.25
256.124	73.25
256.357	85.25
256.59	72.25
256.823	79.25
257.056	75.25
257.289	76.25
257.521	77.25
257.754	65.25
257.987	73.25
258.22	93.25
258.452	84.25
258.685	64.25
258.918	68.25
259.151	76.25
259.383	94.25
259.616	91.25
259.849	81.25
260.081	92.25
260.314	82.25
260.547	80.25
260.779	76.25
261.012	82.25
261.244	89.25
261.477	93.25
261.71	70.25
261.942	75.25
262.175	69.25
262.407	90.25
262.64	83.25
262.872	73.25
263.105	88.25
263.337	88.25
263.57	69.25
263.802	85.25
264.035	87.25
264.267	73.25
264.499	77.25
264.732	77.25
264.964	87.25
265.197	81.25
265.429	70.25
265.661	73.25
265.894	66.25
266.126	79.25
266.358	86.25
266.591	75.25
266.823	91.25
267.055	84.25
267.287	74.25
267.52	88.25
267.752	79.25
267.984	93.25
268.216	67.25
268.448	80.25
268.681	93.25
268.913	94.25
269.145	88.25
269.377	83.25
269.609	76.25
269.841	86.25
270.073	75.25
270.306	74.25
270.538	95.25
270.77	75.25
271.002	73.25
271.234	86.25
271.466	88.25
271.698	82.25
271.93	73.25
272.162	86.25
272.394	80.25
272.626	107.25
272.858	85.25
273.09	85.25
273.322	78.25
273.553	83.25
273.785	79.25
274.017	70.25
274.249	77.25
274.481	80.25
274.713	90.25
274.945	106.25
275.176	102.25
275.408	86.25
275.64	87.25
275.872	90.25
276.104	78.25
276.335	88.25
276.567	88.25
276.799	70.25
277.031	80.25
277.262	96.25
277.494	83.25
277.726	101.25
277.957	89.25
278.189	78.25
278.421	80.25
278.652	77.25
278.884	70.25
279.115	85.25
279.347	91.25
279.579	89.25
279.81	97.25
280.042	78.25
280.273	75.25
280.505	81.25
280.736	78.25
280.968	83.25
281.199	84.25
281.431	89.25
281.662	84.25
281.894	80.25
282.125	84.25
282.356	82.25
282.588	96.25
282.819	87.25
283.051	77.25
283.282	71.25
283.513	88.25
283.745	82.25
283.976	76.25
284.207	84.25
284.439	87.25
284.67	95.25
284.901	86.25
285.132	76.25
285.364	94.25
285.595	84.25
285.826	84.25
286.057	90.25
286.288	76.25
286.52	94.25
286.751	82.25
286.982	86.25
287.213	81.25
287.444	96.25
287.675	96.25
287.906	75.25
288.138	79.25
288.369	94.25
288.6	72.25
288.831	93.25
289.062	71.25
289.293	85.25
289.524	73.25
289.755	93.25
289.986	91.25
290.217	86.25
290.448	86.25
290.679	84.25
290.91	93.25
291.141	89.25
291.371	91.25
291.602	70.25
291.833	86.25
292.064	88.25
292.295	100.25
292.526	69.25
292.757	92.25
292.987	88.25
293.218	82.25
293.449	69.25
293.68	87.25
293.91	81.25
294.141	79.25
294.372	85.25
294.603	82.25
294.833	79.25
295.064	85.25
295.295	90.25
295.525	84.25
295.756	91.25
295.987	98.25
296.217	93.25
296.448	84.25
296.679	91.25
296.909	87.25
297.14	80.25
297.37	87.25
297.601	85.25
297.831	74.25
298.062	96.25
298.292	95.25
298.523	93.25
298.753	86.25
298.984	98.25
299.214	82.25
299.445	81.25
299.675	85.25
299.905	78.25
300.136	83.25
300.366	95.25
300.597	89.25
300.827	96.25
301.057	74.25
301.288	100.25
301.518	67.25
301.748	80.25
301.979	103.25
302.209	102.25
302.439	83.25
302.669	84.25
302.9	97.25
303.13	82.25
303.36	74.25
303.59	81.25
303.82	89.25
304.051	73.25
304.281	83.25
304.511	91.25
304.741	83.25
304.971	83.25
305.201	78.25
305.431	91.25
305.661	90.25
305.891	85.25
306.121	91.25
306.352	75.25
306.582	65.25
306.812	78.25
307.042	87.25
307.272	85.25
307.502	93.25
307.731	87.25
307.961	90.25
308.191	91.25
308.421	88.25
308.651	77.25
308.881	87.25
309.111	84.25
309.341	74.25
309.571	85.25
309.8	76.25
310.03	79.25
310.26	90.25
310.49	83.25
310.72	70.25
310.949	74.25
311.179	90.25
311.409	89.25
311.639	86.25
311.868	79.25
312.098	82.25
312.328	78.25
312.557	81.25
312.787	86.25
313.017	76.25
313.246	87.25
313.476	80.25
313.706	74.25
313.935	82.25
314.165	100.25
314.394	90.25
314.624	84.25
314.853	95.25
315.083	80.25
315.312	80.25
315.542	81.25
315.771	72.25
316.001	97.25
316.23	84.25
316.46	85.25
316.689	84.25
316.919	86.25
317.148	92.25
317.377	88.25
317.607	89.25
317.836	80.25
318.065	80.25
318.295	80.25
318.524	72.25
318.753	83.25
318.983	80.25
319.212	85.25
319.441	84.25
319.67	98.25
319.9	85.25
320.129	93.25
320.358	85.25
320.587	88.25
320.816	83.25
321.046	97.25
321.275	87.25
321.504	77.25
321.733	82.25
321.962	88.25
322.191	89.25
322.42	80.25
322.649	86.25
322.878	91.25
323.108	89.25
323.337	91.25
323.566	79.25
323.795	90.25
324.024	93.25
324.253	77.25
324.482	75.25
324.71	85.25
324.939	91.25
325.168	93.25
325.397	82.25
325.626	80.25
325.855	86.25
326.084	82.25
326.313	80.25
326.542	73.25
326.77	84.25
326.999	94.25
327.228	88.25
327.457	72.25
327.686	71.25
327.914	97.25
328.143	91.25
328.372	87.25
328.6	90.25
328.829	88.25
329.058	77.25
329.287	93.25
329.515	92.25
329.744	72.25
329.972	81.25
330.201	86.25
330.43	79.25
330.658	89.25
330.887	88.25
331.115	87.25
331.344	76.25
331.572	77.25
331.801	90.25
332.03	93.25
332.258	90.25
332.486	87.25
332.715	77.25
332.943	80.25
333.172	85.25
333.4	87.25
333.629	93.25
333.857	75.25
334.085	83.25
334.314	87.25
334.542	97.25
334.771	92.25
334.999	92.25
335.227	93.25
335.455	81.25
335.684	89.25
335.912	97.25
336.14	92.25
336.369	77.25
336.597	72.25
336.825	87.25
337.053	73.25
337.281	81.25
337.51	87.25
337.738	101.25
337.966	85.25
338.194	82.25
338.422	84.25
338.65	66.25
338.878	88.25
339.106	60.25
339.334	84.25
339.562	83.25
339.79	95.25
340.018	75.25
340.246	88.25
340.474	85.25
340.702	65.25
340.93	82.25
341.158	79.25
341.386	92.25
341.614	79.25
341.842	89.25
342.07	78.25
342.298	76.25
342.526	78.25
342.754	78.25
342.981	87.25
343.209	70.25
343.437	94.25
343.665	86.25
343.893	77.25
344.12	87.25
344.348	83.25
344.576	81.25
344.804	84.25
345.031	91.25
345.259	83.25
345.487	85.25
345.714	85.25
345.942	85.25
346.17	77.25
346.397	90.25
346.625	81.25
346.853	88.25
347.08	76.25
347.308	80.25
347.535	80.25
347.763	78.25
347.99	92.25
348.218	80.25
348.445	90.25
348.673	92.25
348.9	78.25
349.128	93.25
349.355	87.25
349.583	84.25
349.81	87.25
350.037	81.25
350.265	82.25
350.492	87.25
350.72	85.25
350.947	83.25
351.174	94.25
351.402	79.25
351.629	83.25
351.856	86.25
352.083	87.25
352.311	70.25
352.538	69.25
352.765	80.25
352.992	82.25
353.22	86.25
353.447	80.25
353.674	83.25
353.901	85.25
354.128	90.25
354.355	93.25
354.583	89.25
354.81	81.25
355.037	90.25
355.264	82.25
355.491	68.25
355.718	84.25
355.945	92.25
356.172	82.25
356.399	100.25
356.626	85.25
356.853	95.25
357.08	83.25
357.307	88.25
357.534	93.25
357.761	67.25
357.988	73.25
358.215	90.25
358.441	84.25
358.668	81.25
358.895	90.25
359.122	87.25
359.349	93.25
359.576	92.25
359.802	78.25
360.029	79.25
360.256	90.25
360.483	85.25
360.709	93.25
360.936	88.25
361.163	70.25
361.39	82.25
361.616	88.25
361.843	72.25
362.07	78.25
362.296	80.25
362.523	66.25
362.749	71.25
362.976	79.25
363.203	77.25
363.429	83.25
363.656	78.25
363.882	89.25
364.109	86.25
364.335	83.25
364.562	90.25
364.788	96.25
365.015	84.25
365.241	72.25
365.468	81.25
365.694	86.25
365.92	74.25
366.147	72.25
366.373	89.25
366.599	87.25
366.826	89.25
367.052	90.25
367.278	72.25
367.505	82.25
367.731	86.25
367.957	86.25
368.184	84.25
368.41	94.25
368.636	77.25
368.862	85.25
369.089	89.25
369.315	89.25
369.541	88.25
369.767	76.25
369.993	68.25
370.219	81.25
370.445	72.25
370.672	76.25
370.898	85.25
371.124	87.25
371.35	85.25
371.576	78.25
371.802	85.25
372.028	75.25
372.254	71.25
372.48	81.25
372.706	79.25
372.932	80.25
373.158	81.25
373.384	81.25
373.61	72.25
373.835	84.25
374.061	65.25
374.287	82.25
374.513	111.25
374.739	82.25
374.965	82.25
375.191	76.25
375.416	76.25
375.642	92.25
375.868	85.25
376.094	84.25
376.319	80.25
376.545	83.25
376.771	77.25
376.997	84.25
377.222	82.25
377.448	74.25
377.674	68.25
377.899	79.25
378.125	80.25
378.35	81.25
378.576	86.25
378.802	84.25
379.027	84.25
379.253	86.25
379.478	69.25
379.704	89.25
379.929	80.25
380.155	95.25
380.38	76.25
380.606	72.25
380.831	79.25
381.057	65.25
381.282	81.25
381.507	78.25
381.733	85.25
381.958	78.25
382.184	94.25
382.409	84.25
382.634	94.25
382.86	82.25
383.085	84.25
383.31	86.25
383.535	84.25
383.761	77.25
383.986	77.25
384.211	78.25
384.436	86.25
384.662	80.25
384.887	93.25
385.112	84.25
385.337	89.25
385.562	78.25
385.787	84.25
386.013	96.25
386.238	79.25
386.463	100.25
386.688	82.25
386.913	88.25
387.138	82.25
387.363	97.25
387.588	88.25
387.813	73.25
388.038	76.25
388.263	100.25
388.488	82.25
388.713	89.25
388.938	81.25
389.163	82.25
389.387	85.25
389.612	70.25
389.837	82.25
390.062	81.25
390.287	90.25
390.512	97.25
390.736	104.25
390.961	84.25
391.186	89.25
391.411	74.25
391.636	77.25
391.86	81.25
392.085	78.25
392.31	72.25
392.534	89.25
392.759	90.25
392.984	80.25
393.208	86.25
393.433	90.25
393.658	75.25
393.882	85.25
394.107	80.25
394.331	79.25
394.556	87.25
394.78	80.25
395.005	85.25
395.229	83.25
395.454	85.25
395.678	77.25
395.903	83.25
396.127	84.25
396.352	94.25
396.576	78.25
396.801	65.25
397.025	86.25
397.249	69.25
397.474	97.25
397.698	80.25
397.922	88.25
398.147	87.25
398.371	75.25
398.595	94.25
398.82	72.25
399.044	84.25
399.268	84.25
399.492	78.25
399.717	78.25
399.941	78.25
400.165	87.25
400.389	82.25
400.613	76.25
400.837	87.25
401.062	81.25
401.286	73.25
401.51	82.25
401.734	74.25
401.958	87.25
402.182	77.25
402.406	88.25
402.63	69.25
402.854	76.25
403.078	95.25
403.302	80.25
403.526	91.25
403.75	85.25
403.974	73.25
404.198	100.25
404.422	115.25
404.645	123.25
404.869	132.25
405.093	95.25
405.317	88.25
405.541	98.25
405.765	78.25
405.988	68.25
406.212	87.25
406.436	74.25
406.66	92.25
406.883	89.25
407.107	72.25
407.331	85.25
407.555	94.25
407.778	75.25
408.002	87.25
408.226	80.25
408.449	68.25
408.673	77.25
408.896	91.25
409.12	85.25
409.344	91.25
409.567	86.25
409.791	69.25
410.014	98.25
410.238	86.25
410.461	79.25
410.685	73.25
410.908	84.25
411.132	84.25
411.355	86.25
411.578	88.25
411.802	76.25
412.025	86.25
412.249	80.25
412.472	84.25
412.695	88.25
412.919	87.25
413.142	76.25
413.365	83.25
413.589	80.25
413.812	73.25
414.035	79.25
414.258	82.25
414.482	77.25
414.705	78.25
414.928	64.25
415.151	88.25
415.374	78.25
415.597	76.25
415.821	81.25
416.044	80.25
416.267	82.25
416.49	66.25
416.713	81.25
416.936	81.25
417.159	82.25
417.382	72.25
417.605	79.25
417.828	65.25
418.051	95.25
418.274	74.25
418.497	94.25
418.72	73.25
418.943	67.25
419.166	86.25
419.389	89.25
419.611	72.25
419.834	77.25
420.057	79.25
420.28	89.25
420.503	75.25
420.726	83.25
420.948	87.25
421.171	74.25
421.394	79.25
421.617	91.25
421.839	69.25
422.062	81.25
422.285	78.25
422.507	83.25
422.73	81.25
422.953	83.25
423.175	93.25
423.398	87.25
423.621	90.25
423.843	72.25
424.066	80.25
424.288	83.25
424.511	89.25
424.733	80.25
424.956	79.25
425.178	89.25
425.401	82.25
425.623	85.25
425.846	77.25
426.068	69.25
426.291	82.25
426.513	85.25
426.735	77.25
426.958	100.25
427.18	68.25
427.402	70.25
427.625	84.25
427.847	95.25
428.069	79.25
428.292	80.25
428.514	86.25
428.736	82.25
428.958	79.25
429.181	89.25
429.403	87.25
429.625	81.25
429.847	86.25
430.069	81.25
430.292	83.25
430.514	88.25
430.736	67.25
430.958	95.25
431.18	87.25
431.402	86.25
431.624	80.25
431.846	88.25
432.068	85.25
432.29	80.25
432.512	88.25
432.734	82.25
432.956	95.25
433.178	90.25
433.4	80.25
433.622	87.25
433.844	80.25
434.066	74.25
434.287	79.25
434.509	73.25
434.731	82.25
434.953	82.25
435.175	82.25
435.397	78.25
435.618	95.25
435.84	76.25
436.062	88.25
436.284	86.25
436.505	88.25
436.727	76.25
436.949	84.25
437.17	78.25
437.392	73.25
437.614	83.25
437.835	67.25
438.057	85.25
438.278	88.25
438.5	84.25
438.721	77.25
438.943	89.25
439.165	79.25
439.386	74.25
439.608	70.25
439.829	77.25
440.05	87.25
440.272	80.25
440.493	72.25
440.715	90.25
440.936	83.25
441.158	78.25
441.379	85.25
441.6	83.25
441.822	60.25
442.043	89.25
442.264	87.25
442.486	81.25
442.707	84.25
442.928	80.25
443.149	69.25
443.371	79.25
443.592	95.25
443.813	72.25
444.034	76.25
444.255	84.25
444.476	90.25
444.698	86.25
444.919	94.25
445.14	163.25
445.361	124.25
445.582	91.25
445.803	79.25
446.024	89.25
446.245	75.25
446.466	75.25
446.687	71.25
446.908	74.25
447.129	78.25
447.35	78.25
447.571	84.25
447.792	82.25
448.013	88.25
448.234	84.25
448.455	82.25
448.675	89.25
448.896	80.25
449.117	89.25
449.338	76.25
449.559	76.25
449.779	82.25
450	76.25
450.221	80.25
450.442	89.25
450.662	94.25
450.883	93.25
451.104	80.25
451.324	89.25
451.545	84.25
451.766	89.25
451.986	79.25
452.207	64.25
452.428	87.25
452.648	89.25
452.869	92.25
453.089	73.25
453.31	80.25
453.53	74.25
453.751	79.25
453.971	84.25
454.192	81.25
454.412	88.25
454.633	77.25
454.853	69.25
455.073	70.25
455.294	85.25
455.514	78.25
455.734	84.25
455.955	85.25
456.175	92.25
456.395	85.25
456.616	93.25
456.836	86.25
457.056	102.25
457.276	94.25
457.497	83.25
457.717	78.25
457.937	79.25
458.157	87.25
458.377	85.25
458.598	84.25
458.818	92.25
459.038	98.25
459.258	80.25
459.478	66.25
459.698	84.25
459.918	73.25
460.138	89.25
460.358	79.25
460.578	106.25
460.798	90.25
461.018	89.25
461.238	89.25
461.458	82.25
461.678	66.25
461.898	77.25
462.118	76.25
462.338	89.25
462.558	78.25
462.777	86.25
462.997	80.25
463.217	93.25
463.437	86.25
463.657	77.25
463.876	80.25
464.096	92.25
464.316	85.25
464.536	82.25
464.755	91.25
464.975	84.25
465.195	75.25
465.414	87.25
465.634	69.25
465.854	88.25
466.073	81.25
466.293	81.25
466.512	77.25
466.732	93.25
466.951	87.25
467.171	78.25
467.391	86.25
467.61	79.25
467.829	92.25
468.049	103.25
468.268	79.25
468.488	89.25
468.707	88.25
468.927	97.25
469.146	86.25
469.365	89.25
469.585	64.25
469.804	86.25
470.023	91.25
470.243	97.25
470.462	86.25
470.681	87.25
470.901	81.25
471.12	80.25
471.339	86.25
471.558	72.25
471.777	96.25
471.997	89.25
472.216	92.25
472.435	84.25
472.654	79.25
472.873	91.25
473.092	89.25
473.311	78.25
473.53	86.25
473.749	85.25
473.968	84.25
474.187	91.25
474.406	84.25
474.625	85.25
474.844	71.25
475.063	80.25
475.282	77.25
475.501	88.25
475.72	93.25
475.939	93.25
476.158	82.25
476.377	95.25
476.596	84.25
476.814	72.25
477.033	90.25
477.252	83.25
477.471	76.25
477.69	72.25
477.908	76.25
478.127	73.25
478.346	80.25
478.564	79.25
478.783	66.25
479.002	79.25
479.22	93.25
479.439	92.25
479.658	73.25
479.876	76.25
480.095	89.25
480.313	97.25
480.532	89.25
480.751	86.25
480.969	86.25
481.188	90.25
481.406	94.25
481.624	75.25
481.843	82.25
482.061	93.25
482.28	74.25
482.498	85.25
482.717	91.25
482.935	82.25
483.153	76.25
483.372	81.25
483.59	86.25
483.808	72.25
484.027	73.25
484.245	95.25
484.463	78.25
484.681	85.25
484.9	82.25
485.118	77.25
485.336	92.25
485.554	100.25
485.772	82.25
485.99	63.25
486.209	84.25
486.427	93.25
486.645	84.25
486.863	93.25
487.081	95.25
487.299	95.25
487.517	76.25
487.735	77.25
487.953	81.25
488.171	85.25
488.389	92.25
488.607	90.25
488.825	82.25
489.043	84.25
489.261	85.25
489.479	92.25
489.696	87.25
489.914	82.25
490.132	79.25
490.35	87.25
490.568	80.25
490.786	93.25
491.003	88.25
491.221	98.25
491.439	85.25
491.657	93.25
491.874	103.25
492.092	107.25
492.31	89.25
492.527	75.25
492.745	75.25
492.963	74.25
493.18	80.25
493.398	92.25
493.615	89.25
493.833	100.25
494.05	104.25
494.268	99.25
494.485	88.25
494.703	85.25
494.92	86.25
495.138	75.25
495.355	79.25
495.573	83.25
495.79	91.25
496.008	104.25
496.225	81.25
496.442	86.25
496.66	91.25
496.877	93.25
497.094	104.25
497.312	84.25
497.529	83.25
497.746	87.25
497.963	89.25
498.181	93.25
498.398	84.25
498.615	98.25
498.832	90.25
499.049	81.25
499.267	84.25
499.484	82.25
499.701	94.25
499.918	89.25
500.135	80.25
500.352	95.25
500.569	95.25
500.786	69.25
501.003	103.25
501.22	71.25
501.437	90.25
501.654	94.25
501.871	83.25
502.088	79.25
502.305	83.25
502.522	94.25
502.739	90.25
502.956	78.25
503.172	87.25
503.389	86.25
503.606	86.25
503.823	85.25
504.04	100.25
504.256	90.25
504.473	90.25
504.69	91.25
504.907	78.25
505.123	80.25
505.34	62.25
505.557	88.25
505.773	88.25
505.99	101.25
506.207	78.25
506.423	81.25
506.64	92.25
506.856	87.25
507.073	82.25
507.289	94.25
507.506	67.25
507.722	66.25
507.939	84.25
508.155	89.25
508.372	89.25
508.588	101.25
508.805	91.25
509.021	80.25
509.238	82.25
509.454	78.25
509.67	75.25
509.887	91.25
510.103	77.25
510.319	99.25
510.536	90.25
510.752	90.25
510.968	85.25
511.184	77.25
511.401	95.25
511.617	102.25
511.833	82.25
512.049	80.25
512.265	102.25
512.481	81.25
512.698	88.25
512.914	82.25
513.13	86.25
513.346	100.25
513.562	85.25
513.778	78.25
513.994	80.25
514.21	88.25
514.426	85.25
514.642	88.25
514.858	73.25
515.074	77.25
515.29	72.25
515.506	86.25
515.721	92.25
515.937	94.25
516.153	78.25
516.369	86.25
516.585	61.25
516.801	76.25
517.016	64.25
517.232	91.25
517.448	78.25
517.664	84.25
517.879	79.25
518.095	85.25
518.311	78.25
518.527	100.25
518.742	92.25
518.958	73.25
519.173	90.25
519.389	66.25
519.605	70.25
519.82	74.25
