Data from KBr_2_HRD10591_00002.txt Node
Date: Mon Jan 19 13:12:51 EST 2026
User: Yrep
Spectrometer: HR+D1059
Trigger mode: 1
Integration Time (sec): 1.000000E-1
Scans to average: 1
Electric dark correction enabled: true
Nonlinearity correction enabled: false
Boxcar width: 0
XAxis mode: Wavelengths
Number of Pixels in Spectrum: 2048
>>>>>Begin Spectral Data<<<<<
223.165	-17.38
223.4	-17.38
223.635	-17.38
223.869	-10.38
224.104	-14.38
224.338	-18.38
224.573	-6.38
224.808	1.62
225.042	-16.38
225.277	-9.38
225.511	1.62
225.746	-7.38
225.98	15.62
226.215	5.62
226.449	9.62
226.683	10.62
226.918	21.62
227.152	33.62
227.387	48.62
227.621	37.62
227.856	40.62
228.09	45.62
228.324	53.62
228.559	65.62
228.793	48.62
229.027	51.62
229.262	66.62
229.496	68.62
229.73	72.62
229.964	87.62
230.199	72.62
230.433	60.62
230.667	67.62
230.901	77.62
231.136	84.62
231.37	65.62
231.604	77.62
231.838	65.62
232.072	68.62
232.306	86.62
232.541	77.62
232.775	80.62
233.009	89.62
233.243	83.62
233.477	74.62
233.711	73.62
233.945	80.62
234.179	73.62
234.413	76.62
234.647	83.62
234.881	76.62
235.115	80.62
235.349	74.62
235.583	66.62
235.817	88.62
236.051	69.62
236.285	75.62
236.519	82.62
236.753	71.62
236.987	73.62
237.221	63.62
237.455	76.62
237.689	67.62
237.922	76.62
238.156	89.62
238.39	71.62
238.624	83.62
238.858	71.62
239.091	70.62
239.325	77.62
239.559	65.62
239.793	72.62
240.027	67.62
240.26	69.62
240.494	76.62
240.728	72.62
240.961	73.62
241.195	77.62
241.429	79.62
241.662	62.62
241.896	83.62
242.13	72.62
242.363	77.62
242.597	81.62
242.83	77.62
243.064	76.62
243.298	81.62
243.531	67.62
243.765	59.62
243.998	73.62
244.232	76.62
244.465	79.62
244.699	71.62
244.932	80.62
245.166	74.62
245.399	75.62
245.633	79.62
245.866	88.62
246.099	77.62
246.333	71.62
246.566	80.62
246.8	70.62
247.033	80.62
247.266	73.62
247.5	80.62
247.733	82.62
247.966	78.62
248.2	76.62
248.433	73.62
248.666	68.62
248.899	74.62
249.133	83.62
249.366	81.62
249.599	76.62
249.832	77.62
250.066	91.62
250.299	90.62
250.532	82.62
250.765	84.62
250.998	75.62
251.231	71.62
251.465	84.62
251.698	80.62
251.931	84.62
252.164	73.62
252.397	83.62
252.63	83.62
252.863	79.62
253.096	62.62
253.329	55.62
253.562	73.62
253.795	77.62
254.028	97.62
254.261	75.62
254.494	79.62
254.727	86.62
254.96	78.62
255.193	65.62
255.426	77.62
255.659	81.62
255.892	89.62
256.124	69.62
256.357	87.62
256.59	75.62
256.823	70.62
257.056	75.62
257.289	70.62
257.521	73.62
257.754	76.62
257.987	76.62
258.22	97.62
258.452	78.62
258.685	73.62
258.918	77.62
259.151	75.62
259.383	84.62
259.616	77.62
259.849	71.62
260.081	66.62
260.314	78.62
260.547	76.62
260.779	86.62
261.012	89.62
261.244	86.62
261.477	71.62
261.71	73.62
261.942	71.62
262.175	89.62
262.407	82.62
262.64	72.62
262.872	75.62
263.105	67.62
263.337	73.62
263.57	87.62
263.802	88.62
264.035	92.62
264.267	76.62
264.499	83.62
264.732	95.62
264.964	67.62
265.197	83.62
265.429	73.62
265.661	78.62
265.894	83.62
266.126	71.62
266.358	73.62
266.591	82.62
266.823	97.62
267.055	103.62
267.287	73.62
267.52	73.62
267.752	54.62
267.984	88.62
268.216	78.62
268.448	86.62
268.681	77.62
268.913	76.62
269.145	75.62
269.377	88.62
269.609	77.62
269.841	88.62
270.073	80.62
270.306	89.62
270.538	92.62
270.77	81.62
271.002	92.62
271.234	80.62
271.466	87.62
271.698	80.62
271.93	72.62
272.162	79.62
272.394	77.62
272.626	72.62
272.858	96.62
273.09	91.62
273.322	86.62
273.553	76.62
273.785	77.62
274.017	78.62
274.249	99.62
274.481	77.62
274.713	75.62
274.945	91.62
275.176	86.62
275.408	80.62
275.64	83.62
275.872	69.62
276.104	76.62
276.335	79.62
276.567	83.62
276.799	71.62
277.031	83.62
277.262	87.62
277.494	78.62
277.726	84.62
277.957	89.62
278.189	86.62
278.421	93.62
278.652	107.62
278.884	72.62
279.115	71.62
279.347	75.62
279.579	72.62
279.81	87.62
280.042	66.62
280.273	68.62
280.505	82.62
280.736	78.62
280.968	78.62
281.199	77.62
281.431	84.62
281.662	79.62
281.894	80.62
282.125	100.62
282.356	81.62
282.588	100.62
282.819	81.62
283.051	86.62
283.282	85.62
283.513	85.62
283.745	82.62
283.976	88.62
284.207	87.62
284.439	90.62
284.67	81.62
284.901	83.62
285.132	75.62
285.364	69.62
285.595	72.62
285.826	78.62
286.057	77.62
286.288	83.62
286.52	81.62
286.751	86.62
286.982	85.62
287.213	85.62
287.444	85.62
287.675	93.62
287.906	84.62
288.138	87.62
288.369	81.62
288.6	83.62
288.831	84.62
289.062	78.62
289.293	93.62
289.524	89.62
289.755	99.62
289.986	90.62
290.217	83.62
290.448	78.62
290.679	76.62
290.91	93.62
291.141	79.62
291.371	84.62
291.602	56.62
291.833	85.62
292.064	86.62
292.295	84.62
292.526	87.62
292.757	82.62
292.987	77.62
293.218	86.62
293.449	88.62
293.68	92.62
293.91	95.62
294.141	89.62
294.372	80.62
294.603	77.62
294.833	86.62
295.064	91.62
295.295	87.62
295.525	76.62
295.756	92.62
295.987	86.62
296.217	71.62
296.448	92.62
296.679	79.62
296.909	83.62
297.14	88.62
297.37	83.62
297.601	79.62
297.831	83.62
298.062	69.62
298.292	81.62
298.523	86.62
298.753	87.62
298.984	79.62
299.214	71.62
299.445	76.62
299.675	88.62
299.905	94.62
300.136	76.62
300.366	95.62
300.597	90.62
300.827	80.62
301.057	79.62
301.288	77.62
301.518	68.62
301.748	77.62
301.979	88.62
302.209	77.62
302.439	91.62
302.669	83.62
302.9	91.62
303.13	85.62
303.36	87.62
303.59	95.62
303.82	81.62
304.051	74.62
304.281	72.62
304.511	89.62
304.741	87.62
304.971	87.62
305.201	92.62
305.431	105.62
305.661	83.62
305.891	77.62
306.121	75.62
306.352	91.62
306.582	81.62
306.812	89.62
307.042	86.62
307.272	86.62
307.502	89.62
307.731	83.62
307.961	78.62
308.191	92.62
308.421	88.62
308.651	78.62
308.881	90.62
309.111	90.62
309.341	70.62
309.571	84.62
309.8	69.62
310.03	92.62
310.26	77.62
310.49	91.62
310.72	83.62
310.949	78.62
311.179	84.62
311.409	80.62
311.639	78.62
311.868	84.62
312.098	101.62
312.328	76.62
312.557	87.62
312.787	85.62
313.017	86.62
313.246	86.62
313.476	94.62
313.706	86.62
313.935	97.62
314.165	91.62
314.394	75.62
314.624	84.62
314.853	78.62
315.083	86.62
315.312	91.62
315.542	66.62
315.771	80.62
316.001	81.62
316.23	87.62
316.46	80.62
316.689	94.62
316.919	88.62
317.148	101.62
317.377	83.62
317.607	74.62
317.836	91.62
318.065	94.62
318.295	89.62
318.524	88.62
318.753	82.62
318.983	86.62
319.212	75.62
319.441	87.62
319.67	89.62
319.9	90.62
320.129	81.62
320.358	80.62
320.587	80.62
320.816	76.62
321.046	88.62
321.275	91.62
321.504	86.62
321.733	91.62
321.962	87.62
322.191	85.62
322.42	88.62
322.649	91.62
322.878	84.62
323.108	84.62
323.337	89.62
323.566	76.62
323.795	92.62
324.024	83.62
324.253	87.62
324.482	89.62
324.71	83.62
324.939	75.62
325.168	78.62
325.397	90.62
325.626	76.62
325.855	89.62
326.084	71.62
326.313	81.62
326.542	80.62
326.77	78.62
326.999	74.62
327.228	81.62
327.457	83.62
327.686	92.62
327.914	86.62
328.143	94.62
328.372	77.62
328.6	82.62
328.829	83.62
329.058	78.62
329.287	92.62
329.515	89.62
329.744	75.62
329.972	85.62
330.201	73.62
330.43	100.62
330.658	89.62
330.887	80.62
331.115	87.62
331.344	68.62
331.572	83.62
331.801	67.62
332.03	75.62
332.258	90.62
332.486	97.62
332.715	89.62
332.943	91.62
333.172	87.62
333.4	76.62
333.629	91.62
333.857	95.62
334.085	88.62
334.314	91.62
334.542	90.62
334.771	83.62
334.999	79.62
335.227	80.62
335.455	81.62
335.684	86.62
335.912	95.62
336.14	91.62
336.369	89.62
336.597	93.62
336.825	82.62
337.053	89.62
337.281	93.62
337.51	79.62
337.738	92.62
337.966	80.62
338.194	76.62
338.422	90.62
338.65	95.62
338.878	91.62
339.106	94.62
339.334	79.62
339.562	84.62
339.79	91.62
340.018	86.62
340.246	77.62
340.474	83.62
340.702	94.62
340.93	80.62
341.158	92.62
341.386	84.62
341.614	83.62
341.842	100.62
342.07	85.62
342.298	81.62
342.526	86.62
342.754	80.62
342.981	69.62
343.209	85.62
343.437	113.62
343.665	88.62
343.893	81.62
344.12	85.62
344.348	93.62
344.576	75.62
344.804	104.62
345.031	104.62
345.259	77.62
345.487	87.62
345.714	86.62
345.942	80.62
346.17	88.62
346.397	108.62
346.625	80.62
346.853	91.62
347.08	75.62
347.308	94.62
347.535	70.62
347.763	85.62
347.99	116.62
348.218	92.62
348.445	86.62
348.673	70.62
348.9	78.62
349.128	87.62
349.355	86.62
349.583	85.62
349.81	107.62
350.037	81.62
350.265	71.62
350.492	74.62
350.72	76.62
350.947	80.62
351.174	93.62
351.402	79.62
351.629	85.62
351.856	81.62
352.083	92.62
352.311	100.62
352.538	87.62
352.765	85.62
352.992	83.62
353.22	81.62
353.447	69.62
353.674	65.62
353.901	89.62
354.128	92.62
354.355	64.62
354.583	86.62
354.81	87.62
355.037	72.62
355.264	88.62
355.491	77.62
355.718	73.62
355.945	86.62
356.172	105.62
356.399	85.62
356.626	80.62
356.853	78.62
357.08	88.62
357.307	97.62
357.534	84.62
357.761	77.62
357.988	91.62
358.215	104.62
358.441	65.62
358.668	81.62
358.895	93.62
359.122	91.62
359.349	84.62
359.576	79.62
359.802	92.62
360.029	93.62
360.256	90.62
360.483	82.62
360.709	86.62
360.936	96.62
361.163	88.62
361.39	87.62
361.616	78.62
361.843	89.62
362.07	91.62
362.296	90.62
362.523	70.62
362.749	89.62
362.976	73.62
363.203	97.62
363.429	83.62
363.656	93.62
363.882	81.62
364.109	86.62
364.335	91.62
364.562	80.62
364.788	83.62
365.015	91.62
365.241	85.62
365.468	101.62
365.694	91.62
365.92	96.62
366.147	84.62
366.373	96.62
366.599	87.62
366.826	87.62
367.052	90.62
367.278	78.62
367.505	91.62
367.731	101.62
367.957	89.62
368.184	87.62
368.41	92.62
368.636	92.62
368.862	90.62
369.089	84.62
369.315	70.62
369.541	71.62
369.767	95.62
369.993	83.62
370.219	84.62
370.445	81.62
370.672	91.62
370.898	91.62
371.124	86.62
371.35	83.62
371.576	78.62
371.802	76.62
372.028	87.62
372.254	81.62
372.48	96.62
372.706	75.62
372.932	88.62
373.158	88.62
373.384	88.62
373.61	83.62
373.835	89.62
374.061	79.62
374.287	88.62
374.513	84.62
374.739	74.62
374.965	75.62
375.191	73.62
375.416	64.62
375.642	96.62
375.868	98.62
376.094	85.62
376.319	77.62
376.545	84.62
376.771	87.62
376.997	91.62
377.222	87.62
377.448	88.62
377.674	80.62
377.899	81.62
378.125	84.62
378.35	80.62
378.576	93.62
378.802	91.62
379.027	93.62
379.253	82.62
379.478	73.62
379.704	83.62
379.929	83.62
380.155	68.62
380.38	71.62
380.606	74.62
380.831	101.62
381.057	81.62
381.282	60.62
381.507	75.62
381.733	85.62
381.958	83.62
382.184	76.62
382.409	79.62
382.634	72.62
382.86	75.62
383.085	71.62
383.31	73.62
383.535	98.62
383.761	92.62
383.986	90.62
384.211	75.62
384.436	70.62
384.662	83.62
384.887	83.62
385.112	82.62
385.337	95.62
385.562	76.62
385.787	76.62
386.013	80.62
386.238	88.62
386.463	89.62
386.688	102.62
386.913	95.62
387.138	72.62
387.363	90.62
387.588	89.62
387.813	88.62
388.038	86.62
388.263	83.62
388.488	82.62
388.713	88.62
388.938	84.62
389.163	79.62
389.387	91.62
389.612	66.62
389.837	77.62
390.062	90.62
390.287	83.62
390.512	96.62
390.736	80.62
390.961	81.62
391.186	81.62
391.411	99.62
391.636	82.62
391.86	73.62
392.085	92.62
392.31	86.62
392.534	91.62
392.759	76.62
392.984	69.62
393.208	83.62
393.433	88.62
393.658	90.62
393.882	72.62
394.107	76.62
394.331	86.62
394.556	87.62
394.78	80.62
395.005	75.62
395.229	84.62
395.454	84.62
395.678	77.62
395.903	101.62
396.127	74.62
396.352	90.62
396.576	89.62
396.801	81.62
397.025	76.62
397.249	86.62
397.474	88.62
397.698	63.62
397.922	81.62
398.147	81.62
398.371	88.62
398.595	96.62
398.82	107.62
399.044	81.62
399.268	84.62
399.492	75.62
399.717	91.62
399.941	92.62
400.165	78.62
400.389	78.62
400.613	77.62
400.837	89.62
401.062	92.62
401.286	88.62
401.51	94.62
401.734	70.62
401.958	80.62
402.182	89.62
402.406	86.62
402.63	73.62
402.854	96.62
403.078	96.62
403.302	103.62
403.526	101.62
403.75	88.62
403.974	94.62
404.198	118.62
404.422	184.62
404.645	212.62
404.869	159.62
405.093	117.62
405.317	108.62
405.541	101.62
405.765	69.62
405.988	85.62
406.212	74.62
406.436	82.62
406.66	71.62
406.883	96.62
407.107	78.62
407.331	85.62
407.555	88.62
407.778	86.62
408.002	88.62
408.226	84.62
408.449	83.62
408.673	87.62
408.896	97.62
409.12	91.62
409.344	87.62
409.567	91.62
409.791	90.62
410.014	83.62
410.238	77.62
410.461	85.62
410.685	84.62
410.908	82.62
411.132	89.62
411.355	81.62
411.578	85.62
411.802	72.62
412.025	91.62
412.249	91.62
412.472	93.62
412.695	87.62
412.919	92.62
413.142	95.62
413.365	99.62
413.589	93.62
413.812	74.62
414.035	89.62
414.258	74.62
414.482	91.62
414.705	77.62
414.928	76.62
415.151	90.62
415.374	89.62
415.597	63.62
415.821	75.62
416.044	76.62
416.267	91.62
416.49	92.62
416.713	90.62
416.936	83.62
417.159	78.62
417.382	76.62
417.605	73.62
417.828	79.62
418.051	77.62
418.274	99.62
418.497	89.62
418.72	75.62
418.943	85.62
419.166	66.62
419.389	77.62
419.611	89.62
419.834	79.62
420.057	96.62
420.28	91.62
420.503	83.62
420.726	93.62
420.948	85.62
421.171	79.62
421.394	83.62
421.617	81.62
421.839	81.62
422.062	97.62
422.285	89.62
422.507	87.62
422.73	91.62
422.953	88.62
423.175	76.62
423.398	93.62
423.621	78.62
423.843	83.62
424.066	72.62
424.288	85.62
424.511	94.62
424.733	80.62
424.956	84.62
425.178	80.62
425.401	91.62
425.623	97.62
425.846	90.62
426.068	80.62
426.291	86.62
426.513	91.62
426.735	89.62
426.958	91.62
427.18	86.62
427.402	93.62
427.625	88.62
427.847	92.62
428.069	83.62
428.292	89.62
428.514	79.62
428.736	76.62
428.958	87.62
429.181	87.62
429.403	95.62
429.625	68.62
429.847	82.62
430.069	84.62
430.292	97.62
430.514	76.62
430.736	81.62
430.958	93.62
431.18	89.62
431.402	80.62
431.624	77.62
431.846	80.62
432.068	81.62
432.29	86.62
432.512	82.62
432.734	93.62
432.956	94.62
433.178	94.62
433.4	76.62
433.622	97.62
433.844	75.62
434.066	107.62
434.287	83.62
434.509	87.62
434.731	90.62
434.953	79.62
435.175	81.62
435.397	91.62
435.618	89.62
435.84	80.62
436.062	83.62
436.284	78.62
436.505	88.62
436.727	78.62
436.949	84.62
437.17	83.62
437.392	95.62
437.614	81.62
437.835	83.62
438.057	85.62
438.278	87.62
438.5	75.62
438.721	87.62
438.943	95.62
439.165	100.62
439.386	76.62
439.608	92.62
439.829	74.62
440.05	89.62
440.272	68.62
440.493	94.62
440.715	87.62
440.936	81.62
441.158	87.62
441.379	86.62
441.6	81.62
441.822	75.62
442.043	80.62
442.264	71.62
442.486	74.62
442.707	82.62
442.928	85.62
443.149	84.62
443.371	99.62
443.592	77.62
443.813	83.62
444.034	84.62
444.255	87.62
444.476	86.62
444.698	85.62
444.919	77.62
445.14	172.62
445.361	121.62
445.582	87.62
445.803	86.62
446.024	90.62
446.245	81.62
446.466	80.62
446.687	74.62
446.908	82.62
447.129	90.62
447.35	88.62
447.571	95.62
447.792	68.62
448.013	85.62
448.234	96.62
448.455	94.62
448.675	95.62
448.896	97.62
449.117	101.62
449.338	84.62
449.559	95.62
449.779	76.62
450	68.62
450.221	83.62
450.442	84.62
450.662	90.62
450.883	76.62
451.104	77.62
451.324	72.62
451.545	88.62
451.766	82.62
451.986	79.62
452.207	85.62
452.428	83.62
452.648	91.62
452.869	90.62
453.089	83.62
453.31	84.62
453.53	93.62
453.751	91.62
453.971	92.62
454.192	80.62
454.412	87.62
454.633	83.62
454.853	87.62
455.073	78.62
455.294	86.62
455.514	88.62
455.734	73.62
455.955	80.62
456.175	75.62
456.395	79.62
456.616	94.62
456.836	74.62
457.056	88.62
457.276	97.62
457.497	87.62
457.717	81.62
457.937	91.62
458.157	80.62
458.377	85.62
458.598	78.62
458.818	93.62
459.038	82.62
459.258	78.62
459.478	79.62
459.698	80.62
459.918	75.62
460.138	81.62
460.358	71.62
460.578	88.62
460.798	84.62
461.018	78.62
461.238	87.62
461.458	77.62
461.678	89.62
461.898	72.62
462.118	77.62
462.338	90.62
462.558	79.62
462.777	75.62
462.997	78.62
463.217	78.62
463.437	76.62
463.657	84.62
463.876	69.62
464.096	70.62
464.316	79.62
464.536	85.62
464.755	76.62
464.975	81.62
465.195	103.62
465.414	80.62
465.634	82.62
465.854	78.62
466.073	77.62
466.293	93.62
466.512	76.62
466.732	96.62
466.951	66.62
467.171	92.62
467.391	93.62
467.61	82.62
467.829	82.62
468.049	80.62
468.268	83.62
468.488	93.62
468.707	92.62
468.927	71.62
469.146	91.62
469.365	89.62
469.585	88.62
469.804	91.62
470.023	85.62
470.243	74.62
470.462	80.62
470.681	78.62
470.901	72.62
471.12	79.62
471.339	92.62
471.558	89.62
471.777	92.62
471.997	81.62
472.216	79.62
472.435	88.62
472.654	75.62
472.873	74.62
473.092	78.62
473.311	76.62
473.53	88.62
473.749	87.62
473.968	78.62
474.187	86.62
474.406	76.62
474.625	90.62
474.844	79.62
475.063	94.62
475.282	88.62
475.501	78.62
475.72	89.62
475.939	95.62
476.158	81.62
476.377	90.62
476.596	83.62
476.814	93.62
477.033	76.62
477.252	93.62
477.471	80.62
477.69	85.62
477.908	83.62
478.127	74.62
478.346	85.62
478.564	71.62
478.783	79.62
479.002	92.62
479.22	74.62
479.439	81.62
479.658	90.62
479.876	73.62
480.095	87.62
480.313	87.62
480.532	75.62
480.751	92.62
480.969	93.62
481.188	85.62
481.406	81.62
481.624	90.62
481.843	92.62
482.061	78.62
482.28	78.62
482.498	77.62
482.717	87.62
482.935	59.62
483.153	85.62
483.372	95.62
483.59	91.62
483.808	93.62
484.027	84.62
484.245	96.62
484.463	88.62
484.681	95.62
484.9	95.62
485.118	80.62
485.336	76.62
485.554	92.62
485.772	73.62
485.99	84.62
486.209	92.62
486.427	78.62
486.645	91.62
486.863	73.62
487.081	85.62
487.299	83.62
487.517	73.62
487.735	87.62
487.953	96.62
488.171	89.62
488.389	92.62
488.607	81.62
488.825	84.62
489.043	93.62
489.261	100.62
489.479	92.62
489.696	87.62
489.914	77.62
490.132	85.62
490.35	88.62
490.568	103.62
490.786	80.62
491.003	91.62
491.221	84.62
491.439	93.62
491.657	80.62
491.874	75.62
492.092	95.62
492.31	77.62
492.527	95.62
492.745	94.62
492.963	91.62
493.18	89.62
493.398	87.62
493.615	82.62
493.833	95.62
494.05	89.62
494.268	84.62
494.485	79.62
494.703	84.62
494.92	115.62
495.138	82.62
495.355	83.62
495.573	106.62
495.79	91.62
496.008	101.62
496.225	87.62
496.442	88.62
496.66	85.62
496.877	81.62
497.094	83.62
497.312	85.62
497.529	94.62
497.746	95.62
497.963	88.62
498.181	91.62
498.398	81.62
498.615	97.62
498.832	92.62
499.049	96.62
499.267	81.62
499.484	86.62
499.701	84.62
499.918	84.62
500.135	91.62
500.352	86.62
500.569	81.62
500.786	92.62
501.003	87.62
501.22	89.62
501.437	75.62
501.654	76.62
501.871	104.62
502.088	105.62
502.305	85.62
502.522	79.62
502.739	89.62
502.956	93.62
503.172	87.62
503.389	84.62
503.606	84.62
503.823	73.62
504.04	95.62
504.256	90.62
504.473	81.62
504.69	93.62
504.907	95.62
505.123	80.62
505.34	87.62
505.557	90.62
505.773	87.62
505.99	81.62
506.207	83.62
506.423	78.62
506.64	91.62
506.856	84.62
507.073	78.62
507.289	93.62
507.506	72.62
507.722	95.62
507.939	91.62
508.155	91.62
508.372	93.62
508.588	92.62
508.805	91.62
509.021	74.62
509.238	83.62
509.454	81.62
509.67	77.62
509.887	92.62
510.103	96.62
510.319	105.62
510.536	90.62
510.752	105.62
510.968	93.62
511.184	87.62
511.401	96.62
511.617	93.62
511.833	93.62
512.049	86.62
512.265	80.62
512.481	80.62
512.698	84.62
512.914	79.62
513.13	85.62
513.346	88.62
513.562	76.62
513.778	104.62
513.994	100.62
514.21	89.62
514.426	71.62
514.642	76.62
514.858	72.62
515.074	92.62
515.29	95.62
515.506	86.62
515.721	87.62
515.937	72.62
516.153	85.62
516.369	80.62
516.585	80.62
516.801	78.62
517.016	76.62
517.232	79.62
517.448	87.62
517.664	87.62
517.879	75.62
518.095	96.62
518.311	96.62
518.527	85.62
518.742	84.62
518.958	77.62
519.173	82.62
519.389	78.62
519.605	89.62
