Data from KBr_2_HRD10591_00041.txt Node
Date: Mon Jan 19 13:13:11 EST 2026
User: Yrep
Spectrometer: HR+D1059
Trigger mode: 1
Integration Time (sec): 1.000000E-1
Scans to average: 1
Electric dark correction enabled: true
Nonlinearity correction enabled: false
Boxcar width: 0
XAxis mode: Wavelengths
Number of Pixels in Spectrum: 2048
>>>>>Begin Spectral Data<<<<<
223.165	-20
223.4	-20
223.635	-20
223.869	-15
224.104	-12
224.338	-22
224.573	-5
224.808	-14
225.042	-12
225.277	-10
225.511	-4
225.746	4
225.98	-8
226.215	19
226.449	15
226.683	21
226.918	29
227.152	34
227.387	17
227.621	41
227.856	56
228.09	50
228.324	46
228.559	50
228.793	37
229.027	57
229.262	67
229.496	76
229.73	73
229.964	72
230.199	70
230.433	72
230.667	71
230.901	74
231.136	75
231.37	75
231.604	81
231.838	77
232.072	62
232.306	99
232.541	78
232.775	75
233.009	75
233.243	75
233.477	75
233.711	74
233.945	86
234.179	76
234.413	91
234.647	60
234.881	71
235.115	77
235.349	96
235.583	83
235.817	80
236.051	76
236.285	72
236.519	78
236.753	70
236.987	62
237.221	77
237.455	76
237.689	83
237.922	66
238.156	77
238.39	72
238.624	73
238.858	71
239.091	60
239.325	61
239.559	65
239.793	61
240.027	78
240.26	74
240.494	83
240.728	76
240.961	71
241.195	74
241.429	64
241.662	72
241.896	76
242.13	71
242.363	84
242.597	76
242.83	66
243.064	76
243.298	67
243.531	62
243.765	84
243.998	78
244.232	81
244.465	65
244.699	79
244.932	74
245.166	79
245.399	84
245.633	76
245.866	82
246.099	86
246.333	77
246.566	92
246.8	82
247.033	82
247.266	72
247.5	65
247.733	86
247.966	71
248.2	71
248.433	71
248.666	77
248.899	78
249.133	67
249.366	76
249.599	62
249.832	84
250.066	77
250.299	87
250.532	85
250.765	80
250.998	65
251.231	74
251.465	82
251.698	82
251.931	78
252.164	72
252.397	75
252.63	86
252.863	92
253.096	74
253.329	76
253.562	89
253.795	76
254.028	84
254.261	79
254.494	86
254.727	69
254.96	78
255.193	71
255.426	84
255.659	71
255.892	75
256.124	76
256.357	79
256.59	74
256.823	78
257.056	83
257.289	63
257.521	65
257.754	76
257.987	90
258.22	71
258.452	78
258.685	80
258.918	74
259.151	72
259.383	78
259.616	79
259.849	61
260.081	81
260.314	76
260.547	82
260.779	71
261.012	73
261.244	76
261.477	78
261.71	64
261.942	68
262.175	87
262.407	85
262.64	78
262.872	68
263.105	82
263.337	89
263.57	76
263.802	78
264.035	79
264.267	77
264.499	82
264.732	85
264.964	82
265.197	62
265.429	88
265.661	89
265.894	89
266.126	100
266.358	70
266.591	70
266.823	71
267.055	87
267.287	90
267.52	91
267.752	79
267.984	86
268.216	73
268.448	77
268.681	88
268.913	99
269.145	74
269.377	83
269.609	77
269.841	66
270.073	82
270.306	94
270.538	74
270.77	84
271.002	88
271.234	79
271.466	89
271.698	72
271.93	72
272.162	73
272.394	92
272.626	88
272.858	78
273.09	82
273.322	75
273.553	87
273.785	78
274.017	62
274.249	77
274.481	79
274.713	83
274.945	72
275.176	64
275.408	78
275.64	89
275.872	82
276.104	71
276.335	83
276.567	77
276.799	84
277.031	72
277.262	88
277.494	66
277.726	83
277.957	82
278.189	86
278.421	74
278.652	75
278.884	76
279.115	89
279.347	87
279.579	82
279.81	87
280.042	77
280.273	84
280.505	95
280.736	85
280.968	82
281.199	93
281.431	84
281.662	84
281.894	91
282.125	87
282.356	76
282.588	77
282.819	89
283.051	76
283.282	77
283.513	91
283.745	89
283.976	64
284.207	78
284.439	84
284.67	97
284.901	90
285.132	87
285.364	82
285.595	85
285.826	84
286.057	87
286.288	85
286.52	102
286.751	76
286.982	74
287.213	73
287.444	79
287.675	77
287.906	92
288.138	76
288.369	89
288.6	79
288.831	84
289.062	92
289.293	94
289.524	89
289.755	74
289.986	90
290.217	88
290.448	75
290.679	72
290.91	92
291.141	87
291.371	77
291.602	75
291.833	86
292.064	85
292.295	89
292.526	86
292.757	74
292.987	83
293.218	90
293.449	85
293.68	83
293.91	76
294.141	64
294.372	69
294.603	89
294.833	80
295.064	72
295.295	63
295.525	85
295.756	77
295.987	86
296.217	91
296.448	86
296.679	80
296.909	63
297.14	80
297.37	82
297.601	83
297.831	85
298.062	84
298.292	74
298.523	83
298.753	79
298.984	87
299.214	82
299.445	77
299.675	75
299.905	83
300.136	88
300.366	87
300.597	83
300.827	94
301.057	76
301.288	83
301.518	81
301.748	83
301.979	88
302.209	78
302.439	73
302.669	90
302.9	76
303.13	101
303.36	74
303.59	89
303.82	95
304.051	84
304.281	88
304.511	90
304.741	84
304.971	90
305.201	70
305.431	81
305.661	82
305.891	72
306.121	83
306.352	87
306.582	69
306.812	77
307.042	96
307.272	78
307.502	71
307.731	84
307.961	81
308.191	78
308.421	81
308.651	67
308.881	76
309.111	86
309.341	89
309.571	80
309.8	81
310.03	77
310.26	78
310.49	65
310.72	92
310.949	72
311.179	80
311.409	89
311.639	87
311.868	78
312.098	78
312.328	80
312.557	93
312.787	73
313.017	88
313.246	85
313.476	88
313.706	74
313.935	91
314.165	79
314.394	85
314.624	91
314.853	83
315.083	79
315.312	77
315.542	76
315.771	84
316.001	86
316.23	77
316.46	78
316.689	82
316.919	97
317.148	83
317.377	70
317.607	78
317.836	83
318.065	75
318.295	82
318.524	78
318.753	84
318.983	86
319.212	84
319.441	96
319.67	96
319.9	86
320.129	89
320.358	78
320.587	87
320.816	98
321.046	85
321.275	75
321.504	74
321.733	87
321.962	77
322.191	84
322.42	85
322.649	74
322.878	72
323.108	78
323.337	83
323.566	82
323.795	91
324.024	87
324.253	90
324.482	78
324.71	84
324.939	82
325.168	75
325.397	95
325.626	87
325.855	68
326.084	84
326.313	83
326.542	82
326.77	79
326.999	74
327.228	87
327.457	80
327.686	83
327.914	84
328.143	99
328.372	88
328.6	80
328.829	80
329.058	78
329.287	91
329.515	89
329.744	82
329.972	73
330.201	89
330.43	84
330.658	87
330.887	81
331.115	85
331.344	90
331.572	92
331.801	82
332.03	80
332.258	93
332.486	79
332.715	69
332.943	73
333.172	86
333.4	83
333.629	80
333.857	80
334.085	69
334.314	92
334.542	79
334.771	89
334.999	73
335.227	77
335.455	84
335.684	85
335.912	68
336.14	87
336.369	94
336.597	79
336.825	89
337.053	86
337.281	87
337.51	101
337.738	85
337.966	63
338.194	90
338.422	87
338.65	89
338.878	87
339.106	91
339.334	90
339.562	83
339.79	72
340.018	85
340.246	89
340.474	102
340.702	82
340.93	76
341.158	76
341.386	96
341.614	77
341.842	88
342.07	79
342.298	83
342.526	85
342.754	69
342.981	68
343.209	83
343.437	93
343.665	77
343.893	87
344.12	80
344.348	87
344.576	103
344.804	94
345.031	91
345.259	98
345.487	83
345.714	74
345.942	94
346.17	92
346.397	76
346.625	79
346.853	86
347.08	65
347.308	76
347.535	71
347.763	70
347.99	87
348.218	68
348.445	77
348.673	77
348.9	77
349.128	82
349.355	86
349.583	84
349.81	79
350.037	67
350.265	80
350.492	72
350.72	83
350.947	66
351.174	72
351.402	95
351.629	66
351.856	76
352.083	84
352.311	77
352.538	84
352.765	90
352.992	85
353.22	82
353.447	94
353.674	85
353.901	72
354.128	89
354.355	84
354.583	73
354.81	86
355.037	84
355.264	69
355.491	89
355.718	88
355.945	77
356.172	91
356.399	79
356.626	98
356.853	72
357.08	82
357.307	75
357.534	85
357.761	95
357.988	89
358.215	86
358.441	71
358.668	74
358.895	80
359.122	77
359.349	82
359.576	70
359.802	75
360.029	76
360.256	82
360.483	81
360.709	76
360.936	67
361.163	92
361.39	85
361.616	82
361.843	82
362.07	81
362.296	88
362.523	54
362.749	76
362.976	95
363.203	78
363.429	77
363.656	83
363.882	78
364.109	93
364.335	86
364.562	91
364.788	78
365.015	77
365.241	90
365.468	92
365.694	89
365.92	67
366.147	86
366.373	87
366.599	70
366.826	82
367.052	87
367.278	94
367.505	94
367.731	84
367.957	68
368.184	99
368.41	92
368.636	87
368.862	72
369.089	76
369.315	77
369.541	84
369.767	80
369.993	90
370.219	78
370.445	79
370.672	76
370.898	75
371.124	94
371.35	77
371.576	89
371.802	101
372.028	82
372.254	104
372.48	92
372.706	80
372.932	75
373.158	68
373.384	72
373.61	83
373.835	93
374.061	79
374.287	94
374.513	83
374.739	65
374.965	76
375.191	83
375.416	76
375.642	88
375.868	74
376.094	78
376.319	79
376.545	91
376.771	76
376.997	88
377.222	84
377.448	88
377.674	91
377.899	96
378.125	81
378.35	90
378.576	83
378.802	94
379.027	73
379.253	78
379.478	82
379.704	83
379.929	74
380.155	80
380.38	82
380.606	90
380.831	71
381.057	90
381.282	74
381.507	91
381.733	82
381.958	98
382.184	72
382.409	76
382.634	86
382.86	74
383.085	70
383.31	77
383.535	89
383.761	83
383.986	65
384.211	79
384.436	77
384.662	87
384.887	79
385.112	84
385.337	83
385.562	80
385.787	75
386.013	88
386.238	70
386.463	90
386.688	84
386.913	88
387.138	94
387.363	71
387.588	75
387.813	79
388.038	80
388.263	96
388.488	76
388.713	91
388.938	76
389.163	86
389.387	67
389.612	83
389.837	86
390.062	88
390.287	78
390.512	86
390.736	88
390.961	87
391.186	78
391.411	85
391.636	79
391.86	90
392.085	81
392.31	91
392.534	79
392.759	82
392.984	84
393.208	91
393.433	87
393.658	61
393.882	86
394.107	77
394.331	90
394.556	100
394.78	85
395.005	75
395.229	77
395.454	89
395.678	90
395.903	84
396.127	98
396.352	78
396.576	59
396.801	81
397.025	70
397.249	63
397.474	84
397.698	91
397.922	91
398.147	63
398.371	72
398.595	70
398.82	82
399.044	73
399.268	89
399.492	73
399.717	73
399.941	76
400.165	70
400.389	75
400.613	76
400.837	82
401.062	78
401.286	80
401.51	84
401.734	86
401.958	80
402.182	75
402.406	75
402.63	83
402.854	101
403.078	72
403.302	82
403.526	78
403.75	82
403.974	87
404.198	107
404.422	126
404.645	144
404.869	120
405.093	97
405.317	91
405.541	79
405.765	74
405.988	71
406.212	80
406.436	74
406.66	80
406.883	76
407.107	78
407.331	92
407.555	86
407.778	79
408.002	67
408.226	60
408.449	73
408.673	77
408.896	75
409.12	78
409.344	75
409.567	78
409.791	93
410.014	81
410.238	90
410.461	78
410.685	82
410.908	84
411.132	76
411.355	88
411.578	92
411.802	79
412.025	87
412.249	90
412.472	70
412.695	77
412.919	85
413.142	75
413.365	74
413.589	77
413.812	76
414.035	79
414.258	74
414.482	76
414.705	70
414.928	89
415.151	86
415.374	68
415.597	81
415.821	85
416.044	78
416.267	85
416.49	86
416.713	76
416.936	84
417.159	76
417.382	76
417.605	84
417.828	77
418.051	81
418.274	92
418.497	79
418.72	79
418.943	87
419.166	79
419.389	84
419.611	76
419.834	81
420.057	69
420.28	87
420.503	83
420.726	82
420.948	78
421.171	91
421.394	58
421.617	80
421.839	78
422.062	68
422.285	70
422.507	74
422.73	81
422.953	96
423.175	78
423.398	75
423.621	69
423.843	70
424.066	72
424.288	87
424.511	79
424.733	95
424.956	71
425.178	77
425.401	70
425.623	70
425.846	72
426.068	87
426.291	82
426.513	75
426.735	76
426.958	88
427.18	76
427.402	84
427.625	80
427.847	72
428.069	82
428.292	81
428.514	87
428.736	80
428.958	73
429.181	71
429.403	88
429.625	72
429.847	87
430.069	82
430.292	83
430.514	90
430.736	74
430.958	83
431.18	79
431.402	77
431.624	60
431.846	69
432.068	73
432.29	64
432.512	82
432.734	80
432.956	75
433.178	81
433.4	71
433.622	84
433.844	78
434.066	80
434.287	76
434.509	81
434.731	82
434.953	83
435.175	76
435.397	92
435.618	85
435.84	84
436.062	90
436.284	91
436.505	88
436.727	91
436.949	93
437.17	89
437.392	71
437.614	80
437.835	71
438.057	78
438.278	86
438.5	86
438.721	100
438.943	86
439.165	79
439.386	82
439.608	79
439.829	82
440.05	95
440.272	90
440.493	93
440.715	90
440.936	78
441.158	83
441.379	64
441.6	86
441.822	81
442.043	81
442.264	83
442.486	80
442.707	88
442.928	81
443.149	84
443.371	94
443.592	83
443.813	85
444.034	69
444.255	76
444.476	79
444.698	86
444.919	79
445.14	163
445.361	118
445.582	88
445.803	88
446.024	79
446.245	71
446.466	84
446.687	83
446.908	96
447.129	86
447.35	79
447.571	75
447.792	83
448.013	100
448.234	92
448.455	79
448.675	83
448.896	78
449.117	73
449.338	73
449.559	77
449.779	73
450	94
450.221	90
450.442	80
450.662	70
450.883	83
451.104	84
451.324	81
451.545	94
451.766	66
451.986	83
452.207	85
452.428	96
452.648	83
452.869	78
453.089	72
453.31	79
453.53	85
453.751	87
453.971	74
454.192	81
454.412	80
454.633	80
454.853	75
455.073	70
455.294	85
455.514	77
455.734	78
455.955	76
456.175	81
456.395	75
456.616	63
456.836	94
457.056	88
457.276	86
457.497	83
457.717	65
457.937	77
458.157	94
458.377	80
458.598	73
458.818	64
459.038	73
459.258	98
459.478	80
459.698	77
459.918	83
460.138	73
460.358	64
460.578	82
460.798	75
461.018	77
461.238	84
461.458	87
461.678	83
461.898	79
462.118	83
462.338	84
462.558	88
462.777	79
462.997	90
463.217	70
463.437	88
463.657	79
463.876	60
464.096	77
464.316	81
464.536	81
464.755	94
464.975	84
465.195	61
465.414	71
465.634	70
465.854	74
466.073	86
466.293	74
466.512	79
466.732	73
466.951	71
467.171	87
467.391	88
467.61	93
467.829	94
468.049	88
468.268	87
468.488	86
468.707	94
468.927	74
469.146	87
469.365	102
469.585	85
469.804	78
470.023	79
470.243	93
470.462	86
470.681	87
470.901	90
471.12	80
471.339	81
471.558	86
471.777	92
471.997	88
472.216	79
472.435	85
472.654	70
472.873	81
473.092	91
473.311	81
473.53	80
473.749	103
473.968	90
474.187	75
474.406	70
474.625	82
474.844	83
475.063	91
475.282	86
475.501	85
475.72	103
475.939	80
476.158	86
476.377	76
476.596	78
476.814	72
477.033	75
477.252	84
477.471	72
477.69	84
477.908	84
478.127	89
478.346	87
478.564	102
478.783	70
479.002	74
479.22	88
479.439	69
479.658	85
479.876	90
480.095	82
480.313	84
480.532	89
480.751	83
480.969	77
481.188	91
481.406	75
481.624	82
481.843	97
482.061	88
482.28	68
482.498	86
482.717	69
482.935	91
483.153	86
483.372	76
483.59	71
483.808	83
484.027	80
484.245	90
484.463	82
484.681	76
484.9	88
485.118	80
485.336	72
485.554	92
485.772	86
485.99	86
486.209	88
486.427	90
486.645	64
486.863	93
487.081	104
487.299	76
487.517	79
487.735	82
487.953	91
488.171	86
488.389	91
488.607	87
488.825	91
489.043	79
489.261	76
489.479	94
489.696	71
489.914	76
490.132	95
490.35	92
490.568	73
490.786	83
491.003	95
491.221	81
491.439	88
491.657	83
491.874	91
492.092	79
492.31	92
492.527	91
492.745	90
492.963	90
493.18	59
493.398	85
493.615	99
493.833	88
494.05	83
494.268	69
494.485	75
494.703	99
494.92	95
495.138	91
495.355	73
495.573	79
495.79	88
496.008	85
496.225	81
496.442	85
496.66	80
496.877	92
497.094	86
497.312	86
497.529	96
497.746	89
497.963	90
498.181	74
498.398	78
498.615	84
498.832	75
499.049	83
499.267	93
499.484	78
499.701	83
499.918	89
500.135	93
500.352	84
500.569	88
500.786	88
501.003	69
501.22	82
501.437	71
501.654	96
501.871	81
502.088	78
502.305	90
502.522	82
502.739	95
502.956	60
503.172	100
503.389	79
503.606	78
503.823	95
504.04	86
504.256	92
504.473	86
504.69	80
504.907	95
505.123	87
505.34	97
505.557	74
505.773	84
505.99	93
506.207	78
506.423	82
506.64	92
506.856	80
507.073	76
507.289	92
507.506	90
507.722	76
507.939	89
508.155	93
508.372	98
508.588	78
508.805	86
509.021	79
509.238	88
509.454	82
509.67	83
509.887	77
510.103	92
510.319	85
510.536	75
510.752	81
510.968	100
511.184	75
511.401	77
511.617	84
511.833	75
512.049	72
512.265	89
512.481	91
512.698	72
512.914	82
513.13	75
513.346	82
513.562	76
513.778	88
513.994	79
514.21	76
514.426	85
514.642	83
514.858	69
515.074	77
515.29	76
515.506	87
515.721	94
515.937	76
516.153	69
516.369	67
516.585	83
516.801	64
517.016	76
517.232	88
517.448	85
517.664	79
517.879	83
518.095	88
518.311	92
518.527	90
518.742	69
518.958	89
519.173	84
519.389	94
519.605	80
519.82	78
520.036	73
520.251	79
520.467	67
520.682	93
520.898	81
521.113	73
521.329	85
521.544	71
521.76	83
521.975	98
522.19	93
522.406	100
522.621	88
522.836	84
523.052	79
523.267	86
523.482	83
523.698	72
523.913	82
524.128	82
524.343	95
524.559	90
524.774	74
524.989	90
525.204	93
525.419	74
525.634	68
525.849	81
526.064	92
526.28	84
526.495	76
526.71	90
526.925	95
527.14	80
527.355	79
527.57	89
527.785	91
527.999	75
528.214	72
528.429	80
528.644	73
528.859	78
529.074	79
529.289	87
529.503	79
529.718	91
529.933	93
530.148	96
530.363	100
530.577	87
530.792	73
531.007	82
531.221	91
531.436	88
531.651	78
531.865	64
532.08	76
532.295	86
532.509	82
532.724	85
532.938	94
533.153	93
533.367	92
533.582	85
533.796	68
534.011	68
534.225	102
534.44	87
534.654	78
534.868	91
535.083	77
535.297	83
535.511	93
535.726	79
535.94	85
536.154	87
536.369	95
536.583	72
536.797	88
537.011	77
537.225	79
537.44	83
537.654	88
537.868	74
538.082	74
538.296	65
538.51	69
538.724	90
538.938	83
539.153	83
539.367	88
539.581	91
539.795	80
540.009	73
540.222	79
540.436	88
540.65	87
540.864	76
541.078	86
541.292	80
541.506	68
541.72	76
541.934	99
542.147	90
542.361	94
542.575	100
542.789	88
543.002	86
543.216	100
543.43	91
543.644	72
543.857	81
544.071	94
544.285	102
544.498	75
544.712	91
544.925	86
545.139	90
545.352	92
545.566	81
545.779	82
545.993	89
546.206	78
546.42	82
546.633	88
546.847	96
547.06	93
547.274	90
547.487	90
547.7	90
547.914	76
548.127	92
548.34	85
548.554	88
548.767	87
548.98	84
549.193	83
549.407	89
549.62	73
549.833	53
550.046	79
550.259	98
550.473	90
550.686	86
550.899	83
551.112	85
551.325	87
551.538	90
551.751	81
551.964	83
552.177	92
552.39	84
552.603	78
552.816	73
553.029	104
553.242	77
553.455	89
553.667	98
553.88	84
554.093	86
554.306	89
554.519	102
554.732	88
554.944	87
555.157	98
555.37	86
555.583	84
555.795	93
556.008	93
556.221	87
556.433	78
556.646	87
556.859	84
557.071	87
557.284	90
557.496	108
557.709	100
557.921	93
558.134	94
558.346	107
558.559	93
558.771	90
558.984	90
559.196	82
559.409	82
559.621	94
559.833	81
560.046	77
560.258	73
560.47	98
560.683	93
560.895	87
561.107	92
561.32	77
561.532	76
561.744	90
561.956	86
562.168	85
562.381	88
562.593	78
562.805	76
563.017	94
563.229	84
563.441	80
563.653	83
563.865	83
564.077	75
564.289	99
564.501	88
564.713	96
564.925	87
565.137	95
565.349	85
565.561	77
565.773	95
565.985	84
566.197	78
566.408	82
566.62	83
566.832	94
567.044	71
567.255	87
567.467	75
567.679	79
567.891	87
568.102	87
568.314	92
568.526	92
568.737	76
568.949	84
569.161	85
569.372	98
569.584	98
569.795	74
570.007	87
570.218	70
570.43	99
570.641	84
570.853	79
571.064	79
571.276	89
571.487	92
571.698	91
571.91	73
572.121	73
572.333	99
572.544	82
572.755	74
572.966	75
573.178	73
573.389	81
573.6	82
573.811	77
574.023	94
574.234	80
574.445	87
574.656	78
574.867	88
575.078	82
575.289	88
575.501	91
575.712	89
575.923	92
576.134	78
576.345	86
576.556	71
576.767	90
576.978	89
577.188	94
577.399	101
577.61	81
577.821	87
578.032	100
578.243	82
578.454	96
578.665	100
578.875	85
579.086	75
579.297	87
579.508	85
579.718	88
579.929	84
580.14	81
580.35	113
580.561	103
580.772	100
580.982	108
581.193	77
581.403	95
581.614	86
581.825	82
582.035	81
582.246	77
582.456	75
582.667	74
582.877	79
583.087	78
583.298	93
583.508	99
583.719	86
583.929	89
584.139	92
584.35	71
584.56	82
584.77	83
584.981	78
585.191	72
585.401	69
585.611	90
585.821	83
586.032	72
586.242	78
586.452	87
586.662	75
586.872	71
587.082	82
587.292	83
587.502	72
587.713	83
587.923	88
588.133	84
588.343	78
588.553	83
588.762	113
588.972	175
589.182	379
589.392	269
589.602	184
589.812	321
590.022	184
590.232	111
