Data from Mixnoheat1_HRD10591_00001.txt Node
Date: Fri Dec 27 14:57:51 EST 2024
User: Yrep
Spectrometer: HR+D1059
Trigger mode: 1
Integration Time (sec): 1.000000E-1
Scans to average: 1
Electric dark correction enabled: true
Nonlinearity correction enabled: false
Boxcar width: 0
XAxis mode: Wavelengths
Number of Pixels in Spectrum: 2048
>>>>>Begin Spectral Data<<<<<
223.165	-28.44
223.4	-28.44
223.635	-28.44
223.869	-20.44
224.104	-14.44
224.338	-12.44
224.573	-9.44
224.808	-13.44
225.042	-6.44
225.277	-10.44
225.511	-1.44
225.746	-0.44
225.98	13.56
226.215	8.56
226.449	17.56
226.683	19.56
226.918	28.56
227.152	29.56
227.387	25.56
227.621	32.56
227.856	43.56
228.09	48.56
228.324	49.56
228.559	40.56
228.793	54.56
229.027	61.56
229.262	47.56
229.496	67.56
229.73	58.56
229.964	52.56
230.199	76.56
230.433	66.56
230.667	59.56
230.901	78.56
231.136	83.56
231.37	71.56
231.604	86.56
231.838	71.56
232.072	87.56
232.306	94.56
232.541	79.56
232.775	76.56
233.009	69.56
233.243	76.56
233.477	85.56
233.711	81.56
233.945	89.56
234.179	84.56
234.413	81.56
234.647	88.56
234.881	87.56
235.115	81.56
235.349	67.56
235.583	77.56
235.817	87.56
236.051	71.56
236.285	81.56
236.519	84.56
236.753	62.56
236.987	87.56
237.221	64.56
237.455	73.56
237.689	82.56
237.922	72.56
238.156	78.56
238.39	76.56
238.624	68.56
238.858	92.56
239.091	76.56
239.325	82.56
239.559	84.56
239.793	70.56
240.027	73.56
240.26	75.56
240.494	84.56
240.728	71.56
240.961	71.56
241.195	76.56
241.429	76.56
241.662	65.56
241.896	64.56
242.13	63.56
242.363	81.56
242.597	73.56
242.83	76.56
243.064	85.56
243.298	73.56
243.531	67.56
243.765	85.56
243.998	67.56
244.232	74.56
244.465	77.56
244.699	81.56
244.932	77.56
245.166	74.56
245.399	83.56
245.633	70.56
245.866	63.56
246.099	70.56
246.333	81.56
246.566	71.56
246.8	72.56
247.033	87.56
247.266	84.56
247.5	75.56
247.733	79.56
247.966	70.56
248.2	75.56
248.433	83.56
248.666	67.56
248.899	67.56
249.133	91.56
249.366	85.56
249.599	89.56
249.832	78.56
250.066	77.56
250.299	84.56
250.532	91.56
250.765	73.56
250.998	88.56
251.231	69.56
251.465	74.56
251.698	82.56
251.931	78.56
252.164	77.56
252.397	74.56
252.63	81.56
252.863	76.56
253.096	77.56
253.329	85.56
253.562	77.56
253.795	76.56
254.028	73.56
254.261	77.56
254.494	91.56
254.727	82.56
254.96	81.56
255.193	77.56
255.426	86.56
255.659	82.56
255.892	79.56
256.124	77.56
256.357	85.56
256.59	80.56
256.823	83.56
257.056	95.56
257.289	65.56
257.521	69.56
257.754	79.56
257.987	80.56
258.22	73.56
258.452	77.56
258.685	72.56
258.918	80.56
259.151	71.56
259.383	67.56
259.616	73.56
259.849	83.56
260.081	53.56
260.314	66.56
260.547	72.56
260.779	66.56
261.012	78.56
261.244	83.56
261.477	76.56
261.71	67.56
261.942	80.56
262.175	78.56
262.407	69.56
262.64	79.56
262.872	78.56
263.105	67.56
263.337	81.56
263.57	71.56
263.802	82.56
264.035	71.56
264.267	67.56
264.499	78.56
264.732	87.56
264.964	85.56
265.197	91.56
265.429	84.56
265.661	100.56
265.894	71.56
266.126	76.56
266.358	89.56
266.591	84.56
266.823	82.56
267.055	85.56
267.287	83.56
267.52	62.56
267.752	92.56
267.984	79.56
268.216	65.56
268.448	71.56
268.681	86.56
268.913	78.56
269.145	63.56
269.377	86.56
269.609	83.56
269.841	75.56
270.073	73.56
270.306	67.56
270.538	89.56
270.77	76.56
271.002	68.56
271.234	82.56
271.466	75.56
271.698	75.56
271.93	85.56
272.162	82.56
272.394	84.56
272.626	84.56
272.858	77.56
273.09	75.56
273.322	98.56
273.553	82.56
273.785	76.56
274.017	65.56
274.249	97.56
274.481	88.56
274.713	75.56
274.945	75.56
275.176	94.56
275.408	94.56
275.64	75.56
275.872	88.56
276.104	85.56
276.335	84.56
276.567	78.56
276.799	83.56
277.031	78.56
277.262	89.56
277.494	87.56
277.726	78.56
277.957	82.56
278.189	74.56
278.421	99.56
278.652	84.56
278.884	68.56
279.115	89.56
279.347	75.56
279.579	73.56
279.81	76.56
280.042	75.56
280.273	90.56
280.505	81.56
280.736	82.56
280.968	81.56
281.199	82.56
281.431	102.56
281.662	82.56
281.894	83.56
282.125	70.56
282.356	86.56
282.588	72.56
282.819	90.56
283.051	80.56
283.282	92.56
283.513	109.56
283.745	79.56
283.976	97.56
284.207	82.56
284.439	90.56
284.67	91.56
284.901	76.56
285.132	83.56
285.364	89.56
285.595	87.56
285.826	86.56
286.057	86.56
286.288	74.56
286.52	92.56
286.751	82.56
286.982	96.56
287.213	71.56
287.444	83.56
287.675	83.56
287.906	88.56
288.138	83.56
288.369	80.56
288.6	90.56
288.831	75.56
289.062	80.56
289.293	78.56
289.524	83.56
289.755	78.56
289.986	87.56
290.217	82.56
290.448	79.56
290.679	79.56
290.91	94.56
291.141	82.56
291.371	79.56
291.602	74.56
291.833	89.56
292.064	84.56
292.295	85.56
292.526	82.56
292.757	84.56
292.987	89.56
293.218	81.56
293.449	79.56
293.68	89.56
293.91	86.56
294.141	96.56
294.372	82.56
294.603	102.56
294.833	82.56
295.064	81.56
295.295	81.56
295.525	85.56
295.756	82.56
295.987	100.56
296.217	78.56
296.448	92.56
296.679	73.56
296.909	88.56
297.14	84.56
297.37	82.56
297.601	74.56
297.831	81.56
298.062	104.56
298.292	72.56
298.523	95.56
298.753	89.56
298.984	83.56
299.214	82.56
299.445	82.56
299.675	84.56
299.905	85.56
300.136	84.56
300.366	97.56
300.597	73.56
300.827	87.56
301.057	86.56
301.288	76.56
301.518	75.56
301.748	65.56
301.979	100.56
302.209	98.56
302.439	83.56
302.669	66.56
302.9	85.56
303.13	85.56
303.36	91.56
303.59	84.56
303.82	80.56
304.051	78.56
304.281	84.56
304.511	81.56
304.741	89.56
304.971	77.56
305.201	81.56
305.431	82.56
305.661	84.56
305.891	82.56
306.121	81.56
306.352	72.56
306.582	79.56
306.812	79.56
307.042	84.56
307.272	77.56
307.502	75.56
307.731	92.56
307.961	86.56
308.191	97.56
308.421	97.56
308.651	85.56
308.881	83.56
309.111	87.56
309.341	92.56
309.571	76.56
309.8	90.56
310.03	72.56
310.26	73.56
310.49	88.56
310.72	88.56
310.949	99.56
311.179	90.56
311.409	80.56
311.639	78.56
311.868	80.56
312.098	95.56
312.328	86.56
312.557	93.56
312.787	74.56
313.017	85.56
313.246	89.56
313.476	82.56
313.706	94.56
313.935	82.56
314.165	92.56
314.394	74.56
314.624	75.56
314.853	82.56
315.083	77.56
315.312	78.56
315.542	89.56
315.771	79.56
316.001	86.56
316.23	85.56
316.46	78.56
316.689	80.56
316.919	84.56
317.148	92.56
317.377	83.56
317.607	92.56
317.836	92.56
318.065	77.56
318.295	83.56
318.524	83.56
318.753	72.56
318.983	93.56
319.212	87.56
319.441	73.56
319.67	80.56
319.9	85.56
320.129	83.56
320.358	87.56
320.587	71.56
320.816	86.56
321.046	75.56
321.275	87.56
321.504	84.56
321.733	74.56
321.962	79.56
322.191	89.56
322.42	70.56
322.649	87.56
322.878	79.56
323.108	100.56
323.337	97.56
323.566	71.56
323.795	72.56
324.024	84.56
324.253	82.56
324.482	71.56
324.71	82.56
324.939	88.56
325.168	82.56
325.397	85.56
325.626	83.56
325.855	77.56
326.084	77.56
326.313	87.56
326.542	86.56
326.77	91.56
326.999	87.56
327.228	82.56
327.457	86.56
327.686	92.56
327.914	77.56
328.143	79.56
328.372	94.56
328.6	91.56
328.829	77.56
329.058	98.56
329.287	82.56
329.515	78.56
329.744	83.56
329.972	84.56
330.201	89.56
330.43	68.56
330.658	82.56
330.887	78.56
331.115	96.56
331.344	85.56
331.572	86.56
331.801	75.56
332.03	73.56
332.258	77.56
332.486	86.56
332.715	93.56
332.943	72.56
333.172	75.56
333.4	66.56
333.629	88.56
333.857	73.56
334.085	107.56
334.314	80.56
334.542	72.56
334.771	97.56
334.999	85.56
335.227	80.56
335.455	84.56
335.684	82.56
335.912	92.56
336.14	78.56
336.369	76.56
336.597	81.56
336.825	83.56
337.053	83.56
337.281	82.56
337.51	84.56
337.738	83.56
337.966	90.56
338.194	78.56
338.422	89.56
338.65	89.56
338.878	81.56
339.106	82.56
339.334	82.56
339.562	78.56
339.79	78.56
340.018	89.56
340.246	70.56
340.474	77.56
340.702	86.56
340.93	78.56
341.158	74.56
341.386	84.56
341.614	69.56
341.842	70.56
342.07	87.56
342.298	102.56
342.526	84.56
342.754	89.56
342.981	85.56
343.209	88.56
343.437	93.56
343.665	70.56
343.893	84.56
344.12	89.56
344.348	85.56
344.576	87.56
344.804	94.56
345.031	90.56
345.259	69.56
345.487	94.56
345.714	83.56
345.942	77.56
346.17	88.56
346.397	78.56
346.625	79.56
346.853	91.56
347.08	80.56
347.308	69.56
347.535	82.56
347.763	83.56
347.99	100.56
348.218	89.56
348.445	93.56
348.673	81.56
348.9	89.56
349.128	85.56
349.355	77.56
349.583	78.56
349.81	89.56
350.037	66.56
350.265	98.56
350.492	71.56
350.72	77.56
350.947	98.56
351.174	90.56
351.402	78.56
351.629	77.56
351.856	81.56
352.083	72.56
352.311	83.56
352.538	97.56
352.765	77.56
352.992	77.56
353.22	94.56
353.447	82.56
353.674	79.56
353.901	73.56
354.128	71.56
354.355	93.56
354.583	75.56
354.81	106.56
355.037	73.56
355.264	86.56
355.491	78.56
355.718	92.56
355.945	90.56
356.172	75.56
356.399	86.56
356.626	85.56
356.853	93.56
357.08	88.56
357.307	98.56
357.534	81.56
357.761	94.56
357.988	97.56
358.215	91.56
358.441	76.56
358.668	75.56
358.895	85.56
359.122	88.56
359.349	84.56
359.576	90.56
359.802	86.56
360.029	89.56
360.256	91.56
360.483	73.56
360.709	75.56
360.936	81.56
361.163	100.56
361.39	88.56
361.616	93.56
361.843	80.56
362.07	85.56
362.296	84.56
362.523	82.56
362.749	82.56
362.976	99.56
363.203	89.56
363.429	82.56
363.656	82.56
363.882	94.56
364.109	109.56
364.335	99.56
364.562	76.56
364.788	86.56
365.015	83.56
365.241	77.56
365.468	86.56
365.694	70.56
365.92	79.56
366.147	88.56
366.373	74.56
366.599	85.56
366.826	79.56
367.052	86.56
367.278	80.56
367.505	85.56
367.731	96.56
367.957	84.56
368.184	79.56
368.41	83.56
368.636	84.56
368.862	93.56
369.089	89.56
369.315	84.56
369.541	92.56
369.767	88.56
369.993	73.56
370.219	79.56
370.445	79.56
370.672	77.56
370.898	74.56
371.124	87.56
371.35	85.56
371.576	81.56
371.802	91.56
372.028	91.56
372.254	86.56
372.48	85.56
372.706	89.56
372.932	81.56
373.158	86.56
373.384	91.56
373.61	91.56
373.835	66.56
374.061	93.56
374.287	91.56
374.513	92.56
374.739	82.56
374.965	91.56
375.191	73.56
375.416	88.56
375.642	76.56
375.868	88.56
376.094	87.56
376.319	74.56
376.545	85.56
376.771	88.56
376.997	85.56
377.222	90.56
377.448	90.56
377.674	87.56
377.899	91.56
378.125	62.56
378.35	98.56
378.576	82.56
378.802	78.56
379.027	90.56
379.253	84.56
379.478	82.56
379.704	84.56
379.929	77.56
380.155	77.56
380.38	88.56
380.606	82.56
380.831	84.56
381.057	93.56
381.282	76.56
381.507	88.56
381.733	81.56
381.958	88.56
382.184	75.56
382.409	97.56
382.634	94.56
382.86	97.56
383.085	81.56
383.31	82.56
383.535	103.56
383.761	85.56
383.986	83.56
384.211	98.56
384.436	78.56
384.662	80.56
384.887	93.56
385.112	88.56
385.337	85.56
385.562	87.56
385.787	84.56
386.013	101.56
386.238	83.56
386.463	73.56
386.688	103.56
386.913	87.56
387.138	68.56
387.363	85.56
387.588	92.56
387.813	89.56
388.038	110.56
388.263	91.56
388.488	76.56
388.713	88.56
388.938	84.56
389.163	86.56
389.387	82.56
389.612	85.56
389.837	83.56
390.062	80.56
390.287	78.56
390.512	90.56
390.736	81.56
390.961	73.56
391.186	87.56
391.411	84.56
391.636	87.56
391.86	77.56
392.085	87.56
392.31	81.56
392.534	89.56
392.759	87.56
392.984	99.56
393.208	140.56
393.433	177.56
393.658	130.56
393.882	103.56
394.107	95.56
394.331	94.56
394.556	117.56
394.78	97.56
395.005	84.56
395.229	89.56
395.454	75.56
395.678	78.56
395.903	110.56
396.127	110.56
396.352	110.56
396.576	105.56
396.801	128.56
397.025	142.56
397.249	117.56
397.474	89.56
397.698	92.56
397.922	95.56
398.147	94.56
398.371	83.56
398.595	90.56
398.82	81.56
399.044	74.56
399.268	77.56
399.492	81.56
399.717	83.56
399.941	95.56
400.165	82.56
400.389	91.56
400.613	84.56
400.837	87.56
401.062	81.56
401.286	78.56
401.51	82.56
401.734	79.56
401.958	85.56
402.182	88.56
402.406	79.56
402.63	74.56
402.854	85.56
403.078	77.56
403.302	76.56
403.526	82.56
403.75	87.56
403.974	85.56
404.198	97.56
404.422	133.56
404.645	125.56
404.869	115.56
405.093	91.56
405.317	89.56
405.541	86.56
405.765	83.56
405.988	84.56
406.212	89.56
406.436	85.56
406.66	78.56
406.883	90.56
407.107	84.56
407.331	86.56
407.555	85.56
407.778	90.56
408.002	90.56
408.226	76.56
408.449	84.56
408.673	84.56
408.896	86.56
409.12	75.56
409.344	93.56
409.567	87.56
409.791	101.56
410.014	89.56
410.238	82.56
410.461	87.56
410.685	80.56
410.908	85.56
411.132	83.56
411.355	90.56
411.578	83.56
411.802	75.56
412.025	74.56
412.249	84.56
412.472	87.56
412.695	90.56
412.919	85.56
413.142	91.56
413.365	95.56
413.589	83.56
413.812	83.56
414.035	95.56
414.258	78.56
414.482	75.56
414.705	89.56
414.928	88.56
415.151	78.56
415.374	69.56
415.597	77.56
415.821	88.56
416.044	84.56
416.267	86.56
416.49	76.56
416.713	84.56
416.936	83.56
417.159	81.56
417.382	89.56
417.605	87.56
417.828	84.56
418.051	67.56
418.274	83.56
418.497	90.56
418.72	83.56
418.943	85.56
419.166	93.56
419.389	98.56
419.611	79.56
419.834	90.56
420.057	86.56
420.28	88.56
420.503	89.56
420.726	81.56
420.948	85.56
421.171	86.56
421.394	98.56
421.617	94.56
421.839	94.56
422.062	102.56
422.285	117.56
422.507	162.56
422.73	187.56
422.953	166.56
423.175	126.56
423.398	92.56
423.621	103.56
423.843	100.56
424.066	94.56
424.288	91.56
424.511	87.56
424.733	78.56
424.956	69.56
425.178	90.56
425.401	74.56
425.623	100.56
425.846	80.56
426.068	75.56
426.291	78.56
426.513	88.56
426.735	76.56
426.958	97.56
427.18	90.56
427.402	83.56
427.625	94.56
427.847	78.56
428.069	91.56
428.292	118.56
428.514	104.56
428.736	93.56
428.958	110.56
429.181	94.56
429.403	74.56
429.625	90.56
429.847	99.56
430.069	109.56
430.292	117.56
430.514	121.56
430.736	121.56
430.958	106.56
431.18	98.56
431.402	90.56
431.624	86.56
431.846	94.56
432.068	110.56
432.29	108.56
432.512	84.56
432.734	67.56
432.956	75.56
433.178	89.56
433.4	83.56
433.622	82.56
433.844	80.56
434.066	77.56
434.287	88.56
434.509	88.56
434.731	82.56
434.953	92.56
435.175	87.56
435.397	85.56
435.618	69.56
435.84	76.56
436.062	88.56
436.284	86.56
436.505	88.56
436.727	83.56
436.949	79.56
437.17	84.56
437.392	73.56
437.614	96.56
437.835	73.56
438.057	87.56
438.278	91.56
438.5	89.56
438.721	88.56
438.943	93.56
439.165	76.56
439.386	87.56
439.608	82.56
439.829	76.56
440.05	89.56
440.272	83.56
440.493	72.56
440.715	75.56
440.936	79.56
441.158	76.56
441.379	70.56
441.6	74.56
441.822	80.56
442.043	83.56
442.264	106.56
442.486	109.56
442.707	132.56
442.928	102.56
443.149	99.56
443.371	121.56
443.592	166.56
443.813	141.56
444.034	94.56
444.255	79.56
444.476	85.56
444.698	87.56
444.919	79.56
445.14	169.56
445.361	158.56
445.582	178.56
445.803	165.56
446.024	105.56
446.245	94.56
446.466	81.56
446.687	86.56
446.908	78.56
447.129	79.56
447.35	91.56
447.571	81.56
447.792	86.56
448.013	75.56
448.234	87.56
448.455	85.56
448.675	78.56
448.896	86.56
449.117	71.56
449.338	79.56
449.559	80.56
449.779	78.56
450	86.56
450.221	90.56
450.442	93.56
450.662	77.56
450.883	81.56
451.104	95.56
451.324	82.56
451.545	74.56
451.766	84.56
451.986	80.56
452.207	92.56
452.428	84.56
452.648	93.56
452.869	94.56
453.089	93.56
453.31	80.56
453.53	88.56
453.751	83.56
453.971	85.56
454.192	87.56
454.412	77.56
454.633	76.56
454.853	89.56
455.073	82.56
455.294	75.56
455.514	86.56
455.734	97.56
455.955	86.56
456.175	74.56
456.395	79.56
456.616	68.56
456.836	86.56
457.056	84.56
457.276	81.56
457.497	85.56
457.717	100.56
457.937	94.56
458.157	94.56
458.377	101.56
458.598	90.56
458.818	99.56
459.038	86.56
459.258	81.56
459.478	77.56
459.698	79.56
459.918	86.56
460.138	86.56
460.358	95.56
460.578	93.56
460.798	105.56
461.018	88.56
461.238	79.56
461.458	73.56
461.678	93.56
461.898	89.56
462.118	77.56
462.338	79.56
462.558	85.56
462.777	95.56
462.997	97.56
463.217	75.56
463.437	78.56
463.657	95.56
463.876	88.56
464.096	83.56
464.316	83.56
464.536	88.56
464.755	75.56
464.975	87.56
465.195	74.56
465.414	82.56
465.634	90.56
465.854	87.56
466.073	86.56
466.293	93.56
466.512	82.56
466.732	78.56
466.951	88.56
467.171	102.56
467.391	84.56
467.61	82.56
467.829	77.56
468.049	73.56
468.268	89.56
468.488	77.56
468.707	86.56
468.927	94.56
469.146	83.56
469.365	94.56
469.585	89.56
469.804	86.56
470.023	79.56
470.243	81.56
470.462	94.56
470.681	87.56
470.901	79.56
471.12	70.56
471.339	62.56
471.558	88.56
471.777	84.56
471.997	88.56
472.216	83.56
472.435	67.56
472.654	75.56
472.873	82.56
473.092	71.56
473.311	92.56
473.53	93.56
473.749	87.56
473.968	88.56
474.187	91.56
474.406	98.56
474.625	79.56
474.844	87.56
475.063	96.56
475.282	89.56
475.501	88.56
475.72	90.56
475.939	81.56
476.158	85.56
476.377	76.56
476.596	79.56
476.814	81.56
477.033	74.56
477.252	83.56
477.471	72.56
477.69	81.56
477.908	83.56
478.127	84.56
478.346	73.56
478.564	87.56
478.783	87.56
479.002	97.56
479.22	77.56
479.439	91.56
479.658	75.56
479.876	83.56
480.095	94.56
480.313	82.56
480.532	92.56
480.751	78.56
480.969	75.56
481.188	86.56
481.406	90.56
481.624	85.56
481.843	94.56
482.061	93.56
482.28	81.56
482.498	93.56
482.717	82.56
482.935	96.56
483.153	105.56
483.372	87.56
483.59	88.56
483.808	79.56
484.027	94.56
484.245	93.56
484.463	92.56
484.681	93.56
484.9	86.56
485.118	84.56
485.336	76.56
485.554	88.56
485.772	99.56
485.99	79.56
486.209	82.56
486.427	82.56
486.645	84.56
486.863	97.56
487.081	83.56
487.299	82.56
487.517	90.56
487.735	96.56
487.953	124.56
488.171	112.56
488.389	101.56
488.607	88.56
488.825	81.56
489.043	91.56
489.261	83.56
489.479	89.56
489.696	79.56
489.914	80.56
490.132	79.56
490.35	87.56
490.568	91.56
490.786	76.56
491.003	88.56
491.221	74.56
491.439	76.56
491.657	78.56
491.874	89.56
492.092	83.56
492.31	88.56
492.527	97.56
492.745	94.56
492.963	104.56
493.18	95.56
493.398	95.56
493.615	84.56
493.833	86.56
494.05	87.56
494.268	90.56
494.485	86.56
494.703	76.56
494.92	89.56
495.138	94.56
495.355	78.56
495.573	78.56
495.79	85.56
496.008	80.56
496.225	79.56
496.442	99.56
496.66	91.56
496.877	92.56
497.094	83.56
497.312	87.56
497.529	87.56
497.746	86.56
497.963	86.56
498.181	92.56
498.398	89.56
498.615	99.56
498.832	81.56
499.049	88.56
499.267	106.56
499.484	81.56
499.701	95.56
499.918	83.56
500.135	91.56
500.352	82.56
500.569	83.56
500.786	93.56
501.003	74.56
501.22	75.56
501.437	81.56
501.654	91.56
501.871	68.56
502.088	81.56
502.305	76.56
502.522	91.56
502.739	81.56
502.956	83.56
503.172	85.56
503.389	81.56
503.606	84.56
503.823	79.56
504.04	84.56
504.256	86.56
504.473	109.56
504.69	94.56
504.907	95.56
505.123	89.56
505.34	79.56
505.557	86.56
505.773	83.56
505.99	82.56
506.207	99.56
506.423	93.56
506.64	92.56
506.856	75.56
507.073	95.56
507.289	86.56
507.506	86.56
507.722	87.56
507.939	79.56
508.155	90.56
508.372	79.56
508.588	87.56
508.805	74.56
509.021	91.56
509.238	100.56
509.454	87.56
509.67	74.56
509.887	88.56
510.103	94.56
510.319	99.56
510.536	93.56
510.752	83.56
510.968	94.56
511.184	83.56
511.401	93.56
511.617	81.56
511.833	86.56
512.049	87.56
512.265	83.56
512.481	79.56
512.698	70.56
512.914	99.56
513.13	89.56
513.346	77.56
513.562	88.56
513.778	89.56
513.994	76.56
514.21	87.56
514.426	91.56
514.642	108.56
514.858	89.56
515.074	85.56
515.29	100.56
515.506	90.56
515.721	78.56
515.937	107.56
516.153	90.56
516.369	90.56
516.585	84.56
516.801	93.56
517.016	98.56
517.232	84.56
517.448	89.56
517.664	86.56
517.879	80.56
518.095	85.56
518.311	101.56
518.527	87.56
518.742	74.56
518.958	107.56
