Data from Mixnoheat1_HRD10591_00016.txt Node
Date: Fri Dec 27 14:58:06 EST 2024
User: Yrep
Spectrometer: HR+D1059
Trigger mode: 1
Integration Time (sec): 1.000000E-1
Scans to average: 1
Electric dark correction enabled: true
Nonlinearity correction enabled: false
Boxcar width: 0
XAxis mode: Wavelengths
Number of Pixels in Spectrum: 2048
>>>>>Begin Spectral Data<<<<<
223.165	-15.75
223.4	-15.75
223.635	-15.75
223.869	-34.75
224.104	-9.75
224.338	-4.75
224.573	-7.75
224.808	-9.75
225.042	-6.75
225.277	3.25
225.511	-3.75
225.746	8.25
225.98	12.25
226.215	1.25
226.449	6.25
226.683	11.25
226.918	20.25
227.152	30.25
227.387	39.25
227.621	45.25
227.856	40.25
228.09	43.25
228.324	43.25
228.559	58.25
228.793	61.25
229.027	65.25
229.262	50.25
229.496	66.25
229.73	62.25
229.964	79.25
230.199	61.25
230.433	62.25
230.667	77.25
230.901	73.25
231.136	83.25
231.37	84.25
231.604	88.25
231.838	77.25
232.072	60.25
232.306	76.25
232.541	60.25
232.775	89.25
233.009	76.25
233.243	69.25
233.477	73.25
233.711	83.25
233.945	72.25
234.179	76.25
234.413	82.25
234.647	76.25
234.881	75.25
235.115	81.25
235.349	78.25
235.583	82.25
235.817	71.25
236.051	69.25
236.285	80.25
236.519	80.25
236.753	85.25
236.987	81.25
237.221	67.25
237.455	64.25
237.689	73.25
237.922	81.25
238.156	65.25
238.39	70.25
238.624	65.25
238.858	69.25
239.091	70.25
239.325	72.25
239.559	76.25
239.793	67.25
240.027	67.25
240.26	81.25
240.494	78.25
240.728	65.25
240.961	80.25
241.195	57.25
241.429	66.25
241.662	80.25
241.896	83.25
242.13	83.25
242.363	66.25
242.597	86.25
242.83	82.25
243.064	73.25
243.298	74.25
243.531	62.25
243.765	82.25
243.998	85.25
244.232	81.25
244.465	78.25
244.699	70.25
244.932	78.25
245.166	89.25
245.399	74.25
245.633	70.25
245.866	79.25
246.099	61.25
246.333	64.25
246.566	66.25
246.8	76.25
247.033	70.25
247.266	76.25
247.5	82.25
247.733	73.25
247.966	66.25
248.2	74.25
248.433	65.25
248.666	82.25
248.899	69.25
249.133	76.25
249.366	79.25
249.599	76.25
249.832	80.25
250.066	67.25
250.299	80.25
250.532	89.25
250.765	72.25
250.998	88.25
251.231	84.25
251.465	85.25
251.698	92.25
251.931	80.25
252.164	69.25
252.397	79.25
252.63	71.25
252.863	71.25
253.096	69.25
253.329	88.25
253.562	81.25
253.795	83.25
254.028	85.25
254.261	76.25
254.494	70.25
254.727	79.25
254.96	66.25
255.193	75.25
255.426	85.25
255.659	76.25
255.892	74.25
256.124	84.25
256.357	83.25
256.59	69.25
256.823	74.25
257.056	72.25
257.289	73.25
257.521	68.25
257.754	73.25
257.987	72.25
258.22	74.25
258.452	82.25
258.685	75.25
258.918	64.25
259.151	74.25
259.383	69.25
259.616	72.25
259.849	87.25
260.081	97.25
260.314	83.25
260.547	89.25
260.779	80.25
261.012	81.25
261.244	75.25
261.477	83.25
261.71	92.25
261.942	78.25
262.175	74.25
262.407	84.25
262.64	79.25
262.872	84.25
263.105	85.25
263.337	83.25
263.57	71.25
263.802	82.25
264.035	78.25
264.267	79.25
264.499	81.25
264.732	78.25
264.964	80.25
265.197	88.25
265.429	83.25
265.661	84.25
265.894	82.25
266.126	62.25
266.358	72.25
266.591	70.25
266.823	86.25
267.055	84.25
267.287	82.25
267.52	75.25
267.752	83.25
267.984	73.25
268.216	97.25
268.448	72.25
268.681	80.25
268.913	74.25
269.145	76.25
269.377	85.25
269.609	72.25
269.841	73.25
270.073	78.25
270.306	69.25
270.538	78.25
270.77	74.25
271.002	80.25
271.234	83.25
271.466	82.25
271.698	81.25
271.93	82.25
272.162	78.25
272.394	83.25
272.626	68.25
272.858	84.25
273.09	81.25
273.322	100.25
273.553	65.25
273.785	69.25
274.017	66.25
274.249	87.25
274.481	81.25
274.713	74.25
274.945	80.25
275.176	78.25
275.408	86.25
275.64	89.25
275.872	83.25
276.104	96.25
276.335	72.25
276.567	88.25
276.799	85.25
277.031	69.25
277.262	84.25
277.494	82.25
277.726	73.25
277.957	93.25
278.189	85.25
278.421	99.25
278.652	78.25
278.884	84.25
279.115	90.25
279.347	87.25
279.579	72.25
279.81	80.25
280.042	85.25
280.273	74.25
280.505	76.25
280.736	74.25
280.968	79.25
281.199	81.25
281.431	89.25
281.662	87.25
281.894	88.25
282.125	70.25
282.356	76.25
282.588	74.25
282.819	73.25
283.051	74.25
283.282	88.25
283.513	89.25
283.745	88.25
283.976	78.25
284.207	73.25
284.439	74.25
284.67	96.25
284.901	81.25
285.132	80.25
285.364	87.25
285.595	97.25
285.826	81.25
286.057	88.25
286.288	93.25
286.52	78.25
286.751	73.25
286.982	90.25
287.213	82.25
287.444	91.25
287.675	73.25
287.906	86.25
288.138	67.25
288.369	81.25
288.6	81.25
288.831	73.25
289.062	99.25
289.293	83.25
289.524	83.25
289.755	97.25
289.986	76.25
290.217	77.25
290.448	81.25
290.679	73.25
290.91	83.25
291.141	68.25
291.371	81.25
291.602	77.25
291.833	92.25
292.064	91.25
292.295	74.25
292.526	91.25
292.757	85.25
292.987	96.25
293.218	77.25
293.449	90.25
293.68	90.25
293.91	93.25
294.141	87.25
294.372	85.25
294.603	76.25
294.833	85.25
295.064	79.25
295.295	85.25
295.525	84.25
295.756	94.25
295.987	94.25
296.217	84.25
296.448	90.25
296.679	81.25
296.909	83.25
297.14	82.25
297.37	86.25
297.601	87.25
297.831	74.25
298.062	85.25
298.292	80.25
298.523	82.25
298.753	88.25
298.984	72.25
299.214	77.25
299.445	90.25
299.675	85.25
299.905	74.25
300.136	81.25
300.366	79.25
300.597	86.25
300.827	92.25
301.057	72.25
301.288	88.25
301.518	86.25
301.748	70.25
301.979	102.25
302.209	91.25
302.439	80.25
302.669	101.25
302.9	75.25
303.13	77.25
303.36	80.25
303.59	72.25
303.82	89.25
304.051	94.25
304.281	72.25
304.511	92.25
304.741	89.25
304.971	83.25
305.201	97.25
305.431	85.25
305.661	86.25
305.891	90.25
306.121	88.25
306.352	85.25
306.582	84.25
306.812	80.25
307.042	89.25
307.272	80.25
307.502	96.25
307.731	82.25
307.961	76.25
308.191	97.25
308.421	84.25
308.651	79.25
308.881	94.25
309.111	89.25
309.341	77.25
309.571	81.25
309.8	76.25
310.03	90.25
310.26	82.25
310.49	83.25
310.72	86.25
310.949	79.25
311.179	90.25
311.409	80.25
311.639	74.25
311.868	79.25
312.098	80.25
312.328	79.25
312.557	76.25
312.787	82.25
313.017	88.25
313.246	84.25
313.476	80.25
313.706	84.25
313.935	82.25
314.165	93.25
314.394	89.25
314.624	91.25
314.853	85.25
315.083	83.25
315.312	86.25
315.542	74.25
315.771	83.25
316.001	84.25
316.23	71.25
316.46	81.25
316.689	92.25
316.919	81.25
317.148	81.25
317.377	79.25
317.607	78.25
317.836	87.25
318.065	92.25
318.295	102.25
318.524	97.25
318.753	86.25
318.983	74.25
319.212	83.25
319.441	84.25
319.67	91.25
319.9	86.25
320.129	99.25
320.358	99.25
320.587	81.25
320.816	97.25
321.046	86.25
321.275	80.25
321.504	84.25
321.733	81.25
321.962	80.25
322.191	80.25
322.42	76.25
322.649	88.25
322.878	82.25
323.108	91.25
323.337	70.25
323.566	75.25
323.795	86.25
324.024	68.25
324.253	81.25
324.482	93.25
324.71	73.25
324.939	96.25
325.168	85.25
325.397	85.25
325.626	80.25
325.855	65.25
326.084	83.25
326.313	97.25
326.542	90.25
326.77	92.25
326.999	95.25
327.228	89.25
327.457	88.25
327.686	74.25
327.914	88.25
328.143	69.25
328.372	77.25
328.6	68.25
328.829	95.25
329.058	72.25
329.287	83.25
329.515	79.25
329.744	76.25
329.972	78.25
330.201	85.25
330.43	93.25
330.658	93.25
330.887	84.25
331.115	93.25
331.344	75.25
331.572	80.25
331.801	78.25
332.03	88.25
332.258	98.25
332.486	79.25
332.715	87.25
332.943	86.25
333.172	87.25
333.4	66.25
333.629	80.25
333.857	70.25
334.085	82.25
334.314	80.25
334.542	87.25
334.771	89.25
334.999	85.25
335.227	82.25
335.455	82.25
335.684	90.25
335.912	83.25
336.14	75.25
336.369	63.25
336.597	77.25
336.825	66.25
337.053	75.25
337.281	98.25
337.51	85.25
337.738	89.25
337.966	88.25
338.194	73.25
338.422	77.25
338.65	88.25
338.878	82.25
339.106	78.25
339.334	100.25
339.562	75.25
339.79	85.25
340.018	100.25
340.246	91.25
340.474	84.25
340.702	86.25
340.93	79.25
341.158	79.25
341.386	91.25
341.614	77.25
341.842	107.25
342.07	86.25
342.298	81.25
342.526	83.25
342.754	78.25
342.981	85.25
343.209	104.25
343.437	87.25
343.665	77.25
343.893	80.25
344.12	85.25
344.348	93.25
344.576	72.25
344.804	96.25
345.031	81.25
345.259	72.25
345.487	93.25
345.714	76.25
345.942	93.25
346.17	80.25
346.397	98.25
346.625	85.25
346.853	78.25
347.08	82.25
347.308	86.25
347.535	71.25
347.763	84.25
347.99	96.25
348.218	96.25
348.445	81.25
348.673	96.25
348.9	78.25
349.128	81.25
349.355	80.25
349.583	75.25
349.81	88.25
350.037	78.25
350.265	80.25
350.492	84.25
350.72	82.25
350.947	77.25
351.174	86.25
351.402	77.25
351.629	78.25
351.856	73.25
352.083	84.25
352.311	83.25
352.538	78.25
352.765	84.25
352.992	86.25
353.22	75.25
353.447	80.25
353.674	78.25
353.901	85.25
354.128	82.25
354.355	84.25
354.583	72.25
354.81	84.25
355.037	76.25
355.264	77.25
355.491	82.25
355.718	66.25
355.945	72.25
356.172	97.25
356.399	89.25
356.626	84.25
356.853	96.25
357.08	76.25
357.307	77.25
357.534	78.25
357.761	69.25
357.988	69.25
358.215	86.25
358.441	91.25
358.668	81.25
358.895	65.25
359.122	78.25
359.349	79.25
359.576	82.25
359.802	77.25
360.029	84.25
360.256	81.25
360.483	83.25
360.709	77.25
360.936	90.25
361.163	83.25
361.39	98.25
361.616	96.25
361.843	73.25
362.07	84.25
362.296	96.25
362.523	88.25
362.749	87.25
362.976	77.25
363.203	79.25
363.429	88.25
363.656	83.25
363.882	74.25
364.109	75.25
364.335	81.25
364.562	78.25
364.788	81.25
365.015	87.25
365.241	95.25
365.468	80.25
365.694	78.25
365.92	75.25
366.147	88.25
366.373	69.25
366.599	80.25
366.826	74.25
367.052	93.25
367.278	93.25
367.505	84.25
367.731	79.25
367.957	78.25
368.184	82.25
368.41	64.25
368.636	87.25
368.862	98.25
369.089	92.25
369.315	99.25
369.541	81.25
369.767	77.25
369.993	93.25
370.219	88.25
370.445	73.25
370.672	76.25
370.898	87.25
371.124	85.25
371.35	91.25
371.576	98.25
371.802	82.25
372.028	96.25
372.254	76.25
372.48	80.25
372.706	75.25
372.932	91.25
373.158	88.25
373.384	86.25
373.61	90.25
373.835	84.25
374.061	81.25
374.287	92.25
374.513	80.25
374.739	76.25
374.965	81.25
375.191	90.25
375.416	83.25
375.642	83.25
375.868	78.25
376.094	89.25
376.319	85.25
376.545	81.25
376.771	81.25
376.997	76.25
377.222	72.25
377.448	93.25
377.674	81.25
377.899	88.25
378.125	67.25
378.35	86.25
378.576	81.25
378.802	77.25
379.027	75.25
379.253	91.25
379.478	82.25
379.704	84.25
379.929	79.25
380.155	88.25
380.38	91.25
380.606	97.25
380.831	83.25
381.057	66.25
381.282	82.25
381.507	85.25
381.733	93.25
381.958	86.25
382.184	75.25
382.409	83.25
382.634	80.25
382.86	82.25
383.085	100.25
383.31	80.25
383.535	78.25
383.761	74.25
383.986	82.25
384.211	70.25
384.436	88.25
384.662	77.25
384.887	86.25
385.112	76.25
385.337	75.25
385.562	85.25
385.787	86.25
386.013	76.25
386.238	83.25
386.463	66.25
386.688	100.25
386.913	78.25
387.138	86.25
387.363	92.25
387.588	71.25
387.813	81.25
388.038	85.25
388.263	82.25
388.488	74.25
388.713	71.25
388.938	77.25
389.163	88.25
389.387	62.25
389.612	83.25
389.837	78.25
390.062	86.25
390.287	80.25
390.512	97.25
390.736	72.25
390.961	86.25
391.186	84.25
391.411	61.25
391.636	100.25
391.86	78.25
392.085	89.25
392.31	75.25
392.534	76.25
392.759	89.25
392.984	82.25
393.208	97.25
393.433	98.25
393.658	106.25
393.882	73.25
394.107	78.25
394.331	80.25
394.556	86.25
394.78	80.25
395.005	78.25
395.229	91.25
395.454	93.25
395.678	86.25
395.903	101.25
396.127	84.25
396.352	88.25
396.576	99.25
396.801	84.25
397.025	84.25
397.249	87.25
397.474	98.25
397.698	96.25
397.922	86.25
398.147	96.25
398.371	85.25
398.595	94.25
398.82	77.25
399.044	73.25
399.268	78.25
399.492	79.25
399.717	82.25
399.941	76.25
400.165	79.25
400.389	89.25
400.613	82.25
400.837	80.25
401.062	80.25
401.286	78.25
401.51	84.25
401.734	89.25
401.958	73.25
402.182	88.25
402.406	96.25
402.63	80.25
402.854	84.25
403.078	96.25
403.302	69.25
403.526	76.25
403.75	76.25
403.974	82.25
404.198	95.25
404.422	74.25
404.645	100.25
404.869	90.25
405.093	85.25
405.317	66.25
405.541	82.25
405.765	72.25
405.988	91.25
406.212	80.25
406.436	86.25
406.66	82.25
406.883	83.25
407.107	67.25
407.331	72.25
407.555	91.25
407.778	65.25
408.002	78.25
408.226	81.25
408.449	90.25
408.673	82.25
408.896	85.25
409.12	58.25
409.344	82.25
409.567	84.25
409.791	82.25
410.014	74.25
410.238	86.25
410.461	87.25
410.685	84.25
410.908	86.25
411.132	92.25
411.355	67.25
411.578	78.25
411.802	84.25
412.025	83.25
412.249	89.25
412.472	82.25
412.695	84.25
412.919	89.25
413.142	74.25
413.365	80.25
413.589	82.25
413.812	67.25
414.035	88.25
414.258	68.25
414.482	91.25
414.705	84.25
414.928	76.25
415.151	80.25
415.374	82.25
415.597	82.25
415.821	85.25
416.044	79.25
416.267	79.25
416.49	82.25
416.713	90.25
416.936	88.25
417.159	70.25
417.382	87.25
417.605	76.25
417.828	72.25
418.051	87.25
418.274	71.25
418.497	92.25
418.72	88.25
418.943	84.25
419.166	96.25
419.389	94.25
419.611	87.25
419.834	70.25
420.057	97.25
420.28	72.25
420.503	85.25
420.726	78.25
420.948	68.25
421.171	74.25
421.394	70.25
421.617	83.25
421.839	92.25
422.062	82.25
422.285	98.25
422.507	101.25
422.73	111.25
422.953	99.25
423.175	98.25
423.398	90.25
423.621	83.25
423.843	69.25
424.066	84.25
424.288	89.25
424.511	91.25
424.733	100.25
424.956	89.25
425.178	68.25
425.401	78.25
425.623	83.25
425.846	83.25
426.068	83.25
426.291	92.25
426.513	83.25
426.735	77.25
426.958	77.25
427.18	83.25
427.402	86.25
427.625	77.25
427.847	78.25
428.069	77.25
428.292	74.25
428.514	88.25
428.736	89.25
428.958	96.25
429.181	96.25
429.403	77.25
429.625	89.25
429.847	92.25
430.069	90.25
430.292	88.25
430.514	104.25
430.736	82.25
430.958	91.25
431.18	86.25
431.402	94.25
431.624	83.25
431.846	97.25
432.068	82.25
432.29	76.25
432.512	78.25
432.734	78.25
432.956	85.25
433.178	83.25
433.4	73.25
433.622	81.25
433.844	82.25
434.066	82.25
434.287	88.25
434.509	66.25
434.731	96.25
434.953	89.25
435.175	75.25
435.397	85.25
435.618	72.25
435.84	77.25
436.062	75.25
436.284	94.25
436.505	90.25
436.727	86.25
436.949	77.25
437.17	87.25
437.392	85.25
437.614	94.25
437.835	73.25
438.057	72.25
438.278	72.25
438.5	87.25
438.721	88.25
438.943	71.25
439.165	92.25
439.386	82.25
439.608	92.25
439.829	84.25
440.05	94.25
440.272	81.25
440.493	81.25
440.715	82.25
440.936	77.25
441.158	73.25
441.379	80.25
441.6	77.25
441.822	92.25
442.043	76.25
442.264	94.25
442.486	103.25
442.707	97.25
442.928	81.25
443.149	100.25
443.371	105.25
443.592	108.25
443.813	106.25
444.034	91.25
444.255	76.25
444.476	73.25
444.698	80.25
444.919	79.25
445.14	148.25
445.361	114.25
445.582	110.25
445.803	86.25
446.024	72.25
446.245	79.25
446.466	75.25
446.687	82.25
446.908	66.25
447.129	75.25
447.35	78.25
447.571	80.25
447.792	70.25
448.013	82.25
448.234	62.25
448.455	78.25
448.675	85.25
448.896	82.25
449.117	76.25
449.338	74.25
449.559	82.25
449.779	74.25
450	83.25
450.221	86.25
450.442	96.25
450.662	84.25
450.883	79.25
451.104	79.25
451.324	78.25
451.545	72.25
451.766	83.25
451.986	90.25
452.207	75.25
452.428	67.25
452.648	85.25
452.869	86.25
453.089	81.25
453.31	60.25
453.53	70.25
453.751	85.25
453.971	73.25
454.192	76.25
454.412	67.25
454.633	78.25
454.853	76.25
455.073	76.25
455.294	71.25
455.514	80.25
455.734	91.25
455.955	86.25
456.175	94.25
456.395	84.25
456.616	89.25
456.836	88.25
457.056	77.25
457.276	74.25
457.497	84.25
457.717	63.25
457.937	89.25
458.157	80.25
458.377	86.25
458.598	88.25
458.818	87.25
459.038	90.25
459.258	87.25
459.478	78.25
459.698	78.25
459.918	77.25
460.138	76.25
460.358	85.25
460.578	85.25
460.798	85.25
461.018	99.25
461.238	76.25
461.458	92.25
461.678	76.25
461.898	92.25
462.118	79.25
462.338	71.25
462.558	69.25
462.777	79.25
462.997	82.25
463.217	87.25
463.437	80.25
463.657	70.25
463.876	68.25
464.096	77.25
464.316	68.25
464.536	82.25
464.755	80.25
464.975	73.25
465.195	79.25
465.414	94.25
465.634	82.25
465.854	90.25
466.073	86.25
466.293	76.25
466.512	73.25
466.732	76.25
466.951	85.25
467.171	73.25
467.391	87.25
467.61	71.25
467.829	79.25
468.049	79.25
468.268	76.25
468.488	74.25
468.707	57.25
468.927	76.25
469.146	81.25
469.365	69.25
469.585	84.25
469.804	82.25
470.023	74.25
470.243	85.25
470.462	88.25
470.681	93.25
470.901	78.25
471.12	95.25
471.339	74.25
471.558	91.25
471.777	84.25
471.997	81.25
472.216	67.25
472.435	80.25
472.654	87.25
472.873	92.25
473.092	65.25
473.311	72.25
473.53	92.25
473.749	85.25
473.968	70.25
474.187	72.25
474.406	75.25
474.625	88.25
474.844	87.25
475.063	93.25
475.282	86.25
475.501	82.25
475.72	87.25
475.939	87.25
476.158	98.25
476.377	70.25
476.596	84.25
476.814	90.25
477.033	70.25
477.252	72.25
477.471	82.25
477.69	84.25
477.908	77.25
478.127	89.25
478.346	69.25
478.564	82.25
478.783	79.25
479.002	80.25
479.22	87.25
479.439	102.25
479.658	87.25
479.876	90.25
480.095	75.25
480.313	81.25
480.532	90.25
480.751	70.25
480.969	84.25
481.188	82.25
481.406	93.25
481.624	81.25
481.843	78.25
482.061	82.25
482.28	90.25
482.498	88.25
482.717	65.25
482.935	91.25
483.153	92.25
483.372	73.25
483.59	74.25
483.808	75.25
484.027	89.25
484.245	92.25
484.463	81.25
484.681	87.25
484.9	76.25
485.118	70.25
485.336	84.25
485.554	86.25
485.772	84.25
485.99	74.25
486.209	72.25
486.427	79.25
486.645	71.25
486.863	95.25
487.081	91.25
487.299	94.25
487.517	93.25
487.735	96.25
487.953	90.25
488.171	86.25
488.389	88.25
488.607	87.25
488.825	77.25
489.043	78.25
489.261	77.25
489.479	80.25
489.696	93.25
489.914	70.25
490.132	77.25
490.35	82.25
490.568	85.25
490.786	80.25
491.003	75.25
491.221	82.25
491.439	76.25
491.657	74.25
491.874	82.25
492.092	84.25
492.31	87.25
492.527	87.25
492.745	58.25
492.963	71.25
493.18	86.25
493.398	74.25
493.615	81.25
493.833	78.25
494.05	78.25
494.268	90.25
494.485	101.25
494.703	77.25
494.92	82.25
495.138	81.25
495.355	79.25
495.573	85.25
495.79	81.25
496.008	76.25
496.225	76.25
496.442	85.25
496.66	84.25
496.877	70.25
497.094	78.25
497.312	70.25
497.529	82.25
497.746	82.25
497.963	77.25
498.181	84.25
498.398	76.25
498.615	83.25
498.832	81.25
499.049	88.25
499.267	81.25
499.484	66.25
499.701	81.25
499.918	77.25
500.135	82.25
500.352	95.25
500.569	79.25
500.786	78.25
501.003	80.25
501.22	68.25
501.437	71.25
501.654	84.25
501.871	85.25
502.088	73.25
502.305	87.25
502.522	84.25
502.739	85.25
502.956	89.25
503.172	82.25
503.389	98.25
503.606	80.25
503.823	83.25
504.04	68.25
504.256	92.25
504.473	93.25
504.69	89.25
504.907	86.25
505.123	85.25
505.34	89.25
505.557	73.25
505.773	74.25
505.99	76.25
506.207	78.25
506.423	92.25
506.64	77.25
506.856	72.25
507.073	72.25
507.289	83.25
507.506	87.25
507.722	64.25
507.939	98.25
508.155	85.25
508.372	75.25
508.588	72.25
508.805	86.25
509.021	65.25
509.238	79.25
509.454	56.25
509.67	76.25
509.887	67.25
510.103	99.25
510.319	78.25
510.536	73.25
510.752	90.25
510.968	79.25
511.184	90.25
511.401	75.25
511.617	91.25
511.833	77.25
512.049	81.25
512.265	62.25
512.481	81.25
512.698	77.25
512.914	88.25
513.13	82.25
513.346	93.25
513.562	89.25
513.778	74.25
513.994	87.25
514.21	72.25
514.426	91.25
514.642	98.25
514.858	82.25
515.074	88.25
515.29	80.25
515.506	84.25
515.721	83.25
515.937	80.25
516.153	74.25
516.369	89.25
516.585	97.25
516.801	91.25
517.016	72.25
517.232	63.25
517.448	91.25
517.664	86.25
517.879	88.25
518.095	77.25
518.311	76.25
518.527	81.25
518.742	88.25
518.958	82.25
519.173	96.25
519.389	81.25
519.605	81.25
519.82	70.25
520.036	79.25
