Data from Mixnoheat1_HRD10591_00017.txt Node
Date: Fri Dec 27 14:58:07 EST 2024
User: Yrep
Spectrometer: HR+D1059
Trigger mode: 1
Integration Time (sec): 1.000000E-1
Scans to average: 1
Electric dark correction enabled: true
Nonlinearity correction enabled: false
Boxcar width: 0
XAxis mode: Wavelengths
Number of Pixels in Spectrum: 2048
>>>>>Begin Spectral Data<<<<<
223.165	-4.69
223.4	-4.69
223.635	-4.69
223.869	-11.69
224.104	-11.69
224.338	-16.69
224.573	-26.69
224.808	-21.69
225.042	-9.69
225.277	6.31
225.511	-2.69
225.746	3.31
225.98	5.31
226.215	13.31
226.449	8.31
226.683	23.31
226.918	22.31
227.152	23.31
227.387	34.31
227.621	37.31
227.856	59.31
228.09	51.31
228.324	48.31
228.559	57.31
228.793	54.31
229.027	53.31
229.262	61.31
229.496	66.31
229.73	63.31
229.964	61.31
230.199	79.31
230.433	67.31
230.667	65.31
230.901	76.31
231.136	78.31
231.37	74.31
231.604	73.31
231.838	72.31
232.072	76.31
232.306	88.31
232.541	68.31
232.775	64.31
233.009	72.31
233.243	66.31
233.477	69.31
233.711	76.31
233.945	86.31
234.179	69.31
234.413	79.31
234.647	79.31
234.881	76.31
235.115	81.31
235.349	86.31
235.583	82.31
235.817	80.31
236.051	83.31
236.285	78.31
236.519	73.31
236.753	84.31
236.987	87.31
237.221	75.31
237.455	80.31
237.689	77.31
237.922	76.31
238.156	63.31
238.39	76.31
238.624	71.31
238.858	76.31
239.091	74.31
239.325	75.31
239.559	67.31
239.793	69.31
240.027	69.31
240.26	66.31
240.494	74.31
240.728	65.31
240.961	78.31
241.195	82.31
241.429	75.31
241.662	78.31
241.896	64.31
242.13	72.31
242.363	69.31
242.597	85.31
242.83	75.31
243.064	76.31
243.298	81.31
243.531	85.31
243.765	81.31
243.998	67.31
244.232	80.31
244.465	66.31
244.699	87.31
244.932	91.31
245.166	90.31
245.399	74.31
245.633	70.31
245.866	72.31
246.099	55.31
246.333	64.31
246.566	75.31
246.8	87.31
247.033	88.31
247.266	86.31
247.5	80.31
247.733	81.31
247.966	89.31
248.2	72.31
248.433	82.31
248.666	79.31
248.899	82.31
249.133	79.31
249.366	90.31
249.599	73.31
249.832	77.31
250.066	86.31
250.299	63.31
250.532	66.31
250.765	85.31
250.998	79.31
251.231	68.31
251.465	77.31
251.698	80.31
251.931	83.31
252.164	72.31
252.397	82.31
252.63	82.31
252.863	85.31
253.096	84.31
253.329	60.31
253.562	82.31
253.795	81.31
254.028	95.31
254.261	71.31
254.494	85.31
254.727	83.31
254.96	88.31
255.193	82.31
255.426	71.31
255.659	77.31
255.892	76.31
256.124	72.31
256.357	79.31
256.59	69.31
256.823	69.31
257.056	84.31
257.289	74.31
257.521	76.31
257.754	78.31
257.987	92.31
258.22	80.31
258.452	82.31
258.685	86.31
258.918	76.31
259.151	85.31
259.383	90.31
259.616	66.31
259.849	87.31
260.081	71.31
260.314	77.31
260.547	80.31
260.779	82.31
261.012	72.31
261.244	66.31
261.477	68.31
261.71	89.31
261.942	73.31
262.175	82.31
262.407	78.31
262.64	83.31
262.872	66.31
263.105	92.31
263.337	93.31
263.57	87.31
263.802	78.31
264.035	79.31
264.267	78.31
264.499	74.31
264.732	83.31
264.964	73.31
265.197	69.31
265.429	96.31
265.661	81.31
265.894	63.31
266.126	77.31
266.358	75.31
266.591	85.31
266.823	83.31
267.055	89.31
267.287	78.31
267.52	77.31
267.752	64.31
267.984	69.31
268.216	90.31
268.448	96.31
268.681	86.31
268.913	91.31
269.145	95.31
269.377	90.31
269.609	81.31
269.841	90.31
270.073	86.31
270.306	80.31
270.538	69.31
270.77	85.31
271.002	81.31
271.234	83.31
271.466	85.31
271.698	60.31
271.93	73.31
272.162	78.31
272.394	92.31
272.626	86.31
272.858	92.31
273.09	76.31
273.322	91.31
273.553	83.31
273.785	77.31
274.017	76.31
274.249	82.31
274.481	88.31
274.713	87.31
274.945	84.31
275.176	80.31
275.408	75.31
275.64	90.31
275.872	85.31
276.104	79.31
276.335	77.31
276.567	73.31
276.799	64.31
277.031	71.31
277.262	93.31
277.494	74.31
277.726	90.31
277.957	74.31
278.189	80.31
278.421	79.31
278.652	88.31
278.884	83.31
279.115	62.31
279.347	68.31
279.579	89.31
279.81	85.31
280.042	72.31
280.273	75.31
280.505	71.31
280.736	77.31
280.968	87.31
281.199	79.31
281.431	93.31
281.662	72.31
281.894	69.31
282.125	82.31
282.356	85.31
282.588	84.31
282.819	85.31
283.051	89.31
283.282	92.31
283.513	78.31
283.745	83.31
283.976	72.31
284.207	83.31
284.439	100.31
284.67	87.31
284.901	92.31
285.132	80.31
285.364	90.31
285.595	77.31
285.826	92.31
286.057	89.31
286.288	83.31
286.52	81.31
286.751	80.31
286.982	94.31
287.213	98.31
287.444	84.31
287.675	87.31
287.906	95.31
288.138	77.31
288.369	99.31
288.6	87.31
288.831	71.31
289.062	80.31
289.293	89.31
289.524	77.31
289.755	77.31
289.986	80.31
290.217	86.31
290.448	82.31
290.679	71.31
290.91	79.31
291.141	86.31
291.371	84.31
291.602	73.31
291.833	70.31
292.064	79.31
292.295	76.31
292.526	89.31
292.757	81.31
292.987	99.31
293.218	75.31
293.449	86.31
293.68	77.31
293.91	92.31
294.141	92.31
294.372	84.31
294.603	89.31
294.833	77.31
295.064	94.31
295.295	83.31
295.525	87.31
295.756	73.31
295.987	90.31
296.217	87.31
296.448	89.31
296.679	84.31
296.909	68.31
297.14	79.31
297.37	67.31
297.601	87.31
297.831	78.31
298.062	83.31
298.292	73.31
298.523	87.31
298.753	85.31
298.984	94.31
299.214	93.31
299.445	79.31
299.675	88.31
299.905	90.31
300.136	68.31
300.366	84.31
300.597	95.31
300.827	77.31
301.057	79.31
301.288	89.31
301.518	86.31
301.748	72.31
301.979	86.31
302.209	91.31
302.439	82.31
302.669	78.31
302.9	78.31
303.13	70.31
303.36	81.31
303.59	79.31
303.82	91.31
304.051	109.31
304.281	91.31
304.511	85.31
304.741	84.31
304.971	74.31
305.201	103.31
305.431	86.31
305.661	80.31
305.891	86.31
306.121	103.31
306.352	69.31
306.582	87.31
306.812	88.31
307.042	95.31
307.272	91.31
307.502	81.31
307.731	92.31
307.961	64.31
308.191	76.31
308.421	82.31
308.651	92.31
308.881	84.31
309.111	85.31
309.341	89.31
309.571	79.31
309.8	94.31
310.03	75.31
310.26	71.31
310.49	76.31
310.72	91.31
310.949	96.31
311.179	79.31
311.409	81.31
311.639	96.31
311.868	85.31
312.098	80.31
312.328	69.31
312.557	89.31
312.787	89.31
313.017	72.31
313.246	79.31
313.476	91.31
313.706	91.31
313.935	84.31
314.165	78.31
314.394	72.31
314.624	90.31
314.853	87.31
315.083	92.31
315.312	90.31
315.542	101.31
315.771	76.31
316.001	88.31
316.23	85.31
316.46	77.31
316.689	99.31
316.919	85.31
317.148	89.31
317.377	87.31
317.607	76.31
317.836	76.31
318.065	86.31
318.295	86.31
318.524	80.31
318.753	83.31
318.983	88.31
319.212	92.31
319.441	87.31
319.67	95.31
319.9	76.31
320.129	95.31
320.358	84.31
320.587	90.31
320.816	87.31
321.046	83.31
321.275	97.31
321.504	65.31
321.733	78.31
321.962	71.31
322.191	100.31
322.42	83.31
322.649	87.31
322.878	79.31
323.108	83.31
323.337	85.31
323.566	79.31
323.795	84.31
324.024	84.31
324.253	98.31
324.482	78.31
324.71	70.31
324.939	85.31
325.168	79.31
325.397	76.31
325.626	89.31
325.855	72.31
326.084	79.31
326.313	81.31
326.542	71.31
326.77	84.31
326.999	73.31
327.228	79.31
327.457	80.31
327.686	78.31
327.914	85.31
328.143	90.31
328.372	88.31
328.6	81.31
328.829	86.31
329.058	75.31
329.287	82.31
329.515	93.31
329.744	87.31
329.972	89.31
330.201	85.31
330.43	87.31
330.658	82.31
330.887	92.31
331.115	82.31
331.344	81.31
331.572	92.31
331.801	82.31
332.03	83.31
332.258	80.31
332.486	82.31
332.715	90.31
332.943	80.31
333.172	88.31
333.4	88.31
333.629	83.31
333.857	81.31
334.085	89.31
334.314	85.31
334.542	81.31
334.771	93.31
334.999	82.31
335.227	79.31
335.455	81.31
335.684	91.31
335.912	84.31
336.14	89.31
336.369	86.31
336.597	93.31
336.825	92.31
337.053	79.31
337.281	83.31
337.51	89.31
337.738	93.31
337.966	85.31
338.194	78.31
338.422	77.31
338.65	104.31
338.878	93.31
339.106	94.31
339.334	89.31
339.562	76.31
339.79	79.31
340.018	91.31
340.246	73.31
340.474	83.31
340.702	74.31
340.93	75.31
341.158	101.31
341.386	72.31
341.614	71.31
341.842	80.31
342.07	67.31
342.298	79.31
342.526	84.31
342.754	79.31
342.981	83.31
343.209	86.31
343.437	89.31
343.665	78.31
343.893	81.31
344.12	86.31
344.348	86.31
344.576	92.31
344.804	77.31
345.031	64.31
345.259	70.31
345.487	84.31
345.714	91.31
345.942	80.31
346.17	87.31
346.397	75.31
346.625	84.31
346.853	77.31
347.08	82.31
347.308	75.31
347.535	88.31
347.763	87.31
347.99	101.31
348.218	93.31
348.445	95.31
348.673	86.31
348.9	88.31
349.128	81.31
349.355	92.31
349.583	85.31
349.81	92.31
350.037	95.31
350.265	90.31
350.492	85.31
350.72	67.31
350.947	79.31
351.174	82.31
351.402	85.31
351.629	80.31
351.856	83.31
352.083	86.31
352.311	81.31
352.538	90.31
352.765	89.31
352.992	89.31
353.22	72.31
353.447	74.31
353.674	87.31
353.901	92.31
354.128	90.31
354.355	90.31
354.583	81.31
354.81	82.31
355.037	97.31
355.264	92.31
355.491	84.31
355.718	84.31
355.945	78.31
356.172	98.31
356.399	95.31
356.626	84.31
356.853	86.31
357.08	80.31
357.307	78.31
357.534	77.31
357.761	81.31
357.988	88.31
358.215	80.31
358.441	82.31
358.668	84.31
358.895	83.31
359.122	80.31
359.349	85.31
359.576	78.31
359.802	85.31
360.029	73.31
360.256	89.31
360.483	72.31
360.709	82.31
360.936	83.31
361.163	90.31
361.39	86.31
361.616	71.31
361.843	87.31
362.07	77.31
362.296	77.31
362.523	84.31
362.749	88.31
362.976	70.31
363.203	82.31
363.429	80.31
363.656	74.31
363.882	91.31
364.109	105.31
364.335	99.31
364.562	98.31
364.788	80.31
365.015	84.31
365.241	65.31
365.468	83.31
365.694	76.31
365.92	91.31
366.147	89.31
366.373	83.31
366.599	94.31
366.826	87.31
367.052	89.31
367.278	92.31
367.505	76.31
367.731	95.31
367.957	76.31
368.184	81.31
368.41	70.31
368.636	68.31
368.862	82.31
369.089	84.31
369.315	88.31
369.541	86.31
369.767	65.31
369.993	91.31
370.219	85.31
370.445	72.31
370.672	81.31
370.898	76.31
371.124	81.31
371.35	92.31
371.576	82.31
371.802	91.31
372.028	81.31
372.254	83.31
372.48	92.31
372.706	76.31
372.932	81.31
373.158	85.31
373.384	85.31
373.61	82.31
373.835	79.31
374.061	76.31
374.287	89.31
374.513	86.31
374.739	98.31
374.965	82.31
375.191	76.31
375.416	92.31
375.642	81.31
375.868	79.31
376.094	79.31
376.319	69.31
376.545	87.31
376.771	75.31
376.997	72.31
377.222	88.31
377.448	82.31
377.674	67.31
377.899	88.31
378.125	68.31
378.35	70.31
378.576	70.31
378.802	91.31
379.027	91.31
379.253	85.31
379.478	77.31
379.704	86.31
379.929	75.31
380.155	74.31
380.38	76.31
380.606	88.31
380.831	82.31
381.057	89.31
381.282	79.31
381.507	76.31
381.733	88.31
381.958	77.31
382.184	77.31
382.409	82.31
382.634	83.31
382.86	89.31
383.085	89.31
383.31	96.31
383.535	80.31
383.761	69.31
383.986	71.31
384.211	88.31
384.436	75.31
384.662	75.31
384.887	92.31
385.112	79.31
385.337	84.31
385.562	87.31
385.787	90.31
386.013	73.31
386.238	88.31
386.463	78.31
386.688	96.31
386.913	74.31
387.138	74.31
387.363	75.31
387.588	81.31
387.813	88.31
388.038	77.31
388.263	77.31
388.488	97.31
388.713	84.31
388.938	92.31
389.163	92.31
389.387	77.31
389.612	81.31
389.837	82.31
390.062	83.31
390.287	74.31
390.512	87.31
390.736	78.31
390.961	67.31
391.186	80.31
391.411	77.31
391.636	97.31
391.86	91.31
392.085	86.31
392.31	75.31
392.534	79.31
392.759	82.31
392.984	74.31
393.208	97.31
393.433	117.31
393.658	88.31
393.882	88.31
394.107	76.31
394.331	93.31
394.556	75.31
394.78	79.31
395.005	91.31
395.229	80.31
395.454	77.31
395.678	87.31
395.903	88.31
396.127	94.31
396.352	97.31
396.576	76.31
396.801	86.31
397.025	90.31
397.249	75.31
397.474	81.31
397.698	83.31
397.922	82.31
398.147	81.31
398.371	86.31
398.595	83.31
398.82	82.31
399.044	79.31
399.268	96.31
399.492	86.31
399.717	80.31
399.941	75.31
400.165	76.31
400.389	71.31
400.613	75.31
400.837	84.31
401.062	78.31
401.286	82.31
401.51	80.31
401.734	81.31
401.958	89.31
402.182	74.31
402.406	82.31
402.63	92.31
402.854	68.31
403.078	77.31
403.302	96.31
403.526	98.31
403.75	80.31
403.974	77.31
404.198	83.31
404.422	77.31
404.645	87.31
404.869	79.31
405.093	81.31
405.317	73.31
405.541	97.31
405.765	79.31
405.988	79.31
406.212	85.31
406.436	84.31
406.66	79.31
406.883	83.31
407.107	68.31
407.331	82.31
407.555	70.31
407.778	73.31
408.002	88.31
408.226	80.31
408.449	89.31
408.673	85.31
408.896	80.31
409.12	69.31
409.344	72.31
409.567	93.31
409.791	79.31
410.014	93.31
410.238	89.31
410.461	79.31
410.685	95.31
410.908	80.31
411.132	79.31
411.355	84.31
411.578	81.31
411.802	82.31
412.025	97.31
412.249	77.31
412.472	94.31
412.695	84.31
412.919	80.31
413.142	93.31
413.365	88.31
413.589	84.31
413.812	79.31
414.035	85.31
414.258	74.31
414.482	84.31
414.705	82.31
414.928	82.31
415.151	93.31
415.374	90.31
415.597	65.31
415.821	97.31
416.044	88.31
416.267	90.31
416.49	70.31
416.713	80.31
416.936	83.31
417.159	81.31
417.382	76.31
417.605	76.31
417.828	69.31
418.051	87.31
418.274	81.31
418.497	87.31
418.72	79.31
418.943	73.31
419.166	80.31
419.389	85.31
419.611	76.31
419.834	68.31
420.057	96.31
420.28	76.31
420.503	77.31
420.726	91.31
420.948	90.31
421.171	84.31
421.394	84.31
421.617	77.31
421.839	85.31
422.062	76.31
422.285	72.31
422.507	116.31
422.73	132.31
422.953	100.31
423.175	95.31
423.398	85.31
423.621	88.31
423.843	94.31
424.066	82.31
424.288	82.31
424.511	93.31
424.733	96.31
424.956	85.31
425.178	92.31
425.401	69.31
425.623	71.31
425.846	81.31
426.068	78.31
426.291	98.31
426.513	78.31
426.735	69.31
426.958	80.31
427.18	90.31
427.402	99.31
427.625	77.31
427.847	98.31
428.069	86.31
428.292	87.31
428.514	99.31
428.736	92.31
428.958	81.31
429.181	95.31
429.403	85.31
429.625	80.31
429.847	80.31
430.069	85.31
430.292	87.31
430.514	86.31
430.736	80.31
430.958	83.31
431.18	73.31
431.402	81.31
431.624	78.31
431.846	77.31
432.068	93.31
432.29	85.31
432.512	88.31
432.734	83.31
432.956	71.31
433.178	90.31
433.4	80.31
433.622	91.31
433.844	72.31
434.066	75.31
434.287	73.31
434.509	82.31
434.731	85.31
434.953	76.31
435.175	75.31
435.397	98.31
435.618	84.31
435.84	94.31
436.062	95.31
436.284	84.31
436.505	78.31
436.727	91.31
436.949	65.31
437.17	76.31
437.392	86.31
437.614	68.31
437.835	78.31
438.057	89.31
438.278	86.31
438.5	75.31
438.721	79.31
438.943	78.31
439.165	67.31
439.386	84.31
439.608	84.31
439.829	81.31
440.05	76.31
440.272	74.31
440.493	90.31
440.715	92.31
440.936	80.31
441.158	76.31
441.379	77.31
441.6	88.31
441.822	79.31
442.043	85.31
442.264	90.31
442.486	78.31
442.707	96.31
442.928	88.31
443.149	88.31
443.371	85.31
443.592	100.31
443.813	95.31
444.034	86.31
444.255	87.31
444.476	83.31
444.698	89.31
444.919	93.31
445.14	115.31
445.361	109.31
445.582	117.31
445.803	100.31
446.024	83.31
446.245	86.31
446.466	81.31
446.687	81.31
446.908	84.31
447.129	92.31
447.35	80.31
447.571	86.31
447.792	84.31
448.013	88.31
448.234	87.31
448.455	88.31
448.675	84.31
448.896	76.31
449.117	72.31
449.338	77.31
449.559	75.31
449.779	80.31
450	81.31
450.221	85.31
450.442	70.31
450.662	83.31
450.883	78.31
451.104	83.31
451.324	84.31
451.545	75.31
451.766	81.31
451.986	80.31
452.207	93.31
452.428	67.31
452.648	87.31
452.869	82.31
453.089	76.31
453.31	65.31
453.53	72.31
453.751	90.31
453.971	82.31
454.192	84.31
454.412	72.31
454.633	72.31
454.853	79.31
455.073	77.31
455.294	85.31
455.514	74.31
455.734	72.31
455.955	74.31
456.175	88.31
456.395	82.31
456.616	90.31
456.836	97.31
457.056	83.31
457.276	86.31
457.497	73.31
457.717	77.31
457.937	88.31
458.157	69.31
458.377	78.31
458.598	80.31
458.818	85.31
459.038	85.31
459.258	72.31
459.478	77.31
459.698	68.31
459.918	79.31
460.138	75.31
460.358	78.31
460.578	93.31
460.798	98.31
461.018	96.31
461.238	70.31
461.458	82.31
461.678	76.31
461.898	79.31
462.118	87.31
462.338	85.31
462.558	80.31
462.777	86.31
462.997	85.31
463.217	76.31
463.437	85.31
463.657	89.31
463.876	86.31
464.096	82.31
464.316	81.31
464.536	71.31
464.755	79.31
464.975	80.31
465.195	87.31
465.414	77.31
465.634	77.31
465.854	86.31
466.073	85.31
466.293	71.31
466.512	72.31
466.732	80.31
466.951	79.31
467.171	82.31
467.391	83.31
467.61	93.31
467.829	66.31
468.049	77.31
468.268	78.31
468.488	87.31
468.707	90.31
468.927	81.31
469.146	79.31
469.365	89.31
469.585	93.31
469.804	90.31
470.023	84.31
470.243	83.31
470.462	80.31
470.681	77.31
470.901	98.31
471.12	72.31
471.339	81.31
471.558	72.31
471.777	75.31
471.997	84.31
472.216	80.31
472.435	81.31
472.654	77.31
472.873	91.31
473.092	76.31
473.311	75.31
473.53	83.31
473.749	98.31
473.968	89.31
474.187	86.31
474.406	71.31
474.625	80.31
474.844	87.31
475.063	69.31
475.282	92.31
475.501	68.31
475.72	93.31
475.939	86.31
476.158	85.31
476.377	84.31
476.596	78.31
476.814	72.31
477.033	85.31
477.252	93.31
477.471	92.31
477.69	85.31
477.908	84.31
478.127	73.31
478.346	81.31
478.564	68.31
478.783	70.31
479.002	104.31
479.22	87.31
479.439	69.31
479.658	79.31
479.876	71.31
480.095	101.31
480.313	89.31
480.532	91.31
480.751	89.31
480.969	73.31
481.188	76.31
481.406	81.31
481.624	74.31
481.843	77.31
482.061	89.31
482.28	83.31
482.498	76.31
482.717	83.31
482.935	81.31
483.153	80.31
483.372	71.31
483.59	81.31
483.808	84.31
484.027	81.31
484.245	81.31
484.463	83.31
484.681	100.31
484.9	92.31
485.118	68.31
485.336	83.31
485.554	93.31
485.772	86.31
485.99	84.31
486.209	81.31
486.427	86.31
486.645	80.31
486.863	90.31
487.081	80.31
487.299	90.31
487.517	91.31
487.735	89.31
487.953	88.31
488.171	98.31
488.389	74.31
488.607	78.31
488.825	90.31
489.043	72.31
489.261	92.31
489.479	83.31
489.696	74.31
489.914	79.31
490.132	84.31
490.35	84.31
490.568	74.31
490.786	75.31
491.003	76.31
491.221	81.31
491.439	73.31
491.657	88.31
491.874	81.31
492.092	88.31
492.31	88.31
492.527	81.31
492.745	71.31
492.963	73.31
493.18	82.31
493.398	88.31
493.615	83.31
493.833	76.31
494.05	92.31
494.268	96.31
494.485	94.31
494.703	88.31
494.92	80.31
495.138	77.31
495.355	79.31
495.573	94.31
495.79	89.31
496.008	79.31
496.225	81.31
496.442	87.31
496.66	86.31
496.877	85.31
497.094	85.31
497.312	66.31
497.529	76.31
497.746	73.31
497.963	77.31
498.181	95.31
498.398	80.31
498.615	78.31
498.832	80.31
499.049	77.31
499.267	77.31
499.484	75.31
499.701	76.31
499.918	80.31
500.135	82.31
500.352	95.31
500.569	77.31
500.786	85.31
501.003	84.31
501.22	90.31
501.437	73.31
501.654	71.31
501.871	82.31
502.088	80.31
502.305	79.31
502.522	91.31
502.739	87.31
502.956	82.31
503.172	91.31
503.389	86.31
503.606	70.31
503.823	77.31
504.04	83.31
504.256	98.31
504.473	95.31
504.69	87.31
504.907	86.31
505.123	89.31
505.34	76.31
505.557	80.31
505.773	82.31
505.99	82.31
506.207	77.31
506.423	91.31
506.64	87.31
506.856	84.31
507.073	84.31
507.289	79.31
507.506	78.31
507.722	75.31
507.939	81.31
508.155	83.31
508.372	83.31
508.588	90.31
508.805	108.31
509.021	91.31
509.238	94.31
509.454	100.31
509.67	78.31
509.887	84.31
510.103	83.31
510.319	81.31
510.536	91.31
510.752	80.31
510.968	90.31
511.184	84.31
511.401	83.31
511.617	81.31
511.833	86.31
512.049	77.31
512.265	86.31
512.481	75.31
512.698	92.31
512.914	87.31
513.13	79.31
513.346	85.31
513.562	84.31
513.778	66.31
513.994	81.31
514.21	97.31
514.426	72.31
514.642	85.31
514.858	75.31
515.074	90.31
515.29	89.31
515.506	82.31
515.721	83.31
515.937	77.31
516.153	93.31
516.369	86.31
516.585	62.31
516.801	81.31
517.016	83.31
517.232	84.31
517.448	91.31
517.664	69.31
517.879	84.31
518.095	78.31
518.311	81.31
518.527	81.31
518.742	76.31
518.958	79.31
519.173	95.31
519.389	83.31
519.605	82.31
519.82	75.31
520.036	89.31
