Data from Mixnoheat1_HRD10591_00019.txt Node
Date: Fri Dec 27 14:58:09 EST 2024
User: Yrep
Spectrometer: HR+D1059
Trigger mode: 1
Integration Time (sec): 1.000000E-1
Scans to average: 1
Electric dark correction enabled: true
Nonlinearity correction enabled: false
Boxcar width: 0
XAxis mode: Wavelengths
Number of Pixels in Spectrum: 2048
>>>>>Begin Spectral Data<<<<<
223.165	-26.38
223.4	-26.38
223.635	-26.38
223.869	-33.38
224.104	-26.38
224.338	-0.38
224.573	-1.38
224.808	-9.38
225.042	-3.38
225.277	-2.38
225.511	3.62
225.746	6.62
225.98	-2.38
226.215	1.62
226.449	13.62
226.683	15.62
226.918	23.62
227.152	40.62
227.387	26.62
227.621	29.62
227.856	43.62
228.09	49.62
228.324	50.62
228.559	59.62
228.793	59.62
229.027	63.62
229.262	65.62
229.496	61.62
229.73	65.62
229.964	61.62
230.199	74.62
230.433	82.62
230.667	83.62
230.901	76.62
231.136	79.62
231.37	71.62
231.604	70.62
231.838	82.62
232.072	77.62
232.306	72.62
232.541	70.62
232.775	76.62
233.009	82.62
233.243	64.62
233.477	73.62
233.711	62.62
233.945	79.62
234.179	79.62
234.413	77.62
234.647	75.62
234.881	75.62
235.115	93.62
235.349	66.62
235.583	68.62
235.817	89.62
236.051	78.62
236.285	82.62
236.519	73.62
236.753	82.62
236.987	72.62
237.221	71.62
237.455	81.62
237.689	73.62
237.922	63.62
238.156	72.62
238.39	74.62
238.624	90.62
238.858	79.62
239.091	63.62
239.325	65.62
239.559	66.62
239.793	77.62
240.027	86.62
240.26	80.62
240.494	76.62
240.728	64.62
240.961	76.62
241.195	80.62
241.429	68.62
241.662	75.62
241.896	71.62
242.13	74.62
242.363	77.62
242.597	72.62
242.83	69.62
243.064	68.62
243.298	79.62
243.531	72.62
243.765	83.62
243.998	69.62
244.232	68.62
244.465	75.62
244.699	70.62
244.932	67.62
245.166	62.62
245.399	73.62
245.633	65.62
245.866	85.62
246.099	79.62
246.333	78.62
246.566	75.62
246.8	83.62
247.033	69.62
247.266	84.62
247.5	67.62
247.733	69.62
247.966	67.62
248.2	81.62
248.433	75.62
248.666	62.62
248.899	80.62
249.133	67.62
249.366	72.62
249.599	58.62
249.832	91.62
250.066	80.62
250.299	76.62
250.532	72.62
250.765	81.62
250.998	66.62
251.231	81.62
251.465	69.62
251.698	85.62
251.931	65.62
252.164	72.62
252.397	76.62
252.63	72.62
252.863	69.62
253.096	89.62
253.329	76.62
253.562	65.62
253.795	78.62
254.028	73.62
254.261	83.62
254.494	85.62
254.727	77.62
254.96	77.62
255.193	88.62
255.426	67.62
255.659	65.62
255.892	86.62
256.124	76.62
256.357	65.62
256.59	79.62
256.823	55.62
257.056	75.62
257.289	78.62
257.521	71.62
257.754	72.62
257.987	71.62
258.22	64.62
258.452	69.62
258.685	81.62
258.918	67.62
259.151	90.62
259.383	79.62
259.616	75.62
259.849	77.62
260.081	71.62
260.314	71.62
260.547	66.62
260.779	82.62
261.012	71.62
261.244	89.62
261.477	91.62
261.71	70.62
261.942	80.62
262.175	84.62
262.407	84.62
262.64	71.62
262.872	70.62
263.105	75.62
263.337	88.62
263.57	85.62
263.802	72.62
264.035	68.62
264.267	71.62
264.499	66.62
264.732	80.62
264.964	79.62
265.197	88.62
265.429	57.62
265.661	90.62
265.894	94.62
266.126	84.62
266.358	83.62
266.591	80.62
266.823	79.62
267.055	65.62
267.287	76.62
267.52	78.62
267.752	77.62
267.984	75.62
268.216	69.62
268.448	82.62
268.681	91.62
268.913	88.62
269.145	58.62
269.377	68.62
269.609	74.62
269.841	75.62
270.073	80.62
270.306	87.62
270.538	81.62
270.77	85.62
271.002	70.62
271.234	84.62
271.466	83.62
271.698	79.62
271.93	68.62
272.162	76.62
272.394	74.62
272.626	81.62
272.858	77.62
273.09	77.62
273.322	81.62
273.553	70.62
273.785	81.62
274.017	79.62
274.249	73.62
274.481	68.62
274.713	93.62
274.945	90.62
275.176	75.62
275.408	65.62
275.64	86.62
275.872	73.62
276.104	79.62
276.335	81.62
276.567	82.62
276.799	82.62
277.031	86.62
277.262	88.62
277.494	72.62
277.726	80.62
277.957	71.62
278.189	80.62
278.421	78.62
278.652	66.62
278.884	76.62
279.115	86.62
279.347	85.62
279.579	75.62
279.81	77.62
280.042	71.62
280.273	87.62
280.505	85.62
280.736	73.62
280.968	86.62
281.199	89.62
281.431	80.62
281.662	83.62
281.894	71.62
282.125	72.62
282.356	73.62
282.588	72.62
282.819	84.62
283.051	58.62
283.282	69.62
283.513	88.62
283.745	88.62
283.976	82.62
284.207	80.62
284.439	87.62
284.67	88.62
284.901	99.62
285.132	89.62
285.364	80.62
285.595	73.62
285.826	72.62
286.057	76.62
286.288	93.62
286.52	89.62
286.751	77.62
286.982	65.62
287.213	71.62
287.444	83.62
287.675	85.62
287.906	75.62
288.138	76.62
288.369	75.62
288.6	79.62
288.831	67.62
289.062	90.62
289.293	76.62
289.524	81.62
289.755	81.62
289.986	89.62
290.217	79.62
290.448	84.62
290.679	82.62
290.91	87.62
291.141	85.62
291.371	82.62
291.602	86.62
291.833	83.62
292.064	77.62
292.295	79.62
292.526	71.62
292.757	75.62
292.987	69.62
293.218	81.62
293.449	75.62
293.68	78.62
293.91	87.62
294.141	87.62
294.372	85.62
294.603	80.62
294.833	69.62
295.064	66.62
295.295	81.62
295.525	82.62
295.756	93.62
295.987	77.62
296.217	87.62
296.448	83.62
296.679	78.62
296.909	93.62
297.14	84.62
297.37	70.62
297.601	95.62
297.831	72.62
298.062	76.62
298.292	73.62
298.523	84.62
298.753	85.62
298.984	81.62
299.214	74.62
299.445	77.62
299.675	87.62
299.905	76.62
300.136	59.62
300.366	75.62
300.597	84.62
300.827	77.62
301.057	93.62
301.288	77.62
301.518	85.62
301.748	69.62
301.979	106.62
302.209	77.62
302.439	77.62
302.669	83.62
302.9	78.62
303.13	96.62
303.36	78.62
303.59	87.62
303.82	86.62
304.051	78.62
304.281	76.62
304.511	86.62
304.741	79.62
304.971	73.62
305.201	101.62
305.431	80.62
305.661	91.62
305.891	99.62
306.121	86.62
306.352	86.62
306.582	84.62
306.812	78.62
307.042	84.62
307.272	81.62
307.502	65.62
307.731	75.62
307.961	80.62
308.191	81.62
308.421	86.62
308.651	81.62
308.881	83.62
309.111	87.62
309.341	82.62
309.571	77.62
309.8	86.62
310.03	82.62
310.26	93.62
310.49	86.62
310.72	77.62
310.949	68.62
311.179	63.62
311.409	81.62
311.639	85.62
311.868	79.62
312.098	85.62
312.328	80.62
312.557	80.62
312.787	72.62
313.017	85.62
313.246	74.62
313.476	72.62
313.706	87.62
313.935	79.62
314.165	90.62
314.394	84.62
314.624	83.62
314.853	74.62
315.083	77.62
315.312	91.62
315.542	75.62
315.771	78.62
316.001	81.62
316.23	69.62
316.46	81.62
316.689	86.62
316.919	91.62
317.148	79.62
317.377	98.62
317.607	72.62
317.836	87.62
318.065	83.62
318.295	77.62
318.524	78.62
318.753	73.62
318.983	73.62
319.212	86.62
319.441	83.62
319.67	86.62
319.9	81.62
320.129	88.62
320.358	78.62
320.587	85.62
320.816	79.62
321.046	75.62
321.275	97.62
321.504	73.62
321.733	79.62
321.962	77.62
322.191	87.62
322.42	68.62
322.649	89.62
322.878	90.62
323.108	93.62
323.337	85.62
323.566	77.62
323.795	73.62
324.024	92.62
324.253	78.62
324.482	80.62
324.71	79.62
324.939	79.62
325.168	73.62
325.397	81.62
325.626	75.62
325.855	72.62
326.084	78.62
326.313	81.62
326.542	82.62
326.77	78.62
326.999	73.62
327.228	79.62
327.457	93.62
327.686	86.62
327.914	83.62
328.143	94.62
328.372	72.62
328.6	76.62
328.829	73.62
329.058	72.62
329.287	88.62
329.515	69.62
329.744	82.62
329.972	76.62
330.201	73.62
330.43	81.62
330.658	74.62
330.887	65.62
331.115	83.62
331.344	78.62
331.572	86.62
331.801	80.62
332.03	87.62
332.258	83.62
332.486	87.62
332.715	87.62
332.943	91.62
333.172	94.62
333.4	85.62
333.629	82.62
333.857	82.62
334.085	88.62
334.314	79.62
334.542	82.62
334.771	89.62
334.999	64.62
335.227	88.62
335.455	91.62
335.684	88.62
335.912	83.62
336.14	65.62
336.369	74.62
336.597	69.62
336.825	68.62
337.053	73.62
337.281	72.62
337.51	84.62
337.738	74.62
337.966	94.62
338.194	81.62
338.422	72.62
338.65	85.62
338.878	80.62
339.106	86.62
339.334	72.62
339.562	79.62
339.79	66.62
340.018	78.62
340.246	83.62
340.474	77.62
340.702	92.62
340.93	72.62
341.158	96.62
341.386	103.62
341.614	86.62
341.842	77.62
342.07	91.62
342.298	81.62
342.526	84.62
342.754	74.62
342.981	95.62
343.209	81.62
343.437	102.62
343.665	75.62
343.893	79.62
344.12	94.62
344.348	71.62
344.576	70.62
344.804	99.62
345.031	85.62
345.259	77.62
345.487	73.62
345.714	66.62
345.942	78.62
346.17	73.62
346.397	83.62
346.625	77.62
346.853	93.62
347.08	75.62
347.308	80.62
347.535	78.62
347.763	72.62
347.99	64.62
348.218	80.62
348.445	81.62
348.673	71.62
348.9	82.62
349.128	72.62
349.355	75.62
349.583	86.62
349.81	78.62
350.037	76.62
350.265	78.62
350.492	77.62
350.72	77.62
350.947	83.62
351.174	83.62
351.402	72.62
351.629	62.62
351.856	70.62
352.083	74.62
352.311	82.62
352.538	65.62
352.765	72.62
352.992	83.62
353.22	82.62
353.447	76.62
353.674	76.62
353.901	74.62
354.128	98.62
354.355	87.62
354.583	84.62
354.81	72.62
355.037	85.62
355.264	94.62
355.491	59.62
355.718	81.62
355.945	74.62
356.172	79.62
356.399	81.62
356.626	68.62
356.853	88.62
357.08	77.62
357.307	83.62
357.534	69.62
357.761	80.62
357.988	80.62
358.215	84.62
358.441	72.62
358.668	93.62
358.895	63.62
359.122	77.62
359.349	78.62
359.576	89.62
359.802	73.62
360.029	68.62
360.256	86.62
360.483	85.62
360.709	73.62
360.936	71.62
361.163	88.62
361.39	82.62
361.616	76.62
361.843	88.62
362.07	77.62
362.296	80.62
362.523	66.62
362.749	70.62
362.976	69.62
363.203	74.62
363.429	79.62
363.656	82.62
363.882	72.62
364.109	100.62
364.335	99.62
364.562	98.62
364.788	79.62
365.015	80.62
365.241	86.62
365.468	96.62
365.694	90.62
365.92	62.62
366.147	77.62
366.373	87.62
366.599	86.62
366.826	73.62
367.052	70.62
367.278	64.62
367.505	69.62
367.731	89.62
367.957	78.62
368.184	68.62
368.41	89.62
368.636	80.62
368.862	82.62
369.089	71.62
369.315	89.62
369.541	82.62
369.767	82.62
369.993	80.62
370.219	80.62
370.445	85.62
370.672	75.62
370.898	72.62
371.124	75.62
371.35	64.62
371.576	68.62
371.802	71.62
372.028	75.62
372.254	73.62
372.48	69.62
372.706	57.62
372.932	74.62
373.158	87.62
373.384	88.62
373.61	73.62
373.835	78.62
374.061	74.62
374.287	84.62
374.513	89.62
374.739	76.62
374.965	87.62
375.191	80.62
375.416	81.62
375.642	68.62
375.868	62.62
376.094	70.62
376.319	80.62
376.545	67.62
376.771	81.62
376.997	76.62
377.222	79.62
377.448	71.62
377.674	70.62
377.899	80.62
378.125	86.62
378.35	82.62
378.576	72.62
378.802	77.62
379.027	79.62
379.253	80.62
379.478	84.62
379.704	71.62
379.929	72.62
380.155	64.62
380.38	89.62
380.606	81.62
380.831	80.62
381.057	98.62
381.282	80.62
381.507	75.62
381.733	85.62
381.958	74.62
382.184	90.62
382.409	67.62
382.634	72.62
382.86	76.62
383.085	71.62
383.31	78.62
383.535	90.62
383.761	87.62
383.986	82.62
384.211	69.62
384.436	80.62
384.662	86.62
384.887	76.62
385.112	105.62
385.337	93.62
385.562	104.62
385.787	81.62
386.013	91.62
386.238	85.62
386.463	62.62
386.688	89.62
386.913	91.62
387.138	75.62
387.363	78.62
387.588	89.62
387.813	90.62
388.038	83.62
388.263	84.62
388.488	73.62
388.713	80.62
388.938	89.62
389.163	69.62
389.387	79.62
389.612	87.62
389.837	65.62
390.062	95.62
390.287	67.62
390.512	65.62
390.736	79.62
390.961	81.62
391.186	88.62
391.411	73.62
391.636	87.62
391.86	85.62
392.085	94.62
392.31	71.62
392.534	87.62
392.759	84.62
392.984	83.62
393.208	97.62
393.433	102.62
393.658	82.62
393.882	73.62
394.107	82.62
394.331	88.62
394.556	85.62
394.78	87.62
395.005	77.62
395.229	67.62
395.454	84.62
395.678	72.62
395.903	86.62
396.127	75.62
396.352	81.62
396.576	78.62
396.801	97.62
397.025	67.62
397.249	82.62
397.474	85.62
397.698	74.62
397.922	71.62
398.147	78.62
398.371	80.62
398.595	72.62
398.82	73.62
399.044	94.62
399.268	67.62
399.492	79.62
399.717	67.62
399.941	87.62
400.165	82.62
400.389	73.62
400.613	93.62
400.837	69.62
401.062	70.62
401.286	73.62
401.51	72.62
401.734	73.62
401.958	76.62
402.182	74.62
402.406	67.62
402.63	69.62
402.854	71.62
403.078	85.62
403.302	86.62
403.526	81.62
403.75	80.62
403.974	67.62
404.198	74.62
404.422	97.62
404.645	84.62
404.869	73.62
405.093	60.62
405.317	79.62
405.541	87.62
405.765	72.62
405.988	79.62
406.212	81.62
406.436	63.62
406.66	79.62
406.883	68.62
407.107	81.62
407.331	79.62
407.555	78.62
407.778	79.62
408.002	86.62
408.226	85.62
408.449	84.62
408.673	89.62
408.896	77.62
409.12	94.62
409.344	90.62
409.567	81.62
409.791	80.62
410.014	94.62
410.238	73.62
410.461	75.62
410.685	65.62
410.908	82.62
411.132	76.62
411.355	66.62
411.578	84.62
411.802	93.62
412.025	71.62
412.249	71.62
412.472	74.62
412.695	67.62
412.919	75.62
413.142	77.62
413.365	82.62
413.589	79.62
413.812	80.62
414.035	88.62
414.258	85.62
414.482	90.62
414.705	87.62
414.928	80.62
415.151	80.62
415.374	82.62
415.597	70.62
415.821	79.62
416.044	70.62
416.267	70.62
416.49	77.62
416.713	86.62
416.936	76.62
417.159	80.62
417.382	103.62
417.605	67.62
417.828	72.62
418.051	70.62
418.274	74.62
418.497	68.62
418.72	77.62
418.943	79.62
419.166	82.62
419.389	83.62
419.611	88.62
419.834	85.62
420.057	85.62
420.28	81.62
420.503	81.62
420.726	94.62
420.948	67.62
421.171	80.62
421.394	86.62
421.617	93.62
421.839	79.62
422.062	89.62
422.285	86.62
422.507	104.62
422.73	105.62
422.953	98.62
423.175	67.62
423.398	73.62
423.621	75.62
423.843	82.62
424.066	84.62
424.288	83.62
424.511	86.62
424.733	72.62
424.956	87.62
425.178	65.62
425.401	85.62
425.623	67.62
425.846	89.62
426.068	94.62
426.291	97.62
426.513	78.62
426.735	83.62
426.958	76.62
427.18	80.62
427.402	74.62
427.625	82.62
427.847	85.62
428.069	83.62
428.292	73.62
428.514	79.62
428.736	80.62
428.958	96.62
429.181	89.62
429.403	63.62
429.625	67.62
429.847	62.62
430.069	77.62
430.292	96.62
430.514	84.62
430.736	83.62
430.958	84.62
431.18	69.62
431.402	82.62
431.624	78.62
431.846	94.62
432.068	97.62
432.29	95.62
432.512	95.62
432.734	74.62
432.956	79.62
433.178	72.62
433.4	80.62
433.622	74.62
433.844	68.62
434.066	76.62
434.287	75.62
434.509	95.62
434.731	79.62
434.953	70.62
435.175	70.62
435.397	89.62
435.618	83.62
435.84	79.62
436.062	82.62
436.284	84.62
436.505	75.62
436.727	88.62
436.949	73.62
437.17	94.62
437.392	77.62
437.614	84.62
437.835	78.62
438.057	71.62
438.278	70.62
438.5	80.62
438.721	95.62
438.943	73.62
439.165	78.62
439.386	82.62
439.608	82.62
439.829	85.62
440.05	81.62
440.272	77.62
440.493	75.62
440.715	70.62
440.936	74.62
441.158	67.62
441.379	69.62
441.6	83.62
441.822	77.62
442.043	81.62
442.264	82.62
442.486	82.62
442.707	75.62
442.928	87.62
443.149	74.62
443.371	91.62
443.592	104.62
443.813	79.62
444.034	66.62
444.255	86.62
444.476	76.62
444.698	79.62
444.919	86.62
445.14	123.62
445.361	112.62
445.582	87.62
445.803	101.62
446.024	77.62
446.245	81.62
446.466	69.62
446.687	86.62
446.908	87.62
447.129	73.62
447.35	70.62
447.571	80.62
447.792	83.62
448.013	86.62
448.234	87.62
448.455	76.62
448.675	71.62
448.896	74.62
449.117	86.62
449.338	69.62
449.559	87.62
449.779	85.62
450	76.62
450.221	76.62
450.442	72.62
450.662	82.62
450.883	66.62
451.104	84.62
451.324	86.62
451.545	74.62
451.766	76.62
451.986	78.62
452.207	89.62
452.428	85.62
452.648	81.62
452.869	87.62
453.089	68.62
453.31	69.62
453.53	64.62
453.751	85.62
453.971	64.62
454.192	69.62
454.412	71.62
454.633	72.62
454.853	94.62
455.073	74.62
455.294	85.62
455.514	87.62
455.734	82.62
455.955	79.62
456.175	87.62
456.395	78.62
456.616	79.62
456.836	66.62
457.056	87.62
457.276	82.62
457.497	68.62
457.717	78.62
457.937	79.62
458.157	76.62
458.377	78.62
458.598	89.62
458.818	94.62
459.038	88.62
459.258	73.62
459.478	77.62
459.698	71.62
459.918	73.62
460.138	82.62
460.358	91.62
460.578	70.62
460.798	79.62
461.018	73.62
461.238	72.62
461.458	78.62
461.678	79.62
461.898	81.62
462.118	78.62
462.338	68.62
462.558	69.62
462.777	70.62
462.997	81.62
463.217	83.62
463.437	64.62
463.657	90.62
463.876	66.62
464.096	79.62
464.316	91.62
464.536	74.62
464.755	99.62
464.975	86.62
465.195	85.62
465.414	82.62
465.634	74.62
465.854	84.62
466.073	89.62
466.293	73.62
466.512	79.62
466.732	93.62
466.951	97.62
467.171	83.62
467.391	66.62
467.61	74.62
467.829	77.62
468.049	88.62
468.268	67.62
468.488	89.62
468.707	77.62
468.927	80.62
469.146	79.62
469.365	77.62
469.585	79.62
469.804	79.62
470.023	74.62
470.243	86.62
470.462	81.62
470.681	89.62
470.901	75.62
471.12	74.62
471.339	77.62
471.558	75.62
471.777	83.62
471.997	80.62
472.216	77.62
472.435	60.62
472.654	86.62
472.873	88.62
473.092	83.62
473.311	96.62
473.53	63.62
473.749	77.62
473.968	88.62
474.187	86.62
474.406	77.62
474.625	85.62
474.844	84.62
475.063	81.62
475.282	75.62
475.501	86.62
475.72	96.62
475.939	92.62
476.158	80.62
476.377	83.62
476.596	70.62
476.814	76.62
477.033	87.62
477.252	81.62
477.471	70.62
477.69	93.62
477.908	74.62
478.127	79.62
478.346	89.62
478.564	73.62
478.783	78.62
479.002	77.62
479.22	81.62
479.439	82.62
479.658	70.62
479.876	59.62
480.095	62.62
480.313	72.62
480.532	74.62
480.751	86.62
480.969	80.62
481.188	73.62
481.406	73.62
481.624	75.62
481.843	63.62
482.061	75.62
482.28	79.62
482.498	74.62
482.717	89.62
482.935	67.62
483.153	78.62
483.372	86.62
483.59	84.62
483.808	83.62
484.027	88.62
484.245	79.62
484.463	80.62
484.681	90.62
484.9	79.62
485.118	79.62
485.336	76.62
485.554	88.62
485.772	80.62
485.99	81.62
486.209	67.62
486.427	81.62
486.645	74.62
486.863	78.62
487.081	83.62
487.299	68.62
487.517	88.62
487.735	91.62
487.953	80.62
488.171	83.62
488.389	77.62
488.607	76.62
488.825	70.62
489.043	87.62
489.261	79.62
489.479	76.62
489.696	77.62
489.914	83.62
490.132	80.62
490.35	82.62
490.568	93.62
490.786	79.62
491.003	71.62
491.221	77.62
491.439	87.62
491.657	81.62
491.874	79.62
492.092	83.62
492.31	75.62
492.527	89.62
492.745	80.62
492.963	85.62
493.18	81.62
493.398	95.62
493.615	70.62
493.833	80.62
494.05	93.62
494.268	81.62
494.485	77.62
494.703	83.62
494.92	84.62
495.138	89.62
495.355	89.62
495.573	81.62
495.79	77.62
496.008	76.62
496.225	76.62
496.442	79.62
496.66	83.62
496.877	72.62
497.094	81.62
497.312	79.62
497.529	76.62
497.746	75.62
497.963	74.62
498.181	75.62
498.398	97.62
498.615	65.62
498.832	75.62
499.049	88.62
499.267	67.62
499.484	85.62
499.701	78.62
499.918	95.62
500.135	75.62
500.352	77.62
500.569	68.62
500.786	85.62
501.003	88.62
501.22	85.62
501.437	79.62
501.654	87.62
501.871	71.62
502.088	79.62
502.305	78.62
502.522	82.62
502.739	80.62
502.956	79.62
503.172	74.62
503.389	75.62
503.606	79.62
503.823	83.62
504.04	73.62
504.256	78.62
504.473	75.62
504.69	77.62
504.907	99.62
505.123	85.62
505.34	70.62
505.557	86.62
505.773	85.62
505.99	82.62
506.207	87.62
506.423	71.62
506.64	81.62
506.856	91.62
507.073	80.62
507.289	79.62
507.506	84.62
507.722	92.62
507.939	72.62
508.155	75.62
508.372	81.62
508.588	69.62
508.805	76.62
509.021	72.62
509.238	83.62
509.454	93.62
509.67	86.62
509.887	89.62
510.103	97.62
510.319	59.62
510.536	74.62
510.752	78.62
510.968	85.62
511.184	74.62
511.401	98.62
511.617	75.62
511.833	91.62
512.049	79.62
512.265	73.62
512.481	87.62
512.698	79.62
512.914	81.62
513.13	69.62
513.346	71.62
513.562	78.62
513.778	82.62
513.994	90.62
514.21	70.62
514.426	91.62
514.642	88.62
514.858	78.62
515.074	89.62
515.29	90.62
515.506	78.62
515.721	84.62
515.937	83.62
516.153	67.62
516.369	73.62
516.585	85.62
516.801	79.62
517.016	90.62
517.232	81.62
517.448	90.62
517.664	72.62
517.879	79.62
518.095	87.62
518.311	81.62
518.527	91.62
518.742	95.62
518.958	97.62
519.173	85.62
519.389	81.62
519.605	78.62
519.82	85.62
520.036	74.62
