Data from Mixnoheat1_HRD10591_00013.txt Node
Date: Fri Dec 27 14:58:03 EST 2024
User: Yrep
Spectrometer: HR+D1059
Trigger mode: 1
Integration Time (sec): 1.000000E-1
Scans to average: 1
Electric dark correction enabled: true
Nonlinearity correction enabled: false
Boxcar width: 0
XAxis mode: Wavelengths
Number of Pixels in Spectrum: 2048
>>>>>Begin Spectral Data<<<<<
223.165	-16.5
223.4	-16.5
223.635	-16.5
223.869	-12.5
224.104	-14.5
224.338	-4.5
224.573	-14.5
224.808	-12.5
225.042	-23.5
225.277	-7.5
225.511	0.5
225.746	7.5
225.98	8.5
226.215	2.5
226.449	9.5
226.683	26.5
226.918	16.5
227.152	34.5
227.387	40.5
227.621	36.5
227.856	42.5
228.09	46.5
228.324	46.5
228.559	64.5
228.793	39.5
229.027	69.5
229.262	65.5
229.496	70.5
229.73	72.5
229.964	81.5
230.199	62.5
230.433	78.5
230.667	54.5
230.901	60.5
231.136	79.5
231.37	68.5
231.604	82.5
231.838	78.5
232.072	74.5
232.306	87.5
232.541	67.5
232.775	79.5
233.009	69.5
233.243	72.5
233.477	86.5
233.711	78.5
233.945	83.5
234.179	71.5
234.413	91.5
234.647	94.5
234.881	68.5
235.115	76.5
235.349	76.5
235.583	83.5
235.817	73.5
236.051	82.5
236.285	71.5
236.519	75.5
236.753	79.5
236.987	73.5
237.221	73.5
237.455	82.5
237.689	81.5
237.922	71.5
238.156	69.5
238.39	74.5
238.624	71.5
238.858	75.5
239.091	78.5
239.325	60.5
239.559	76.5
239.793	69.5
240.027	66.5
240.26	79.5
240.494	84.5
240.728	75.5
240.961	85.5
241.195	66.5
241.429	71.5
241.662	68.5
241.896	69.5
242.13	79.5
242.363	73.5
242.597	78.5
242.83	80.5
243.064	88.5
243.298	71.5
243.531	69.5
243.765	81.5
243.998	50.5
244.232	71.5
244.465	84.5
244.699	74.5
244.932	83.5
245.166	74.5
245.399	79.5
245.633	62.5
245.866	86.5
246.099	83.5
246.333	79.5
246.566	71.5
246.8	71.5
247.033	73.5
247.266	85.5
247.5	89.5
247.733	94.5
247.966	86.5
248.2	62.5
248.433	80.5
248.666	74.5
248.899	88.5
249.133	68.5
249.366	85.5
249.599	90.5
249.832	86.5
250.066	86.5
250.299	66.5
250.532	81.5
250.765	85.5
250.998	69.5
251.231	67.5
251.465	69.5
251.698	91.5
251.931	79.5
252.164	81.5
252.397	75.5
252.63	80.5
252.863	70.5
253.096	81.5
253.329	79.5
253.562	73.5
253.795	88.5
254.028	83.5
254.261	88.5
254.494	83.5
254.727	74.5
254.96	82.5
255.193	86.5
255.426	70.5
255.659	79.5
255.892	72.5
256.124	71.5
256.357	81.5
256.59	78.5
256.823	78.5
257.056	86.5
257.289	85.5
257.521	67.5
257.754	70.5
257.987	65.5
258.22	82.5
258.452	82.5
258.685	90.5
258.918	78.5
259.151	66.5
259.383	85.5
259.616	89.5
259.849	85.5
260.081	78.5
260.314	79.5
260.547	89.5
260.779	67.5
261.012	87.5
261.244	81.5
261.477	94.5
261.71	82.5
261.942	79.5
262.175	78.5
262.407	75.5
262.64	74.5
262.872	77.5
263.105	74.5
263.337	85.5
263.57	70.5
263.802	79.5
264.035	82.5
264.267	84.5
264.499	86.5
264.732	86.5
264.964	72.5
265.197	77.5
265.429	72.5
265.661	85.5
265.894	60.5
266.126	67.5
266.358	72.5
266.591	79.5
266.823	77.5
267.055	53.5
267.287	95.5
267.52	79.5
267.752	82.5
267.984	67.5
268.216	90.5
268.448	82.5
268.681	69.5
268.913	72.5
269.145	82.5
269.377	90.5
269.609	97.5
269.841	90.5
270.073	85.5
270.306	75.5
270.538	90.5
270.77	78.5
271.002	84.5
271.234	88.5
271.466	87.5
271.698	73.5
271.93	80.5
272.162	87.5
272.394	85.5
272.626	103.5
272.858	91.5
273.09	67.5
273.322	79.5
273.553	85.5
273.785	71.5
274.017	76.5
274.249	85.5
274.481	89.5
274.713	78.5
274.945	83.5
275.176	83.5
275.408	81.5
275.64	87.5
275.872	84.5
276.104	81.5
276.335	97.5
276.567	76.5
276.799	85.5
277.031	101.5
277.262	87.5
277.494	87.5
277.726	72.5
277.957	78.5
278.189	79.5
278.421	83.5
278.652	83.5
278.884	89.5
279.115	65.5
279.347	73.5
279.579	71.5
279.81	89.5
280.042	89.5
280.273	85.5
280.505	78.5
280.736	84.5
280.968	95.5
281.199	89.5
281.431	90.5
281.662	80.5
281.894	73.5
282.125	84.5
282.356	88.5
282.588	77.5
282.819	85.5
283.051	83.5
283.282	89.5
283.513	85.5
283.745	76.5
283.976	69.5
284.207	75.5
284.439	91.5
284.67	99.5
284.901	87.5
285.132	84.5
285.364	86.5
285.595	92.5
285.826	88.5
286.057	84.5
286.288	88.5
286.52	87.5
286.751	89.5
286.982	74.5
287.213	81.5
287.444	83.5
287.675	84.5
287.906	87.5
288.138	88.5
288.369	83.5
288.6	79.5
288.831	73.5
289.062	72.5
289.293	91.5
289.524	78.5
289.755	90.5
289.986	78.5
290.217	86.5
290.448	84.5
290.679	76.5
290.91	95.5
291.141	91.5
291.371	88.5
291.602	89.5
291.833	92.5
292.064	91.5
292.295	77.5
292.526	73.5
292.757	73.5
292.987	82.5
293.218	81.5
293.449	82.5
293.68	102.5
293.91	92.5
294.141	90.5
294.372	90.5
294.603	82.5
294.833	82.5
295.064	88.5
295.295	77.5
295.525	89.5
295.756	90.5
295.987	80.5
296.217	75.5
296.448	83.5
296.679	74.5
296.909	89.5
297.14	85.5
297.37	74.5
297.601	96.5
297.831	90.5
298.062	86.5
298.292	81.5
298.523	66.5
298.753	81.5
298.984	86.5
299.214	92.5
299.445	87.5
299.675	81.5
299.905	84.5
300.136	73.5
300.366	76.5
300.597	72.5
300.827	76.5
301.057	99.5
301.288	73.5
301.518	86.5
301.748	92.5
301.979	97.5
302.209	77.5
302.439	76.5
302.669	99.5
302.9	82.5
303.13	74.5
303.36	79.5
303.59	84.5
303.82	88.5
304.051	80.5
304.281	83.5
304.511	103.5
304.741	86.5
304.971	85.5
305.201	93.5
305.431	92.5
305.661	92.5
305.891	81.5
306.121	85.5
306.352	83.5
306.582	81.5
306.812	73.5
307.042	77.5
307.272	83.5
307.502	82.5
307.731	84.5
307.961	77.5
308.191	76.5
308.421	85.5
308.651	83.5
308.881	97.5
309.111	77.5
309.341	84.5
309.571	97.5
309.8	88.5
310.03	77.5
310.26	62.5
310.49	82.5
310.72	91.5
310.949	85.5
311.179	88.5
311.409	82.5
311.639	82.5
311.868	90.5
312.098	94.5
312.328	85.5
312.557	83.5
312.787	80.5
313.017	94.5
313.246	72.5
313.476	89.5
313.706	86.5
313.935	88.5
314.165	86.5
314.394	91.5
314.624	88.5
314.853	86.5
315.083	98.5
315.312	75.5
315.542	72.5
315.771	79.5
316.001	86.5
316.23	88.5
316.46	79.5
316.689	94.5
316.919	69.5
317.148	77.5
317.377	83.5
317.607	86.5
317.836	86.5
318.065	85.5
318.295	79.5
318.524	86.5
318.753	92.5
318.983	76.5
319.212	90.5
319.441	73.5
319.67	78.5
319.9	94.5
320.129	89.5
320.358	84.5
320.587	85.5
320.816	76.5
321.046	77.5
321.275	86.5
321.504	76.5
321.733	76.5
321.962	78.5
322.191	75.5
322.42	78.5
322.649	94.5
322.878	79.5
323.108	87.5
323.337	70.5
323.566	87.5
323.795	84.5
324.024	73.5
324.253	80.5
324.482	89.5
324.71	84.5
324.939	91.5
325.168	91.5
325.397	86.5
325.626	86.5
325.855	85.5
326.084	93.5
326.313	84.5
326.542	87.5
326.77	86.5
326.999	83.5
327.228	76.5
327.457	84.5
327.686	85.5
327.914	82.5
328.143	91.5
328.372	87.5
328.6	72.5
328.829	78.5
329.058	86.5
329.287	86.5
329.515	86.5
329.744	101.5
329.972	78.5
330.201	69.5
330.43	69.5
330.658	86.5
330.887	90.5
331.115	84.5
331.344	74.5
331.572	75.5
331.801	92.5
332.03	100.5
332.258	91.5
332.486	84.5
332.715	85.5
332.943	86.5
333.172	92.5
333.4	83.5
333.629	83.5
333.857	84.5
334.085	71.5
334.314	90.5
334.542	97.5
334.771	85.5
334.999	97.5
335.227	93.5
335.455	97.5
335.684	90.5
335.912	83.5
336.14	92.5
336.369	74.5
336.597	93.5
336.825	84.5
337.053	85.5
337.281	69.5
337.51	84.5
337.738	88.5
337.966	81.5
338.194	84.5
338.422	76.5
338.65	83.5
338.878	85.5
339.106	75.5
339.334	91.5
339.562	81.5
339.79	90.5
340.018	80.5
340.246	79.5
340.474	94.5
340.702	81.5
340.93	79.5
341.158	88.5
341.386	81.5
341.614	86.5
341.842	85.5
342.07	79.5
342.298	78.5
342.526	83.5
342.754	85.5
342.981	99.5
343.209	91.5
343.437	83.5
343.665	81.5
343.893	92.5
344.12	101.5
344.348	89.5
344.576	78.5
344.804	81.5
345.031	75.5
345.259	83.5
345.487	84.5
345.714	89.5
345.942	95.5
346.17	82.5
346.397	77.5
346.625	81.5
346.853	94.5
347.08	100.5
347.308	85.5
347.535	86.5
347.763	73.5
347.99	84.5
348.218	88.5
348.445	84.5
348.673	90.5
348.9	86.5
349.128	99.5
349.355	85.5
349.583	93.5
349.81	76.5
350.037	89.5
350.265	79.5
350.492	94.5
350.72	90.5
350.947	85.5
351.174	90.5
351.402	90.5
351.629	76.5
351.856	94.5
352.083	87.5
352.311	77.5
352.538	71.5
352.765	83.5
352.992	87.5
353.22	86.5
353.447	85.5
353.674	86.5
353.901	86.5
354.128	88.5
354.355	83.5
354.583	81.5
354.81	78.5
355.037	79.5
355.264	76.5
355.491	73.5
355.718	76.5
355.945	79.5
356.172	86.5
356.399	73.5
356.626	93.5
356.853	94.5
357.08	90.5
357.307	84.5
357.534	85.5
357.761	97.5
357.988	79.5
358.215	91.5
358.441	72.5
358.668	88.5
358.895	78.5
359.122	80.5
359.349	84.5
359.576	90.5
359.802	96.5
360.029	86.5
360.256	84.5
360.483	89.5
360.709	81.5
360.936	86.5
361.163	82.5
361.39	78.5
361.616	71.5
361.843	90.5
362.07	78.5
362.296	79.5
362.523	86.5
362.749	91.5
362.976	98.5
363.203	92.5
363.429	82.5
363.656	79.5
363.882	83.5
364.109	93.5
364.335	97.5
364.562	103.5
364.788	87.5
365.015	82.5
365.241	79.5
365.468	89.5
365.694	91.5
365.92	90.5
366.147	78.5
366.373	72.5
366.599	92.5
366.826	82.5
367.052	92.5
367.278	86.5
367.505	76.5
367.731	98.5
367.957	89.5
368.184	94.5
368.41	89.5
368.636	82.5
368.862	80.5
369.089	81.5
369.315	81.5
369.541	91.5
369.767	73.5
369.993	83.5
370.219	79.5
370.445	83.5
370.672	75.5
370.898	88.5
371.124	78.5
371.35	77.5
371.576	93.5
371.802	72.5
372.028	80.5
372.254	85.5
372.48	90.5
372.706	75.5
372.932	70.5
373.158	71.5
373.384	80.5
373.61	83.5
373.835	84.5
374.061	74.5
374.287	86.5
374.513	92.5
374.739	86.5
374.965	91.5
375.191	85.5
375.416	71.5
375.642	88.5
375.868	90.5
376.094	88.5
376.319	83.5
376.545	85.5
376.771	86.5
376.997	89.5
377.222	55.5
377.448	77.5
377.674	77.5
377.899	84.5
378.125	82.5
378.35	79.5
378.576	90.5
378.802	79.5
379.027	89.5
379.253	86.5
379.478	84.5
379.704	83.5
379.929	79.5
380.155	76.5
380.38	86.5
380.606	78.5
380.831	70.5
381.057	77.5
381.282	85.5
381.507	83.5
381.733	84.5
381.958	90.5
382.184	77.5
382.409	81.5
382.634	96.5
382.86	87.5
383.085	97.5
383.31	94.5
383.535	89.5
383.761	101.5
383.986	80.5
384.211	87.5
384.436	82.5
384.662	74.5
384.887	74.5
385.112	85.5
385.337	90.5
385.562	69.5
385.787	86.5
386.013	99.5
386.238	86.5
386.463	86.5
386.688	87.5
386.913	101.5
387.138	91.5
387.363	84.5
387.588	88.5
387.813	87.5
388.038	86.5
388.263	83.5
388.488	73.5
388.713	79.5
388.938	86.5
389.163	91.5
389.387	84.5
389.612	90.5
389.837	80.5
390.062	94.5
390.287	88.5
390.512	86.5
390.736	87.5
390.961	82.5
391.186	72.5
391.411	76.5
391.636	88.5
391.86	79.5
392.085	71.5
392.31	91.5
392.534	74.5
392.759	84.5
392.984	99.5
393.208	113.5
393.433	113.5
393.658	102.5
393.882	83.5
394.107	85.5
394.331	75.5
394.556	97.5
394.78	89.5
395.005	66.5
395.229	81.5
395.454	74.5
395.678	88.5
395.903	90.5
396.127	101.5
396.352	97.5
396.576	84.5
396.801	106.5
397.025	98.5
397.249	100.5
397.474	83.5
397.698	85.5
397.922	87.5
398.147	84.5
398.371	87.5
398.595	86.5
398.82	85.5
399.044	74.5
399.268	91.5
399.492	85.5
399.717	87.5
399.941	73.5
400.165	71.5
400.389	74.5
400.613	75.5
400.837	84.5
401.062	84.5
401.286	81.5
401.51	81.5
401.734	74.5
401.958	79.5
402.182	86.5
402.406	95.5
402.63	92.5
402.854	101.5
403.078	74.5
403.302	92.5
403.526	63.5
403.75	88.5
403.974	88.5
404.198	105.5
404.422	103.5
404.645	111.5
404.869	104.5
405.093	81.5
405.317	87.5
405.541	81.5
405.765	86.5
405.988	76.5
406.212	83.5
406.436	86.5
406.66	89.5
406.883	78.5
407.107	91.5
407.331	83.5
407.555	83.5
407.778	92.5
408.002	79.5
408.226	83.5
408.449	84.5
408.673	83.5
408.896	81.5
409.12	87.5
409.344	82.5
409.567	85.5
409.791	76.5
410.014	85.5
410.238	89.5
410.461	100.5
410.685	72.5
410.908	80.5
411.132	100.5
411.355	91.5
411.578	81.5
411.802	78.5
412.025	91.5
412.249	79.5
412.472	73.5
412.695	69.5
412.919	82.5
413.142	85.5
413.365	69.5
413.589	101.5
413.812	79.5
414.035	86.5
414.258	75.5
414.482	72.5
414.705	85.5
414.928	89.5
415.151	91.5
415.374	81.5
415.597	72.5
415.821	78.5
416.044	85.5
416.267	80.5
416.49	85.5
416.713	82.5
416.936	81.5
417.159	88.5
417.382	82.5
417.605	84.5
417.828	68.5
418.051	72.5
418.274	69.5
418.497	84.5
418.72	80.5
418.943	85.5
419.166	91.5
419.389	73.5
419.611	92.5
419.834	81.5
420.057	69.5
420.28	85.5
420.503	80.5
420.726	68.5
420.948	89.5
421.171	91.5
421.394	81.5
421.617	89.5
421.839	80.5
422.062	93.5
422.285	94.5
422.507	116.5
422.73	138.5
422.953	133.5
423.175	113.5
423.398	102.5
423.621	85.5
423.843	101.5
424.066	73.5
424.288	77.5
424.511	67.5
424.733	84.5
424.956	84.5
425.178	79.5
425.401	85.5
425.623	83.5
425.846	77.5
426.068	81.5
426.291	78.5
426.513	61.5
426.735	78.5
426.958	80.5
427.18	84.5
427.402	77.5
427.625	82.5
427.847	85.5
428.069	90.5
428.292	94.5
428.514	98.5
428.736	84.5
428.958	101.5
429.181	91.5
429.403	66.5
429.625	78.5
429.847	94.5
430.069	111.5
430.292	113.5
430.514	82.5
430.736	88.5
430.958	101.5
431.18	87.5
431.402	85.5
431.624	86.5
431.846	98.5
432.068	101.5
432.29	85.5
432.512	90.5
432.734	91.5
432.956	74.5
433.178	82.5
433.4	82.5
433.622	82.5
433.844	82.5
434.066	89.5
434.287	76.5
434.509	77.5
434.731	84.5
434.953	72.5
435.175	70.5
435.397	75.5
435.618	80.5
435.84	77.5
436.062	83.5
436.284	87.5
436.505	96.5
436.727	75.5
436.949	84.5
437.17	68.5
437.392	88.5
437.614	83.5
437.835	67.5
438.057	79.5
438.278	75.5
438.5	74.5
438.721	75.5
438.943	78.5
439.165	93.5
439.386	55.5
439.608	77.5
439.829	91.5
440.05	90.5
440.272	100.5
440.493	87.5
440.715	81.5
440.936	68.5
441.158	79.5
441.379	79.5
441.6	70.5
441.822	89.5
442.043	89.5
442.264	84.5
442.486	112.5
442.707	95.5
442.928	103.5
443.149	88.5
443.371	97.5
443.592	115.5
443.813	107.5
444.034	91.5
444.255	78.5
444.476	90.5
444.698	83.5
444.919	82.5
445.14	135.5
445.361	127.5
445.582	151.5
445.803	120.5
446.024	93.5
446.245	99.5
446.466	92.5
446.687	85.5
446.908	76.5
447.129	80.5
447.35	81.5
447.571	91.5
447.792	77.5
448.013	71.5
448.234	91.5
448.455	62.5
448.675	80.5
448.896	75.5
449.117	88.5
449.338	79.5
449.559	77.5
449.779	75.5
450	89.5
450.221	82.5
450.442	69.5
450.662	82.5
450.883	87.5
451.104	87.5
451.324	101.5
451.545	78.5
451.766	92.5
451.986	84.5
452.207	96.5
452.428	83.5
452.648	76.5
452.869	78.5
453.089	81.5
453.31	81.5
453.53	79.5
453.751	80.5
453.971	79.5
454.192	78.5
454.412	68.5
454.633	89.5
454.853	101.5
455.073	75.5
455.294	85.5
455.514	94.5
455.734	77.5
455.955	87.5
456.175	66.5
456.395	76.5
456.616	78.5
456.836	84.5
457.056	86.5
457.276	79.5
457.497	87.5
457.717	81.5
457.937	77.5
458.157	86.5
458.377	79.5
458.598	81.5
458.818	82.5
459.038	97.5
459.258	70.5
459.478	77.5
459.698	79.5
459.918	82.5
460.138	67.5
460.358	84.5
460.578	91.5
460.798	88.5
461.018	81.5
461.238	93.5
461.458	92.5
461.678	84.5
461.898	84.5
462.118	82.5
462.338	86.5
462.558	64.5
462.777	81.5
462.997	97.5
463.217	79.5
463.437	83.5
463.657	98.5
463.876	89.5
464.096	81.5
464.316	75.5
464.536	79.5
464.755	82.5
464.975	78.5
465.195	90.5
465.414	76.5
465.634	77.5
465.854	95.5
466.073	88.5
466.293	77.5
466.512	84.5
466.732	94.5
466.951	87.5
467.171	82.5
467.391	87.5
467.61	73.5
467.829	70.5
468.049	75.5
468.268	91.5
468.488	70.5
468.707	81.5
468.927	69.5
469.146	81.5
469.365	81.5
469.585	79.5
469.804	88.5
470.023	78.5
470.243	75.5
470.462	89.5
470.681	88.5
470.901	85.5
471.12	100.5
471.339	71.5
471.558	84.5
471.777	90.5
471.997	79.5
472.216	67.5
472.435	81.5
472.654	84.5
472.873	71.5
473.092	85.5
473.311	84.5
473.53	85.5
473.749	86.5
473.968	83.5
474.187	86.5
474.406	73.5
474.625	70.5
474.844	82.5
475.063	83.5
475.282	82.5
475.501	84.5
475.72	86.5
475.939	84.5
476.158	92.5
476.377	82.5
476.596	82.5
476.814	69.5
477.033	82.5
477.252	60.5
477.471	58.5
477.69	76.5
477.908	89.5
478.127	94.5
478.346	69.5
478.564	77.5
478.783	83.5
479.002	82.5
479.22	74.5
479.439	91.5
479.658	99.5
479.876	89.5
480.095	77.5
480.313	80.5
480.532	96.5
480.751	92.5
480.969	95.5
481.188	86.5
481.406	88.5
481.624	78.5
481.843	95.5
482.061	92.5
482.28	86.5
482.498	79.5
482.717	91.5
482.935	80.5
483.153	70.5
483.372	100.5
483.59	77.5
483.808	88.5
484.027	85.5
484.245	95.5
484.463	74.5
484.681	100.5
484.9	89.5
485.118	80.5
485.336	66.5
485.554	71.5
485.772	92.5
485.99	97.5
486.209	72.5
486.427	85.5
486.645	77.5
486.863	83.5
487.081	90.5
487.299	98.5
487.517	78.5
487.735	81.5
487.953	90.5
488.171	93.5
488.389	99.5
488.607	95.5
488.825	89.5
489.043	89.5
489.261	62.5
489.479	84.5
489.696	85.5
489.914	82.5
490.132	87.5
490.35	95.5
490.568	99.5
490.786	85.5
491.003	63.5
491.221	84.5
491.439	81.5
491.657	83.5
491.874	90.5
492.092	90.5
492.31	73.5
492.527	73.5
492.745	85.5
492.963	102.5
493.18	88.5
493.398	97.5
493.615	84.5
493.833	72.5
494.05	86.5
494.268	75.5
494.485	92.5
494.703	101.5
494.92	79.5
495.138	86.5
495.355	83.5
495.573	86.5
495.79	77.5
496.008	81.5
496.225	85.5
496.442	86.5
496.66	82.5
496.877	89.5
497.094	70.5
497.312	83.5
497.529	87.5
497.746	83.5
497.963	76.5
498.181	82.5
498.398	74.5
498.615	82.5
498.832	82.5
499.049	82.5
499.267	94.5
499.484	77.5
499.701	88.5
499.918	84.5
500.135	91.5
500.352	82.5
500.569	90.5
500.786	86.5
501.003	81.5
501.22	75.5
501.437	95.5
501.654	72.5
501.871	73.5
502.088	82.5
502.305	90.5
502.522	94.5
502.739	64.5
502.956	77.5
503.172	87.5
503.389	78.5
503.606	77.5
503.823	92.5
504.04	93.5
504.256	71.5
504.473	74.5
504.69	88.5
504.907	81.5
505.123	89.5
505.34	98.5
505.557	81.5
505.773	73.5
505.99	83.5
506.207	74.5
506.423	90.5
506.64	87.5
506.856	92.5
507.073	84.5
507.289	98.5
507.506	84.5
507.722	90.5
507.939	79.5
508.155	78.5
508.372	70.5
508.588	94.5
508.805	83.5
509.021	95.5
509.238	80.5
509.454	82.5
509.67	77.5
509.887	81.5
510.103	88.5
510.319	90.5
510.536	84.5
510.752	90.5
510.968	90.5
511.184	79.5
511.401	78.5
511.617	83.5
511.833	78.5
512.049	86.5
512.265	69.5
512.481	75.5
512.698	93.5
512.914	95.5
513.13	84.5
513.346	88.5
513.562	70.5
513.778	90.5
513.994	90.5
514.21	91.5
514.426	84.5
514.642	87.5
514.858	86.5
515.074	97.5
515.29	101.5
515.506	83.5
515.721	87.5
515.937	87.5
516.153	91.5
516.369	79.5
516.585	87.5
516.801	74.5
517.016	73.5
517.232	91.5
517.448	82.5
517.664	77.5
517.879	83.5
518.095	68.5
518.311	84.5
518.527	86.5
518.742	94.5
518.958	113.5
519.173	81.5
519.389	87.5
519.605	90.5
519.82	83.5
520.036	77.5
520.251	90.5
520.467	82.5
520.682	72.5
520.898	73.5
521.113	93.5
521.329	87.5
521.544	94.5
521.76	87.5
521.975	85.5
522.19	78.5
522.406	91.5
522.621	83.5
522.836	86.5
523.052	80.5
523.267	92.5
523.482	84.5
523.698	79.5
523.913	86.5
524.128	81.5
524.343	89.5
524.559	85.5
524.774	85.5
524.989	96.5
525.204	86.5
525.419	86.5
525.634	89.5
525.849	84.5
526.064	90.5
526.28	110.5
526.495	116.5
526.71	131.5
526.925	118.5
527.14	133.5
527.355	123.5
527.57	92.5
527.785	80.5
527.999	86.5
528.214	85.5
528.429	78.5
528.644	73.5
528.859	77.5
529.074	70.5
529.289	81.5
529.503	79.5
529.718	82.5
529.933	89.5
530.148	80.5
530.363	86.5
530.577	71.5
530.792	79.5
531.007	78.5
531.221	85.5
531.436	82.5
531.651	83.5
531.865	93.5
532.08	82.5
532.295	92.5
532.509	83.5
532.724	76.5
532.938	87.5
533.153	83.5
533.367	79.5
533.582	76.5
533.796	86.5
534.011	94.5
534.225	77.5
534.44	98.5
534.654	82.5
534.868	89.5
535.083	90.5
535.297	101.5
535.511	83.5
535.726	83.5
535.94	81.5
536.154	78.5
536.369	87.5
536.583	81.5
536.797	92.5
537.011	89.5
537.225	82.5
537.44	92.5
537.654	98.5
537.868	88.5
538.082	87.5
538.296	92.5
538.51	83.5
538.724	92.5
538.938	93.5
539.153	88.5
539.367	89.5
539.581	98.5
539.795	85.5
