Data from Mixnoheat1_HRD10591_00020.txt Node
Date: Fri Dec 27 14:58:10 EST 2024
User: Yrep
Spectrometer: HR+D1059
Trigger mode: 1
Integration Time (sec): 1.000000E-1
Scans to average: 1
Electric dark correction enabled: true
Nonlinearity correction enabled: false
Boxcar width: 0
XAxis mode: Wavelengths
Number of Pixels in Spectrum: 2048
>>>>>Begin Spectral Data<<<<<
223.165	-13.44
223.4	-13.44
223.635	-13.44
223.869	-10.44
224.104	-26.44
224.338	-16.44
224.573	-19.44
224.808	-10.44
225.042	-0.44
225.277	-10.44
225.511	-5.44
225.746	-3.44
225.98	4.56
226.215	15.56
226.449	7.56
226.683	16.56
226.918	32.56
227.152	39.56
227.387	39.56
227.621	48.56
227.856	47.56
228.09	54.56
228.324	64.56
228.559	59.56
228.793	54.56
229.027	54.56
229.262	52.56
229.496	75.56
229.73	75.56
229.964	76.56
230.199	68.56
230.433	64.56
230.667	86.56
230.901	76.56
231.136	71.56
231.37	80.56
231.604	66.56
231.838	85.56
232.072	79.56
232.306	77.56
232.541	79.56
232.775	73.56
233.009	75.56
233.243	64.56
233.477	75.56
233.711	83.56
233.945	82.56
234.179	82.56
234.413	75.56
234.647	83.56
234.881	75.56
235.115	85.56
235.349	67.56
235.583	77.56
235.817	76.56
236.051	83.56
236.285	78.56
236.519	85.56
236.753	66.56
236.987	67.56
237.221	74.56
237.455	71.56
237.689	66.56
237.922	82.56
238.156	74.56
238.39	78.56
238.624	79.56
238.858	85.56
239.091	74.56
239.325	64.56
239.559	83.56
239.793	65.56
240.027	75.56
240.26	78.56
240.494	76.56
240.728	64.56
240.961	58.56
241.195	71.56
241.429	65.56
241.662	62.56
241.896	87.56
242.13	79.56
242.363	55.56
242.597	72.56
242.83	67.56
243.064	69.56
243.298	87.56
243.531	63.56
243.765	86.56
243.998	82.56
244.232	71.56
244.465	78.56
244.699	81.56
244.932	66.56
245.166	80.56
245.399	80.56
245.633	69.56
245.866	79.56
246.099	89.56
246.333	74.56
246.566	76.56
246.8	85.56
247.033	71.56
247.266	75.56
247.5	74.56
247.733	71.56
247.966	66.56
248.2	71.56
248.433	79.56
248.666	85.56
248.899	79.56
249.133	60.56
249.366	82.56
249.599	73.56
249.832	82.56
250.066	91.56
250.299	74.56
250.532	83.56
250.765	66.56
250.998	84.56
251.231	77.56
251.465	70.56
251.698	55.56
251.931	82.56
252.164	92.56
252.397	72.56
252.63	77.56
252.863	78.56
253.096	77.56
253.329	71.56
253.562	63.56
253.795	71.56
254.028	78.56
254.261	76.56
254.494	74.56
254.727	77.56
254.96	84.56
255.193	86.56
255.426	71.56
255.659	78.56
255.892	70.56
256.124	78.56
256.357	75.56
256.59	79.56
256.823	71.56
257.056	64.56
257.289	92.56
257.521	90.56
257.754	78.56
257.987	77.56
258.22	98.56
258.452	82.56
258.685	73.56
258.918	84.56
259.151	77.56
259.383	82.56
259.616	84.56
259.849	81.56
260.081	76.56
260.314	78.56
260.547	75.56
260.779	79.56
261.012	71.56
261.244	76.56
261.477	78.56
261.71	85.56
261.942	71.56
262.175	85.56
262.407	86.56
262.64	60.56
262.872	75.56
263.105	83.56
263.337	75.56
263.57	90.56
263.802	79.56
264.035	79.56
264.267	78.56
264.499	75.56
264.732	87.56
264.964	82.56
265.197	75.56
265.429	79.56
265.661	86.56
265.894	90.56
266.126	101.56
266.358	76.56
266.591	80.56
266.823	69.56
267.055	84.56
267.287	85.56
267.52	71.56
267.752	74.56
267.984	104.56
268.216	65.56
268.448	95.56
268.681	76.56
268.913	88.56
269.145	91.56
269.377	72.56
269.609	70.56
269.841	89.56
270.073	82.56
270.306	70.56
270.538	84.56
270.77	78.56
271.002	74.56
271.234	73.56
271.466	82.56
271.698	86.56
271.93	72.56
272.162	83.56
272.394	76.56
272.626	79.56
272.858	75.56
273.09	71.56
273.322	88.56
273.553	81.56
273.785	91.56
274.017	83.56
274.249	74.56
274.481	82.56
274.713	84.56
274.945	76.56
275.176	86.56
275.408	95.56
275.64	79.56
275.872	91.56
276.104	83.56
276.335	83.56
276.567	71.56
276.799	77.56
277.031	86.56
277.262	81.56
277.494	84.56
277.726	77.56
277.957	78.56
278.189	76.56
278.421	88.56
278.652	90.56
278.884	88.56
279.115	92.56
279.347	82.56
279.579	75.56
279.81	73.56
280.042	88.56
280.273	86.56
280.505	77.56
280.736	81.56
280.968	88.56
281.199	82.56
281.431	79.56
281.662	82.56
281.894	89.56
282.125	89.56
282.356	74.56
282.588	77.56
282.819	88.56
283.051	75.56
283.282	70.56
283.513	102.56
283.745	89.56
283.976	82.56
284.207	108.56
284.439	61.56
284.67	82.56
284.901	84.56
285.132	86.56
285.364	70.56
285.595	84.56
285.826	73.56
286.057	68.56
286.288	76.56
286.52	83.56
286.751	93.56
286.982	89.56
287.213	85.56
287.444	69.56
287.675	78.56
287.906	79.56
288.138	79.56
288.369	86.56
288.6	81.56
288.831	82.56
289.062	63.56
289.293	86.56
289.524	80.56
289.755	84.56
289.986	89.56
290.217	93.56
290.448	81.56
290.679	75.56
290.91	99.56
291.141	92.56
291.371	82.56
291.602	85.56
291.833	78.56
292.064	80.56
292.295	96.56
292.526	87.56
292.757	70.56
292.987	71.56
293.218	91.56
293.449	71.56
293.68	78.56
293.91	83.56
294.141	80.56
294.372	88.56
294.603	80.56
294.833	91.56
295.064	82.56
295.295	58.56
295.525	66.56
295.756	82.56
295.987	80.56
296.217	83.56
296.448	73.56
296.679	85.56
296.909	86.56
297.14	89.56
297.37	85.56
297.601	80.56
297.831	79.56
298.062	92.56
298.292	80.56
298.523	90.56
298.753	79.56
298.984	94.56
299.214	75.56
299.445	80.56
299.675	84.56
299.905	86.56
300.136	73.56
300.366	83.56
300.597	88.56
300.827	83.56
301.057	75.56
301.288	73.56
301.518	73.56
301.748	91.56
301.979	91.56
302.209	72.56
302.439	82.56
302.669	87.56
302.9	76.56
303.13	74.56
303.36	72.56
303.59	87.56
303.82	83.56
304.051	79.56
304.281	88.56
304.511	87.56
304.741	80.56
304.971	85.56
305.201	78.56
305.431	82.56
305.661	90.56
305.891	70.56
306.121	88.56
306.352	79.56
306.582	79.56
306.812	90.56
307.042	79.56
307.272	85.56
307.502	70.56
307.731	75.56
307.961	74.56
308.191	76.56
308.421	86.56
308.651	76.56
308.881	72.56
309.111	75.56
309.341	94.56
309.571	76.56
309.8	85.56
310.03	78.56
310.26	85.56
310.49	91.56
310.72	78.56
310.949	80.56
311.179	88.56
311.409	70.56
311.639	68.56
311.868	88.56
312.098	94.56
312.328	91.56
312.557	87.56
312.787	85.56
313.017	83.56
313.246	90.56
313.476	89.56
313.706	75.56
313.935	79.56
314.165	83.56
314.394	83.56
314.624	92.56
314.853	84.56
315.083	92.56
315.312	83.56
315.542	64.56
315.771	82.56
316.001	95.56
316.23	85.56
316.46	81.56
316.689	82.56
316.919	79.56
317.148	83.56
317.377	77.56
317.607	88.56
317.836	74.56
318.065	95.56
318.295	81.56
318.524	78.56
318.753	86.56
318.983	79.56
319.212	84.56
319.441	84.56
319.67	87.56
319.9	89.56
320.129	95.56
320.358	79.56
320.587	86.56
320.816	74.56
321.046	87.56
321.275	85.56
321.504	83.56
321.733	90.56
321.962	86.56
322.191	91.56
322.42	84.56
322.649	79.56
322.878	100.56
323.108	91.56
323.337	91.56
323.566	78.56
323.795	85.56
324.024	81.56
324.253	88.56
324.482	90.56
324.71	86.56
324.939	92.56
325.168	89.56
325.397	91.56
325.626	87.56
325.855	91.56
326.084	68.56
326.313	91.56
326.542	74.56
326.77	92.56
326.999	81.56
327.228	88.56
327.457	88.56
327.686	83.56
327.914	92.56
328.143	79.56
328.372	82.56
328.6	85.56
328.829	80.56
329.058	91.56
329.287	83.56
329.515	73.56
329.744	75.56
329.972	79.56
330.201	79.56
330.43	94.56
330.658	88.56
330.887	93.56
331.115	85.56
331.344	83.56
331.572	84.56
331.801	81.56
332.03	82.56
332.258	83.56
332.486	85.56
332.715	82.56
332.943	87.56
333.172	89.56
333.4	77.56
333.629	99.56
333.857	88.56
334.085	82.56
334.314	79.56
334.542	87.56
334.771	92.56
334.999	90.56
335.227	77.56
335.455	93.56
335.684	81.56
335.912	74.56
336.14	76.56
336.369	83.56
336.597	78.56
336.825	83.56
337.053	88.56
337.281	88.56
337.51	78.56
337.738	84.56
337.966	91.56
338.194	91.56
338.422	75.56
338.65	91.56
338.878	81.56
339.106	94.56
339.334	91.56
339.562	85.56
339.79	77.56
340.018	111.56
340.246	91.56
340.474	85.56
340.702	82.56
340.93	84.56
341.158	83.56
341.386	80.56
341.614	74.56
341.842	76.56
342.07	74.56
342.298	79.56
342.526	89.56
342.754	88.56
342.981	84.56
343.209	67.56
343.437	74.56
343.665	84.56
343.893	78.56
344.12	90.56
344.348	99.56
344.576	74.56
344.804	82.56
345.031	74.56
345.259	72.56
345.487	86.56
345.714	89.56
345.942	82.56
346.17	75.56
346.397	79.56
346.625	82.56
346.853	69.56
347.08	77.56
347.308	80.56
347.535	83.56
347.763	85.56
347.99	82.56
348.218	84.56
348.445	94.56
348.673	84.56
348.9	80.56
349.128	82.56
349.355	89.56
349.583	73.56
349.81	96.56
350.037	86.56
350.265	85.56
350.492	86.56
350.72	90.56
350.947	96.56
351.174	82.56
351.402	90.56
351.629	88.56
351.856	94.56
352.083	79.56
352.311	92.56
352.538	64.56
352.765	85.56
352.992	100.56
353.22	102.56
353.447	91.56
353.674	98.56
353.901	81.56
354.128	73.56
354.355	92.56
354.583	74.56
354.81	98.56
355.037	98.56
355.264	85.56
355.491	77.56
355.718	76.56
355.945	90.56
356.172	86.56
356.399	95.56
356.626	85.56
356.853	85.56
357.08	90.56
357.307	77.56
357.534	72.56
357.761	88.56
357.988	82.56
358.215	85.56
358.441	83.56
358.668	90.56
358.895	80.56
359.122	77.56
359.349	70.56
359.576	66.56
359.802	86.56
360.029	92.56
360.256	77.56
360.483	101.56
360.709	69.56
360.936	79.56
361.163	80.56
361.39	94.56
361.616	83.56
361.843	89.56
362.07	82.56
362.296	75.56
362.523	78.56
362.749	98.56
362.976	100.56
363.203	86.56
363.429	83.56
363.656	79.56
363.882	77.56
364.109	89.56
364.335	88.56
364.562	85.56
364.788	74.56
365.015	91.56
365.241	88.56
365.468	76.56
365.694	79.56
365.92	83.56
366.147	81.56
366.373	75.56
366.599	78.56
366.826	78.56
367.052	88.56
367.278	85.56
367.505	89.56
367.731	91.56
367.957	82.56
368.184	78.56
368.41	79.56
368.636	75.56
368.862	82.56
369.089	87.56
369.315	84.56
369.541	79.56
369.767	82.56
369.993	80.56
370.219	89.56
370.445	91.56
370.672	91.56
370.898	78.56
371.124	71.56
371.35	67.56
371.576	86.56
371.802	80.56
372.028	82.56
372.254	84.56
372.48	95.56
372.706	88.56
372.932	71.56
373.158	86.56
373.384	85.56
373.61	82.56
373.835	79.56
374.061	76.56
374.287	79.56
374.513	85.56
374.739	91.56
374.965	92.56
375.191	83.56
375.416	80.56
375.642	83.56
375.868	90.56
376.094	92.56
376.319	88.56
376.545	91.56
376.771	80.56
376.997	85.56
377.222	90.56
377.448	76.56
377.674	89.56
377.899	90.56
378.125	84.56
378.35	75.56
378.576	85.56
378.802	70.56
379.027	79.56
379.253	77.56
379.478	78.56
379.704	78.56
379.929	79.56
380.155	83.56
380.38	80.56
380.606	81.56
380.831	90.56
381.057	90.56
381.282	78.56
381.507	77.56
381.733	82.56
381.958	96.56
382.184	79.56
382.409	74.56
382.634	85.56
382.86	70.56
383.085	75.56
383.31	93.56
383.535	95.56
383.761	72.56
383.986	74.56
384.211	78.56
384.436	82.56
384.662	84.56
384.887	94.56
385.112	74.56
385.337	79.56
385.562	79.56
385.787	77.56
386.013	68.56
386.238	89.56
386.463	91.56
386.688	94.56
386.913	75.56
387.138	80.56
387.363	93.56
387.588	96.56
387.813	84.56
388.038	90.56
388.263	89.56
388.488	88.56
388.713	80.56
388.938	89.56
389.163	91.56
389.387	75.56
389.612	79.56
389.837	85.56
390.062	95.56
390.287	70.56
390.512	81.56
390.736	68.56
390.961	62.56
391.186	81.56
391.411	76.56
391.636	84.56
391.86	83.56
392.085	85.56
392.31	83.56
392.534	73.56
392.759	91.56
392.984	77.56
393.208	102.56
393.433	91.56
393.658	77.56
393.882	91.56
394.107	72.56
394.331	77.56
394.556	99.56
394.78	89.56
395.005	72.56
395.229	82.56
395.454	89.56
395.678	68.56
395.903	84.56
396.127	84.56
396.352	88.56
396.576	91.56
396.801	88.56
397.025	82.56
397.249	80.56
397.474	88.56
397.698	84.56
397.922	79.56
398.147	76.56
398.371	80.56
398.595	98.56
398.82	86.56
399.044	84.56
399.268	84.56
399.492	74.56
399.717	88.56
399.941	80.56
400.165	78.56
400.389	96.56
400.613	83.56
400.837	74.56
401.062	94.56
401.286	76.56
401.51	80.56
401.734	82.56
401.958	92.56
402.182	85.56
402.406	84.56
402.63	97.56
402.854	83.56
403.078	87.56
403.302	76.56
403.526	85.56
403.75	84.56
403.974	67.56
404.198	86.56
404.422	87.56
404.645	90.56
404.869	92.56
405.093	92.56
405.317	73.56
405.541	88.56
405.765	74.56
405.988	84.56
406.212	83.56
406.436	76.56
406.66	92.56
406.883	85.56
407.107	82.56
407.331	83.56
407.555	99.56
407.778	90.56
408.002	79.56
408.226	80.56
408.449	84.56
408.673	89.56
408.896	85.56
409.12	94.56
409.344	78.56
409.567	95.56
409.791	92.56
410.014	67.56
410.238	81.56
410.461	70.56
410.685	92.56
410.908	76.56
411.132	97.56
411.355	78.56
411.578	95.56
411.802	72.56
412.025	78.56
412.249	92.56
412.472	76.56
412.695	67.56
412.919	85.56
413.142	84.56
413.365	77.56
413.589	94.56
413.812	78.56
414.035	84.56
414.258	93.56
414.482	78.56
414.705	90.56
414.928	77.56
415.151	94.56
415.374	74.56
415.597	73.56
415.821	95.56
416.044	99.56
416.267	84.56
416.49	82.56
416.713	87.56
416.936	79.56
417.159	77.56
417.382	76.56
417.605	74.56
417.828	84.56
418.051	74.56
418.274	87.56
418.497	89.56
418.72	86.56
418.943	84.56
419.166	72.56
419.389	88.56
419.611	86.56
419.834	94.56
420.057	91.56
420.28	90.56
420.503	84.56
420.726	80.56
420.948	84.56
421.171	78.56
421.394	98.56
421.617	79.56
421.839	72.56
422.062	88.56
422.285	94.56
422.507	102.56
422.73	98.56
422.953	107.56
423.175	84.56
423.398	77.56
423.621	87.56
423.843	72.56
424.066	77.56
424.288	76.56
424.511	94.56
424.733	83.56
424.956	73.56
425.178	69.56
425.401	76.56
425.623	84.56
425.846	73.56
426.068	91.56
426.291	76.56
426.513	83.56
426.735	74.56
426.958	79.56
427.18	80.56
427.402	82.56
427.625	71.56
427.847	82.56
428.069	68.56
428.292	72.56
428.514	77.56
428.736	80.56
428.958	84.56
429.181	91.56
429.403	84.56
429.625	90.56
429.847	80.56
430.069	87.56
430.292	85.56
430.514	99.56
430.736	90.56
430.958	93.56
431.18	80.56
431.402	79.56
431.624	87.56
431.846	87.56
432.068	83.56
432.29	93.56
432.512	79.56
432.734	78.56
432.956	77.56
433.178	96.56
433.4	68.56
433.622	76.56
433.844	80.56
434.066	82.56
434.287	89.56
434.509	86.56
434.731	84.56
434.953	84.56
435.175	79.56
435.397	76.56
435.618	79.56
435.84	74.56
436.062	86.56
436.284	84.56
436.505	76.56
436.727	68.56
436.949	85.56
437.17	68.56
437.392	101.56
437.614	99.56
437.835	80.56
438.057	71.56
438.278	81.56
438.5	79.56
438.721	85.56
438.943	87.56
439.165	82.56
439.386	92.56
439.608	74.56
439.829	86.56
440.05	75.56
440.272	88.56
440.493	76.56
440.715	92.56
440.936	84.56
441.158	87.56
441.379	82.56
441.6	84.56
441.822	76.56
442.043	89.56
442.264	73.56
442.486	92.56
442.707	87.56
442.928	71.56
443.149	88.56
443.371	88.56
443.592	90.56
443.813	92.56
444.034	88.56
444.255	71.56
444.476	82.56
444.698	84.56
444.919	103.56
445.14	146.56
445.361	129.56
445.582	96.56
445.803	103.56
446.024	79.56
446.245	84.56
446.466	73.56
446.687	97.56
446.908	90.56
447.129	85.56
447.35	87.56
447.571	88.56
447.792	77.56
448.013	83.56
448.234	91.56
448.455	87.56
448.675	83.56
448.896	76.56
449.117	86.56
449.338	79.56
449.559	70.56
449.779	77.56
450	82.56
450.221	92.56
450.442	74.56
450.662	90.56
450.883	75.56
451.104	88.56
451.324	75.56
451.545	80.56
451.766	91.56
451.986	65.56
452.207	87.56
452.428	76.56
452.648	91.56
452.869	82.56
453.089	95.56
453.31	84.56
453.53	82.56
453.751	84.56
453.971	85.56
454.192	83.56
454.412	67.56
454.633	89.56
454.853	75.56
455.073	98.56
455.294	89.56
455.514	98.56
455.734	98.56
455.955	74.56
456.175	82.56
456.395	85.56
456.616	87.56
456.836	90.56
457.056	90.56
457.276	77.56
457.497	79.56
457.717	91.56
457.937	79.56
458.157	78.56
458.377	73.56
458.598	80.56
458.818	86.56
459.038	81.56
459.258	82.56
459.478	87.56
459.698	73.56
459.918	90.56
460.138	85.56
460.358	83.56
460.578	88.56
460.798	83.56
461.018	75.56
461.238	83.56
461.458	88.56
461.678	94.56
461.898	75.56
462.118	99.56
462.338	78.56
462.558	85.56
462.777	77.56
462.997	92.56
463.217	76.56
463.437	74.56
463.657	80.56
463.876	83.56
464.096	90.56
464.316	81.56
464.536	77.56
464.755	78.56
464.975	77.56
465.195	86.56
465.414	83.56
465.634	82.56
465.854	75.56
466.073	78.56
466.293	79.56
466.512	88.56
466.732	88.56
466.951	88.56
467.171	79.56
467.391	75.56
467.61	61.56
467.829	88.56
468.049	80.56
468.268	84.56
468.488	75.56
468.707	78.56
468.927	82.56
469.146	72.56
469.365	72.56
469.585	103.56
469.804	98.56
470.023	85.56
470.243	84.56
470.462	95.56
470.681	76.56
470.901	79.56
471.12	90.56
471.339	75.56
471.558	87.56
471.777	84.56
471.997	87.56
472.216	86.56
472.435	80.56
472.654	81.56
472.873	87.56
473.092	81.56
473.311	87.56
473.53	79.56
473.749	83.56
473.968	78.56
474.187	88.56
474.406	72.56
474.625	76.56
474.844	82.56
475.063	83.56
475.282	75.56
475.501	90.56
475.72	98.56
475.939	86.56
476.158	74.56
476.377	92.56
476.596	71.56
476.814	87.56
477.033	88.56
477.252	81.56
477.471	78.56
477.69	71.56
477.908	86.56
478.127	83.56
478.346	93.56
478.564	92.56
478.783	78.56
479.002	92.56
479.22	83.56
479.439	76.56
479.658	78.56
479.876	71.56
480.095	73.56
480.313	83.56
480.532	93.56
480.751	78.56
480.969	68.56
481.188	82.56
481.406	72.56
481.624	81.56
481.843	92.56
482.061	74.56
482.28	84.56
482.498	85.56
482.717	81.56
482.935	72.56
483.153	82.56
483.372	84.56
483.59	85.56
483.808	70.56
484.027	71.56
484.245	85.56
484.463	84.56
484.681	86.56
484.9	84.56
485.118	77.56
485.336	68.56
485.554	77.56
485.772	75.56
485.99	85.56
486.209	87.56
486.427	84.56
486.645	79.56
486.863	61.56
487.081	87.56
487.299	79.56
487.517	78.56
487.735	102.56
487.953	79.56
488.171	85.56
488.389	74.56
488.607	89.56
488.825	73.56
489.043	93.56
489.261	87.56
489.479	85.56
489.696	80.56
489.914	90.56
490.132	90.56
490.35	91.56
490.568	79.56
490.786	88.56
491.003	72.56
491.221	86.56
491.439	102.56
491.657	79.56
491.874	87.56
492.092	82.56
492.31	100.56
492.527	71.56
492.745	86.56
492.963	84.56
493.18	85.56
493.398	96.56
493.615	80.56
493.833	70.56
494.05	76.56
494.268	79.56
494.485	91.56
494.703	84.56
494.92	98.56
495.138	89.56
495.355	87.56
495.573	89.56
495.79	89.56
496.008	90.56
496.225	83.56
496.442	91.56
496.66	75.56
496.877	87.56
497.094	90.56
497.312	92.56
497.529	88.56
497.746	87.56
497.963	92.56
498.181	69.56
498.398	75.56
498.615	90.56
498.832	72.56
499.049	86.56
499.267	78.56
499.484	79.56
499.701	79.56
499.918	93.56
500.135	83.56
500.352	83.56
500.569	84.56
500.786	83.56
501.003	85.56
501.22	83.56
501.437	80.56
501.654	80.56
501.871	86.56
502.088	88.56
502.305	82.56
502.522	99.56
502.739	82.56
502.956	90.56
503.172	77.56
503.389	75.56
503.606	80.56
503.823	84.56
504.04	92.56
504.256	83.56
504.473	91.56
504.69	75.56
504.907	90.56
505.123	86.56
505.34	79.56
505.557	86.56
505.773	87.56
505.99	88.56
506.207	82.56
506.423	75.56
506.64	79.56
506.856	81.56
507.073	84.56
507.289	102.56
507.506	88.56
507.722	90.56
507.939	78.56
508.155	75.56
508.372	80.56
508.588	92.56
508.805	90.56
509.021	85.56
509.238	89.56
509.454	86.56
509.67	77.56
509.887	80.56
510.103	85.56
510.319	86.56
510.536	97.56
510.752	95.56
510.968	87.56
511.184	93.56
511.401	83.56
511.617	91.56
511.833	99.56
512.049	83.56
512.265	88.56
512.481	93.56
512.698	68.56
512.914	81.56
513.13	98.56
513.346	72.56
513.562	79.56
513.778	84.56
513.994	83.56
514.21	100.56
514.426	86.56
514.642	88.56
514.858	97.56
515.074	82.56
515.29	87.56
515.506	84.56
515.721	92.56
515.937	71.56
516.153	78.56
516.369	77.56
516.585	78.56
516.801	75.56
517.016	78.56
517.232	80.56
517.448	96.56
517.664	83.56
517.879	79.56
518.095	86.56
518.311	94.56
518.527	88.56
518.742	84.56
518.958	89.56
519.173	86.56
519.389	92.56
519.605	76.56
519.82	70.56
