Data from Mixnoheat1_HRD10591_00005.txt Node
Date: Fri Dec 27 14:57:55 EST 2024
User: Yrep
Spectrometer: HR+D1059
Trigger mode: 1
Integration Time (sec): 1.000000E-1
Scans to average: 1
Electric dark correction enabled: true
Nonlinearity correction enabled: false
Boxcar width: 0
XAxis mode: Wavelengths
Number of Pixels in Spectrum: 2048
>>>>>Begin Spectral Data<<<<<
223.165	-27.81
223.4	-27.81
223.635	-27.81
223.869	-5.81
224.104	-13.81
224.338	-12.81
224.573	-13.81
224.808	-15.81
225.042	6.19
225.277	-11.81
225.511	-7.81
225.746	1.19
225.98	8.19
226.215	7.19
226.449	11.19
226.683	19.19
226.918	30.19
227.152	26.19
227.387	25.19
227.621	33.19
227.856	35.19
228.09	56.19
228.324	57.19
228.559	64.19
228.793	62.19
229.027	43.19
229.262	65.19
229.496	79.19
229.73	57.19
229.964	58.19
230.199	75.19
230.433	72.19
230.667	70.19
230.901	80.19
231.136	77.19
231.37	76.19
231.604	72.19
231.838	63.19
232.072	69.19
232.306	86.19
232.541	93.19
232.775	85.19
233.009	86.19
233.243	77.19
233.477	86.19
233.711	80.19
233.945	77.19
234.179	85.19
234.413	77.19
234.647	62.19
234.881	83.19
235.115	82.19
235.349	74.19
235.583	81.19
235.817	83.19
236.051	77.19
236.285	77.19
236.519	79.19
236.753	89.19
236.987	78.19
237.221	72.19
237.455	69.19
237.689	74.19
237.922	70.19
238.156	70.19
238.39	78.19
238.624	62.19
238.858	65.19
239.091	72.19
239.325	65.19
239.559	65.19
239.793	80.19
240.027	74.19
240.26	75.19
240.494	86.19
240.728	80.19
240.961	73.19
241.195	71.19
241.429	71.19
241.662	81.19
241.896	70.19
242.13	52.19
242.363	78.19
242.597	67.19
242.83	77.19
243.064	65.19
243.298	80.19
243.531	66.19
243.765	67.19
243.998	79.19
244.232	76.19
244.465	71.19
244.699	67.19
244.932	74.19
245.166	74.19
245.399	85.19
245.633	58.19
245.866	79.19
246.099	62.19
246.333	64.19
246.566	72.19
246.8	73.19
247.033	76.19
247.266	77.19
247.5	77.19
247.733	81.19
247.966	86.19
248.2	76.19
248.433	70.19
248.666	73.19
248.899	69.19
249.133	59.19
249.366	68.19
249.599	79.19
249.832	78.19
250.066	81.19
250.299	82.19
250.532	77.19
250.765	75.19
250.998	92.19
251.231	78.19
251.465	61.19
251.698	84.19
251.931	68.19
252.164	82.19
252.397	81.19
252.63	80.19
252.863	74.19
253.096	66.19
253.329	74.19
253.562	65.19
253.795	69.19
254.028	70.19
254.261	68.19
254.494	76.19
254.727	85.19
254.96	71.19
255.193	82.19
255.426	73.19
255.659	78.19
255.892	66.19
256.124	63.19
256.357	63.19
256.59	72.19
256.823	81.19
257.056	65.19
257.289	80.19
257.521	75.19
257.754	82.19
257.987	85.19
258.22	78.19
258.452	74.19
258.685	82.19
258.918	73.19
259.151	70.19
259.383	70.19
259.616	76.19
259.849	76.19
260.081	90.19
260.314	93.19
260.547	84.19
260.779	64.19
261.012	84.19
261.244	65.19
261.477	85.19
261.71	89.19
261.942	73.19
262.175	81.19
262.407	59.19
262.64	80.19
262.872	87.19
263.105	66.19
263.337	74.19
263.57	77.19
263.802	70.19
264.035	78.19
264.267	63.19
264.499	69.19
264.732	89.19
264.964	81.19
265.197	85.19
265.429	67.19
265.661	73.19
265.894	72.19
266.126	81.19
266.358	72.19
266.591	82.19
266.823	72.19
267.055	87.19
267.287	72.19
267.52	81.19
267.752	65.19
267.984	81.19
268.216	82.19
268.448	81.19
268.681	66.19
268.913	80.19
269.145	82.19
269.377	80.19
269.609	84.19
269.841	81.19
270.073	75.19
270.306	72.19
270.538	74.19
270.77	79.19
271.002	70.19
271.234	70.19
271.466	80.19
271.698	73.19
271.93	72.19
272.162	80.19
272.394	86.19
272.626	83.19
272.858	84.19
273.09	70.19
273.322	75.19
273.553	79.19
273.785	73.19
274.017	72.19
274.249	73.19
274.481	87.19
274.713	73.19
274.945	74.19
275.176	74.19
275.408	68.19
275.64	72.19
275.872	78.19
276.104	82.19
276.335	82.19
276.567	71.19
276.799	78.19
277.031	75.19
277.262	70.19
277.494	71.19
277.726	84.19
277.957	71.19
278.189	73.19
278.421	89.19
278.652	84.19
278.884	73.19
279.115	74.19
279.347	72.19
279.579	75.19
279.81	73.19
280.042	66.19
280.273	83.19
280.505	61.19
280.736	72.19
280.968	74.19
281.199	76.19
281.431	68.19
281.662	70.19
281.894	80.19
282.125	67.19
282.356	72.19
282.588	90.19
282.819	76.19
283.051	84.19
283.282	66.19
283.513	75.19
283.745	84.19
283.976	98.19
284.207	75.19
284.439	94.19
284.67	84.19
284.901	72.19
285.132	82.19
285.364	70.19
285.595	72.19
285.826	89.19
286.057	85.19
286.288	86.19
286.52	75.19
286.751	87.19
286.982	81.19
287.213	87.19
287.444	91.19
287.675	83.19
287.906	84.19
288.138	73.19
288.369	66.19
288.6	85.19
288.831	85.19
289.062	80.19
289.293	86.19
289.524	81.19
289.755	85.19
289.986	87.19
290.217	75.19
290.448	86.19
290.679	77.19
290.91	73.19
291.141	63.19
291.371	85.19
291.602	77.19
291.833	81.19
292.064	91.19
292.295	78.19
292.526	87.19
292.757	95.19
292.987	74.19
293.218	81.19
293.449	74.19
293.68	74.19
293.91	70.19
294.141	89.19
294.372	91.19
294.603	81.19
294.833	87.19
295.064	77.19
295.295	74.19
295.525	87.19
295.756	82.19
295.987	76.19
296.217	83.19
296.448	86.19
296.679	64.19
296.909	84.19
297.14	87.19
297.37	70.19
297.601	80.19
297.831	79.19
298.062	77.19
298.292	70.19
298.523	78.19
298.753	78.19
298.984	83.19
299.214	82.19
299.445	73.19
299.675	78.19
299.905	95.19
300.136	71.19
300.366	64.19
300.597	79.19
300.827	85.19
301.057	76.19
301.288	78.19
301.518	81.19
301.748	80.19
301.979	100.19
302.209	90.19
302.439	79.19
302.669	87.19
302.9	75.19
303.13	64.19
303.36	80.19
303.59	78.19
303.82	86.19
304.051	82.19
304.281	83.19
304.511	71.19
304.741	81.19
304.971	71.19
305.201	67.19
305.431	82.19
305.661	79.19
305.891	74.19
306.121	77.19
306.352	92.19
306.582	96.19
306.812	78.19
307.042	56.19
307.272	56.19
307.502	80.19
307.731	71.19
307.961	78.19
308.191	80.19
308.421	80.19
308.651	83.19
308.881	75.19
309.111	72.19
309.341	86.19
309.571	83.19
309.8	80.19
310.03	61.19
310.26	90.19
310.49	94.19
310.72	89.19
310.949	89.19
311.179	68.19
311.409	76.19
311.639	80.19
311.868	73.19
312.098	88.19
312.328	77.19
312.557	80.19
312.787	97.19
313.017	88.19
313.246	88.19
313.476	73.19
313.706	78.19
313.935	87.19
314.165	68.19
314.394	73.19
314.624	80.19
314.853	78.19
315.083	76.19
315.312	83.19
315.542	77.19
315.771	87.19
316.001	85.19
316.23	77.19
316.46	78.19
316.689	83.19
316.919	82.19
317.148	78.19
317.377	76.19
317.607	86.19
317.836	88.19
318.065	71.19
318.295	76.19
318.524	84.19
318.753	83.19
318.983	79.19
319.212	89.19
319.441	96.19
319.67	84.19
319.9	78.19
320.129	66.19
320.358	83.19
320.587	77.19
320.816	76.19
321.046	81.19
321.275	78.19
321.504	82.19
321.733	73.19
321.962	86.19
322.191	67.19
322.42	71.19
322.649	83.19
322.878	83.19
323.108	78.19
323.337	77.19
323.566	95.19
323.795	77.19
324.024	89.19
324.253	83.19
324.482	82.19
324.71	64.19
324.939	77.19
325.168	91.19
325.397	92.19
325.626	83.19
325.855	86.19
326.084	90.19
326.313	75.19
326.542	84.19
326.77	72.19
326.999	76.19
327.228	75.19
327.457	76.19
327.686	80.19
327.914	84.19
328.143	96.19
328.372	71.19
328.6	79.19
328.829	90.19
329.058	71.19
329.287	85.19
329.515	74.19
329.744	77.19
329.972	79.19
330.201	97.19
330.43	87.19
330.658	87.19
330.887	74.19
331.115	68.19
331.344	86.19
331.572	77.19
331.801	76.19
332.03	75.19
332.258	101.19
332.486	80.19
332.715	82.19
332.943	84.19
333.172	85.19
333.4	77.19
333.629	93.19
333.857	84.19
334.085	78.19
334.314	76.19
334.542	87.19
334.771	79.19
334.999	93.19
335.227	68.19
335.455	81.19
335.684	82.19
335.912	85.19
336.14	85.19
336.369	80.19
336.597	76.19
336.825	79.19
337.053	83.19
337.281	81.19
337.51	92.19
337.738	68.19
337.966	71.19
338.194	67.19
338.422	102.19
338.65	80.19
338.878	82.19
339.106	78.19
339.334	78.19
339.562	72.19
339.79	77.19
340.018	94.19
340.246	65.19
340.474	70.19
340.702	85.19
340.93	86.19
341.158	70.19
341.386	96.19
341.614	90.19
341.842	69.19
342.07	69.19
342.298	85.19
342.526	71.19
342.754	82.19
342.981	66.19
343.209	82.19
343.437	104.19
343.665	52.19
343.893	72.19
344.12	92.19
344.348	78.19
344.576	72.19
344.804	83.19
345.031	72.19
345.259	80.19
345.487	79.19
345.714	83.19
345.942	79.19
346.17	81.19
346.397	82.19
346.625	78.19
346.853	84.19
347.08	70.19
347.308	76.19
347.535	91.19
347.763	81.19
347.99	87.19
348.218	74.19
348.445	74.19
348.673	82.19
348.9	66.19
349.128	79.19
349.355	76.19
349.583	75.19
349.81	81.19
350.037	74.19
350.265	87.19
350.492	81.19
350.72	81.19
350.947	79.19
351.174	90.19
351.402	79.19
351.629	78.19
351.856	77.19
352.083	87.19
352.311	83.19
352.538	77.19
352.765	85.19
352.992	83.19
353.22	81.19
353.447	78.19
353.674	86.19
353.901	83.19
354.128	80.19
354.355	84.19
354.583	82.19
354.81	80.19
355.037	77.19
355.264	73.19
355.491	79.19
355.718	71.19
355.945	73.19
356.172	85.19
356.399	86.19
356.626	83.19
356.853	70.19
357.08	76.19
357.307	89.19
357.534	76.19
357.761	75.19
357.988	99.19
358.215	90.19
358.441	82.19
358.668	76.19
358.895	81.19
359.122	61.19
359.349	87.19
359.576	71.19
359.802	74.19
360.029	77.19
360.256	78.19
360.483	77.19
360.709	85.19
360.936	89.19
361.163	81.19
361.39	93.19
361.616	86.19
361.843	90.19
362.07	70.19
362.296	69.19
362.523	72.19
362.749	72.19
362.976	89.19
363.203	97.19
363.429	73.19
363.656	90.19
363.882	97.19
364.109	77.19
364.335	90.19
364.562	83.19
364.788	87.19
365.015	73.19
365.241	96.19
365.468	75.19
365.694	68.19
365.92	74.19
366.147	81.19
366.373	88.19
366.599	69.19
366.826	80.19
367.052	69.19
367.278	72.19
367.505	72.19
367.731	66.19
367.957	85.19
368.184	68.19
368.41	64.19
368.636	81.19
368.862	82.19
369.089	73.19
369.315	82.19
369.541	82.19
369.767	80.19
369.993	89.19
370.219	66.19
370.445	80.19
370.672	85.19
370.898	73.19
371.124	79.19
371.35	64.19
371.576	84.19
371.802	76.19
372.028	78.19
372.254	72.19
372.48	92.19
372.706	68.19
372.932	73.19
373.158	78.19
373.384	86.19
373.61	84.19
373.835	102.19
374.061	86.19
374.287	66.19
374.513	69.19
374.739	83.19
374.965	87.19
375.191	90.19
375.416	85.19
375.642	71.19
375.868	86.19
376.094	86.19
376.319	76.19
376.545	77.19
376.771	69.19
376.997	80.19
377.222	76.19
377.448	68.19
377.674	71.19
377.899	64.19
378.125	69.19
378.35	85.19
378.576	78.19
378.802	76.19
379.027	78.19
379.253	84.19
379.478	78.19
379.704	85.19
379.929	80.19
380.155	86.19
380.38	79.19
380.606	77.19
380.831	79.19
381.057	80.19
381.282	78.19
381.507	78.19
381.733	93.19
381.958	86.19
382.184	64.19
382.409	70.19
382.634	92.19
382.86	75.19
383.085	93.19
383.31	72.19
383.535	80.19
383.761	82.19
383.986	78.19
384.211	76.19
384.436	79.19
384.662	93.19
384.887	70.19
385.112	92.19
385.337	92.19
385.562	80.19
385.787	69.19
386.013	82.19
386.238	70.19
386.463	77.19
386.688	84.19
386.913	72.19
387.138	94.19
387.363	71.19
387.588	92.19
387.813	76.19
388.038	77.19
388.263	95.19
388.488	82.19
388.713	84.19
388.938	76.19
389.163	87.19
389.387	76.19
389.612	66.19
389.837	89.19
390.062	85.19
390.287	75.19
390.512	92.19
390.736	85.19
390.961	87.19
391.186	82.19
391.411	78.19
391.636	90.19
391.86	74.19
392.085	85.19
392.31	83.19
392.534	76.19
392.759	83.19
392.984	107.19
393.208	110.19
393.433	140.19
393.658	99.19
393.882	85.19
394.107	95.19
394.331	104.19
394.556	97.19
394.78	86.19
395.005	88.19
395.229	70.19
395.454	85.19
395.678	76.19
395.903	82.19
396.127	104.19
396.352	94.19
396.576	98.19
396.801	104.19
397.025	115.19
397.249	98.19
397.474	76.19
397.698	69.19
397.922	83.19
398.147	79.19
398.371	71.19
398.595	83.19
398.82	85.19
399.044	97.19
399.268	87.19
399.492	84.19
399.717	82.19
399.941	67.19
400.165	79.19
400.389	79.19
400.613	72.19
400.837	86.19
401.062	80.19
401.286	64.19
401.51	80.19
401.734	74.19
401.958	82.19
402.182	97.19
402.406	84.19
402.63	88.19
402.854	74.19
403.078	87.19
403.302	78.19
403.526	85.19
403.75	92.19
403.974	87.19
404.198	91.19
404.422	128.19
404.645	126.19
404.869	117.19
405.093	102.19
405.317	89.19
405.541	90.19
405.765	78.19
405.988	88.19
406.212	79.19
406.436	71.19
406.66	81.19
406.883	73.19
407.107	87.19
407.331	83.19
407.555	76.19
407.778	72.19
408.002	81.19
408.226	87.19
408.449	61.19
408.673	70.19
408.896	69.19
409.12	94.19
409.344	81.19
409.567	79.19
409.791	95.19
410.014	55.19
410.238	74.19
410.461	77.19
410.685	76.19
410.908	76.19
411.132	88.19
411.355	66.19
411.578	95.19
411.802	82.19
412.025	83.19
412.249	76.19
412.472	68.19
412.695	76.19
412.919	62.19
413.142	80.19
413.365	79.19
413.589	72.19
413.812	81.19
414.035	73.19
414.258	94.19
414.482	79.19
414.705	87.19
414.928	85.19
415.151	73.19
415.374	78.19
415.597	71.19
415.821	87.19
416.044	83.19
416.267	94.19
416.49	75.19
416.713	76.19
416.936	79.19
417.159	80.19
417.382	65.19
417.605	76.19
417.828	80.19
418.051	81.19
418.274	87.19
418.497	82.19
418.72	71.19
418.943	88.19
419.166	73.19
419.389	84.19
419.611	73.19
419.834	74.19
420.057	84.19
420.28	88.19
420.503	76.19
420.726	75.19
420.948	72.19
421.171	84.19
421.394	83.19
421.617	80.19
421.839	87.19
422.062	92.19
422.285	102.19
422.507	140.19
422.73	178.19
422.953	162.19
423.175	116.19
423.398	95.19
423.621	93.19
423.843	85.19
424.066	73.19
424.288	96.19
424.511	68.19
424.733	79.19
424.956	84.19
425.178	82.19
425.401	92.19
425.623	79.19
425.846	64.19
426.068	72.19
426.291	80.19
426.513	83.19
426.735	83.19
426.958	80.19
427.18	86.19
427.402	88.19
427.625	73.19
427.847	66.19
428.069	98.19
428.292	118.19
428.514	95.19
428.736	94.19
428.958	100.19
429.181	96.19
429.403	89.19
429.625	80.19
429.847	96.19
430.069	106.19
430.292	121.19
430.514	118.19
430.736	103.19
430.958	92.19
431.18	80.19
431.402	87.19
431.624	84.19
431.846	81.19
432.068	101.19
432.29	76.19
432.512	83.19
432.734	76.19
432.956	80.19
433.178	77.19
433.4	78.19
433.622	88.19
433.844	90.19
434.066	86.19
434.287	75.19
434.509	70.19
434.731	71.19
434.953	83.19
435.175	92.19
435.397	84.19
435.618	68.19
435.84	71.19
436.062	80.19
436.284	82.19
436.505	75.19
436.727	85.19
436.949	81.19
437.17	91.19
437.392	73.19
437.614	79.19
437.835	69.19
438.057	70.19
438.278	73.19
438.5	94.19
438.721	80.19
438.943	76.19
439.165	89.19
439.386	90.19
439.608	80.19
439.829	72.19
440.05	76.19
440.272	78.19
440.493	79.19
440.715	81.19
440.936	88.19
441.158	86.19
441.379	80.19
441.6	77.19
441.822	79.19
442.043	76.19
442.264	87.19
442.486	108.19
442.707	114.19
442.928	98.19
443.149	92.19
443.371	96.19
443.592	141.19
443.813	118.19
444.034	79.19
444.255	79.19
444.476	77.19
444.698	88.19
444.919	86.19
445.14	137.19
445.361	142.19
445.582	162.19
445.803	125.19
446.024	104.19
446.245	85.19
446.466	74.19
446.687	94.19
446.908	81.19
447.129	85.19
447.35	75.19
447.571	77.19
447.792	77.19
448.013	78.19
448.234	73.19
448.455	87.19
448.675	77.19
448.896	71.19
449.117	78.19
449.338	70.19
449.559	87.19
449.779	94.19
450	86.19
450.221	67.19
450.442	79.19
450.662	68.19
450.883	73.19
451.104	65.19
451.324	79.19
451.545	70.19
451.766	68.19
451.986	72.19
452.207	77.19
452.428	81.19
452.648	79.19
452.869	80.19
453.089	78.19
453.31	75.19
453.53	78.19
453.751	86.19
453.971	86.19
454.192	74.19
454.412	73.19
454.633	87.19
454.853	83.19
455.073	77.19
455.294	80.19
455.514	90.19
455.734	74.19
455.955	71.19
456.175	85.19
456.395	67.19
456.616	70.19
456.836	81.19
457.056	64.19
457.276	67.19
457.497	74.19
457.717	82.19
457.937	78.19
458.157	81.19
458.377	94.19
458.598	97.19
458.818	89.19
459.038	64.19
459.258	69.19
459.478	79.19
459.698	85.19
459.918	84.19
460.138	78.19
460.358	83.19
460.578	81.19
460.798	102.19
461.018	93.19
461.238	84.19
461.458	72.19
461.678	73.19
461.898	78.19
462.118	86.19
462.338	72.19
462.558	84.19
462.777	67.19
462.997	84.19
463.217	78.19
463.437	74.19
463.657	84.19
463.876	73.19
464.096	78.19
464.316	98.19
464.536	68.19
464.755	79.19
464.975	87.19
465.195	64.19
465.414	68.19
465.634	77.19
465.854	84.19
466.073	65.19
466.293	89.19
466.512	81.19
466.732	79.19
466.951	98.19
467.171	85.19
467.391	79.19
467.61	78.19
467.829	76.19
468.049	85.19
468.268	83.19
468.488	89.19
468.707	87.19
468.927	68.19
469.146	91.19
469.365	77.19
469.585	88.19
469.804	96.19
470.023	83.19
470.243	88.19
470.462	82.19
470.681	67.19
470.901	89.19
471.12	78.19
471.339	79.19
471.558	87.19
471.777	73.19
471.997	70.19
472.216	81.19
472.435	84.19
472.654	88.19
472.873	87.19
473.092	73.19
473.311	80.19
473.53	78.19
473.749	82.19
473.968	73.19
474.187	65.19
474.406	73.19
474.625	74.19
474.844	76.19
475.063	80.19
475.282	66.19
475.501	87.19
475.72	77.19
475.939	77.19
476.158	76.19
476.377	76.19
476.596	64.19
476.814	87.19
477.033	94.19
477.252	80.19
477.471	79.19
477.69	63.19
477.908	76.19
478.127	72.19
478.346	69.19
478.564	84.19
478.783	78.19
479.002	71.19
479.22	68.19
479.439	82.19
479.658	82.19
479.876	98.19
480.095	78.19
480.313	86.19
480.532	71.19
480.751	82.19
480.969	81.19
481.188	89.19
481.406	88.19
481.624	89.19
481.843	79.19
482.061	83.19
482.28	66.19
482.498	85.19
482.717	89.19
482.935	73.19
483.153	89.19
483.372	98.19
483.59	93.19
483.808	64.19
484.027	77.19
484.245	65.19
484.463	84.19
484.681	78.19
484.9	81.19
485.118	82.19
485.336	75.19
485.554	86.19
485.772	75.19
485.99	73.19
486.209	80.19
486.427	64.19
486.645	73.19
486.863	78.19
487.081	80.19
487.299	90.19
487.517	82.19
487.735	88.19
487.953	100.19
488.171	96.19
488.389	96.19
488.607	87.19
488.825	80.19
489.043	81.19
489.261	79.19
489.479	76.19
489.696	82.19
489.914	82.19
490.132	63.19
490.35	73.19
490.568	87.19
490.786	86.19
491.003	66.19
491.221	92.19
491.439	94.19
491.657	85.19
491.874	96.19
492.092	80.19
492.31	73.19
492.527	84.19
492.745	96.19
492.963	78.19
493.18	87.19
493.398	79.19
493.615	81.19
493.833	80.19
494.05	73.19
494.268	69.19
494.485	88.19
494.703	76.19
494.92	70.19
495.138	88.19
495.355	90.19
495.573	78.19
495.79	65.19
496.008	88.19
496.225	85.19
496.442	89.19
496.66	91.19
496.877	94.19
497.094	84.19
497.312	88.19
497.529	88.19
497.746	86.19
497.963	71.19
498.181	86.19
498.398	86.19
498.615	79.19
498.832	71.19
499.049	73.19
499.267	85.19
499.484	85.19
499.701	79.19
499.918	89.19
500.135	84.19
500.352	77.19
500.569	84.19
500.786	85.19
501.003	81.19
501.22	81.19
501.437	69.19
501.654	75.19
501.871	90.19
502.088	73.19
502.305	89.19
502.522	80.19
502.739	88.19
502.956	83.19
503.172	74.19
503.389	81.19
503.606	65.19
503.823	83.19
504.04	81.19
504.256	86.19
504.473	91.19
504.69	74.19
504.907	75.19
505.123	87.19
505.34	79.19
505.557	81.19
505.773	80.19
505.99	84.19
506.207	87.19
506.423	79.19
506.64	81.19
506.856	74.19
507.073	85.19
507.289	81.19
507.506	87.19
507.722	60.19
507.939	92.19
508.155	93.19
508.372	81.19
508.588	67.19
508.805	67.19
509.021	82.19
509.238	84.19
509.454	83.19
509.67	81.19
509.887	85.19
510.103	81.19
510.319	79.19
510.536	77.19
510.752	86.19
510.968	86.19
511.184	71.19
511.401	71.19
511.617	77.19
511.833	71.19
512.049	74.19
512.265	79.19
512.481	76.19
512.698	80.19
512.914	82.19
513.13	74.19
513.346	78.19
513.562	81.19
513.778	85.19
513.994	89.19
514.21	89.19
514.426	81.19
514.642	88.19
514.858	65.19
515.074	78.19
515.29	88.19
515.506	86.19
515.721	90.19
515.937	85.19
516.153	73.19
516.369	83.19
516.585	82.19
516.801	83.19
517.016	72.19
517.232	77.19
517.448	78.19
517.664	86.19
517.879	84.19
518.095	83.19
518.311	73.19
518.527	90.19
518.742	76.19
518.958	98.19
519.173	105.19
519.389	74.19
519.605	71.19
519.82	68.19
