Data from Mixnoheat1_HRD10591_00011.txt Node
Date: Fri Dec 27 14:58:01 EST 2024
User: Yrep
Spectrometer: HR+D1059
Trigger mode: 1
Integration Time (sec): 1.000000E-1
Scans to average: 1
Electric dark correction enabled: true
Nonlinearity correction enabled: false
Boxcar width: 0
XAxis mode: Wavelengths
Number of Pixels in Spectrum: 2048
>>>>>Begin Spectral Data<<<<<
223.165	-11.62
223.4	-11.62
223.635	-11.62
223.869	-19.62
224.104	-25.62
224.338	-6.62
224.573	-28.62
224.808	-9.62
225.042	-14.62
225.277	-23.62
225.511	-10.62
225.746	-1.62
225.98	11.38
226.215	33.38
226.449	13.38
226.683	28.38
226.918	32.38
227.152	33.38
227.387	20.38
227.621	36.38
227.856	46.38
228.09	42.38
228.324	50.38
228.559	65.38
228.793	52.38
229.027	74.38
229.262	64.38
229.496	68.38
229.73	69.38
229.964	71.38
230.199	66.38
230.433	86.38
230.667	74.38
230.901	77.38
231.136	85.38
231.37	70.38
231.604	75.38
231.838	72.38
232.072	79.38
232.306	81.38
232.541	83.38
232.775	76.38
233.009	85.38
233.243	84.38
233.477	77.38
233.711	93.38
233.945	91.38
234.179	84.38
234.413	77.38
234.647	84.38
234.881	69.38
235.115	84.38
235.349	69.38
235.583	74.38
235.817	72.38
236.051	62.38
236.285	77.38
236.519	66.38
236.753	62.38
236.987	71.38
237.221	63.38
237.455	63.38
237.689	85.38
237.922	78.38
238.156	81.38
238.39	87.38
238.624	77.38
238.858	89.38
239.091	84.38
239.325	78.38
239.559	62.38
239.793	76.38
240.027	80.38
240.26	79.38
240.494	68.38
240.728	74.38
240.961	75.38
241.195	81.38
241.429	70.38
241.662	64.38
241.896	73.38
242.13	53.38
242.363	84.38
242.597	61.38
242.83	71.38
243.064	70.38
243.298	74.38
243.531	76.38
243.765	75.38
243.998	77.38
244.232	56.38
244.465	78.38
244.699	74.38
244.932	75.38
245.166	80.38
245.399	68.38
245.633	84.38
245.866	91.38
246.099	69.38
246.333	70.38
246.566	74.38
246.8	73.38
247.033	75.38
247.266	82.38
247.5	75.38
247.733	79.38
247.966	79.38
248.2	77.38
248.433	72.38
248.666	73.38
248.899	67.38
249.133	81.38
249.366	80.38
249.599	79.38
249.832	81.38
250.066	73.38
250.299	72.38
250.532	84.38
250.765	67.38
250.998	89.38
251.231	92.38
251.465	76.38
251.698	84.38
251.931	77.38
252.164	75.38
252.397	80.38
252.63	78.38
252.863	82.38
253.096	80.38
253.329	83.38
253.562	75.38
253.795	79.38
254.028	91.38
254.261	80.38
254.494	67.38
254.727	89.38
254.96	80.38
255.193	71.38
255.426	83.38
255.659	72.38
255.892	79.38
256.124	74.38
256.357	75.38
256.59	77.38
256.823	73.38
257.056	86.38
257.289	71.38
257.521	90.38
257.754	75.38
257.987	71.38
258.22	77.38
258.452	64.38
258.685	77.38
258.918	98.38
259.151	69.38
259.383	77.38
259.616	76.38
259.849	77.38
260.081	87.38
260.314	86.38
260.547	83.38
260.779	76.38
261.012	77.38
261.244	67.38
261.477	93.38
261.71	85.38
261.942	69.38
262.175	87.38
262.407	74.38
262.64	74.38
262.872	78.38
263.105	98.38
263.337	75.38
263.57	91.38
263.802	97.38
264.035	78.38
264.267	86.38
264.499	72.38
264.732	78.38
264.964	79.38
265.197	94.38
265.429	103.38
265.661	83.38
265.894	75.38
266.126	82.38
266.358	77.38
266.591	102.38
266.823	79.38
267.055	77.38
267.287	88.38
267.52	61.38
267.752	81.38
267.984	81.38
268.216	85.38
268.448	87.38
268.681	69.38
268.913	86.38
269.145	81.38
269.377	86.38
269.609	85.38
269.841	92.38
270.073	90.38
270.306	83.38
270.538	75.38
270.77	81.38
271.002	89.38
271.234	88.38
271.466	87.38
271.698	77.38
271.93	87.38
272.162	83.38
272.394	87.38
272.626	68.38
272.858	78.38
273.09	76.38
273.322	86.38
273.553	83.38
273.785	91.38
274.017	93.38
274.249	77.38
274.481	78.38
274.713	88.38
274.945	91.38
275.176	81.38
275.408	78.38
275.64	80.38
275.872	86.38
276.104	99.38
276.335	86.38
276.567	81.38
276.799	66.38
277.031	72.38
277.262	87.38
277.494	86.38
277.726	81.38
277.957	76.38
278.189	80.38
278.421	70.38
278.652	82.38
278.884	94.38
279.115	75.38
279.347	81.38
279.579	85.38
279.81	85.38
280.042	83.38
280.273	73.38
280.505	82.38
280.736	90.38
280.968	82.38
281.199	82.38
281.431	84.38
281.662	81.38
281.894	76.38
282.125	81.38
282.356	75.38
282.588	93.38
282.819	78.38
283.051	73.38
283.282	77.38
283.513	91.38
283.745	103.38
283.976	79.38
284.207	75.38
284.439	88.38
284.67	71.38
284.901	87.38
285.132	82.38
285.364	90.38
285.595	74.38
285.826	82.38
286.057	78.38
286.288	85.38
286.52	76.38
286.751	99.38
286.982	84.38
287.213	77.38
287.444	90.38
287.675	72.38
287.906	81.38
288.138	85.38
288.369	95.38
288.6	74.38
288.831	87.38
289.062	87.38
289.293	81.38
289.524	99.38
289.755	93.38
289.986	87.38
290.217	86.38
290.448	92.38
290.679	90.38
290.91	74.38
291.141	90.38
291.371	100.38
291.602	77.38
291.833	91.38
292.064	86.38
292.295	90.38
292.526	90.38
292.757	68.38
292.987	87.38
293.218	73.38
293.449	100.38
293.68	78.38
293.91	79.38
294.141	85.38
294.372	78.38
294.603	87.38
294.833	82.38
295.064	87.38
295.295	92.38
295.525	75.38
295.756	78.38
295.987	90.38
296.217	76.38
296.448	87.38
296.679	91.38
296.909	90.38
297.14	100.38
297.37	88.38
297.601	71.38
297.831	92.38
298.062	85.38
298.292	83.38
298.523	97.38
298.753	87.38
298.984	71.38
299.214	83.38
299.445	84.38
299.675	86.38
299.905	90.38
300.136	84.38
300.366	79.38
300.597	86.38
300.827	79.38
301.057	77.38
301.288	83.38
301.518	85.38
301.748	81.38
301.979	113.38
302.209	90.38
302.439	75.38
302.669	83.38
302.9	84.38
303.13	87.38
303.36	87.38
303.59	80.38
303.82	93.38
304.051	90.38
304.281	87.38
304.511	85.38
304.741	85.38
304.971	86.38
305.201	90.38
305.431	90.38
305.661	83.38
305.891	86.38
306.121	73.38
306.352	82.38
306.582	71.38
306.812	86.38
307.042	78.38
307.272	88.38
307.502	87.38
307.731	95.38
307.961	90.38
308.191	109.38
308.421	84.38
308.651	93.38
308.881	74.38
309.111	72.38
309.341	90.38
309.571	85.38
309.8	90.38
310.03	73.38
310.26	80.38
310.49	82.38
310.72	93.38
310.949	84.38
311.179	85.38
311.409	82.38
311.639	92.38
311.868	80.38
312.098	93.38
312.328	82.38
312.557	86.38
312.787	77.38
313.017	94.38
313.246	91.38
313.476	86.38
313.706	94.38
313.935	82.38
314.165	88.38
314.394	76.38
314.624	77.38
314.853	82.38
315.083	81.38
315.312	89.38
315.542	88.38
315.771	86.38
316.001	88.38
316.23	71.38
316.46	86.38
316.689	88.38
316.919	79.38
317.148	91.38
317.377	87.38
317.607	91.38
317.836	71.38
318.065	94.38
318.295	79.38
318.524	77.38
318.753	84.38
318.983	95.38
319.212	77.38
319.441	70.38
319.67	90.38
319.9	94.38
320.129	82.38
320.358	75.38
320.587	92.38
320.816	92.38
321.046	82.38
321.275	82.38
321.504	77.38
321.733	88.38
321.962	83.38
322.191	86.38
322.42	86.38
322.649	88.38
322.878	92.38
323.108	78.38
323.337	94.38
323.566	79.38
323.795	87.38
324.024	76.38
324.253	91.38
324.482	84.38
324.71	98.38
324.939	87.38
325.168	94.38
325.397	64.38
325.626	78.38
325.855	82.38
326.084	80.38
326.313	83.38
326.542	86.38
326.77	91.38
326.999	80.38
327.228	81.38
327.457	81.38
327.686	84.38
327.914	80.38
328.143	76.38
328.372	77.38
328.6	99.38
328.829	86.38
329.058	93.38
329.287	81.38
329.515	72.38
329.744	89.38
329.972	87.38
330.201	69.38
330.43	87.38
330.658	84.38
330.887	72.38
331.115	77.38
331.344	83.38
331.572	74.38
331.801	79.38
332.03	69.38
332.258	92.38
332.486	81.38
332.715	87.38
332.943	78.38
333.172	77.38
333.4	92.38
333.629	97.38
333.857	84.38
334.085	74.38
334.314	85.38
334.542	83.38
334.771	82.38
334.999	79.38
335.227	83.38
335.455	95.38
335.684	102.38
335.912	86.38
336.14	75.38
336.369	73.38
336.597	87.38
336.825	85.38
337.053	87.38
337.281	87.38
337.51	81.38
337.738	83.38
337.966	72.38
338.194	80.38
338.422	81.38
338.65	79.38
338.878	81.38
339.106	77.38
339.334	97.38
339.562	68.38
339.79	79.38
340.018	75.38
340.246	90.38
340.474	81.38
340.702	77.38
340.93	82.38
341.158	80.38
341.386	84.38
341.614	74.38
341.842	83.38
342.07	85.38
342.298	89.38
342.526	83.38
342.754	90.38
342.981	81.38
343.209	78.38
343.437	97.38
343.665	75.38
343.893	90.38
344.12	82.38
344.348	84.38
344.576	99.38
344.804	91.38
345.031	88.38
345.259	86.38
345.487	76.38
345.714	73.38
345.942	87.38
346.17	86.38
346.397	74.38
346.625	88.38
346.853	94.38
347.08	72.38
347.308	91.38
347.535	93.38
347.763	92.38
347.99	88.38
348.218	86.38
348.445	88.38
348.673	93.38
348.9	88.38
349.128	91.38
349.355	82.38
349.583	93.38
349.81	88.38
350.037	88.38
350.265	89.38
350.492	78.38
350.72	87.38
350.947	80.38
351.174	91.38
351.402	87.38
351.629	73.38
351.856	78.38
352.083	85.38
352.311	97.38
352.538	81.38
352.765	76.38
352.992	83.38
353.22	88.38
353.447	89.38
353.674	74.38
353.901	68.38
354.128	71.38
354.355	74.38
354.583	88.38
354.81	76.38
355.037	76.38
355.264	86.38
355.491	95.38
355.718	87.38
355.945	75.38
356.172	80.38
356.399	74.38
356.626	72.38
356.853	99.38
357.08	90.38
357.307	74.38
357.534	82.38
357.761	82.38
357.988	83.38
358.215	78.38
358.441	88.38
358.668	94.38
358.895	98.38
359.122	77.38
359.349	85.38
359.576	87.38
359.802	76.38
360.029	86.38
360.256	85.38
360.483	87.38
360.709	73.38
360.936	90.38
361.163	80.38
361.39	81.38
361.616	86.38
361.843	88.38
362.07	95.38
362.296	89.38
362.523	68.38
362.749	90.38
362.976	81.38
363.203	81.38
363.429	82.38
363.656	76.38
363.882	85.38
364.109	81.38
364.335	87.38
364.562	93.38
364.788	92.38
365.015	80.38
365.241	81.38
365.468	80.38
365.694	77.38
365.92	94.38
366.147	74.38
366.373	81.38
366.599	74.38
366.826	76.38
367.052	77.38
367.278	81.38
367.505	84.38
367.731	77.38
367.957	88.38
368.184	84.38
368.41	87.38
368.636	82.38
368.862	92.38
369.089	72.38
369.315	77.38
369.541	91.38
369.767	89.38
369.993	77.38
370.219	91.38
370.445	85.38
370.672	90.38
370.898	83.38
371.124	91.38
371.35	78.38
371.576	97.38
371.802	81.38
372.028	85.38
372.254	92.38
372.48	86.38
372.706	98.38
372.932	87.38
373.158	83.38
373.384	85.38
373.61	77.38
373.835	80.38
374.061	77.38
374.287	94.38
374.513	86.38
374.739	89.38
374.965	85.38
375.191	85.38
375.416	84.38
375.642	86.38
375.868	90.38
376.094	77.38
376.319	90.38
376.545	82.38
376.771	91.38
376.997	84.38
377.222	86.38
377.448	90.38
377.674	82.38
377.899	69.38
378.125	78.38
378.35	90.38
378.576	73.38
378.802	81.38
379.027	92.38
379.253	78.38
379.478	78.38
379.704	73.38
379.929	91.38
380.155	88.38
380.38	83.38
380.606	90.38
380.831	81.38
381.057	83.38
381.282	78.38
381.507	83.38
381.733	95.38
381.958	84.38
382.184	97.38
382.409	84.38
382.634	93.38
382.86	89.38
383.085	78.38
383.31	89.38
383.535	81.38
383.761	93.38
383.986	83.38
384.211	83.38
384.436	91.38
384.662	83.38
384.887	79.38
385.112	69.38
385.337	97.38
385.562	76.38
385.787	91.38
386.013	87.38
386.238	82.38
386.463	85.38
386.688	90.38
386.913	80.38
387.138	83.38
387.363	62.38
387.588	82.38
387.813	68.38
388.038	92.38
388.263	82.38
388.488	74.38
388.713	71.38
388.938	84.38
389.163	79.38
389.387	91.38
389.612	86.38
389.837	86.38
390.062	84.38
390.287	77.38
390.512	67.38
390.736	93.38
390.961	71.38
391.186	82.38
391.411	89.38
391.636	87.38
391.86	85.38
392.085	88.38
392.31	81.38
392.534	87.38
392.759	78.38
392.984	86.38
393.208	91.38
393.433	106.38
393.658	92.38
393.882	82.38
394.107	87.38
394.331	99.38
394.556	89.38
394.78	82.38
395.005	90.38
395.229	89.38
395.454	94.38
395.678	87.38
395.903	91.38
396.127	86.38
396.352	110.38
396.576	91.38
396.801	90.38
397.025	112.38
397.249	91.38
397.474	107.38
397.698	87.38
397.922	77.38
398.147	82.38
398.371	95.38
398.595	84.38
398.82	95.38
399.044	88.38
399.268	89.38
399.492	85.38
399.717	77.38
399.941	85.38
400.165	85.38
400.389	86.38
400.613	89.38
400.837	75.38
401.062	78.38
401.286	98.38
401.51	89.38
401.734	83.38
401.958	86.38
402.182	92.38
402.406	90.38
402.63	83.38
402.854	82.38
403.078	77.38
403.302	71.38
403.526	78.38
403.75	89.38
403.974	81.38
404.198	86.38
404.422	119.38
404.645	114.38
404.869	111.38
405.093	104.38
405.317	87.38
405.541	81.38
405.765	78.38
405.988	81.38
406.212	98.38
406.436	86.38
406.66	89.38
406.883	90.38
407.107	88.38
407.331	91.38
407.555	81.38
407.778	77.38
408.002	89.38
408.226	82.38
408.449	83.38
408.673	95.38
408.896	76.38
409.12	97.38
409.344	69.38
409.567	75.38
409.791	83.38
410.014	85.38
410.238	82.38
410.461	83.38
410.685	88.38
410.908	72.38
411.132	90.38
411.355	90.38
411.578	91.38
411.802	71.38
412.025	77.38
412.249	76.38
412.472	75.38
412.695	93.38
412.919	84.38
413.142	70.38
413.365	74.38
413.589	84.38
413.812	78.38
414.035	84.38
414.258	80.38
414.482	76.38
414.705	81.38
414.928	89.38
415.151	77.38
415.374	76.38
415.597	91.38
415.821	83.38
416.044	79.38
416.267	74.38
416.49	85.38
416.713	91.38
416.936	82.38
417.159	82.38
417.382	98.38
417.605	78.38
417.828	86.38
418.051	87.38
418.274	88.38
418.497	82.38
418.72	92.38
418.943	88.38
419.166	66.38
419.389	79.38
419.611	84.38
419.834	82.38
420.057	87.38
420.28	76.38
420.503	81.38
420.726	75.38
420.948	81.38
421.171	90.38
421.394	75.38
421.617	86.38
421.839	94.38
422.062	91.38
422.285	100.38
422.507	115.38
422.73	142.38
422.953	143.38
423.175	112.38
423.398	71.38
423.621	88.38
423.843	94.38
424.066	82.38
424.288	99.38
424.511	77.38
424.733	75.38
424.956	81.38
425.178	82.38
425.401	83.38
425.623	71.38
425.846	81.38
426.068	77.38
426.291	90.38
426.513	82.38
426.735	89.38
426.958	81.38
427.18	79.38
427.402	84.38
427.625	73.38
427.847	86.38
428.069	72.38
428.292	94.38
428.514	94.38
428.736	100.38
428.958	93.38
429.181	90.38
429.403	61.38
429.625	75.38
429.847	92.38
430.069	107.38
430.292	102.38
430.514	85.38
430.736	71.38
430.958	101.38
431.18	83.38
431.402	87.38
431.624	84.38
431.846	102.38
432.068	83.38
432.29	88.38
432.512	98.38
432.734	93.38
432.956	85.38
433.178	80.38
433.4	93.38
433.622	94.38
433.844	71.38
434.066	87.38
434.287	74.38
434.509	85.38
434.731	79.38
434.953	87.38
435.175	79.38
435.397	97.38
435.618	87.38
435.84	87.38
436.062	73.38
436.284	91.38
436.505	76.38
436.727	78.38
436.949	78.38
437.17	84.38
437.392	94.38
437.614	87.38
437.835	85.38
438.057	93.38
438.278	88.38
438.5	80.38
438.721	91.38
438.943	97.38
439.165	85.38
439.386	99.38
439.608	90.38
439.829	90.38
440.05	76.38
440.272	77.38
440.493	71.38
440.715	101.38
440.936	67.38
441.158	77.38
441.379	82.38
441.6	98.38
441.822	73.38
442.043	91.38
442.264	93.38
442.486	105.38
442.707	111.38
442.928	103.38
443.149	97.38
443.371	103.38
443.592	99.38
443.813	101.38
444.034	96.38
444.255	93.38
444.476	82.38
444.698	92.38
444.919	90.38
445.14	131.38
445.361	113.38
445.582	120.38
445.803	107.38
446.024	94.38
446.245	90.38
446.466	86.38
446.687	89.38
446.908	87.38
447.129	91.38
447.35	84.38
447.571	75.38
447.792	69.38
448.013	68.38
448.234	91.38
448.455	94.38
448.675	84.38
448.896	69.38
449.117	85.38
449.338	82.38
449.559	84.38
449.779	91.38
450	75.38
450.221	81.38
450.442	71.38
450.662	82.38
450.883	87.38
451.104	84.38
451.324	76.38
451.545	83.38
451.766	84.38
451.986	62.38
452.207	85.38
452.428	89.38
452.648	79.38
452.869	90.38
453.089	76.38
453.31	78.38
453.53	88.38
453.751	97.38
453.971	68.38
454.192	93.38
454.412	72.38
454.633	81.38
454.853	83.38
455.073	78.38
455.294	85.38
455.514	97.38
455.734	73.38
455.955	88.38
456.175	79.38
456.395	91.38
456.616	102.38
456.836	92.38
457.056	85.38
457.276	69.38
457.497	89.38
457.717	85.38
457.937	86.38
458.157	85.38
458.377	76.38
458.598	67.38
458.818	89.38
459.038	87.38
459.258	62.38
459.478	95.38
459.698	79.38
459.918	84.38
460.138	79.38
460.358	98.38
460.578	93.38
460.798	99.38
461.018	95.38
461.238	94.38
461.458	89.38
461.678	66.38
461.898	99.38
462.118	89.38
462.338	91.38
462.558	90.38
462.777	85.38
462.997	77.38
463.217	96.38
463.437	83.38
463.657	81.38
463.876	79.38
464.096	70.38
464.316	72.38
464.536	74.38
464.755	60.38
464.975	75.38
465.195	83.38
465.414	82.38
465.634	77.38
465.854	94.38
466.073	80.38
466.293	74.38
466.512	75.38
466.732	75.38
466.951	87.38
467.171	78.38
467.391	83.38
467.61	85.38
467.829	73.38
468.049	81.38
468.268	82.38
468.488	90.38
468.707	76.38
468.927	72.38
469.146	75.38
469.365	70.38
469.585	83.38
469.804	92.38
470.023	85.38
470.243	86.38
470.462	83.38
470.681	81.38
470.901	86.38
471.12	87.38
471.339	84.38
471.558	86.38
471.777	86.38
471.997	82.38
472.216	76.38
472.435	81.38
472.654	82.38
472.873	90.38
473.092	83.38
473.311	80.38
473.53	85.38
473.749	91.38
473.968	77.38
474.187	85.38
474.406	79.38
474.625	78.38
474.844	86.38
475.063	72.38
475.282	85.38
475.501	85.38
475.72	82.38
475.939	88.38
476.158	91.38
476.377	79.38
476.596	77.38
476.814	90.38
477.033	76.38
477.252	93.38
477.471	81.38
477.69	90.38
477.908	82.38
478.127	90.38
478.346	75.38
478.564	100.38
478.783	85.38
479.002	83.38
479.22	83.38
479.439	89.38
479.658	85.38
479.876	85.38
480.095	73.38
480.313	69.38
480.532	87.38
480.751	90.38
480.969	92.38
481.188	91.38
481.406	94.38
481.624	83.38
481.843	78.38
482.061	82.38
482.28	83.38
482.498	85.38
482.717	83.38
482.935	68.38
483.153	99.38
483.372	91.38
483.59	80.38
483.808	88.38
484.027	86.38
484.245	85.38
484.463	91.38
484.681	84.38
484.9	86.38
485.118	89.38
485.336	92.38
485.554	81.38
485.772	75.38
485.99	91.38
486.209	79.38
486.427	75.38
486.645	90.38
486.863	92.38
487.081	99.38
487.299	91.38
487.517	91.38
487.735	89.38
487.953	92.38
488.171	86.38
488.389	86.38
488.607	79.38
488.825	78.38
489.043	74.38
489.261	82.38
489.479	97.38
489.696	83.38
489.914	79.38
490.132	86.38
490.35	90.38
490.568	78.38
490.786	98.38
491.003	84.38
491.221	81.38
491.439	84.38
491.657	77.38
491.874	93.38
492.092	104.38
492.31	88.38
492.527	93.38
492.745	73.38
492.963	72.38
493.18	90.38
493.398	87.38
493.615	86.38
493.833	90.38
494.05	86.38
494.268	83.38
494.485	83.38
494.703	80.38
494.92	88.38
495.138	99.38
495.355	75.38
495.573	79.38
495.79	97.38
496.008	93.38
496.225	77.38
496.442	84.38
496.66	82.38
496.877	85.38
497.094	93.38
497.312	99.38
497.529	87.38
497.746	86.38
497.963	77.38
498.181	83.38
498.398	87.38
498.615	86.38
498.832	85.38
499.049	87.38
499.267	83.38
499.484	98.38
499.701	97.38
499.918	81.38
500.135	89.38
500.352	83.38
500.569	76.38
500.786	81.38
501.003	99.38
501.22	89.38
501.437	86.38
501.654	80.38
501.871	75.38
502.088	95.38
502.305	88.38
502.522	72.38
502.739	93.38
502.956	79.38
503.172	81.38
503.389	89.38
503.606	89.38
503.823	89.38
504.04	80.38
504.256	96.38
504.473	101.38
504.69	106.38
504.907	79.38
505.123	79.38
505.34	84.38
505.557	82.38
505.773	94.38
505.99	101.38
506.207	85.38
506.423	88.38
506.64	90.38
506.856	91.38
507.073	89.38
507.289	81.38
507.506	84.38
507.722	65.38
507.939	89.38
508.155	85.38
508.372	88.38
508.588	79.38
508.805	76.38
509.021	83.38
509.238	85.38
509.454	78.38
509.67	91.38
509.887	88.38
510.103	81.38
510.319	90.38
510.536	74.38
510.752	84.38
510.968	81.38
511.184	93.38
511.401	83.38
511.617	83.38
511.833	90.38
512.049	86.38
512.265	91.38
512.481	76.38
512.698	75.38
512.914	72.38
513.13	75.38
513.346	78.38
513.562	97.38
513.778	78.38
513.994	77.38
514.21	87.38
514.426	88.38
514.642	76.38
514.858	84.38
515.074	77.38
515.29	87.38
515.506	98.38
515.721	96.38
515.937	85.38
516.153	88.38
516.369	74.38
516.585	78.38
516.801	79.38
517.016	87.38
517.232	91.38
517.448	78.38
517.664	83.38
517.879	90.38
518.095	84.38
518.311	82.38
518.527	68.38
518.742	87.38
518.958	83.38
519.173	97.38
519.389	83.38
519.605	86.38
