Data from Mixnoheat1_HRD10591_00012.txt Node
Date: Fri Dec 27 14:58:02 EST 2024
User: Yrep
Spectrometer: HR+D1059
Trigger mode: 1
Integration Time (sec): 1.000000E-1
Scans to average: 1
Electric dark correction enabled: true
Nonlinearity correction enabled: false
Boxcar width: 0
XAxis mode: Wavelengths
Number of Pixels in Spectrum: 2048
>>>>>Begin Spectral Data<<<<<
223.165	-17.19
223.4	-17.19
223.635	-17.19
223.869	-24.19
224.104	-16.19
224.338	-11.19
224.573	-27.19
224.808	-6.19
225.042	-6.19
225.277	5.81
225.511	10.81
225.746	6.81
225.98	0.81
226.215	7.81
226.449	18.81
226.683	11.81
226.918	19.81
227.152	25.81
227.387	30.81
227.621	29.81
227.856	38.81
228.09	42.81
228.324	53.81
228.559	55.81
228.793	57.81
229.027	62.81
229.262	66.81
229.496	59.81
229.73	59.81
229.964	56.81
230.199	75.81
230.433	72.81
230.667	85.81
230.901	83.81
231.136	73.81
231.37	72.81
231.604	74.81
231.838	78.81
232.072	64.81
232.306	71.81
232.541	98.81
232.775	77.81
233.009	71.81
233.243	63.81
233.477	83.81
233.711	77.81
233.945	84.81
234.179	81.81
234.413	59.81
234.647	89.81
234.881	78.81
235.115	77.81
235.349	75.81
235.583	62.81
235.817	71.81
236.051	74.81
236.285	68.81
236.519	74.81
236.753	74.81
236.987	76.81
237.221	66.81
237.455	80.81
237.689	72.81
237.922	85.81
238.156	80.81
238.39	69.81
238.624	66.81
238.858	78.81
239.091	84.81
239.325	79.81
239.559	79.81
239.793	80.81
240.027	72.81
240.26	74.81
240.494	72.81
240.728	78.81
240.961	78.81
241.195	64.81
241.429	77.81
241.662	67.81
241.896	68.81
242.13	82.81
242.363	88.81
242.597	78.81
242.83	77.81
243.064	67.81
243.298	78.81
243.531	76.81
243.765	73.81
243.998	71.81
244.232	94.81
244.465	78.81
244.699	72.81
244.932	69.81
245.166	79.81
245.399	75.81
245.633	83.81
245.866	76.81
246.099	75.81
246.333	68.81
246.566	73.81
246.8	86.81
247.033	69.81
247.266	91.81
247.5	81.81
247.733	73.81
247.966	83.81
248.2	76.81
248.433	61.81
248.666	70.81
248.899	80.81
249.133	78.81
249.366	82.81
249.599	73.81
249.832	91.81
250.066	76.81
250.299	70.81
250.532	88.81
250.765	70.81
250.998	80.81
251.231	77.81
251.465	74.81
251.698	80.81
251.931	87.81
252.164	75.81
252.397	78.81
252.63	81.81
252.863	89.81
253.096	91.81
253.329	96.81
253.562	68.81
253.795	74.81
254.028	67.81
254.261	83.81
254.494	81.81
254.727	97.81
254.96	75.81
255.193	79.81
255.426	66.81
255.659	92.81
255.892	76.81
256.124	69.81
256.357	68.81
256.59	76.81
256.823	71.81
257.056	58.81
257.289	82.81
257.521	58.81
257.754	64.81
257.987	85.81
258.22	91.81
258.452	77.81
258.685	77.81
258.918	83.81
259.151	78.81
259.383	69.81
259.616	78.81
259.849	80.81
260.081	84.81
260.314	70.81
260.547	87.81
260.779	80.81
261.012	79.81
261.244	89.81
261.477	65.81
261.71	84.81
261.942	83.81
262.175	72.81
262.407	82.81
262.64	75.81
262.872	76.81
263.105	79.81
263.337	84.81
263.57	71.81
263.802	74.81
264.035	75.81
264.267	90.81
264.499	79.81
264.732	69.81
264.964	77.81
265.197	85.81
265.429	73.81
265.661	61.81
265.894	78.81
266.126	70.81
266.358	79.81
266.591	75.81
266.823	85.81
267.055	86.81
267.287	72.81
267.52	77.81
267.752	86.81
267.984	82.81
268.216	78.81
268.448	75.81
268.681	71.81
268.913	78.81
269.145	73.81
269.377	86.81
269.609	90.81
269.841	79.81
270.073	74.81
270.306	75.81
270.538	80.81
270.77	79.81
271.002	78.81
271.234	70.81
271.466	72.81
271.698	78.81
271.93	79.81
272.162	75.81
272.394	69.81
272.626	86.81
272.858	78.81
273.09	79.81
273.322	78.81
273.553	75.81
273.785	80.81
274.017	77.81
274.249	88.81
274.481	79.81
274.713	85.81
274.945	79.81
275.176	76.81
275.408	88.81
275.64	78.81
275.872	79.81
276.104	81.81
276.335	82.81
276.567	84.81
276.799	71.81
277.031	83.81
277.262	68.81
277.494	100.81
277.726	87.81
277.957	91.81
278.189	81.81
278.421	75.81
278.652	78.81
278.884	84.81
279.115	83.81
279.347	83.81
279.579	78.81
279.81	80.81
280.042	86.81
280.273	84.81
280.505	74.81
280.736	76.81
280.968	90.81
281.199	73.81
281.431	83.81
281.662	81.81
281.894	78.81
282.125	88.81
282.356	85.81
282.588	92.81
282.819	91.81
283.051	85.81
283.282	72.81
283.513	73.81
283.745	79.81
283.976	72.81
284.207	89.81
284.439	84.81
284.67	81.81
284.901	79.81
285.132	102.81
285.364	78.81
285.595	84.81
285.826	91.81
286.057	88.81
286.288	71.81
286.52	86.81
286.751	77.81
286.982	75.81
287.213	87.81
287.444	86.81
287.675	82.81
287.906	75.81
288.138	74.81
288.369	82.81
288.6	91.81
288.831	76.81
289.062	103.81
289.293	84.81
289.524	80.81
289.755	85.81
289.986	75.81
290.217	72.81
290.448	90.81
290.679	91.81
290.91	101.81
291.141	72.81
291.371	82.81
291.602	84.81
291.833	68.81
292.064	87.81
292.295	89.81
292.526	94.81
292.757	80.81
292.987	84.81
293.218	87.81
293.449	81.81
293.68	102.81
293.91	66.81
294.141	70.81
294.372	75.81
294.603	67.81
294.833	71.81
295.064	90.81
295.295	91.81
295.525	76.81
295.756	87.81
295.987	72.81
296.217	82.81
296.448	85.81
296.679	83.81
296.909	74.81
297.14	75.81
297.37	82.81
297.601	88.81
297.831	88.81
298.062	80.81
298.292	86.81
298.523	84.81
298.753	84.81
298.984	90.81
299.214	89.81
299.445	83.81
299.675	85.81
299.905	90.81
300.136	93.81
300.366	78.81
300.597	79.81
300.827	85.81
301.057	98.81
301.288	91.81
301.518	77.81
301.748	87.81
301.979	105.81
302.209	82.81
302.439	80.81
302.669	73.81
302.9	82.81
303.13	77.81
303.36	81.81
303.59	90.81
303.82	76.81
304.051	92.81
304.281	81.81
304.511	86.81
304.741	83.81
304.971	71.81
305.201	100.81
305.431	89.81
305.661	86.81
305.891	89.81
306.121	78.81
306.352	70.81
306.582	84.81
306.812	96.81
307.042	94.81
307.272	91.81
307.502	87.81
307.731	82.81
307.961	76.81
308.191	86.81
308.421	88.81
308.651	84.81
308.881	90.81
309.111	88.81
309.341	83.81
309.571	72.81
309.8	72.81
310.03	82.81
310.26	78.81
310.49	63.81
310.72	74.81
310.949	66.81
311.179	71.81
311.409	71.81
311.639	96.81
311.868	75.81
312.098	79.81
312.328	91.81
312.557	85.81
312.787	86.81
313.017	83.81
313.246	88.81
313.476	98.81
313.706	91.81
313.935	92.81
314.165	85.81
314.394	77.81
314.624	87.81
314.853	88.81
315.083	84.81
315.312	90.81
315.542	82.81
315.771	75.81
316.001	75.81
316.23	75.81
316.46	84.81
316.689	88.81
316.919	71.81
317.148	85.81
317.377	98.81
317.607	76.81
317.836	87.81
318.065	89.81
318.295	79.81
318.524	93.81
318.753	88.81
318.983	80.81
319.212	87.81
319.441	83.81
319.67	87.81
319.9	89.81
320.129	86.81
320.358	97.81
320.587	90.81
320.816	91.81
321.046	81.81
321.275	89.81
321.504	90.81
321.733	85.81
321.962	86.81
322.191	76.81
322.42	84.81
322.649	83.81
322.878	84.81
323.108	83.81
323.337	80.81
323.566	85.81
323.795	82.81
324.024	78.81
324.253	84.81
324.482	73.81
324.71	83.81
324.939	67.81
325.168	66.81
325.397	83.81
325.626	95.81
325.855	82.81
326.084	73.81
326.313	86.81
326.542	90.81
326.77	95.81
326.999	83.81
327.228	79.81
327.457	77.81
327.686	71.81
327.914	97.81
328.143	85.81
328.372	96.81
328.6	90.81
328.829	75.81
329.058	86.81
329.287	75.81
329.515	91.81
329.744	87.81
329.972	76.81
330.201	79.81
330.43	77.81
330.658	78.81
330.887	94.81
331.115	78.81
331.344	86.81
331.572	93.81
331.801	103.81
332.03	91.81
332.258	78.81
332.486	85.81
332.715	87.81
332.943	63.81
333.172	86.81
333.4	92.81
333.629	88.81
333.857	68.81
334.085	82.81
334.314	81.81
334.542	89.81
334.771	79.81
334.999	80.81
335.227	75.81
335.455	86.81
335.684	98.81
335.912	80.81
336.14	73.81
336.369	71.81
336.597	88.81
336.825	78.81
337.053	78.81
337.281	75.81
337.51	88.81
337.738	80.81
337.966	82.81
338.194	83.81
338.422	77.81
338.65	83.81
338.878	73.81
339.106	93.81
339.334	86.81
339.562	86.81
339.79	90.81
340.018	89.81
340.246	78.81
340.474	81.81
340.702	80.81
340.93	72.81
341.158	76.81
341.386	68.81
341.614	76.81
341.842	86.81
342.07	89.81
342.298	77.81
342.526	87.81
342.754	95.81
342.981	88.81
343.209	82.81
343.437	90.81
343.665	82.81
343.893	90.81
344.12	94.81
344.348	82.81
344.576	87.81
344.804	87.81
345.031	65.81
345.259	86.81
345.487	80.81
345.714	72.81
345.942	71.81
346.17	81.81
346.397	77.81
346.625	75.81
346.853	81.81
347.08	96.81
347.308	84.81
347.535	91.81
347.763	75.81
347.99	84.81
348.218	72.81
348.445	70.81
348.673	85.81
348.9	77.81
349.128	80.81
349.355	67.81
349.583	75.81
349.81	74.81
350.037	82.81
350.265	84.81
350.492	87.81
350.72	78.81
350.947	94.81
351.174	91.81
351.402	76.81
351.629	82.81
351.856	81.81
352.083	74.81
352.311	78.81
352.538	76.81
352.765	83.81
352.992	94.81
353.22	78.81
353.447	75.81
353.674	67.81
353.901	77.81
354.128	86.81
354.355	85.81
354.583	99.81
354.81	97.81
355.037	93.81
355.264	76.81
355.491	88.81
355.718	74.81
355.945	88.81
356.172	91.81
356.399	75.81
356.626	89.81
356.853	83.81
357.08	90.81
357.307	88.81
357.534	80.81
357.761	87.81
357.988	93.81
358.215	89.81
358.441	88.81
358.668	79.81
358.895	86.81
359.122	86.81
359.349	79.81
359.576	82.81
359.802	87.81
360.029	84.81
360.256	97.81
360.483	85.81
360.709	78.81
360.936	93.81
361.163	90.81
361.39	75.81
361.616	81.81
361.843	80.81
362.07	91.81
362.296	83.81
362.523	89.81
362.749	89.81
362.976	94.81
363.203	102.81
363.429	91.81
363.656	82.81
363.882	80.81
364.109	87.81
364.335	80.81
364.562	81.81
364.788	87.81
365.015	81.81
365.241	78.81
365.468	89.81
365.694	75.81
365.92	91.81
366.147	83.81
366.373	85.81
366.599	75.81
366.826	79.81
367.052	92.81
367.278	90.81
367.505	74.81
367.731	82.81
367.957	81.81
368.184	84.81
368.41	79.81
368.636	85.81
368.862	91.81
369.089	75.81
369.315	85.81
369.541	86.81
369.767	81.81
369.993	70.81
370.219	94.81
370.445	82.81
370.672	82.81
370.898	80.81
371.124	75.81
371.35	79.81
371.576	82.81
371.802	88.81
372.028	91.81
372.254	71.81
372.48	89.81
372.706	75.81
372.932	94.81
373.158	83.81
373.384	84.81
373.61	96.81
373.835	91.81
374.061	79.81
374.287	60.81
374.513	79.81
374.739	79.81
374.965	77.81
375.191	75.81
375.416	71.81
375.642	95.81
375.868	88.81
376.094	77.81
376.319	83.81
376.545	84.81
376.771	80.81
376.997	64.81
377.222	82.81
377.448	86.81
377.674	74.81
377.899	91.81
378.125	72.81
378.35	74.81
378.576	75.81
378.802	76.81
379.027	77.81
379.253	71.81
379.478	86.81
379.704	69.81
379.929	102.81
380.155	72.81
380.38	83.81
380.606	74.81
380.831	97.81
381.057	85.81
381.282	86.81
381.507	86.81
381.733	101.81
381.958	85.81
382.184	80.81
382.409	80.81
382.634	82.81
382.86	99.81
383.085	71.81
383.31	78.81
383.535	82.81
383.761	94.81
383.986	74.81
384.211	72.81
384.436	76.81
384.662	73.81
384.887	82.81
385.112	86.81
385.337	87.81
385.562	79.81
385.787	82.81
386.013	73.81
386.238	81.81
386.463	84.81
386.688	97.81
386.913	77.81
387.138	57.81
387.363	91.81
387.588	82.81
387.813	74.81
388.038	87.81
388.263	75.81
388.488	82.81
388.713	83.81
388.938	83.81
389.163	82.81
389.387	81.81
389.612	73.81
389.837	64.81
390.062	91.81
390.287	79.81
390.512	72.81
390.736	89.81
390.961	85.81
391.186	71.81
391.411	86.81
391.636	92.81
391.86	74.81
392.085	101.81
392.31	79.81
392.534	84.81
392.759	82.81
392.984	95.81
393.208	96.81
393.433	104.81
393.658	102.81
393.882	79.81
394.107	88.81
394.331	96.81
394.556	90.81
394.78	83.81
395.005	75.81
395.229	86.81
395.454	85.81
395.678	92.81
395.903	89.81
396.127	97.81
396.352	102.81
396.576	90.81
396.801	92.81
397.025	95.81
397.249	91.81
397.474	96.81
397.698	78.81
397.922	96.81
398.147	75.81
398.371	87.81
398.595	73.81
398.82	74.81
399.044	82.81
399.268	100.81
399.492	88.81
399.717	94.81
399.941	80.81
400.165	79.81
400.389	68.81
400.613	80.81
400.837	58.81
401.062	74.81
401.286	76.81
401.51	81.81
401.734	85.81
401.958	83.81
402.182	83.81
402.406	80.81
402.63	70.81
402.854	73.81
403.078	76.81
403.302	90.81
403.526	76.81
403.75	75.81
403.974	82.81
404.198	90.81
404.422	116.81
404.645	118.81
404.869	107.81
405.093	90.81
405.317	68.81
405.541	68.81
405.765	95.81
405.988	99.81
406.212	88.81
406.436	84.81
406.66	77.81
406.883	69.81
407.107	71.81
407.331	90.81
407.555	75.81
407.778	87.81
408.002	79.81
408.226	73.81
408.449	82.81
408.673	84.81
408.896	80.81
409.12	87.81
409.344	80.81
409.567	104.81
409.791	96.81
410.014	97.81
410.238	71.81
410.461	83.81
410.685	93.81
410.908	79.81
411.132	79.81
411.355	91.81
411.578	80.81
411.802	94.81
412.025	88.81
412.249	84.81
412.472	82.81
412.695	79.81
412.919	71.81
413.142	98.81
413.365	89.81
413.589	76.81
413.812	88.81
414.035	86.81
414.258	87.81
414.482	68.81
414.705	90.81
414.928	67.81
415.151	76.81
415.374	73.81
415.597	83.81
415.821	82.81
416.044	90.81
416.267	85.81
416.49	67.81
416.713	82.81
416.936	77.81
417.159	81.81
417.382	63.81
417.605	81.81
417.828	70.81
418.051	86.81
418.274	85.81
418.497	72.81
418.72	94.81
418.943	87.81
419.166	76.81
419.389	82.81
419.611	68.81
419.834	80.81
420.057	76.81
420.28	73.81
420.503	80.81
420.726	68.81
420.948	91.81
421.171	73.81
421.394	80.81
421.617	75.81
421.839	83.81
422.062	100.81
422.285	94.81
422.507	136.81
422.73	139.81
422.953	130.81
423.175	100.81
423.398	93.81
423.621	87.81
423.843	91.81
424.066	81.81
424.288	71.81
424.511	78.81
424.733	84.81
424.956	71.81
425.178	86.81
425.401	82.81
425.623	86.81
425.846	79.81
426.068	84.81
426.291	79.81
426.513	75.81
426.735	80.81
426.958	93.81
427.18	72.81
427.402	82.81
427.625	85.81
427.847	81.81
428.069	89.81
428.292	80.81
428.514	95.81
428.736	89.81
428.958	94.81
429.181	96.81
429.403	74.81
429.625	94.81
429.847	85.81
430.069	114.81
430.292	81.81
430.514	98.81
430.736	91.81
430.958	82.81
431.18	90.81
431.402	99.81
431.624	89.81
431.846	81.81
432.068	89.81
432.29	74.81
432.512	88.81
432.734	76.81
432.956	77.81
433.178	78.81
433.4	77.81
433.622	67.81
433.844	87.81
434.066	72.81
434.287	81.81
434.509	77.81
434.731	78.81
434.953	73.81
435.175	78.81
435.397	79.81
435.618	77.81
435.84	70.81
436.062	78.81
436.284	73.81
436.505	88.81
436.727	78.81
436.949	82.81
437.17	82.81
437.392	93.81
437.614	84.81
437.835	86.81
438.057	84.81
438.278	80.81
438.5	86.81
438.721	74.81
438.943	92.81
439.165	99.81
439.386	76.81
439.608	73.81
439.829	97.81
440.05	84.81
440.272	78.81
440.493	84.81
440.715	82.81
440.936	83.81
441.158	79.81
441.379	86.81
441.6	92.81
441.822	76.81
442.043	89.81
442.264	78.81
442.486	86.81
442.707	86.81
442.928	79.81
443.149	97.81
443.371	100.81
443.592	124.81
443.813	105.81
444.034	75.81
444.255	86.81
444.476	88.81
444.698	82.81
444.919	79.81
445.14	125.81
445.361	138.81
445.582	134.81
445.803	110.81
446.024	94.81
446.245	91.81
446.466	108.81
446.687	83.81
446.908	78.81
447.129	62.81
447.35	76.81
447.571	65.81
447.792	74.81
448.013	97.81
448.234	75.81
448.455	92.81
448.675	85.81
448.896	88.81
449.117	82.81
449.338	71.81
449.559	81.81
449.779	85.81
450	87.81
450.221	88.81
450.442	86.81
450.662	79.81
450.883	90.81
451.104	80.81
451.324	84.81
451.545	100.81
451.766	72.81
451.986	67.81
452.207	72.81
452.428	57.81
452.648	97.81
452.869	82.81
453.089	84.81
453.31	82.81
453.53	76.81
453.751	83.81
453.971	91.81
454.192	70.81
454.412	80.81
454.633	80.81
454.853	70.81
455.073	70.81
455.294	66.81
455.514	102.81
455.734	91.81
455.955	86.81
456.175	80.81
456.395	92.81
456.616	81.81
456.836	68.81
457.056	75.81
457.276	86.81
457.497	89.81
457.717	80.81
457.937	66.81
458.157	88.81
458.377	85.81
458.598	75.81
458.818	84.81
459.038	74.81
459.258	91.81
459.478	90.81
459.698	68.81
459.918	75.81
460.138	73.81
460.358	82.81
460.578	85.81
460.798	92.81
461.018	90.81
461.238	78.81
461.458	82.81
461.678	96.81
461.898	87.81
462.118	82.81
462.338	71.81
462.558	70.81
462.777	86.81
462.997	71.81
463.217	82.81
463.437	82.81
463.657	79.81
463.876	83.81
464.096	94.81
464.316	70.81
464.536	94.81
464.755	78.81
464.975	90.81
465.195	80.81
465.414	74.81
465.634	84.81
465.854	87.81
466.073	76.81
466.293	77.81
466.512	80.81
466.732	70.81
466.951	79.81
467.171	84.81
467.391	88.81
467.61	85.81
467.829	83.81
468.049	81.81
468.268	88.81
468.488	86.81
468.707	86.81
468.927	73.81
469.146	85.81
469.365	80.81
469.585	84.81
469.804	76.81
470.023	81.81
470.243	77.81
470.462	92.81
470.681	72.81
470.901	77.81
471.12	82.81
471.339	69.81
471.558	76.81
471.777	80.81
471.997	79.81
472.216	100.81
472.435	65.81
472.654	84.81
472.873	83.81
473.092	81.81
473.311	96.81
473.53	94.81
473.749	89.81
473.968	98.81
474.187	80.81
474.406	88.81
474.625	87.81
474.844	65.81
475.063	87.81
475.282	97.81
475.501	90.81
475.72	91.81
475.939	79.81
476.158	85.81
476.377	82.81
476.596	83.81
476.814	102.81
477.033	85.81
477.252	80.81
477.471	73.81
477.69	83.81
477.908	66.81
478.127	82.81
478.346	82.81
478.564	84.81
478.783	82.81
479.002	70.81
479.22	86.81
479.439	90.81
479.658	90.81
479.876	82.81
480.095	77.81
480.313	70.81
480.532	90.81
480.751	84.81
480.969	77.81
481.188	83.81
481.406	89.81
481.624	85.81
481.843	75.81
482.061	61.81
482.28	78.81
482.498	78.81
482.717	96.81
482.935	89.81
483.153	89.81
483.372	81.81
483.59	83.81
483.808	91.81
484.027	97.81
484.245	75.81
484.463	97.81
484.681	86.81
484.9	61.81
485.118	87.81
485.336	82.81
485.554	82.81
485.772	82.81
485.99	82.81
486.209	86.81
486.427	89.81
486.645	82.81
486.863	56.81
487.081	78.81
487.299	66.81
487.517	83.81
487.735	88.81
487.953	90.81
488.171	99.81
488.389	94.81
488.607	80.81
488.825	80.81
489.043	76.81
489.261	89.81
489.479	80.81
489.696	74.81
489.914	84.81
490.132	97.81
490.35	70.81
490.568	82.81
490.786	75.81
491.003	98.81
491.221	78.81
491.439	81.81
491.657	103.81
491.874	79.81
492.092	89.81
492.31	99.81
492.527	92.81
492.745	77.81
492.963	96.81
493.18	74.81
493.398	86.81
493.615	72.81
493.833	62.81
494.05	82.81
494.268	79.81
494.485	87.81
494.703	84.81
494.92	81.81
495.138	75.81
495.355	87.81
495.573	81.81
495.79	80.81
496.008	80.81
496.225	81.81
496.442	85.81
496.66	84.81
496.877	94.81
497.094	95.81
497.312	96.81
497.529	82.81
497.746	75.81
497.963	86.81
498.181	77.81
498.398	81.81
498.615	85.81
498.832	80.81
499.049	91.81
499.267	108.81
499.484	81.81
499.701	76.81
499.918	79.81
500.135	82.81
500.352	88.81
500.569	78.81
500.786	86.81
501.003	89.81
501.22	82.81
501.437	87.81
501.654	78.81
501.871	92.81
502.088	90.81
502.305	95.81
502.522	80.81
502.739	102.81
502.956	88.81
503.172	80.81
503.389	74.81
503.606	75.81
503.823	79.81
504.04	85.81
504.256	76.81
504.473	80.81
504.69	81.81
504.907	85.81
505.123	92.81
505.34	78.81
505.557	74.81
505.773	88.81
505.99	78.81
506.207	80.81
506.423	85.81
506.64	86.81
506.856	96.81
507.073	94.81
507.289	81.81
507.506	79.81
507.722	83.81
507.939	84.81
508.155	91.81
508.372	80.81
508.588	83.81
508.805	88.81
509.021	83.81
509.238	85.81
509.454	78.81
509.67	65.81
509.887	97.81
510.103	88.81
510.319	91.81
510.536	87.81
510.752	86.81
510.968	85.81
511.184	82.81
511.401	78.81
511.617	81.81
511.833	82.81
512.049	88.81
512.265	88.81
512.481	83.81
512.698	76.81
512.914	84.81
513.13	86.81
513.346	87.81
513.562	89.81
513.778	78.81
513.994	76.81
514.21	104.81
514.426	75.81
514.642	80.81
514.858	84.81
515.074	85.81
515.29	82.81
515.506	99.81
515.721	86.81
515.937	84.81
516.153	80.81
516.369	65.81
516.585	82.81
516.801	91.81
517.016	89.81
517.232	86.81
517.448	106.81
517.664	82.81
517.879	70.81
518.095	78.81
518.311	71.81
518.527	84.81
518.742	90.81
518.958	100.81
519.173	90.81
519.389	102.81
519.605	82.81
