Data from Mixnoheat1_HRD10591_00007.txt Node
Date: Fri Dec 27 14:57:57 EST 2024
User: Yrep
Spectrometer: HR+D1059
Trigger mode: 1
Integration Time (sec): 1.000000E-1
Scans to average: 1
Electric dark correction enabled: true
Nonlinearity correction enabled: false
Boxcar width: 0
XAxis mode: Wavelengths
Number of Pixels in Spectrum: 2048
>>>>>Begin Spectral Data<<<<<
223.165	-19.12
223.4	-19.12
223.635	-19.12
223.869	-21.12
224.104	-20.12
224.338	-10.12
224.573	-25.12
224.808	-9.12
225.042	2.88
225.277	-7.12
225.511	-5.12
225.746	-0.12
225.98	2.88
226.215	9.88
226.449	18.88
226.683	22.88
226.918	28.88
227.152	30.88
227.387	40.88
227.621	17.88
227.856	41.88
228.09	44.88
228.324	47.88
228.559	62.88
228.793	67.88
229.027	66.88
229.262	59.88
229.496	68.88
229.73	55.88
229.964	60.88
230.199	81.88
230.433	73.88
230.667	76.88
230.901	70.88
231.136	69.88
231.37	68.88
231.604	76.88
231.838	75.88
232.072	79.88
232.306	74.88
232.541	66.88
232.775	77.88
233.009	91.88
233.243	72.88
233.477	86.88
233.711	86.88
233.945	93.88
234.179	77.88
234.413	85.88
234.647	70.88
234.881	72.88
235.115	77.88
235.349	78.88
235.583	85.88
235.817	83.88
236.051	74.88
236.285	78.88
236.519	87.88
236.753	63.88
236.987	84.88
237.221	80.88
237.455	61.88
237.689	72.88
237.922	69.88
238.156	63.88
238.39	75.88
238.624	63.88
238.858	65.88
239.091	79.88
239.325	70.88
239.559	69.88
239.793	77.88
240.027	64.88
240.26	80.88
240.494	70.88
240.728	67.88
240.961	58.88
241.195	75.88
241.429	60.88
241.662	69.88
241.896	60.88
242.13	68.88
242.363	84.88
242.597	83.88
242.83	64.88
243.064	60.88
243.298	75.88
243.531	68.88
243.765	84.88
243.998	73.88
244.232	61.88
244.465	86.88
244.699	66.88
244.932	75.88
245.166	80.88
245.399	78.88
245.633	75.88
245.866	68.88
246.099	81.88
246.333	77.88
246.566	61.88
246.8	76.88
247.033	56.88
247.266	74.88
247.5	73.88
247.733	81.88
247.966	70.88
248.2	67.88
248.433	66.88
248.666	66.88
248.899	74.88
249.133	71.88
249.366	59.88
249.599	71.88
249.832	73.88
250.066	74.88
250.299	78.88
250.532	83.88
250.765	78.88
250.998	70.88
251.231	81.88
251.465	70.88
251.698	87.88
251.931	90.88
252.164	77.88
252.397	74.88
252.63	79.88
252.863	86.88
253.096	88.88
253.329	94.88
253.562	85.88
253.795	82.88
254.028	84.88
254.261	79.88
254.494	72.88
254.727	82.88
254.96	78.88
255.193	79.88
255.426	72.88
255.659	77.88
255.892	84.88
256.124	70.88
256.357	83.88
256.59	78.88
256.823	89.88
257.056	72.88
257.289	78.88
257.521	81.88
257.754	77.88
257.987	79.88
258.22	86.88
258.452	65.88
258.685	81.88
258.918	75.88
259.151	73.88
259.383	74.88
259.616	79.88
259.849	90.88
260.081	80.88
260.314	77.88
260.547	79.88
260.779	75.88
261.012	87.88
261.244	82.88
261.477	101.88
261.71	97.88
261.942	88.88
262.175	93.88
262.407	77.88
262.64	75.88
262.872	80.88
263.105	76.88
263.337	79.88
263.57	85.88
263.802	83.88
264.035	84.88
264.267	66.88
264.499	95.88
264.732	74.88
264.964	78.88
265.197	85.88
265.429	87.88
265.661	86.88
265.894	72.88
266.126	78.88
266.358	83.88
266.591	78.88
266.823	78.88
267.055	66.88
267.287	80.88
267.52	62.88
267.752	66.88
267.984	82.88
268.216	91.88
268.448	88.88
268.681	70.88
268.913	84.88
269.145	79.88
269.377	78.88
269.609	76.88
269.841	73.88
270.073	72.88
270.306	61.88
270.538	70.88
270.77	83.88
271.002	98.88
271.234	86.88
271.466	75.88
271.698	68.88
271.93	82.88
272.162	72.88
272.394	78.88
272.626	75.88
272.858	89.88
273.09	91.88
273.322	85.88
273.553	84.88
273.785	83.88
274.017	81.88
274.249	80.88
274.481	83.88
274.713	74.88
274.945	74.88
275.176	73.88
275.408	90.88
275.64	75.88
275.872	81.88
276.104	81.88
276.335	69.88
276.567	76.88
276.799	69.88
277.031	75.88
277.262	91.88
277.494	91.88
277.726	75.88
277.957	83.88
278.189	73.88
278.421	78.88
278.652	82.88
278.884	88.88
279.115	93.88
279.347	95.88
279.579	73.88
279.81	78.88
280.042	73.88
280.273	73.88
280.505	85.88
280.736	78.88
280.968	79.88
281.199	81.88
281.431	67.88
281.662	88.88
281.894	88.88
282.125	68.88
282.356	79.88
282.588	77.88
282.819	72.88
283.051	85.88
283.282	74.88
283.513	77.88
283.745	75.88
283.976	94.88
284.207	82.88
284.439	81.88
284.67	79.88
284.901	71.88
285.132	82.88
285.364	73.88
285.595	99.88
285.826	77.88
286.057	89.88
286.288	89.88
286.52	85.88
286.751	64.88
286.982	85.88
287.213	84.88
287.444	85.88
287.675	74.88
287.906	73.88
288.138	86.88
288.369	70.88
288.6	75.88
288.831	86.88
289.062	82.88
289.293	68.88
289.524	59.88
289.755	80.88
289.986	92.88
290.217	88.88
290.448	85.88
290.679	86.88
290.91	96.88
291.141	83.88
291.371	81.88
291.602	94.88
291.833	77.88
292.064	81.88
292.295	81.88
292.526	97.88
292.757	88.88
292.987	77.88
293.218	75.88
293.449	81.88
293.68	78.88
293.91	89.88
294.141	84.88
294.372	91.88
294.603	71.88
294.833	77.88
295.064	80.88
295.295	80.88
295.525	84.88
295.756	69.88
295.987	94.88
296.217	69.88
296.448	90.88
296.679	91.88
296.909	81.88
297.14	76.88
297.37	83.88
297.601	90.88
297.831	75.88
298.062	70.88
298.292	87.88
298.523	83.88
298.753	86.88
298.984	81.88
299.214	78.88
299.445	96.88
299.675	98.88
299.905	81.88
300.136	91.88
300.366	82.88
300.597	78.88
300.827	71.88
301.057	93.88
301.288	79.88
301.518	89.88
301.748	79.88
301.979	109.88
302.209	83.88
302.439	70.88
302.669	81.88
302.9	77.88
303.13	67.88
303.36	78.88
303.59	92.88
303.82	79.88
304.051	76.88
304.281	82.88
304.511	84.88
304.741	72.88
304.971	84.88
305.201	73.88
305.431	95.88
305.661	66.88
305.891	90.88
306.121	82.88
306.352	88.88
306.582	82.88
306.812	87.88
307.042	83.88
307.272	90.88
307.502	89.88
307.731	78.88
307.961	76.88
308.191	74.88
308.421	85.88
308.651	86.88
308.881	79.88
309.111	83.88
309.341	95.88
309.571	79.88
309.8	93.88
310.03	96.88
310.26	98.88
310.49	83.88
310.72	86.88
310.949	100.88
311.179	82.88
311.409	73.88
311.639	89.88
311.868	93.88
312.098	77.88
312.328	85.88
312.557	81.88
312.787	84.88
313.017	73.88
313.246	72.88
313.476	82.88
313.706	63.88
313.935	80.88
314.165	87.88
314.394	78.88
314.624	76.88
314.853	77.88
315.083	74.88
315.312	77.88
315.542	80.88
315.771	85.88
316.001	92.88
316.23	68.88
316.46	75.88
316.689	82.88
316.919	90.88
317.148	74.88
317.377	81.88
317.607	78.88
317.836	82.88
318.065	94.88
318.295	78.88
318.524	73.88
318.753	81.88
318.983	77.88
319.212	85.88
319.441	74.88
319.67	77.88
319.9	70.88
320.129	93.88
320.358	69.88
320.587	96.88
320.816	79.88
321.046	80.88
321.275	79.88
321.504	99.88
321.733	83.88
321.962	91.88
322.191	83.88
322.42	85.88
322.649	73.88
322.878	94.88
323.108	67.88
323.337	87.88
323.566	89.88
323.795	77.88
324.024	73.88
324.253	79.88
324.482	67.88
324.71	87.88
324.939	86.88
325.168	78.88
325.397	72.88
325.626	73.88
325.855	83.88
326.084	93.88
326.313	71.88
326.542	69.88
326.77	75.88
326.999	81.88
327.228	87.88
327.457	92.88
327.686	66.88
327.914	80.88
328.143	75.88
328.372	78.88
328.6	75.88
328.829	94.88
329.058	84.88
329.287	79.88
329.515	83.88
329.744	79.88
329.972	82.88
330.201	96.88
330.43	79.88
330.658	85.88
330.887	75.88
331.115	84.88
331.344	87.88
331.572	88.88
331.801	78.88
332.03	72.88
332.258	81.88
332.486	95.88
332.715	88.88
332.943	78.88
333.172	89.88
333.4	80.88
333.629	93.88
333.857	81.88
334.085	74.88
334.314	83.88
334.542	83.88
334.771	85.88
334.999	76.88
335.227	67.88
335.455	82.88
335.684	86.88
335.912	81.88
336.14	68.88
336.369	78.88
336.597	81.88
336.825	84.88
337.053	79.88
337.281	76.88
337.51	83.88
337.738	71.88
337.966	79.88
338.194	68.88
338.422	80.88
338.65	80.88
338.878	93.88
339.106	83.88
339.334	95.88
339.562	81.88
339.79	68.88
340.018	81.88
340.246	88.88
340.474	81.88
340.702	95.88
340.93	73.88
341.158	87.88
341.386	66.88
341.614	85.88
341.842	90.88
342.07	93.88
342.298	84.88
342.526	76.88
342.754	97.88
342.981	83.88
343.209	84.88
343.437	86.88
343.665	81.88
343.893	74.88
344.12	81.88
344.348	65.88
344.576	76.88
344.804	84.88
345.031	96.88
345.259	86.88
345.487	89.88
345.714	77.88
345.942	78.88
346.17	87.88
346.397	91.88
346.625	89.88
346.853	78.88
347.08	80.88
347.308	80.88
347.535	85.88
347.763	88.88
347.99	71.88
348.218	82.88
348.445	79.88
348.673	81.88
348.9	101.88
349.128	93.88
349.355	73.88
349.583	86.88
349.81	75.88
350.037	77.88
350.265	94.88
350.492	74.88
350.72	80.88
350.947	87.88
351.174	81.88
351.402	73.88
351.629	80.88
351.856	71.88
352.083	78.88
352.311	83.88
352.538	83.88
352.765	84.88
352.992	84.88
353.22	73.88
353.447	75.88
353.674	72.88
353.901	89.88
354.128	94.88
354.355	84.88
354.583	74.88
354.81	87.88
355.037	74.88
355.264	83.88
355.491	65.88
355.718	75.88
355.945	75.88
356.172	79.88
356.399	80.88
356.626	87.88
356.853	82.88
357.08	87.88
357.307	78.88
357.534	81.88
357.761	90.88
357.988	98.88
358.215	80.88
358.441	86.88
358.668	85.88
358.895	86.88
359.122	81.88
359.349	95.88
359.576	80.88
359.802	86.88
360.029	90.88
360.256	74.88
360.483	75.88
360.709	75.88
360.936	104.88
361.163	89.88
361.39	92.88
361.616	85.88
361.843	101.88
362.07	79.88
362.296	97.88
362.523	82.88
362.749	79.88
362.976	75.88
363.203	96.88
363.429	84.88
363.656	87.88
363.882	94.88
364.109	100.88
364.335	109.88
364.562	103.88
364.788	85.88
365.015	70.88
365.241	79.88
365.468	76.88
365.694	96.88
365.92	82.88
366.147	78.88
366.373	85.88
366.599	90.88
366.826	83.88
367.052	87.88
367.278	89.88
367.505	86.88
367.731	89.88
367.957	75.88
368.184	68.88
368.41	79.88
368.636	73.88
368.862	93.88
369.089	77.88
369.315	85.88
369.541	86.88
369.767	87.88
369.993	94.88
370.219	85.88
370.445	86.88
370.672	93.88
370.898	96.88
371.124	72.88
371.35	93.88
371.576	82.88
371.802	74.88
372.028	74.88
372.254	77.88
372.48	81.88
372.706	70.88
372.932	64.88
373.158	70.88
373.384	91.88
373.61	101.88
373.835	86.88
374.061	83.88
374.287	64.88
374.513	86.88
374.739	84.88
374.965	69.88
375.191	78.88
375.416	87.88
375.642	76.88
375.868	77.88
376.094	97.88
376.319	80.88
376.545	85.88
376.771	82.88
376.997	78.88
377.222	85.88
377.448	73.88
377.674	84.88
377.899	69.88
378.125	73.88
378.35	84.88
378.576	79.88
378.802	78.88
379.027	85.88
379.253	87.88
379.478	80.88
379.704	84.88
379.929	81.88
380.155	83.88
380.38	78.88
380.606	79.88
380.831	77.88
381.057	82.88
381.282	91.88
381.507	71.88
381.733	99.88
381.958	95.88
382.184	73.88
382.409	81.88
382.634	65.88
382.86	73.88
383.085	83.88
383.31	81.88
383.535	79.88
383.761	84.88
383.986	70.88
384.211	70.88
384.436	76.88
384.662	105.88
384.887	82.88
385.112	80.88
385.337	89.88
385.562	80.88
385.787	87.88
386.013	92.88
386.238	67.88
386.463	78.88
386.688	101.88
386.913	73.88
387.138	84.88
387.363	85.88
387.588	89.88
387.813	83.88
388.038	83.88
388.263	86.88
388.488	90.88
388.713	90.88
388.938	84.88
389.163	76.88
389.387	79.88
389.612	72.88
389.837	84.88
390.062	84.88
390.287	86.88
390.512	74.88
390.736	72.88
390.961	64.88
391.186	84.88
391.411	79.88
391.636	84.88
391.86	93.88
392.085	89.88
392.31	79.88
392.534	85.88
392.759	82.88
392.984	93.88
393.208	105.88
393.433	118.88
393.658	117.88
393.882	79.88
394.107	81.88
394.331	71.88
394.556	94.88
394.78	90.88
395.005	79.88
395.229	76.88
395.454	84.88
395.678	78.88
395.903	93.88
396.127	94.88
396.352	103.88
396.576	88.88
396.801	109.88
397.025	107.88
397.249	92.88
397.474	101.88
397.698	94.88
397.922	82.88
398.147	88.88
398.371	87.88
398.595	86.88
398.82	75.88
399.044	81.88
399.268	81.88
399.492	79.88
399.717	74.88
399.941	81.88
400.165	80.88
400.389	89.88
400.613	75.88
400.837	77.88
401.062	88.88
401.286	95.88
401.51	89.88
401.734	67.88
401.958	84.88
402.182	75.88
402.406	81.88
402.63	79.88
402.854	89.88
403.078	82.88
403.302	84.88
403.526	76.88
403.75	80.88
403.974	69.88
404.198	81.88
404.422	121.88
404.645	120.88
404.869	120.88
405.093	103.88
405.317	78.88
405.541	78.88
405.765	81.88
405.988	82.88
406.212	71.88
406.436	91.88
406.66	75.88
406.883	81.88
407.107	84.88
407.331	77.88
407.555	82.88
407.778	77.88
408.002	98.88
408.226	89.88
408.449	75.88
408.673	79.88
408.896	73.88
409.12	78.88
409.344	90.88
409.567	94.88
409.791	86.88
410.014	82.88
410.238	87.88
410.461	88.88
410.685	78.88
410.908	73.88
411.132	89.88
411.355	82.88
411.578	85.88
411.802	82.88
412.025	82.88
412.249	93.88
412.472	61.88
412.695	78.88
412.919	73.88
413.142	68.88
413.365	91.88
413.589	83.88
413.812	76.88
414.035	84.88
414.258	80.88
414.482	80.88
414.705	90.88
414.928	87.88
415.151	80.88
415.374	73.88
415.597	77.88
415.821	72.88
416.044	87.88
416.267	71.88
416.49	80.88
416.713	76.88
416.936	65.88
417.159	80.88
417.382	88.88
417.605	83.88
417.828	78.88
418.051	85.88
418.274	79.88
418.497	74.88
418.72	75.88
418.943	78.88
419.166	79.88
419.389	65.88
419.611	81.88
419.834	72.88
420.057	73.88
420.28	85.88
420.503	86.88
420.726	87.88
420.948	88.88
421.171	81.88
421.394	86.88
421.617	95.88
421.839	90.88
422.062	98.88
422.285	109.88
422.507	125.88
422.73	172.88
422.953	155.88
423.175	119.88
423.398	87.88
423.621	82.88
423.843	79.88
424.066	98.88
424.288	73.88
424.511	84.88
424.733	81.88
424.956	73.88
425.178	78.88
425.401	75.88
425.623	79.88
425.846	87.88
426.068	67.88
426.291	89.88
426.513	84.88
426.735	93.88
426.958	69.88
427.18	94.88
427.402	65.88
427.625	81.88
427.847	89.88
428.069	87.88
428.292	97.88
428.514	117.88
428.736	88.88
428.958	90.88
429.181	98.88
429.403	88.88
429.625	86.88
429.847	98.88
430.069	113.88
430.292	90.88
430.514	111.88
430.736	91.88
430.958	105.88
431.18	85.88
431.402	84.88
431.624	79.88
431.846	83.88
432.068	88.88
432.29	81.88
432.512	80.88
432.734	85.88
432.956	88.88
433.178	83.88
433.4	82.88
433.622	83.88
433.844	76.88
434.066	79.88
434.287	84.88
434.509	74.88
434.731	77.88
434.953	81.88
435.175	83.88
435.397	91.88
435.618	68.88
435.84	81.88
436.062	85.88
436.284	88.88
436.505	79.88
436.727	88.88
436.949	90.88
437.17	68.88
437.392	77.88
437.614	71.88
437.835	91.88
438.057	77.88
438.278	62.88
438.5	85.88
438.721	97.88
438.943	87.88
439.165	85.88
439.386	74.88
439.608	86.88
439.829	64.88
440.05	74.88
440.272	72.88
440.493	73.88
440.715	80.88
440.936	84.88
441.158	87.88
441.379	78.88
441.6	77.88
441.822	78.88
442.043	90.88
442.264	89.88
442.486	99.88
442.707	99.88
442.928	96.88
443.149	80.88
443.371	90.88
443.592	134.88
443.813	107.88
444.034	90.88
444.255	81.88
444.476	95.88
444.698	86.88
444.919	88.88
445.14	139.88
445.361	127.88
445.582	143.88
445.803	121.88
446.024	89.88
446.245	87.88
446.466	83.88
446.687	81.88
446.908	84.88
447.129	93.88
447.35	75.88
447.571	77.88
447.792	75.88
448.013	80.88
448.234	78.88
448.455	83.88
448.675	79.88
448.896	98.88
449.117	79.88
449.338	75.88
449.559	87.88
449.779	81.88
450	90.88
450.221	89.88
450.442	90.88
450.662	80.88
450.883	83.88
451.104	69.88
451.324	74.88
451.545	81.88
451.766	85.88
451.986	84.88
452.207	82.88
452.428	78.88
452.648	80.88
452.869	79.88
453.089	80.88
453.31	90.88
453.53	79.88
453.751	90.88
453.971	63.88
454.192	72.88
454.412	79.88
454.633	79.88
454.853	76.88
455.073	68.88
455.294	72.88
455.514	75.88
455.734	74.88
455.955	79.88
456.175	90.88
456.395	81.88
456.616	79.88
456.836	91.88
457.056	76.88
457.276	79.88
457.497	80.88
457.717	78.88
457.937	89.88
458.157	88.88
458.377	82.88
458.598	83.88
458.818	89.88
459.038	77.88
459.258	69.88
459.478	94.88
459.698	96.88
459.918	99.88
460.138	85.88
460.358	84.88
460.578	95.88
460.798	105.88
461.018	94.88
461.238	86.88
461.458	76.88
461.678	84.88
461.898	92.88
462.118	100.88
462.338	84.88
462.558	76.88
462.777	75.88
462.997	81.88
463.217	89.88
463.437	88.88
463.657	70.88
463.876	72.88
464.096	77.88
464.316	85.88
464.536	90.88
464.755	85.88
464.975	65.88
465.195	95.88
465.414	87.88
465.634	69.88
465.854	85.88
466.073	89.88
466.293	78.88
466.512	88.88
466.732	81.88
466.951	73.88
467.171	82.88
467.391	77.88
467.61	90.88
467.829	93.88
468.049	93.88
468.268	79.88
468.488	86.88
468.707	89.88
468.927	81.88
469.146	71.88
469.365	66.88
469.585	68.88
469.804	86.88
470.023	72.88
470.243	85.88
470.462	72.88
470.681	73.88
470.901	83.88
471.12	71.88
471.339	79.88
471.558	85.88
471.777	91.88
471.997	63.88
472.216	71.88
472.435	86.88
472.654	74.88
472.873	83.88
473.092	80.88
473.311	80.88
473.53	79.88
473.749	83.88
473.968	76.88
474.187	81.88
474.406	84.88
474.625	87.88
474.844	78.88
475.063	82.88
475.282	77.88
475.501	80.88
475.72	87.88
475.939	78.88
476.158	70.88
476.377	78.88
476.596	70.88
476.814	81.88
477.033	73.88
477.252	85.88
477.471	79.88
477.69	93.88
477.908	82.88
478.127	81.88
478.346	67.88
478.564	99.88
478.783	89.88
479.002	84.88
479.22	85.88
479.439	87.88
479.658	79.88
479.876	81.88
480.095	82.88
480.313	80.88
480.532	78.88
480.751	102.88
480.969	74.88
481.188	82.88
481.406	71.88
481.624	76.88
481.843	84.88
482.061	80.88
482.28	76.88
482.498	80.88
482.717	83.88
482.935	85.88
483.153	77.88
483.372	77.88
483.59	82.88
483.808	88.88
484.027	90.88
484.245	80.88
484.463	74.88
484.681	85.88
484.9	90.88
485.118	82.88
485.336	76.88
485.554	83.88
485.772	80.88
485.99	69.88
486.209	85.88
486.427	78.88
486.645	86.88
486.863	82.88
487.081	88.88
487.299	85.88
487.517	84.88
487.735	91.88
487.953	100.88
488.171	107.88
488.389	72.88
488.607	85.88
488.825	82.88
489.043	67.88
489.261	76.88
489.479	77.88
489.696	87.88
489.914	93.88
490.132	85.88
490.35	66.88
490.568	80.88
490.786	72.88
491.003	80.88
491.221	75.88
491.439	85.88
491.657	80.88
491.874	72.88
492.092	73.88
492.31	88.88
492.527	88.88
492.745	87.88
492.963	99.88
493.18	81.88
493.398	89.88
493.615	85.88
493.833	65.88
494.05	87.88
494.268	79.88
494.485	101.88
494.703	77.88
494.92	83.88
495.138	81.88
495.355	89.88
495.573	101.88
495.79	71.88
496.008	101.88
496.225	93.88
496.442	95.88
496.66	70.88
496.877	83.88
497.094	89.88
497.312	86.88
497.529	77.88
497.746	84.88
497.963	82.88
498.181	79.88
498.398	80.88
498.615	85.88
498.832	88.88
499.049	87.88
499.267	83.88
499.484	82.88
499.701	90.88
499.918	80.88
500.135	88.88
500.352	84.88
500.569	81.88
500.786	89.88
501.003	86.88
501.22	90.88
501.437	96.88
501.654	97.88
501.871	78.88
502.088	82.88
502.305	92.88
502.522	82.88
502.739	103.88
502.956	86.88
503.172	75.88
503.389	75.88
503.606	90.88
503.823	96.88
504.04	87.88
504.256	97.88
504.473	90.88
504.69	93.88
504.907	88.88
505.123	87.88
505.34	90.88
505.557	75.88
505.773	82.88
505.99	71.88
506.207	97.88
506.423	90.88
506.64	93.88
506.856	95.88
507.073	77.88
507.289	82.88
507.506	83.88
507.722	95.88
507.939	87.88
508.155	74.88
508.372	79.88
508.588	79.88
508.805	86.88
509.021	76.88
509.238	85.88
509.454	68.88
509.67	85.88
509.887	73.88
510.103	88.88
510.319	81.88
510.536	84.88
510.752	93.88
510.968	87.88
511.184	81.88
511.401	84.88
511.617	79.88
511.833	81.88
512.049	70.88
512.265	78.88
512.481	94.88
512.698	89.88
512.914	71.88
513.13	83.88
513.346	86.88
513.562	79.88
513.778	68.88
513.994	77.88
514.21	86.88
514.426	87.88
514.642	81.88
514.858	74.88
515.074	72.88
515.29	75.88
515.506	81.88
515.721	90.88
515.937	81.88
516.153	82.88
516.369	77.88
516.585	82.88
516.801	77.88
517.016	80.88
517.232	96.88
517.448	79.88
517.664	80.88
517.879	98.88
518.095	90.88
518.311	76.88
518.527	78.88
518.742	86.88
518.958	88.88
519.173	99.88
519.389	87.88
519.605	84.88
