Data from Mixnoheat1_HRD10591_00010.txt Node
Date: Fri Dec 27 14:58:00 EST 2024
User: Yrep
Spectrometer: HR+D1059
Trigger mode: 1
Integration Time (sec): 1.000000E-1
Scans to average: 1
Electric dark correction enabled: true
Nonlinearity correction enabled: false
Boxcar width: 0
XAxis mode: Wavelengths
Number of Pixels in Spectrum: 2048
>>>>>Begin Spectral Data<<<<<
223.165	-17.69
223.4	-17.69
223.635	-17.69
223.869	-11.69
224.104	-17.69
224.338	-15.69
224.573	-11.69
224.808	-22.69
225.042	8.31
225.277	-1.69
225.511	-11.69
225.746	11.31
225.98	6.31
226.215	10.31
226.449	26.31
226.683	4.31
226.918	14.31
227.152	29.31
227.387	33.31
227.621	40.31
227.856	37.31
228.09	52.31
228.324	51.31
228.559	61.31
228.793	45.31
229.027	55.31
229.262	71.31
229.496	60.31
229.73	81.31
229.964	70.31
230.199	87.31
230.433	68.31
230.667	77.31
230.901	75.31
231.136	82.31
231.37	81.31
231.604	82.31
231.838	88.31
232.072	81.31
232.306	74.31
232.541	85.31
232.775	72.31
233.009	92.31
233.243	78.31
233.477	93.31
233.711	93.31
233.945	80.31
234.179	82.31
234.413	81.31
234.647	76.31
234.881	79.31
235.115	81.31
235.349	80.31
235.583	89.31
235.817	80.31
236.051	84.31
236.285	73.31
236.519	80.31
236.753	73.31
236.987	71.31
237.221	78.31
237.455	71.31
237.689	84.31
237.922	88.31
238.156	77.31
238.39	75.31
238.624	68.31
238.858	80.31
239.091	74.31
239.325	80.31
239.559	91.31
239.793	74.31
240.027	81.31
240.26	71.31
240.494	85.31
240.728	76.31
240.961	76.31
241.195	78.31
241.429	89.31
241.662	82.31
241.896	82.31
242.13	87.31
242.363	69.31
242.597	78.31
242.83	79.31
243.064	86.31
243.298	73.31
243.531	73.31
243.765	86.31
243.998	73.31
244.232	77.31
244.465	89.31
244.699	82.31
244.932	103.31
245.166	82.31
245.399	70.31
245.633	76.31
245.866	73.31
246.099	95.31
246.333	90.31
246.566	84.31
246.8	86.31
247.033	79.31
247.266	75.31
247.5	74.31
247.733	85.31
247.966	77.31
248.2	96.31
248.433	84.31
248.666	81.31
248.899	69.31
249.133	90.31
249.366	94.31
249.599	93.31
249.832	83.31
250.066	76.31
250.299	76.31
250.532	77.31
250.765	86.31
250.998	69.31
251.231	82.31
251.465	83.31
251.698	77.31
251.931	75.31
252.164	84.31
252.397	93.31
252.63	82.31
252.863	71.31
253.096	81.31
253.329	87.31
253.562	84.31
253.795	81.31
254.028	69.31
254.261	71.31
254.494	67.31
254.727	95.31
254.96	85.31
255.193	76.31
255.426	68.31
255.659	68.31
255.892	85.31
256.124	89.31
256.357	85.31
256.59	88.31
256.823	73.31
257.056	76.31
257.289	69.31
257.521	84.31
257.754	76.31
257.987	84.31
258.22	87.31
258.452	78.31
258.685	71.31
258.918	79.31
259.151	86.31
259.383	79.31
259.616	82.31
259.849	80.31
260.081	75.31
260.314	84.31
260.547	82.31
260.779	87.31
261.012	86.31
261.244	87.31
261.477	78.31
261.71	82.31
261.942	87.31
262.175	86.31
262.407	76.31
262.64	77.31
262.872	73.31
263.105	81.31
263.337	77.31
263.57	79.31
263.802	80.31
264.035	87.31
264.267	80.31
264.499	102.31
264.732	96.31
264.964	89.31
265.197	74.31
265.429	84.31
265.661	96.31
265.894	69.31
266.126	82.31
266.358	78.31
266.591	88.31
266.823	73.31
267.055	84.31
267.287	89.31
267.52	86.31
267.752	76.31
267.984	79.31
268.216	93.31
268.448	91.31
268.681	89.31
268.913	82.31
269.145	85.31
269.377	89.31
269.609	74.31
269.841	87.31
270.073	83.31
270.306	86.31
270.538	80.31
270.77	80.31
271.002	79.31
271.234	89.31
271.466	89.31
271.698	79.31
271.93	86.31
272.162	78.31
272.394	69.31
272.626	70.31
272.858	95.31
273.09	96.31
273.322	71.31
273.553	89.31
273.785	75.31
274.017	71.31
274.249	87.31
274.481	84.31
274.713	81.31
274.945	71.31
275.176	90.31
275.408	94.31
275.64	81.31
275.872	103.31
276.104	81.31
276.335	91.31
276.567	79.31
276.799	90.31
277.031	92.31
277.262	91.31
277.494	77.31
277.726	71.31
277.957	83.31
278.189	94.31
278.421	91.31
278.652	89.31
278.884	81.31
279.115	87.31
279.347	78.31
279.579	82.31
279.81	92.31
280.042	74.31
280.273	72.31
280.505	84.31
280.736	88.31
280.968	91.31
281.199	87.31
281.431	86.31
281.662	88.31
281.894	97.31
282.125	81.31
282.356	82.31
282.588	85.31
282.819	66.31
283.051	88.31
283.282	77.31
283.513	81.31
283.745	86.31
283.976	86.31
284.207	82.31
284.439	80.31
284.67	77.31
284.901	74.31
285.132	82.31
285.364	85.31
285.595	96.31
285.826	80.31
286.057	88.31
286.288	79.31
286.52	89.31
286.751	88.31
286.982	93.31
287.213	74.31
287.444	79.31
287.675	87.31
287.906	94.31
288.138	89.31
288.369	77.31
288.6	89.31
288.831	102.31
289.062	91.31
289.293	89.31
289.524	92.31
289.755	87.31
289.986	76.31
290.217	88.31
290.448	101.31
290.679	88.31
290.91	95.31
291.141	81.31
291.371	87.31
291.602	92.31
291.833	93.31
292.064	84.31
292.295	85.31
292.526	76.31
292.757	85.31
292.987	97.31
293.218	94.31
293.449	81.31
293.68	86.31
293.91	74.31
294.141	97.31
294.372	84.31
294.603	75.31
294.833	82.31
295.064	77.31
295.295	82.31
295.525	80.31
295.756	97.31
295.987	95.31
296.217	83.31
296.448	89.31
296.679	83.31
296.909	74.31
297.14	88.31
297.37	84.31
297.601	98.31
297.831	96.31
298.062	86.31
298.292	95.31
298.523	85.31
298.753	81.31
298.984	79.31
299.214	81.31
299.445	82.31
299.675	96.31
299.905	94.31
300.136	76.31
300.366	81.31
300.597	80.31
300.827	89.31
301.057	86.31
301.288	97.31
301.518	83.31
301.748	88.31
301.979	97.31
302.209	88.31
302.439	80.31
302.669	82.31
302.9	87.31
303.13	82.31
303.36	78.31
303.59	75.31
303.82	85.31
304.051	102.31
304.281	103.31
304.511	74.31
304.741	84.31
304.971	70.31
305.201	79.31
305.431	96.31
305.661	82.31
305.891	87.31
306.121	89.31
306.352	96.31
306.582	83.31
306.812	87.31
307.042	98.31
307.272	90.31
307.502	74.31
307.731	79.31
307.961	81.31
308.191	82.31
308.421	83.31
308.651	85.31
308.881	84.31
309.111	101.31
309.341	84.31
309.571	96.31
309.8	76.31
310.03	68.31
310.26	88.31
310.49	90.31
310.72	101.31
310.949	92.31
311.179	86.31
311.409	77.31
311.639	89.31
311.868	85.31
312.098	94.31
312.328	88.31
312.557	90.31
312.787	82.31
313.017	87.31
313.246	80.31
313.476	90.31
313.706	90.31
313.935	85.31
314.165	77.31
314.394	92.31
314.624	76.31
314.853	98.31
315.083	91.31
315.312	94.31
315.542	85.31
315.771	82.31
316.001	83.31
316.23	86.31
316.46	84.31
316.689	91.31
316.919	103.31
317.148	92.31
317.377	85.31
317.607	85.31
317.836	81.31
318.065	82.31
318.295	96.31
318.524	96.31
318.753	81.31
318.983	74.31
319.212	92.31
319.441	75.31
319.67	86.31
319.9	95.31
320.129	76.31
320.358	94.31
320.587	82.31
320.816	81.31
321.046	81.31
321.275	98.31
321.504	90.31
321.733	86.31
321.962	98.31
322.191	82.31
322.42	94.31
322.649	92.31
322.878	94.31
323.108	88.31
323.337	90.31
323.566	89.31
323.795	81.31
324.024	96.31
324.253	87.31
324.482	93.31
324.71	78.31
324.939	77.31
325.168	88.31
325.397	78.31
325.626	72.31
325.855	91.31
326.084	80.31
326.313	82.31
326.542	88.31
326.77	90.31
326.999	111.31
327.228	89.31
327.457	82.31
327.686	86.31
327.914	82.31
328.143	92.31
328.372	97.31
328.6	96.31
328.829	97.31
329.058	89.31
329.287	82.31
329.515	86.31
329.744	85.31
329.972	92.31
330.201	86.31
330.43	88.31
330.658	80.31
330.887	91.31
331.115	82.31
331.344	85.31
331.572	100.31
331.801	65.31
332.03	79.31
332.258	82.31
332.486	88.31
332.715	82.31
332.943	81.31
333.172	87.31
333.4	71.31
333.629	88.31
333.857	105.31
334.085	90.31
334.314	87.31
334.542	87.31
334.771	80.31
334.999	86.31
335.227	88.31
335.455	80.31
335.684	93.31
335.912	85.31
336.14	78.31
336.369	74.31
336.597	81.31
336.825	80.31
337.053	65.31
337.281	95.31
337.51	97.31
337.738	75.31
337.966	78.31
338.194	68.31
338.422	92.31
338.65	90.31
338.878	91.31
339.106	77.31
339.334	90.31
339.562	86.31
339.79	87.31
340.018	79.31
340.246	80.31
340.474	85.31
340.702	80.31
340.93	83.31
341.158	84.31
341.386	102.31
341.614	88.31
341.842	97.31
342.07	85.31
342.298	81.31
342.526	96.31
342.754	73.31
342.981	89.31
343.209	92.31
343.437	101.31
343.665	76.31
343.893	85.31
344.12	86.31
344.348	85.31
344.576	101.31
344.804	90.31
345.031	91.31
345.259	88.31
345.487	100.31
345.714	81.31
345.942	88.31
346.17	87.31
346.397	84.31
346.625	85.31
346.853	86.31
347.08	93.31
347.308	77.31
347.535	79.31
347.763	80.31
347.99	93.31
348.218	90.31
348.445	77.31
348.673	84.31
348.9	78.31
349.128	95.31
349.355	88.31
349.583	87.31
349.81	69.31
350.037	84.31
350.265	82.31
350.492	86.31
350.72	77.31
350.947	85.31
351.174	79.31
351.402	102.31
351.629	90.31
351.856	81.31
352.083	90.31
352.311	105.31
352.538	88.31
352.765	83.31
352.992	90.31
353.22	94.31
353.447	88.31
353.674	98.31
353.901	93.31
354.128	94.31
354.355	89.31
354.583	82.31
354.81	80.31
355.037	86.31
355.264	92.31
355.491	84.31
355.718	73.31
355.945	82.31
356.172	84.31
356.399	85.31
356.626	75.31
356.853	79.31
357.08	89.31
357.307	90.31
357.534	92.31
357.761	74.31
357.988	81.31
358.215	85.31
358.441	85.31
358.668	87.31
358.895	84.31
359.122	105.31
359.349	80.31
359.576	98.31
359.802	87.31
360.029	88.31
360.256	93.31
360.483	88.31
360.709	81.31
360.936	97.31
361.163	86.31
361.39	101.31
361.616	98.31
361.843	88.31
362.07	84.31
362.296	99.31
362.523	93.31
362.749	69.31
362.976	110.31
363.203	101.31
363.429	84.31
363.656	95.31
363.882	79.31
364.109	74.31
364.335	84.31
364.562	82.31
364.788	69.31
365.015	78.31
365.241	89.31
365.468	105.31
365.694	91.31
365.92	80.31
366.147	90.31
366.373	82.31
366.599	85.31
366.826	88.31
367.052	94.31
367.278	89.31
367.505	92.31
367.731	100.31
367.957	80.31
368.184	86.31
368.41	104.31
368.636	88.31
368.862	80.31
369.089	77.31
369.315	83.31
369.541	75.31
369.767	88.31
369.993	100.31
370.219	77.31
370.445	81.31
370.672	79.31
370.898	90.31
371.124	87.31
371.35	82.31
371.576	97.31
371.802	85.31
372.028	85.31
372.254	86.31
372.48	86.31
372.706	86.31
372.932	81.31
373.158	84.31
373.384	90.31
373.61	96.31
373.835	88.31
374.061	73.31
374.287	105.31
374.513	69.31
374.739	76.31
374.965	97.31
375.191	87.31
375.416	66.31
375.642	98.31
375.868	86.31
376.094	87.31
376.319	83.31
376.545	90.31
376.771	94.31
376.997	87.31
377.222	70.31
377.448	95.31
377.674	100.31
377.899	94.31
378.125	83.31
378.35	86.31
378.576	93.31
378.802	83.31
379.027	87.31
379.253	81.31
379.478	87.31
379.704	86.31
379.929	85.31
380.155	78.31
380.38	80.31
380.606	82.31
380.831	75.31
381.057	91.31
381.282	76.31
381.507	76.31
381.733	90.31
381.958	83.31
382.184	83.31
382.409	87.31
382.634	85.31
382.86	91.31
383.085	90.31
383.31	93.31
383.535	96.31
383.761	78.31
383.986	86.31
384.211	88.31
384.436	80.31
384.662	84.31
384.887	81.31
385.112	72.31
385.337	76.31
385.562	80.31
385.787	78.31
386.013	84.31
386.238	85.31
386.463	80.31
386.688	103.31
386.913	83.31
387.138	79.31
387.363	87.31
387.588	92.31
387.813	82.31
388.038	102.31
388.263	84.31
388.488	86.31
388.713	104.31
388.938	81.31
389.163	92.31
389.387	96.31
389.612	70.31
389.837	97.31
390.062	83.31
390.287	85.31
390.512	90.31
390.736	89.31
390.961	95.31
391.186	80.31
391.411	84.31
391.636	89.31
391.86	76.31
392.085	96.31
392.31	81.31
392.534	90.31
392.759	74.31
392.984	97.31
393.208	100.31
393.433	100.31
393.658	89.31
393.882	86.31
394.107	82.31
394.331	80.31
394.556	92.31
394.78	87.31
395.005	68.31
395.229	95.31
395.454	100.31
395.678	86.31
395.903	101.31
396.127	112.31
396.352	95.31
396.576	89.31
396.801	98.31
397.025	75.31
397.249	87.31
397.474	100.31
397.698	82.31
397.922	94.31
398.147	83.31
398.371	87.31
398.595	89.31
398.82	90.31
399.044	89.31
399.268	95.31
399.492	82.31
399.717	71.31
399.941	80.31
400.165	94.31
400.389	86.31
400.613	74.31
400.837	61.31
401.062	90.31
401.286	74.31
401.51	86.31
401.734	78.31
401.958	87.31
402.182	96.31
402.406	76.31
402.63	75.31
402.854	73.31
403.078	88.31
403.302	76.31
403.526	88.31
403.75	89.31
403.974	85.31
404.198	82.31
404.422	127.31
404.645	110.31
404.869	115.31
405.093	97.31
405.317	93.31
405.541	93.31
405.765	92.31
405.988	89.31
406.212	85.31
406.436	80.31
406.66	97.31
406.883	94.31
407.107	88.31
407.331	85.31
407.555	76.31
407.778	87.31
408.002	81.31
408.226	90.31
408.449	80.31
408.673	89.31
408.896	94.31
409.12	89.31
409.344	72.31
409.567	79.31
409.791	89.31
410.014	95.31
410.238	81.31
410.461	86.31
410.685	73.31
410.908	81.31
411.132	91.31
411.355	76.31
411.578	83.31
411.802	87.31
412.025	73.31
412.249	80.31
412.472	86.31
412.695	94.31
412.919	89.31
413.142	80.31
413.365	76.31
413.589	90.31
413.812	72.31
414.035	85.31
414.258	90.31
414.482	72.31
414.705	70.31
414.928	98.31
415.151	94.31
415.374	80.31
415.597	88.31
415.821	90.31
416.044	80.31
416.267	86.31
416.49	80.31
416.713	90.31
416.936	81.31
417.159	80.31
417.382	69.31
417.605	83.31
417.828	93.31
418.051	94.31
418.274	85.31
418.497	91.31
418.72	85.31
418.943	89.31
419.166	89.31
419.389	87.31
419.611	88.31
419.834	90.31
420.057	84.31
420.28	81.31
420.503	84.31
420.726	91.31
420.948	77.31
421.171	73.31
421.394	89.31
421.617	81.31
421.839	88.31
422.062	89.31
422.285	104.31
422.507	119.31
422.73	138.31
422.953	127.31
423.175	95.31
423.398	86.31
423.621	93.31
423.843	84.31
424.066	69.31
424.288	79.31
424.511	84.31
424.733	74.31
424.956	85.31
425.178	93.31
425.401	88.31
425.623	84.31
425.846	93.31
426.068	87.31
426.291	79.31
426.513	87.31
426.735	81.31
426.958	80.31
427.18	97.31
427.402	86.31
427.625	73.31
427.847	81.31
428.069	76.31
428.292	94.31
428.514	101.31
428.736	81.31
428.958	80.31
429.181	95.31
429.403	72.31
429.625	88.31
429.847	100.31
430.069	112.31
430.292	99.31
430.514	100.31
430.736	81.31
430.958	94.31
431.18	77.31
431.402	85.31
431.624	77.31
431.846	96.31
432.068	104.31
432.29	91.31
432.512	101.31
432.734	79.31
432.956	70.31
433.178	84.31
433.4	104.31
433.622	83.31
433.844	82.31
434.066	81.31
434.287	92.31
434.509	98.31
434.731	84.31
434.953	75.31
435.175	77.31
435.397	75.31
435.618	75.31
435.84	86.31
436.062	81.31
436.284	84.31
436.505	81.31
436.727	75.31
436.949	89.31
437.17	81.31
437.392	81.31
437.614	98.31
437.835	66.31
438.057	84.31
438.278	80.31
438.5	90.31
438.721	84.31
438.943	93.31
439.165	68.31
439.386	78.31
439.608	87.31
439.829	93.31
440.05	84.31
440.272	87.31
440.493	86.31
440.715	82.31
440.936	80.31
441.158	89.31
441.379	77.31
441.6	66.31
441.822	81.31
442.043	80.31
442.264	79.31
442.486	100.31
442.707	100.31
442.928	94.31
443.149	78.31
443.371	88.31
443.592	106.31
443.813	104.31
444.034	92.31
444.255	90.31
444.476	94.31
444.698	100.31
444.919	79.31
445.14	134.31
445.361	110.31
445.582	112.31
445.803	102.31
446.024	91.31
446.245	88.31
446.466	81.31
446.687	85.31
446.908	90.31
447.129	92.31
447.35	89.31
447.571	85.31
447.792	89.31
448.013	81.31
448.234	79.31
448.455	72.31
448.675	101.31
448.896	86.31
449.117	86.31
449.338	85.31
449.559	93.31
449.779	80.31
450	95.31
450.221	85.31
450.442	86.31
450.662	77.31
450.883	78.31
451.104	93.31
451.324	69.31
451.545	84.31
451.766	98.31
451.986	90.31
452.207	67.31
452.428	86.31
452.648	85.31
452.869	93.31
453.089	89.31
453.31	75.31
453.53	82.31
453.751	78.31
453.971	74.31
454.192	74.31
454.412	83.31
454.633	90.31
454.853	82.31
455.073	82.31
455.294	78.31
455.514	81.31
455.734	79.31
455.955	81.31
456.175	80.31
456.395	89.31
456.616	91.31
456.836	95.31
457.056	70.31
457.276	91.31
457.497	81.31
457.717	88.31
457.937	81.31
458.157	85.31
458.377	71.31
458.598	93.31
458.818	83.31
459.038	78.31
459.258	82.31
459.478	80.31
459.698	72.31
459.918	84.31
460.138	82.31
460.358	98.31
460.578	85.31
460.798	95.31
461.018	95.31
461.238	98.31
461.458	80.31
461.678	77.31
461.898	88.31
462.118	88.31
462.338	67.31
462.558	85.31
462.777	86.31
462.997	79.31
463.217	83.31
463.437	92.31
463.657	73.31
463.876	83.31
464.096	93.31
464.316	83.31
464.536	84.31
464.755	79.31
464.975	95.31
465.195	83.31
465.414	84.31
465.634	87.31
465.854	86.31
466.073	72.31
466.293	80.31
466.512	80.31
466.732	79.31
466.951	85.31
467.171	95.31
467.391	83.31
467.61	86.31
467.829	77.31
468.049	86.31
468.268	78.31
468.488	85.31
468.707	79.31
468.927	85.31
469.146	89.31
469.365	77.31
469.585	73.31
469.804	86.31
470.023	78.31
470.243	86.31
470.462	78.31
470.681	73.31
470.901	88.31
471.12	88.31
471.339	74.31
471.558	106.31
471.777	77.31
471.997	79.31
472.216	78.31
472.435	85.31
472.654	72.31
472.873	106.31
473.092	88.31
473.311	87.31
473.53	89.31
473.749	86.31
473.968	82.31
474.187	91.31
474.406	88.31
474.625	80.31
474.844	97.31
475.063	101.31
475.282	86.31
475.501	94.31
475.72	84.31
475.939	94.31
476.158	92.31
476.377	81.31
476.596	88.31
476.814	80.31
477.033	82.31
477.252	83.31
477.471	79.31
477.69	69.31
477.908	80.31
478.127	86.31
478.346	96.31
478.564	86.31
478.783	74.31
479.002	80.31
479.22	80.31
479.439	104.31
479.658	91.31
479.876	83.31
480.095	74.31
480.313	88.31
480.532	67.31
480.751	77.31
480.969	78.31
481.188	90.31
481.406	95.31
481.624	81.31
481.843	91.31
482.061	87.31
482.28	98.31
482.498	77.31
482.717	87.31
482.935	85.31
483.153	89.31
483.372	82.31
483.59	90.31
483.808	72.31
484.027	85.31
484.245	85.31
484.463	87.31
484.681	76.31
484.9	91.31
485.118	105.31
485.336	94.31
485.554	86.31
485.772	82.31
485.99	80.31
486.209	87.31
486.427	93.31
486.645	93.31
486.863	77.31
487.081	81.31
487.299	78.31
487.517	90.31
487.735	94.31
487.953	95.31
488.171	77.31
488.389	76.31
488.607	84.31
488.825	65.31
489.043	86.31
489.261	90.31
489.479	80.31
489.696	94.31
489.914	76.31
490.132	85.31
490.35	76.31
490.568	78.31
490.786	86.31
491.003	84.31
491.221	69.31
491.439	103.31
491.657	86.31
491.874	77.31
492.092	96.31
492.31	88.31
492.527	94.31
492.745	86.31
492.963	79.31
493.18	93.31
493.398	76.31
493.615	90.31
493.833	83.31
494.05	92.31
494.268	82.31
494.485	87.31
494.703	101.31
494.92	81.31
495.138	101.31
495.355	86.31
495.573	95.31
495.79	84.31
496.008	82.31
496.225	92.31
496.442	93.31
496.66	97.31
496.877	80.31
497.094	92.31
497.312	99.31
497.529	79.31
497.746	81.31
497.963	86.31
498.181	92.31
498.398	83.31
498.615	89.31
498.832	84.31
499.049	96.31
499.267	89.31
499.484	85.31
499.701	89.31
499.918	84.31
500.135	101.31
500.352	84.31
500.569	86.31
500.786	81.31
501.003	78.31
501.22	71.31
501.437	78.31
501.654	95.31
501.871	91.31
502.088	76.31
502.305	76.31
502.522	86.31
502.739	81.31
502.956	90.31
503.172	80.31
503.389	83.31
503.606	90.31
503.823	90.31
504.04	85.31
504.256	88.31
504.473	95.31
504.69	82.31
504.907	102.31
505.123	91.31
505.34	89.31
505.557	85.31
505.773	72.31
505.99	73.31
506.207	93.31
506.423	93.31
506.64	87.31
506.856	76.31
507.073	80.31
507.289	84.31
507.506	77.31
507.722	85.31
507.939	71.31
508.155	94.31
508.372	81.31
508.588	84.31
508.805	92.31
509.021	86.31
509.238	90.31
509.454	95.31
509.67	79.31
509.887	88.31
510.103	90.31
510.319	101.31
510.536	86.31
510.752	86.31
510.968	98.31
511.184	100.31
511.401	84.31
511.617	97.31
511.833	97.31
512.049	86.31
512.265	90.31
512.481	87.31
512.698	96.31
512.914	82.31
513.13	97.31
513.346	84.31
513.562	84.31
513.778	88.31
513.994	85.31
514.21	88.31
514.426	86.31
514.642	93.31
514.858	90.31
515.074	82.31
515.29	84.31
515.506	77.31
515.721	88.31
515.937	87.31
516.153	89.31
516.369	90.31
516.585	78.31
516.801	96.31
517.016	96.31
517.232	86.31
517.448	88.31
517.664	84.31
517.879	79.31
518.095	85.31
518.311	88.31
518.527	77.31
518.742	94.31
518.958	94.31
519.173	94.31
