Data from Mixnoheat1_HRD10591_00015.txt Node
Date: Fri Dec 27 14:58:05 EST 2024
User: Yrep
Spectrometer: HR+D1059
Trigger mode: 1
Integration Time (sec): 1.000000E-1
Scans to average: 1
Electric dark correction enabled: true
Nonlinearity correction enabled: false
Boxcar width: 0
XAxis mode: Wavelengths
Number of Pixels in Spectrum: 2048
>>>>>Begin Spectral Data<<<<<
223.165	-7.44
223.4	-7.44
223.635	-7.44
223.869	-37.44
224.104	-40.44
224.338	-13.44
224.573	-11.44
224.808	-17.44
225.042	1.56
225.277	-2.44
225.511	10.56
225.746	0.56
225.98	25.56
226.215	16.56
226.449	23.56
226.683	18.56
226.918	23.56
227.152	9.56
227.387	14.56
227.621	35.56
227.856	42.56
228.09	52.56
228.324	49.56
228.559	56.56
228.793	58.56
229.027	67.56
229.262	68.56
229.496	62.56
229.73	63.56
229.964	73.56
230.199	62.56
230.433	68.56
230.667	80.56
230.901	78.56
231.136	80.56
231.37	90.56
231.604	85.56
231.838	81.56
232.072	75.56
232.306	85.56
232.541	72.56
232.775	84.56
233.009	81.56
233.243	86.56
233.477	72.56
233.711	98.56
233.945	87.56
234.179	88.56
234.413	66.56
234.647	71.56
234.881	73.56
235.115	76.56
235.349	77.56
235.583	80.56
235.817	72.56
236.051	81.56
236.285	75.56
236.519	74.56
236.753	69.56
236.987	72.56
237.221	82.56
237.455	81.56
237.689	85.56
237.922	105.56
238.156	84.56
238.39	68.56
238.624	80.56
238.858	73.56
239.091	77.56
239.325	75.56
239.559	83.56
239.793	67.56
240.027	78.56
240.26	72.56
240.494	80.56
240.728	73.56
240.961	72.56
241.195	72.56
241.429	65.56
241.662	68.56
241.896	62.56
242.13	64.56
242.363	80.56
242.597	69.56
242.83	78.56
243.064	84.56
243.298	73.56
243.531	67.56
243.765	68.56
243.998	67.56
244.232	81.56
244.465	76.56
244.699	77.56
244.932	78.56
245.166	83.56
245.399	75.56
245.633	81.56
245.866	71.56
246.099	84.56
246.333	79.56
246.566	61.56
246.8	77.56
247.033	68.56
247.266	89.56
247.5	71.56
247.733	69.56
247.966	68.56
248.2	77.56
248.433	71.56
248.666	72.56
248.899	77.56
249.133	82.56
249.366	76.56
249.599	80.56
249.832	68.56
250.066	80.56
250.299	67.56
250.532	82.56
250.765	79.56
250.998	73.56
251.231	69.56
251.465	88.56
251.698	89.56
251.931	89.56
252.164	78.56
252.397	71.56
252.63	66.56
252.863	82.56
253.096	80.56
253.329	76.56
253.562	87.56
253.795	73.56
254.028	77.56
254.261	77.56
254.494	76.56
254.727	78.56
254.96	79.56
255.193	66.56
255.426	68.56
255.659	74.56
255.892	77.56
256.124	90.56
256.357	73.56
256.59	83.56
256.823	76.56
257.056	81.56
257.289	66.56
257.521	78.56
257.754	78.56
257.987	80.56
258.22	75.56
258.452	64.56
258.685	75.56
258.918	85.56
259.151	75.56
259.383	68.56
259.616	86.56
259.849	74.56
260.081	70.56
260.314	73.56
260.547	82.56
260.779	90.56
261.012	81.56
261.244	76.56
261.477	78.56
261.71	71.56
261.942	86.56
262.175	85.56
262.407	85.56
262.64	74.56
262.872	81.56
263.105	80.56
263.337	88.56
263.57	75.56
263.802	88.56
264.035	78.56
264.267	80.56
264.499	72.56
264.732	76.56
264.964	80.56
265.197	85.56
265.429	83.56
265.661	80.56
265.894	67.56
266.126	86.56
266.358	82.56
266.591	89.56
266.823	83.56
267.055	75.56
267.287	66.56
267.52	70.56
267.752	91.56
267.984	75.56
268.216	91.56
268.448	74.56
268.681	76.56
268.913	93.56
269.145	76.56
269.377	83.56
269.609	92.56
269.841	86.56
270.073	83.56
270.306	88.56
270.538	78.56
270.77	68.56
271.002	64.56
271.234	77.56
271.466	91.56
271.698	68.56
271.93	71.56
272.162	78.56
272.394	92.56
272.626	76.56
272.858	68.56
273.09	85.56
273.322	83.56
273.553	80.56
273.785	90.56
274.017	85.56
274.249	83.56
274.481	94.56
274.713	73.56
274.945	63.56
275.176	74.56
275.408	83.56
275.64	77.56
275.872	88.56
276.104	91.56
276.335	92.56
276.567	89.56
276.799	85.56
277.031	78.56
277.262	79.56
277.494	79.56
277.726	92.56
277.957	86.56
278.189	84.56
278.421	73.56
278.652	73.56
278.884	67.56
279.115	71.56
279.347	80.56
279.579	68.56
279.81	77.56
280.042	90.56
280.273	82.56
280.505	72.56
280.736	87.56
280.968	78.56
281.199	92.56
281.431	88.56
281.662	94.56
281.894	73.56
282.125	90.56
282.356	64.56
282.588	73.56
282.819	87.56
283.051	78.56
283.282	81.56
283.513	90.56
283.745	67.56
283.976	78.56
284.207	77.56
284.439	76.56
284.67	76.56
284.901	66.56
285.132	78.56
285.364	74.56
285.595	80.56
285.826	88.56
286.057	82.56
286.288	82.56
286.52	90.56
286.751	90.56
286.982	90.56
287.213	106.56
287.444	89.56
287.675	80.56
287.906	84.56
288.138	80.56
288.369	86.56
288.6	83.56
288.831	82.56
289.062	71.56
289.293	73.56
289.524	69.56
289.755	87.56
289.986	84.56
290.217	77.56
290.448	77.56
290.679	73.56
290.91	82.56
291.141	83.56
291.371	85.56
291.602	81.56
291.833	76.56
292.064	85.56
292.295	82.56
292.526	82.56
292.757	91.56
292.987	76.56
293.218	80.56
293.449	84.56
293.68	76.56
293.91	80.56
294.141	92.56
294.372	81.56
294.603	82.56
294.833	95.56
295.064	96.56
295.295	85.56
295.525	79.56
295.756	68.56
295.987	76.56
296.217	85.56
296.448	73.56
296.679	81.56
296.909	86.56
297.14	78.56
297.37	75.56
297.601	82.56
297.831	91.56
298.062	81.56
298.292	77.56
298.523	78.56
298.753	93.56
298.984	89.56
299.214	84.56
299.445	92.56
299.675	83.56
299.905	81.56
300.136	90.56
300.366	87.56
300.597	79.56
300.827	82.56
301.057	88.56
301.288	88.56
301.518	71.56
301.748	90.56
301.979	101.56
302.209	81.56
302.439	80.56
302.669	67.56
302.9	93.56
303.13	74.56
303.36	94.56
303.59	81.56
303.82	96.56
304.051	85.56
304.281	81.56
304.511	94.56
304.741	76.56
304.971	75.56
305.201	69.56
305.431	71.56
305.661	91.56
305.891	74.56
306.121	75.56
306.352	77.56
306.582	84.56
306.812	86.56
307.042	88.56
307.272	82.56
307.502	94.56
307.731	80.56
307.961	70.56
308.191	84.56
308.421	74.56
308.651	93.56
308.881	89.56
309.111	75.56
309.341	69.56
309.571	79.56
309.8	90.56
310.03	77.56
310.26	89.56
310.49	85.56
310.72	87.56
310.949	83.56
311.179	87.56
311.409	83.56
311.639	69.56
311.868	97.56
312.098	76.56
312.328	96.56
312.557	86.56
312.787	77.56
313.017	68.56
313.246	82.56
313.476	84.56
313.706	89.56
313.935	84.56
314.165	75.56
314.394	80.56
314.624	78.56
314.853	88.56
315.083	77.56
315.312	90.56
315.542	67.56
315.771	70.56
316.001	73.56
316.23	90.56
316.46	87.56
316.689	82.56
316.919	73.56
317.148	86.56
317.377	83.56
317.607	79.56
317.836	78.56
318.065	82.56
318.295	83.56
318.524	88.56
318.753	80.56
318.983	80.56
319.212	83.56
319.441	87.56
319.67	72.56
319.9	82.56
320.129	91.56
320.358	84.56
320.587	84.56
320.816	76.56
321.046	71.56
321.275	81.56
321.504	77.56
321.733	80.56
321.962	96.56
322.191	91.56
322.42	83.56
322.649	98.56
322.878	85.56
323.108	74.56
323.337	89.56
323.566	73.56
323.795	76.56
324.024	71.56
324.253	94.56
324.482	77.56
324.71	96.56
324.939	94.56
325.168	88.56
325.397	68.56
325.626	84.56
325.855	88.56
326.084	84.56
326.313	85.56
326.542	81.56
326.77	92.56
326.999	81.56
327.228	88.56
327.457	99.56
327.686	84.56
327.914	81.56
328.143	75.56
328.372	86.56
328.6	87.56
328.829	79.56
329.058	85.56
329.287	80.56
329.515	77.56
329.744	80.56
329.972	87.56
330.201	81.56
330.43	68.56
330.658	81.56
330.887	75.56
331.115	82.56
331.344	83.56
331.572	89.56
331.801	85.56
332.03	74.56
332.258	75.56
332.486	76.56
332.715	76.56
332.943	81.56
333.172	68.56
333.4	74.56
333.629	86.56
333.857	91.56
334.085	86.56
334.314	73.56
334.542	75.56
334.771	87.56
334.999	86.56
335.227	83.56
335.455	83.56
335.684	81.56
335.912	76.56
336.14	80.56
336.369	75.56
336.597	83.56
336.825	84.56
337.053	80.56
337.281	83.56
337.51	66.56
337.738	84.56
337.966	68.56
338.194	74.56
338.422	82.56
338.65	79.56
338.878	83.56
339.106	73.56
339.334	80.56
339.562	85.56
339.79	84.56
340.018	71.56
340.246	86.56
340.474	89.56
340.702	86.56
340.93	73.56
341.158	76.56
341.386	87.56
341.614	86.56
341.842	78.56
342.07	78.56
342.298	88.56
342.526	78.56
342.754	81.56
342.981	74.56
343.209	81.56
343.437	87.56
343.665	60.56
343.893	77.56
344.12	89.56
344.348	77.56
344.576	86.56
344.804	91.56
345.031	90.56
345.259	81.56
345.487	91.56
345.714	85.56
345.942	86.56
346.17	80.56
346.397	82.56
346.625	95.56
346.853	89.56
347.08	84.56
347.308	74.56
347.535	96.56
347.763	77.56
347.99	80.56
348.218	84.56
348.445	85.56
348.673	76.56
348.9	75.56
349.128	70.56
349.355	68.56
349.583	90.56
349.81	80.56
350.037	88.56
350.265	94.56
350.492	77.56
350.72	69.56
350.947	77.56
351.174	84.56
351.402	77.56
351.629	89.56
351.856	93.56
352.083	84.56
352.311	91.56
352.538	86.56
352.765	85.56
352.992	98.56
353.22	84.56
353.447	87.56
353.674	88.56
353.901	93.56
354.128	77.56
354.355	84.56
354.583	93.56
354.81	75.56
355.037	89.56
355.264	60.56
355.491	75.56
355.718	78.56
355.945	83.56
356.172	77.56
356.399	86.56
356.626	72.56
356.853	77.56
357.08	80.56
357.307	80.56
357.534	97.56
357.761	73.56
357.988	85.56
358.215	78.56
358.441	78.56
358.668	84.56
358.895	90.56
359.122	83.56
359.349	89.56
359.576	88.56
359.802	85.56
360.029	71.56
360.256	68.56
360.483	80.56
360.709	77.56
360.936	98.56
361.163	85.56
361.39	79.56
361.616	85.56
361.843	76.56
362.07	84.56
362.296	83.56
362.523	70.56
362.749	89.56
362.976	86.56
363.203	96.56
363.429	84.56
363.656	79.56
363.882	85.56
364.109	85.56
364.335	89.56
364.562	74.56
364.788	81.56
365.015	98.56
365.241	76.56
365.468	103.56
365.694	85.56
365.92	94.56
366.147	69.56
366.373	80.56
366.599	83.56
366.826	76.56
367.052	82.56
367.278	68.56
367.505	82.56
367.731	82.56
367.957	84.56
368.184	73.56
368.41	74.56
368.636	77.56
368.862	89.56
369.089	89.56
369.315	81.56
369.541	81.56
369.767	82.56
369.993	77.56
370.219	83.56
370.445	74.56
370.672	88.56
370.898	91.56
371.124	84.56
371.35	72.56
371.576	74.56
371.802	77.56
372.028	83.56
372.254	80.56
372.48	82.56
372.706	70.56
372.932	80.56
373.158	82.56
373.384	87.56
373.61	78.56
373.835	85.56
374.061	80.56
374.287	73.56
374.513	82.56
374.739	80.56
374.965	83.56
375.191	79.56
375.416	74.56
375.642	85.56
375.868	68.56
376.094	76.56
376.319	75.56
376.545	81.56
376.771	88.56
376.997	76.56
377.222	77.56
377.448	72.56
377.674	94.56
377.899	80.56
378.125	83.56
378.35	85.56
378.576	77.56
378.802	84.56
379.027	101.56
379.253	80.56
379.478	82.56
379.704	68.56
379.929	78.56
380.155	77.56
380.38	75.56
380.606	83.56
380.831	80.56
381.057	72.56
381.282	84.56
381.507	82.56
381.733	89.56
381.958	74.56
382.184	83.56
382.409	79.56
382.634	78.56
382.86	75.56
383.085	76.56
383.31	78.56
383.535	73.56
383.761	74.56
383.986	83.56
384.211	75.56
384.436	83.56
384.662	74.56
384.887	77.56
385.112	70.56
385.337	83.56
385.562	89.56
385.787	81.56
386.013	91.56
386.238	79.56
386.463	87.56
386.688	88.56
386.913	86.56
387.138	76.56
387.363	84.56
387.588	81.56
387.813	69.56
388.038	75.56
388.263	96.56
388.488	68.56
388.713	82.56
388.938	76.56
389.163	74.56
389.387	98.56
389.612	96.56
389.837	85.56
390.062	72.56
390.287	81.56
390.512	82.56
390.736	75.56
390.961	87.56
391.186	91.56
391.411	70.56
391.636	82.56
391.86	85.56
392.085	99.56
392.31	89.56
392.534	82.56
392.759	79.56
392.984	82.56
393.208	85.56
393.433	119.56
393.658	91.56
393.882	87.56
394.107	96.56
394.331	96.56
394.556	77.56
394.78	79.56
395.005	89.56
395.229	84.56
395.454	91.56
395.678	64.56
395.903	84.56
396.127	92.56
396.352	102.56
396.576	98.56
396.801	100.56
397.025	92.56
397.249	75.56
397.474	75.56
397.698	72.56
397.922	83.56
398.147	67.56
398.371	80.56
398.595	76.56
398.82	85.56
399.044	72.56
399.268	73.56
399.492	81.56
399.717	72.56
399.941	86.56
400.165	77.56
400.389	74.56
400.613	73.56
400.837	77.56
401.062	85.56
401.286	83.56
401.51	82.56
401.734	69.56
401.958	62.56
402.182	80.56
402.406	77.56
402.63	86.56
402.854	70.56
403.078	87.56
403.302	72.56
403.526	91.56
403.75	84.56
403.974	72.56
404.198	75.56
404.422	88.56
404.645	81.56
404.869	103.56
405.093	79.56
405.317	85.56
405.541	82.56
405.765	79.56
405.988	74.56
406.212	82.56
406.436	81.56
406.66	85.56
406.883	81.56
407.107	77.56
407.331	72.56
407.555	80.56
407.778	69.56
408.002	77.56
408.226	77.56
408.449	84.56
408.673	72.56
408.896	71.56
409.12	85.56
409.344	93.56
409.567	77.56
409.791	86.56
410.014	78.56
410.238	88.56
410.461	79.56
410.685	86.56
410.908	74.56
411.132	79.56
411.355	73.56
411.578	74.56
411.802	77.56
412.025	83.56
412.249	76.56
412.472	78.56
412.695	81.56
412.919	71.56
413.142	79.56
413.365	75.56
413.589	74.56
413.812	81.56
414.035	86.56
414.258	68.56
414.482	74.56
414.705	68.56
414.928	78.56
415.151	68.56
415.374	79.56
415.597	70.56
415.821	73.56
416.044	80.56
416.267	83.56
416.49	75.56
416.713	79.56
416.936	79.56
417.159	93.56
417.382	94.56
417.605	77.56
417.828	76.56
418.051	78.56
418.274	82.56
418.497	82.56
418.72	90.56
418.943	75.56
419.166	80.56
419.389	83.56
419.611	75.56
419.834	78.56
420.057	72.56
420.28	75.56
420.503	62.56
420.726	82.56
420.948	90.56
421.171	87.56
421.394	85.56
421.617	81.56
421.839	78.56
422.062	86.56
422.285	86.56
422.507	94.56
422.73	121.56
422.953	117.56
423.175	85.56
423.398	91.56
423.621	96.56
423.843	76.56
424.066	76.56
424.288	82.56
424.511	70.56
424.733	77.56
424.956	90.56
425.178	87.56
425.401	85.56
425.623	80.56
425.846	76.56
426.068	90.56
426.291	85.56
426.513	69.56
426.735	80.56
426.958	84.56
427.18	91.56
427.402	87.56
427.625	82.56
427.847	82.56
428.069	86.56
428.292	80.56
428.514	74.56
428.736	81.56
428.958	84.56
429.181	104.56
429.403	83.56
429.625	96.56
429.847	85.56
430.069	91.56
430.292	92.56
430.514	98.56
430.736	92.56
430.958	79.56
431.18	82.56
431.402	65.56
431.624	89.56
431.846	85.56
432.068	101.56
432.29	84.56
432.512	81.56
432.734	85.56
432.956	97.56
433.178	86.56
433.4	86.56
433.622	63.56
433.844	79.56
434.066	76.56
434.287	91.56
434.509	67.56
434.731	86.56
434.953	73.56
435.175	70.56
435.397	78.56
435.618	76.56
435.84	88.56
436.062	80.56
436.284	67.56
436.505	83.56
436.727	81.56
436.949	77.56
437.17	54.56
437.392	89.56
437.614	82.56
437.835	87.56
438.057	79.56
438.278	86.56
438.5	90.56
438.721	75.56
438.943	81.56
439.165	86.56
439.386	78.56
439.608	92.56
439.829	86.56
440.05	84.56
440.272	92.56
440.493	86.56
440.715	83.56
440.936	81.56
441.158	80.56
441.379	90.56
441.6	64.56
441.822	84.56
442.043	88.56
442.264	82.56
442.486	95.56
442.707	92.56
442.928	85.56
443.149	77.56
443.371	98.56
443.592	84.56
443.813	93.56
444.034	87.56
444.255	71.56
444.476	80.56
444.698	77.56
444.919	89.56
445.14	136.56
445.361	104.56
445.582	111.56
445.803	94.56
446.024	75.56
446.245	79.56
446.466	81.56
446.687	80.56
446.908	86.56
447.129	84.56
447.35	83.56
447.571	72.56
447.792	77.56
448.013	70.56
448.234	68.56
448.455	72.56
448.675	68.56
448.896	82.56
449.117	82.56
449.338	75.56
449.559	77.56
449.779	92.56
450	98.56
450.221	81.56
450.442	79.56
450.662	83.56
450.883	89.56
451.104	89.56
451.324	87.56
451.545	87.56
451.766	78.56
451.986	73.56
452.207	76.56
452.428	76.56
452.648	80.56
452.869	93.56
453.089	73.56
453.31	81.56
453.53	86.56
453.751	87.56
453.971	81.56
454.192	69.56
454.412	76.56
454.633	90.56
454.853	74.56
455.073	72.56
455.294	85.56
455.514	68.56
455.734	89.56
455.955	89.56
456.175	97.56
456.395	77.56
456.616	76.56
456.836	71.56
457.056	85.56
457.276	94.56
457.497	92.56
457.717	77.56
457.937	75.56
458.157	72.56
458.377	92.56
458.598	79.56
458.818	70.56
459.038	95.56
459.258	72.56
459.478	79.56
459.698	72.56
459.918	89.56
460.138	92.56
460.358	75.56
460.578	73.56
460.798	81.56
461.018	78.56
461.238	84.56
461.458	88.56
461.678	102.56
461.898	92.56
462.118	80.56
462.338	78.56
462.558	82.56
462.777	79.56
462.997	69.56
463.217	76.56
463.437	81.56
463.657	70.56
463.876	85.56
464.096	86.56
464.316	80.56
464.536	65.56
464.755	73.56
464.975	78.56
465.195	81.56
465.414	77.56
465.634	69.56
465.854	81.56
466.073	74.56
466.293	80.56
466.512	72.56
466.732	66.56
466.951	74.56
467.171	74.56
467.391	76.56
467.61	79.56
467.829	84.56
468.049	70.56
468.268	61.56
468.488	84.56
468.707	76.56
468.927	74.56
469.146	73.56
469.365	90.56
469.585	81.56
469.804	91.56
470.023	82.56
470.243	76.56
470.462	87.56
470.681	87.56
470.901	83.56
471.12	77.56
471.339	82.56
471.558	68.56
471.777	77.56
471.997	75.56
472.216	91.56
472.435	83.56
472.654	85.56
472.873	81.56
473.092	71.56
473.311	81.56
473.53	79.56
473.749	79.56
473.968	75.56
474.187	76.56
474.406	75.56
474.625	79.56
474.844	80.56
475.063	80.56
475.282	81.56
475.501	82.56
475.72	94.56
475.939	81.56
476.158	86.56
476.377	78.56
476.596	75.56
476.814	82.56
477.033	98.56
477.252	74.56
477.471	86.56
477.69	70.56
477.908	87.56
478.127	93.56
478.346	81.56
478.564	75.56
478.783	85.56
479.002	76.56
479.22	82.56
479.439	66.56
479.658	75.56
479.876	77.56
480.095	90.56
480.313	88.56
480.532	96.56
480.751	80.56
480.969	84.56
481.188	82.56
481.406	84.56
481.624	78.56
481.843	77.56
482.061	83.56
482.28	71.56
482.498	81.56
482.717	73.56
482.935	73.56
483.153	90.56
483.372	69.56
483.59	78.56
483.808	78.56
484.027	80.56
484.245	79.56
484.463	83.56
484.681	84.56
484.9	80.56
485.118	93.56
485.336	86.56
485.554	85.56
485.772	71.56
485.99	82.56
486.209	82.56
486.427	73.56
486.645	89.56
486.863	79.56
487.081	81.56
487.299	73.56
487.517	97.56
487.735	79.56
487.953	93.56
488.171	104.56
488.389	80.56
488.607	80.56
488.825	78.56
489.043	72.56
489.261	82.56
489.479	76.56
489.696	77.56
489.914	87.56
490.132	83.56
490.35	92.56
490.568	79.56
490.786	86.56
491.003	68.56
491.221	66.56
491.439	75.56
491.657	85.56
491.874	85.56
492.092	78.56
492.31	85.56
492.527	80.56
492.745	81.56
492.963	84.56
493.18	106.56
493.398	84.56
493.615	77.56
493.833	95.56
494.05	88.56
494.268	77.56
494.485	69.56
494.703	85.56
494.92	91.56
495.138	92.56
495.355	75.56
495.573	87.56
495.79	97.56
496.008	79.56
496.225	85.56
496.442	88.56
496.66	86.56
496.877	88.56
497.094	87.56
497.312	89.56
497.529	72.56
497.746	86.56
497.963	72.56
498.181	70.56
498.398	73.56
498.615	76.56
498.832	81.56
499.049	88.56
499.267	84.56
499.484	84.56
499.701	84.56
499.918	78.56
500.135	73.56
500.352	91.56
500.569	87.56
500.786	88.56
501.003	73.56
501.22	65.56
501.437	79.56
501.654	75.56
501.871	70.56
502.088	80.56
502.305	77.56
502.522	80.56
502.739	77.56
502.956	71.56
503.172	71.56
503.389	82.56
503.606	84.56
503.823	85.56
504.04	77.56
504.256	90.56
504.473	77.56
504.69	77.56
504.907	100.56
505.123	78.56
505.34	97.56
505.557	77.56
505.773	97.56
505.99	63.56
506.207	82.56
506.423	83.56
506.64	74.56
506.856	81.56
507.073	73.56
507.289	93.56
507.506	64.56
507.722	74.56
507.939	89.56
508.155	85.56
508.372	89.56
508.588	73.56
508.805	89.56
509.021	83.56
509.238	76.56
509.454	80.56
509.67	82.56
509.887	84.56
510.103	81.56
510.319	81.56
510.536	70.56
510.752	74.56
510.968	77.56
511.184	80.56
511.401	81.56
511.617	84.56
511.833	94.56
512.049	85.56
512.265	90.56
512.481	76.56
512.698	84.56
512.914	85.56
513.13	85.56
513.346	78.56
513.562	81.56
513.778	76.56
513.994	75.56
514.21	74.56
514.426	72.56
514.642	70.56
514.858	72.56
515.074	76.56
515.29	88.56
515.506	83.56
515.721	68.56
515.937	94.56
516.153	86.56
516.369	83.56
516.585	83.56
516.801	84.56
517.016	82.56
517.232	91.56
517.448	82.56
517.664	89.56
517.879	74.56
518.095	70.56
518.311	72.56
518.527	87.56
518.742	81.56
518.958	73.56
519.173	76.56
519.389	85.56
519.605	85.56
519.82	96.56
520.036	92.56
