Data from Mixnoheat1_HRD10591_00003.txt Node
Date: Fri Dec 27 14:57:53 EST 2024
User: Yrep
Spectrometer: HR+D1059
Trigger mode: 1
Integration Time (sec): 1.000000E-1
Scans to average: 1
Electric dark correction enabled: true
Nonlinearity correction enabled: false
Boxcar width: 0
XAxis mode: Wavelengths
Number of Pixels in Spectrum: 2048
>>>>>Begin Spectral Data<<<<<
223.165	-16.31
223.4	-16.31
223.635	-16.31
223.869	-24.31
224.104	-21.31
224.338	-14.31
224.573	-18.31
224.808	-7.31
225.042	1.69
225.277	-11.31
225.511	3.69
225.746	11.69
225.98	11.69
226.215	7.69
226.449	13.69
226.683	11.69
226.918	24.69
227.152	26.69
227.387	34.69
227.621	34.69
227.856	48.69
228.09	59.69
228.324	47.69
228.559	52.69
228.793	56.69
229.027	63.69
229.262	69.69
229.496	53.69
229.73	67.69
229.964	84.69
230.199	74.69
230.433	80.69
230.667	86.69
230.901	81.69
231.136	64.69
231.37	79.69
231.604	76.69
231.838	83.69
232.072	56.69
232.306	84.69
232.541	76.69
232.775	84.69
233.009	77.69
233.243	79.69
233.477	83.69
233.711	82.69
233.945	68.69
234.179	80.69
234.413	80.69
234.647	76.69
234.881	87.69
235.115	83.69
235.349	88.69
235.583	83.69
235.817	67.69
236.051	65.69
236.285	72.69
236.519	72.69
236.753	77.69
236.987	72.69
237.221	76.69
237.455	74.69
237.689	81.69
237.922	81.69
238.156	70.69
238.39	67.69
238.624	86.69
238.858	83.69
239.091	81.69
239.325	71.69
239.559	75.69
239.793	72.69
240.027	67.69
240.26	75.69
240.494	77.69
240.728	84.69
240.961	67.69
241.195	68.69
241.429	91.69
241.662	81.69
241.896	91.69
242.13	83.69
242.363	95.69
242.597	89.69
242.83	85.69
243.064	79.69
243.298	76.69
243.531	71.69
243.765	65.69
243.998	71.69
244.232	72.69
244.465	70.69
244.699	66.69
244.932	69.69
245.166	62.69
245.399	79.69
245.633	81.69
245.866	79.69
246.099	55.69
246.333	65.69
246.566	79.69
246.8	80.69
247.033	86.69
247.266	94.69
247.5	79.69
247.733	91.69
247.966	93.69
248.2	76.69
248.433	79.69
248.666	67.69
248.899	79.69
249.133	67.69
249.366	75.69
249.599	89.69
249.832	88.69
250.066	77.69
250.299	87.69
250.532	76.69
250.765	80.69
250.998	87.69
251.231	86.69
251.465	86.69
251.698	74.69
251.931	81.69
252.164	73.69
252.397	84.69
252.63	70.69
252.863	74.69
253.096	75.69
253.329	75.69
253.562	72.69
253.795	83.69
254.028	75.69
254.261	83.69
254.494	75.69
254.727	88.69
254.96	80.69
255.193	84.69
255.426	79.69
255.659	70.69
255.892	80.69
256.124	61.69
256.357	89.69
256.59	81.69
256.823	70.69
257.056	81.69
257.289	85.69
257.521	74.69
257.754	73.69
257.987	83.69
258.22	79.69
258.452	84.69
258.685	86.69
258.918	77.69
259.151	72.69
259.383	80.69
259.616	83.69
259.849	77.69
260.081	82.69
260.314	67.69
260.547	81.69
260.779	69.69
261.012	85.69
261.244	64.69
261.477	86.69
261.71	76.69
261.942	80.69
262.175	93.69
262.407	69.69
262.64	92.69
262.872	88.69
263.105	80.69
263.337	82.69
263.57	76.69
263.802	81.69
264.035	82.69
264.267	75.69
264.499	70.69
264.732	72.69
264.964	78.69
265.197	79.69
265.429	76.69
265.661	100.69
265.894	87.69
266.126	79.69
266.358	90.69
266.591	81.69
266.823	91.69
267.055	81.69
267.287	84.69
267.52	89.69
267.752	77.69
267.984	83.69
268.216	76.69
268.448	89.69
268.681	83.69
268.913	96.69
269.145	89.69
269.377	97.69
269.609	91.69
269.841	89.69
270.073	104.69
270.306	76.69
270.538	82.69
270.77	81.69
271.002	82.69
271.234	95.69
271.466	63.69
271.698	72.69
271.93	74.69
272.162	79.69
272.394	86.69
272.626	86.69
272.858	91.69
273.09	81.69
273.322	84.69
273.553	85.69
273.785	70.69
274.017	72.69
274.249	86.69
274.481	79.69
274.713	78.69
274.945	90.69
275.176	95.69
275.408	91.69
275.64	70.69
275.872	86.69
276.104	80.69
276.335	73.69
276.567	89.69
276.799	88.69
277.031	80.69
277.262	92.69
277.494	82.69
277.726	84.69
277.957	84.69
278.189	76.69
278.421	82.69
278.652	83.69
278.884	72.69
279.115	87.69
279.347	81.69
279.579	88.69
279.81	92.69
280.042	88.69
280.273	82.69
280.505	93.69
280.736	88.69
280.968	91.69
281.199	88.69
281.431	76.69
281.662	84.69
281.894	86.69
282.125	84.69
282.356	87.69
282.588	79.69
282.819	98.69
283.051	74.69
283.282	96.69
283.513	70.69
283.745	87.69
283.976	84.69
284.207	87.69
284.439	67.69
284.67	86.69
284.901	80.69
285.132	90.69
285.364	84.69
285.595	80.69
285.826	97.69
286.057	97.69
286.288	96.69
286.52	69.69
286.751	87.69
286.982	79.69
287.213	81.69
287.444	85.69
287.675	97.69
287.906	85.69
288.138	80.69
288.369	97.69
288.6	82.69
288.831	67.69
289.062	84.69
289.293	91.69
289.524	75.69
289.755	85.69
289.986	77.69
290.217	76.69
290.448	92.69
290.679	82.69
290.91	82.69
291.141	76.69
291.371	72.69
291.602	83.69
291.833	77.69
292.064	87.69
292.295	77.69
292.526	85.69
292.757	84.69
292.987	97.69
293.218	88.69
293.449	92.69
293.68	89.69
293.91	82.69
294.141	78.69
294.372	91.69
294.603	100.69
294.833	80.69
295.064	91.69
295.295	105.69
295.525	79.69
295.756	67.69
295.987	93.69
296.217	89.69
296.448	99.69
296.679	97.69
296.909	72.69
297.14	86.69
297.37	74.69
297.601	76.69
297.831	81.69
298.062	82.69
298.292	79.69
298.523	74.69
298.753	99.69
298.984	81.69
299.214	89.69
299.445	82.69
299.675	81.69
299.905	83.69
300.136	78.69
300.366	80.69
300.597	85.69
300.827	91.69
301.057	87.69
301.288	78.69
301.518	87.69
301.748	77.69
301.979	97.69
302.209	88.69
302.439	91.69
302.669	95.69
302.9	88.69
303.13	85.69
303.36	79.69
303.59	81.69
303.82	87.69
304.051	86.69
304.281	75.69
304.511	89.69
304.741	73.69
304.971	89.69
305.201	92.69
305.431	95.69
305.661	90.69
305.891	72.69
306.121	85.69
306.352	103.69
306.582	88.69
306.812	91.69
307.042	75.69
307.272	93.69
307.502	86.69
307.731	84.69
307.961	85.69
308.191	73.69
308.421	87.69
308.651	72.69
308.881	79.69
309.111	85.69
309.341	83.69
309.571	90.69
309.8	87.69
310.03	90.69
310.26	69.69
310.49	88.69
310.72	83.69
310.949	79.69
311.179	91.69
311.409	86.69
311.639	84.69
311.868	77.69
312.098	78.69
312.328	72.69
312.557	81.69
312.787	87.69
313.017	85.69
313.246	70.69
313.476	77.69
313.706	83.69
313.935	85.69
314.165	92.69
314.394	78.69
314.624	78.69
314.853	75.69
315.083	88.69
315.312	79.69
315.542	91.69
315.771	104.69
316.001	91.69
316.23	83.69
316.46	77.69
316.689	83.69
316.919	83.69
317.148	76.69
317.377	98.69
317.607	84.69
317.836	79.69
318.065	83.69
318.295	88.69
318.524	83.69
318.753	86.69
318.983	82.69
319.212	75.69
319.441	86.69
319.67	88.69
319.9	87.69
320.129	80.69
320.358	68.69
320.587	87.69
320.816	94.69
321.046	98.69
321.275	95.69
321.504	81.69
321.733	82.69
321.962	81.69
322.191	87.69
322.42	102.69
322.649	93.69
322.878	99.69
323.108	85.69
323.337	78.69
323.566	88.69
323.795	90.69
324.024	92.69
324.253	71.69
324.482	80.69
324.71	71.69
324.939	85.69
325.168	85.69
325.397	90.69
325.626	76.69
325.855	93.69
326.084	95.69
326.313	71.69
326.542	79.69
326.77	92.69
326.999	87.69
327.228	83.69
327.457	85.69
327.686	84.69
327.914	98.69
328.143	85.69
328.372	75.69
328.6	86.69
328.829	75.69
329.058	77.69
329.287	100.69
329.515	86.69
329.744	82.69
329.972	99.69
330.201	75.69
330.43	79.69
330.658	82.69
330.887	80.69
331.115	89.69
331.344	70.69
331.572	100.69
331.801	90.69
332.03	97.69
332.258	89.69
332.486	76.69
332.715	99.69
332.943	73.69
333.172	85.69
333.4	87.69
333.629	73.69
333.857	82.69
334.085	82.69
334.314	92.69
334.542	89.69
334.771	88.69
334.999	70.69
335.227	92.69
335.455	83.69
335.684	92.69
335.912	99.69
336.14	88.69
336.369	86.69
336.597	84.69
336.825	87.69
337.053	83.69
337.281	72.69
337.51	103.69
337.738	92.69
337.966	85.69
338.194	81.69
338.422	92.69
338.65	100.69
338.878	75.69
339.106	91.69
339.334	84.69
339.562	95.69
339.79	79.69
340.018	90.69
340.246	81.69
340.474	87.69
340.702	88.69
340.93	82.69
341.158	85.69
341.386	79.69
341.614	77.69
341.842	97.69
342.07	92.69
342.298	85.69
342.526	100.69
342.754	91.69
342.981	76.69
343.209	96.69
343.437	105.69
343.665	83.69
343.893	72.69
344.12	76.69
344.348	83.69
344.576	77.69
344.804	84.69
345.031	83.69
345.259	97.69
345.487	85.69
345.714	83.69
345.942	77.69
346.17	76.69
346.397	82.69
346.625	84.69
346.853	85.69
347.08	72.69
347.308	78.69
347.535	95.69
347.763	80.69
347.99	92.69
348.218	85.69
348.445	83.69
348.673	81.69
348.9	98.69
349.128	97.69
349.355	81.69
349.583	80.69
349.81	74.69
350.037	70.69
350.265	83.69
350.492	69.69
350.72	83.69
350.947	78.69
351.174	81.69
351.402	75.69
351.629	95.69
351.856	95.69
352.083	84.69
352.311	90.69
352.538	78.69
352.765	86.69
352.992	83.69
353.22	89.69
353.447	91.69
353.674	84.69
353.901	91.69
354.128	83.69
354.355	99.69
354.583	75.69
354.81	73.69
355.037	88.69
355.264	87.69
355.491	84.69
355.718	99.69
355.945	91.69
356.172	76.69
356.399	89.69
356.626	107.69
356.853	88.69
357.08	93.69
357.307	72.69
357.534	90.69
357.761	97.69
357.988	79.69
358.215	82.69
358.441	95.69
358.668	81.69
358.895	76.69
359.122	79.69
359.349	96.69
359.576	81.69
359.802	79.69
360.029	87.69
360.256	89.69
360.483	72.69
360.709	90.69
360.936	95.69
361.163	82.69
361.39	86.69
361.616	79.69
361.843	76.69
362.07	92.69
362.296	83.69
362.523	93.69
362.749	85.69
362.976	77.69
363.203	86.69
363.429	87.69
363.656	95.69
363.882	73.69
364.109	104.69
364.335	87.69
364.562	80.69
364.788	82.69
365.015	85.69
365.241	86.69
365.468	79.69
365.694	71.69
365.92	86.69
366.147	76.69
366.373	86.69
366.599	89.69
366.826	85.69
367.052	87.69
367.278	92.69
367.505	81.69
367.731	89.69
367.957	83.69
368.184	80.69
368.41	87.69
368.636	89.69
368.862	84.69
369.089	87.69
369.315	85.69
369.541	66.69
369.767	95.69
369.993	78.69
370.219	89.69
370.445	83.69
370.672	83.69
370.898	59.69
371.124	99.69
371.35	77.69
371.576	79.69
371.802	79.69
372.028	95.69
372.254	83.69
372.48	84.69
372.706	83.69
372.932	95.69
373.158	79.69
373.384	85.69
373.61	99.69
373.835	85.69
374.061	78.69
374.287	87.69
374.513	81.69
374.739	87.69
374.965	84.69
375.191	97.69
375.416	85.69
375.642	83.69
375.868	84.69
376.094	88.69
376.319	89.69
376.545	72.69
376.771	85.69
376.997	87.69
377.222	81.69
377.448	70.69
377.674	97.69
377.899	73.69
378.125	83.69
378.35	78.69
378.576	86.69
378.802	95.69
379.027	83.69
379.253	109.69
379.478	90.69
379.704	82.69
379.929	82.69
380.155	75.69
380.38	73.69
380.606	81.69
380.831	80.69
381.057	82.69
381.282	74.69
381.507	88.69
381.733	97.69
381.958	91.69
382.184	77.69
382.409	91.69
382.634	77.69
382.86	85.69
383.085	88.69
383.31	87.69
383.535	78.69
383.761	92.69
383.986	69.69
384.211	79.69
384.436	73.69
384.662	87.69
384.887	77.69
385.112	77.69
385.337	96.69
385.562	83.69
385.787	97.69
386.013	100.69
386.238	87.69
386.463	90.69
386.688	75.69
386.913	79.69
387.138	84.69
387.363	86.69
387.588	86.69
387.813	79.69
388.038	79.69
388.263	83.69
388.488	89.69
388.713	96.69
388.938	80.69
389.163	90.69
389.387	74.69
389.612	77.69
389.837	78.69
390.062	95.69
390.287	89.69
390.512	80.69
390.736	78.69
390.961	79.69
391.186	68.69
391.411	74.69
391.636	79.69
391.86	89.69
392.085	92.69
392.31	81.69
392.534	81.69
392.759	93.69
392.984	99.69
393.208	117.69
393.433	149.69
393.658	130.69
393.882	98.69
394.107	100.69
394.331	100.69
394.556	109.69
394.78	90.69
395.005	88.69
395.229	91.69
395.454	97.69
395.678	102.69
395.903	104.69
396.127	101.69
396.352	121.69
396.576	109.69
396.801	116.69
397.025	136.69
397.249	107.69
397.474	97.69
397.698	96.69
397.922	86.69
398.147	86.69
398.371	88.69
398.595	92.69
398.82	83.69
399.044	81.69
399.268	84.69
399.492	85.69
399.717	84.69
399.941	89.69
400.165	93.69
400.389	76.69
400.613	78.69
400.837	86.69
401.062	81.69
401.286	79.69
401.51	91.69
401.734	81.69
401.958	69.69
402.182	80.69
402.406	72.69
402.63	80.69
402.854	93.69
403.078	59.69
403.302	100.69
403.526	75.69
403.75	98.69
403.974	86.69
404.198	103.69
404.422	116.69
404.645	133.69
404.869	99.69
405.093	108.69
405.317	98.69
405.541	76.69
405.765	85.69
405.988	72.69
406.212	79.69
406.436	86.69
406.66	83.69
406.883	92.69
407.107	86.69
407.331	89.69
407.555	99.69
407.778	89.69
408.002	67.69
408.226	85.69
408.449	88.69
408.673	97.69
408.896	85.69
409.12	73.69
409.344	73.69
409.567	74.69
409.791	79.69
410.014	95.69
410.238	75.69
410.461	74.69
410.685	83.69
410.908	77.69
411.132	83.69
411.355	71.69
411.578	99.69
411.802	92.69
412.025	76.69
412.249	77.69
412.472	80.69
412.695	92.69
412.919	83.69
413.142	76.69
413.365	95.69
413.589	78.69
413.812	74.69
414.035	79.69
414.258	74.69
414.482	73.69
414.705	71.69
414.928	84.69
415.151	77.69
415.374	72.69
415.597	76.69
415.821	81.69
416.044	77.69
416.267	91.69
416.49	82.69
416.713	93.69
416.936	79.69
417.159	80.69
417.382	92.69
417.605	93.69
417.828	82.69
418.051	73.69
418.274	87.69
418.497	86.69
418.72	70.69
418.943	81.69
419.166	77.69
419.389	71.69
419.611	81.69
419.834	76.69
420.057	77.69
420.28	85.69
420.503	77.69
420.726	79.69
420.948	87.69
421.171	77.69
421.394	87.69
421.617	100.69
421.839	87.69
422.062	109.69
422.285	129.69
422.507	154.69
422.73	192.69
422.953	170.69
423.175	117.69
423.398	113.69
423.621	99.69
423.843	99.69
424.066	88.69
424.288	94.69
424.511	95.69
424.733	85.69
424.956	79.69
425.178	91.69
425.401	82.69
425.623	89.69
425.846	91.69
426.068	79.69
426.291	81.69
426.513	86.69
426.735	87.69
426.958	93.69
427.18	83.69
427.402	85.69
427.625	75.69
427.847	84.69
428.069	87.69
428.292	91.69
428.514	119.69
428.736	104.69
428.958	93.69
429.181	119.69
429.403	85.69
429.625	93.69
429.847	99.69
430.069	117.69
430.292	127.69
430.514	107.69
430.736	122.69
430.958	106.69
431.18	76.69
431.402	88.69
431.624	99.69
431.846	108.69
432.068	106.69
432.29	82.69
432.512	89.69
432.734	68.69
432.956	96.69
433.178	80.69
433.4	71.69
433.622	84.69
433.844	89.69
434.066	76.69
434.287	79.69
434.509	77.69
434.731	83.69
434.953	75.69
435.175	82.69
435.397	78.69
435.618	83.69
435.84	75.69
436.062	89.69
436.284	84.69
436.505	91.69
436.727	98.69
436.949	86.69
437.17	90.69
437.392	86.69
437.614	82.69
437.835	80.69
438.057	83.69
438.278	90.69
438.5	74.69
438.721	73.69
438.943	84.69
439.165	83.69
439.386	82.69
439.608	80.69
439.829	85.69
440.05	79.69
440.272	85.69
440.493	64.69
440.715	84.69
440.936	82.69
441.158	80.69
441.379	85.69
441.6	70.69
441.822	99.69
442.043	90.69
442.264	96.69
442.486	109.69
442.707	115.69
442.928	84.69
443.149	98.69
443.371	117.69
443.592	167.69
443.813	123.69
444.034	94.69
444.255	95.69
444.476	82.69
444.698	93.69
444.919	86.69
445.14	150.69
445.361	146.69
445.582	190.69
445.803	151.69
446.024	86.69
446.245	97.69
446.466	69.69
446.687	72.69
446.908	63.69
447.129	74.69
447.35	74.69
447.571	80.69
447.792	74.69
448.013	79.69
448.234	93.69
448.455	88.69
448.675	80.69
448.896	84.69
449.117	86.69
449.338	72.69
449.559	85.69
449.779	79.69
450	85.69
450.221	84.69
450.442	76.69
450.662	102.69
450.883	82.69
451.104	80.69
451.324	89.69
451.545	94.69
451.766	86.69
451.986	88.69
452.207	92.69
452.428	78.69
452.648	89.69
452.869	90.69
453.089	93.69
453.31	86.69
453.53	101.69
453.751	78.69
453.971	82.69
454.192	85.69
454.412	71.69
454.633	85.69
454.853	83.69
455.073	73.69
455.294	83.69
455.514	81.69
455.734	82.69
455.955	92.69
456.175	86.69
456.395	73.69
456.616	82.69
456.836	77.69
457.056	97.69
457.276	92.69
457.497	105.69
457.717	71.69
457.937	75.69
458.157	83.69
458.377	91.69
458.598	91.69
458.818	110.69
459.038	91.69
459.258	86.69
459.478	80.69
459.698	81.69
459.918	97.69
460.138	88.69
460.358	84.69
460.578	79.69
460.798	95.69
461.018	90.69
461.238	84.69
461.458	84.69
461.678	87.69
461.898	92.69
462.118	92.69
462.338	86.69
462.558	91.69
462.777	71.69
462.997	91.69
463.217	96.69
463.437	72.69
463.657	74.69
463.876	81.69
464.096	89.69
464.316	84.69
464.536	83.69
464.755	92.69
464.975	88.69
465.195	90.69
465.414	92.69
465.634	94.69
465.854	86.69
466.073	77.69
466.293	73.69
466.512	91.69
466.732	82.69
466.951	95.69
467.171	72.69
467.391	78.69
467.61	78.69
467.829	70.69
468.049	96.69
468.268	81.69
468.488	71.69
468.707	85.69
468.927	80.69
469.146	75.69
469.365	83.69
469.585	77.69
469.804	80.69
470.023	91.69
470.243	85.69
470.462	95.69
470.681	93.69
470.901	80.69
471.12	83.69
471.339	79.69
471.558	76.69
471.777	90.69
471.997	72.69
472.216	78.69
472.435	84.69
472.654	100.69
472.873	84.69
473.092	92.69
473.311	89.69
473.53	98.69
473.749	81.69
473.968	80.69
474.187	87.69
474.406	85.69
474.625	95.69
474.844	76.69
475.063	78.69
475.282	77.69
475.501	87.69
475.72	92.69
475.939	86.69
476.158	77.69
476.377	89.69
476.596	84.69
476.814	74.69
477.033	89.69
477.252	84.69
477.471	76.69
477.69	89.69
477.908	87.69
478.127	75.69
478.346	88.69
478.564	86.69
478.783	87.69
479.002	82.69
479.22	86.69
479.439	95.69
479.658	79.69
479.876	72.69
480.095	91.69
480.313	86.69
480.532	88.69
480.751	83.69
480.969	84.69
481.188	92.69
481.406	82.69
481.624	82.69
481.843	83.69
482.061	73.69
482.28	90.69
482.498	92.69
482.717	78.69
482.935	89.69
483.153	83.69
483.372	67.69
483.59	73.69
483.808	80.69
484.027	82.69
484.245	80.69
484.463	89.69
484.681	76.69
484.9	78.69
485.118	76.69
485.336	92.69
485.554	72.69
485.772	75.69
485.99	75.69
486.209	83.69
486.427	82.69
486.645	85.69
486.863	89.69
487.081	96.69
487.299	99.69
487.517	106.69
487.735	101.69
487.953	112.69
488.171	97.69
488.389	89.69
488.607	93.69
488.825	83.69
489.043	90.69
489.261	92.69
489.479	96.69
489.696	87.69
489.914	90.69
490.132	87.69
490.35	83.69
490.568	90.69
490.786	87.69
491.003	90.69
491.221	81.69
491.439	95.69
491.657	88.69
491.874	95.69
492.092	77.69
492.31	89.69
492.527	63.69
492.745	83.69
492.963	81.69
493.18	88.69
493.398	89.69
493.615	81.69
493.833	86.69
494.05	100.69
494.268	85.69
494.485	88.69
494.703	91.69
494.92	88.69
495.138	87.69
495.355	97.69
495.573	99.69
495.79	99.69
496.008	92.69
496.225	77.69
496.442	80.69
496.66	95.69
496.877	85.69
497.094	97.69
497.312	80.69
497.529	83.69
497.746	95.69
497.963	91.69
498.181	85.69
498.398	95.69
498.615	84.69
498.832	85.69
499.049	89.69
499.267	100.69
499.484	85.69
499.701	87.69
499.918	117.69
500.135	102.69
500.352	76.69
500.569	88.69
500.786	91.69
501.003	95.69
501.22	95.69
501.437	101.69
501.654	110.69
501.871	96.69
502.088	77.69
502.305	87.69
502.522	79.69
502.739	80.69
502.956	80.69
503.172	84.69
503.389	84.69
503.606	77.69
503.823	83.69
504.04	106.69
504.256	90.69
504.473	94.69
504.69	77.69
504.907	105.69
505.123	73.69
505.34	80.69
505.557	75.69
505.773	86.69
505.99	95.69
506.207	75.69
506.423	81.69
506.64	76.69
506.856	69.69
507.073	83.69
507.289	97.69
507.506	76.69
507.722	97.69
507.939	95.69
508.155	87.69
508.372	92.69
508.588	82.69
508.805	88.69
509.021	99.69
509.238	79.69
509.454	90.69
509.67	101.69
509.887	91.69
510.103	86.69
510.319	89.69
510.536	91.69
510.752	87.69
510.968	93.69
511.184	81.69
511.401	76.69
511.617	91.69
511.833	95.69
512.049	91.69
512.265	89.69
512.481	65.69
512.698	88.69
512.914	75.69
513.13	70.69
513.346	85.69
513.562	93.69
513.778	95.69
513.994	90.69
514.21	93.69
514.426	92.69
514.642	93.69
514.858	90.69
515.074	83.69
515.29	96.69
515.506	95.69
515.721	94.69
515.937	81.69
516.153	88.69
516.369	80.69
516.585	81.69
516.801	83.69
517.016	82.69
517.232	84.69
517.448	92.69
517.664	90.69
517.879	77.69
518.095	85.69
518.311	87.69
518.527	88.69
518.742	99.69
518.958	109.69
519.173	101.69
