Data from Mixnoheat1_HRD10591_00004.txt Node
Date: Fri Dec 27 14:57:54 EST 2024
User: Yrep
Spectrometer: HR+D1059
Trigger mode: 1
Integration Time (sec): 1.000000E-1
Scans to average: 1
Electric dark correction enabled: true
Nonlinearity correction enabled: false
Boxcar width: 0
XAxis mode: Wavelengths
Number of Pixels in Spectrum: 2048
>>>>>Begin Spectral Data<<<<<
223.165	-10.56
223.4	-10.56
223.635	-10.56
223.869	-11.56
224.104	-24.56
224.338	-8.56
224.573	-10.56
224.808	-6.56
225.042	-13.56
225.277	-20.56
225.511	-6.56
225.746	5.44
225.98	9.44
226.215	17.44
226.449	10.44
226.683	17.44
226.918	27.44
227.152	25.44
227.387	32.44
227.621	50.44
227.856	55.44
228.09	40.44
228.324	52.44
228.559	49.44
228.793	48.44
229.027	65.44
229.262	81.44
229.496	76.44
229.73	70.44
229.964	64.44
230.199	67.44
230.433	73.44
230.667	74.44
230.901	66.44
231.136	84.44
231.37	76.44
231.604	83.44
231.838	79.44
232.072	86.44
232.306	93.44
232.541	85.44
232.775	83.44
233.009	86.44
233.243	89.44
233.477	96.44
233.711	78.44
233.945	87.44
234.179	86.44
234.413	72.44
234.647	74.44
234.881	95.44
235.115	69.44
235.349	70.44
235.583	75.44
235.817	80.44
236.051	71.44
236.285	87.44
236.519	81.44
236.753	71.44
236.987	72.44
237.221	82.44
237.455	85.44
237.689	78.44
237.922	72.44
238.156	73.44
238.39	79.44
238.624	77.44
238.858	74.44
239.091	95.44
239.325	75.44
239.559	71.44
239.793	76.44
240.027	82.44
240.26	62.44
240.494	88.44
240.728	55.44
240.961	82.44
241.195	87.44
241.429	66.44
241.662	76.44
241.896	73.44
242.13	80.44
242.363	79.44
242.597	70.44
242.83	83.44
243.064	78.44
243.298	76.44
243.531	80.44
243.765	74.44
243.998	66.44
244.232	69.44
244.465	63.44
244.699	74.44
244.932	75.44
245.166	65.44
245.399	89.44
245.633	76.44
245.866	82.44
246.099	81.44
246.333	85.44
246.566	67.44
246.8	70.44
247.033	62.44
247.266	72.44
247.5	64.44
247.733	92.44
247.966	77.44
248.2	78.44
248.433	85.44
248.666	70.44
248.899	72.44
249.133	79.44
249.366	85.44
249.599	84.44
249.832	79.44
250.066	79.44
250.299	78.44
250.532	84.44
250.765	89.44
250.998	86.44
251.231	76.44
251.465	70.44
251.698	75.44
251.931	78.44
252.164	74.44
252.397	80.44
252.63	76.44
252.863	69.44
253.096	78.44
253.329	87.44
253.562	72.44
253.795	74.44
254.028	76.44
254.261	80.44
254.494	70.44
254.727	85.44
254.96	83.44
255.193	76.44
255.426	76.44
255.659	74.44
255.892	80.44
256.124	76.44
256.357	75.44
256.59	77.44
256.823	72.44
257.056	86.44
257.289	81.44
257.521	74.44
257.754	72.44
257.987	87.44
258.22	72.44
258.452	77.44
258.685	79.44
258.918	71.44
259.151	83.44
259.383	93.44
259.616	83.44
259.849	86.44
260.081	85.44
260.314	90.44
260.547	78.44
260.779	80.44
261.012	86.44
261.244	74.44
261.477	74.44
261.71	78.44
261.942	73.44
262.175	69.44
262.407	74.44
262.64	77.44
262.872	61.44
263.105	78.44
263.337	88.44
263.57	84.44
263.802	89.44
264.035	85.44
264.267	89.44
264.499	77.44
264.732	76.44
264.964	81.44
265.197	78.44
265.429	94.44
265.661	85.44
265.894	73.44
266.126	95.44
266.358	80.44
266.591	95.44
266.823	85.44
267.055	90.44
267.287	99.44
267.52	80.44
267.752	90.44
267.984	81.44
268.216	86.44
268.448	80.44
268.681	66.44
268.913	73.44
269.145	82.44
269.377	77.44
269.609	80.44
269.841	78.44
270.073	84.44
270.306	82.44
270.538	64.44
270.77	81.44
271.002	79.44
271.234	78.44
271.466	91.44
271.698	86.44
271.93	84.44
272.162	94.44
272.394	82.44
272.626	72.44
272.858	98.44
273.09	96.44
273.322	85.44
273.553	84.44
273.785	89.44
274.017	75.44
274.249	76.44
274.481	91.44
274.713	79.44
274.945	91.44
275.176	89.44
275.408	87.44
275.64	84.44
275.872	82.44
276.104	76.44
276.335	88.44
276.567	74.44
276.799	82.44
277.031	76.44
277.262	98.44
277.494	90.44
277.726	103.44
277.957	80.44
278.189	82.44
278.421	78.44
278.652	77.44
278.884	94.44
279.115	84.44
279.347	85.44
279.579	98.44
279.81	72.44
280.042	79.44
280.273	96.44
280.505	81.44
280.736	70.44
280.968	78.44
281.199	99.44
281.431	81.44
281.662	71.44
281.894	73.44
282.125	84.44
282.356	87.44
282.588	84.44
282.819	75.44
283.051	87.44
283.282	90.44
283.513	102.44
283.745	80.44
283.976	85.44
284.207	87.44
284.439	75.44
284.67	77.44
284.901	80.44
285.132	82.44
285.364	70.44
285.595	82.44
285.826	77.44
286.057	82.44
286.288	74.44
286.52	101.44
286.751	85.44
286.982	73.44
287.213	84.44
287.444	76.44
287.675	93.44
287.906	82.44
288.138	88.44
288.369	87.44
288.6	83.44
288.831	85.44
289.062	87.44
289.293	92.44
289.524	81.44
289.755	82.44
289.986	76.44
290.217	90.44
290.448	79.44
290.679	73.44
290.91	95.44
291.141	77.44
291.371	91.44
291.602	95.44
291.833	84.44
292.064	88.44
292.295	82.44
292.526	83.44
292.757	100.44
292.987	90.44
293.218	85.44
293.449	85.44
293.68	80.44
293.91	83.44
294.141	84.44
294.372	96.44
294.603	81.44
294.833	77.44
295.064	80.44
295.295	78.44
295.525	86.44
295.756	87.44
295.987	73.44
296.217	84.44
296.448	93.44
296.679	78.44
296.909	93.44
297.14	72.44
297.37	76.44
297.601	84.44
297.831	84.44
298.062	82.44
298.292	76.44
298.523	93.44
298.753	76.44
298.984	84.44
299.214	83.44
299.445	94.44
299.675	81.44
299.905	83.44
300.136	93.44
300.366	88.44
300.597	79.44
300.827	73.44
301.057	97.44
301.288	86.44
301.518	76.44
301.748	84.44
301.979	108.44
302.209	72.44
302.439	74.44
302.669	80.44
302.9	80.44
303.13	78.44
303.36	71.44
303.59	90.44
303.82	67.44
304.051	91.44
304.281	70.44
304.511	86.44
304.741	99.44
304.971	84.44
305.201	80.44
305.431	85.44
305.661	87.44
305.891	77.44
306.121	88.44
306.352	69.44
306.582	74.44
306.812	88.44
307.042	99.44
307.272	90.44
307.502	98.44
307.731	91.44
307.961	92.44
308.191	96.44
308.421	85.44
308.651	97.44
308.881	75.44
309.111	83.44
309.341	99.44
309.571	91.44
309.8	87.44
310.03	81.44
310.26	85.44
310.49	82.44
310.72	86.44
310.949	68.44
311.179	93.44
311.409	78.44
311.639	86.44
311.868	86.44
312.098	99.44
312.328	74.44
312.557	74.44
312.787	97.44
313.017	89.44
313.246	92.44
313.476	94.44
313.706	66.44
313.935	95.44
314.165	96.44
314.394	91.44
314.624	81.44
314.853	112.44
315.083	84.44
315.312	88.44
315.542	82.44
315.771	87.44
316.001	85.44
316.23	88.44
316.46	83.44
316.689	101.44
316.919	84.44
317.148	91.44
317.377	95.44
317.607	93.44
317.836	93.44
318.065	80.44
318.295	85.44
318.524	83.44
318.753	89.44
318.983	81.44
319.212	88.44
319.441	99.44
319.67	78.44
319.9	92.44
320.129	89.44
320.358	90.44
320.587	93.44
320.816	88.44
321.046	79.44
321.275	89.44
321.504	78.44
321.733	69.44
321.962	87.44
322.191	85.44
322.42	72.44
322.649	94.44
322.878	84.44
323.108	79.44
323.337	82.44
323.566	78.44
323.795	84.44
324.024	82.44
324.253	97.44
324.482	95.44
324.71	90.44
324.939	93.44
325.168	73.44
325.397	95.44
325.626	95.44
325.855	86.44
326.084	85.44
326.313	77.44
326.542	93.44
326.77	87.44
326.999	91.44
327.228	92.44
327.457	93.44
327.686	84.44
327.914	98.44
328.143	75.44
328.372	85.44
328.6	85.44
328.829	87.44
329.058	80.44
329.287	84.44
329.515	93.44
329.744	88.44
329.972	80.44
330.201	93.44
330.43	82.44
330.658	91.44
330.887	86.44
331.115	92.44
331.344	91.44
331.572	85.44
331.801	94.44
332.03	87.44
332.258	95.44
332.486	80.44
332.715	76.44
332.943	98.44
333.172	92.44
333.4	89.44
333.629	95.44
333.857	75.44
334.085	86.44
334.314	108.44
334.542	95.44
334.771	85.44
334.999	91.44
335.227	81.44
335.455	70.44
335.684	91.44
335.912	91.44
336.14	85.44
336.369	79.44
336.597	77.44
336.825	101.44
337.053	84.44
337.281	87.44
337.51	90.44
337.738	89.44
337.966	83.44
338.194	95.44
338.422	99.44
338.65	108.44
338.878	93.44
339.106	81.44
339.334	78.44
339.562	88.44
339.79	80.44
340.018	80.44
340.246	83.44
340.474	98.44
340.702	86.44
340.93	90.44
341.158	92.44
341.386	83.44
341.614	78.44
341.842	83.44
342.07	79.44
342.298	79.44
342.526	81.44
342.754	92.44
342.981	91.44
343.209	82.44
343.437	88.44
343.665	83.44
343.893	85.44
344.12	82.44
344.348	76.44
344.576	88.44
344.804	74.44
345.031	87.44
345.259	87.44
345.487	81.44
345.714	83.44
345.942	89.44
346.17	73.44
346.397	88.44
346.625	89.44
346.853	94.44
347.08	76.44
347.308	69.44
347.535	85.44
347.763	89.44
347.99	82.44
348.218	79.44
348.445	75.44
348.673	98.44
348.9	83.44
349.128	100.44
349.355	81.44
349.583	83.44
349.81	93.44
350.037	98.44
350.265	90.44
350.492	87.44
350.72	99.44
350.947	89.44
351.174	96.44
351.402	84.44
351.629	93.44
351.856	92.44
352.083	87.44
352.311	90.44
352.538	92.44
352.765	94.44
352.992	99.44
353.22	86.44
353.447	78.44
353.674	91.44
353.901	101.44
354.128	100.44
354.355	80.44
354.583	76.44
354.81	84.44
355.037	81.44
355.264	76.44
355.491	86.44
355.718	80.44
355.945	89.44
356.172	106.44
356.399	82.44
356.626	93.44
356.853	84.44
357.08	98.44
357.307	87.44
357.534	75.44
357.761	84.44
357.988	110.44
358.215	90.44
358.441	89.44
358.668	90.44
358.895	80.44
359.122	100.44
359.349	76.44
359.576	83.44
359.802	77.44
360.029	96.44
360.256	90.44
360.483	89.44
360.709	75.44
360.936	85.44
361.163	95.44
361.39	94.44
361.616	74.44
361.843	78.44
362.07	84.44
362.296	90.44
362.523	79.44
362.749	81.44
362.976	71.44
363.203	88.44
363.429	87.44
363.656	81.44
363.882	88.44
364.109	103.44
364.335	90.44
364.562	93.44
364.788	85.44
365.015	91.44
365.241	86.44
365.468	78.44
365.694	96.44
365.92	77.44
366.147	82.44
366.373	76.44
366.599	78.44
366.826	76.44
367.052	85.44
367.278	94.44
367.505	86.44
367.731	80.44
367.957	82.44
368.184	85.44
368.41	91.44
368.636	90.44
368.862	83.44
369.089	84.44
369.315	66.44
369.541	63.44
369.767	79.44
369.993	82.44
370.219	97.44
370.445	74.44
370.672	91.44
370.898	93.44
371.124	64.44
371.35	81.44
371.576	84.44
371.802	78.44
372.028	76.44
372.254	80.44
372.48	81.44
372.706	100.44
372.932	89.44
373.158	75.44
373.384	91.44
373.61	96.44
373.835	85.44
374.061	87.44
374.287	95.44
374.513	89.44
374.739	84.44
374.965	85.44
375.191	78.44
375.416	76.44
375.642	100.44
375.868	84.44
376.094	81.44
376.319	71.44
376.545	95.44
376.771	95.44
376.997	93.44
377.222	91.44
377.448	75.44
377.674	77.44
377.899	94.44
378.125	70.44
378.35	85.44
378.576	88.44
378.802	90.44
379.027	75.44
379.253	95.44
379.478	73.44
379.704	87.44
379.929	77.44
380.155	68.44
380.38	85.44
380.606	84.44
380.831	104.44
381.057	79.44
381.282	93.44
381.507	95.44
381.733	104.44
381.958	87.44
382.184	96.44
382.409	90.44
382.634	94.44
382.86	85.44
383.085	81.44
383.31	73.44
383.535	91.44
383.761	72.44
383.986	93.44
384.211	87.44
384.436	94.44
384.662	82.44
384.887	90.44
385.112	82.44
385.337	82.44
385.562	98.44
385.787	86.44
386.013	85.44
386.238	86.44
386.463	92.44
386.688	93.44
386.913	84.44
387.138	78.44
387.363	87.44
387.588	74.44
387.813	86.44
388.038	88.44
388.263	82.44
388.488	87.44
388.713	85.44
388.938	83.44
389.163	76.44
389.387	88.44
389.612	95.44
389.837	73.44
390.062	83.44
390.287	85.44
390.512	86.44
390.736	66.44
390.961	85.44
391.186	93.44
391.411	80.44
391.636	91.44
391.86	72.44
392.085	88.44
392.31	94.44
392.534	94.44
392.759	87.44
392.984	98.44
393.208	110.44
393.433	139.44
393.658	112.44
393.882	91.44
394.107	81.44
394.331	96.44
394.556	99.44
394.78	100.44
395.005	96.44
395.229	85.44
395.454	100.44
395.678	95.44
395.903	92.44
396.127	105.44
396.352	114.44
396.576	107.44
396.801	123.44
397.025	132.44
397.249	94.44
397.474	96.44
397.698	82.44
397.922	78.44
398.147	77.44
398.371	87.44
398.595	84.44
398.82	88.44
399.044	93.44
399.268	79.44
399.492	79.44
399.717	86.44
399.941	89.44
400.165	95.44
400.389	80.44
400.613	90.44
400.837	75.44
401.062	76.44
401.286	77.44
401.51	71.44
401.734	79.44
401.958	80.44
402.182	78.44
402.406	83.44
402.63	71.44
402.854	80.44
403.078	102.44
403.302	98.44
403.526	95.44
403.75	87.44
403.974	88.44
404.198	102.44
404.422	135.44
404.645	153.44
404.869	124.44
405.093	105.44
405.317	85.44
405.541	86.44
405.765	79.44
405.988	82.44
406.212	83.44
406.436	80.44
406.66	89.44
406.883	82.44
407.107	95.44
407.331	88.44
407.555	93.44
407.778	96.44
408.002	87.44
408.226	91.44
408.449	88.44
408.673	75.44
408.896	96.44
409.12	88.44
409.344	94.44
409.567	77.44
409.791	92.44
410.014	86.44
410.238	72.44
410.461	89.44
410.685	81.44
410.908	86.44
411.132	88.44
411.355	88.44
411.578	82.44
411.802	90.44
412.025	78.44
412.249	80.44
412.472	85.44
412.695	75.44
412.919	74.44
413.142	88.44
413.365	93.44
413.589	81.44
413.812	78.44
414.035	83.44
414.258	85.44
414.482	79.44
414.705	74.44
414.928	98.44
415.151	104.44
415.374	85.44
415.597	74.44
415.821	84.44
416.044	83.44
416.267	96.44
416.49	77.44
416.713	82.44
416.936	88.44
417.159	89.44
417.382	82.44
417.605	74.44
417.828	86.44
418.051	82.44
418.274	80.44
418.497	81.44
418.72	92.44
418.943	93.44
419.166	100.44
419.389	80.44
419.611	78.44
419.834	96.44
420.057	85.44
420.28	85.44
420.503	86.44
420.726	79.44
420.948	84.44
421.171	81.44
421.394	86.44
421.617	94.44
421.839	102.44
422.062	124.44
422.285	118.44
422.507	167.44
422.73	202.44
422.953	182.44
423.175	131.44
423.398	108.44
423.621	95.44
423.843	94.44
424.066	102.44
424.288	88.44
424.511	71.44
424.733	96.44
424.956	79.44
425.178	90.44
425.401	84.44
425.623	90.44
425.846	76.44
426.068	79.44
426.291	79.44
426.513	84.44
426.735	69.44
426.958	100.44
427.18	73.44
427.402	72.44
427.625	85.44
427.847	78.44
428.069	100.44
428.292	96.44
428.514	104.44
428.736	96.44
428.958	109.44
429.181	105.44
429.403	89.44
429.625	92.44
429.847	109.44
430.069	120.44
430.292	138.44
430.514	114.44
430.736	104.44
430.958	105.44
431.18	85.44
431.402	90.44
431.624	90.44
431.846	103.44
432.068	104.44
432.29	78.44
432.512	90.44
432.734	99.44
432.956	86.44
433.178	99.44
433.4	77.44
433.622	102.44
433.844	79.44
434.066	78.44
434.287	67.44
434.509	71.44
434.731	102.44
434.953	79.44
435.175	77.44
435.397	72.44
435.618	77.44
435.84	87.44
436.062	91.44
436.284	86.44
436.505	83.44
436.727	84.44
436.949	102.44
437.17	78.44
437.392	82.44
437.614	73.44
437.835	91.44
438.057	84.44
438.278	86.44
438.5	101.44
438.721	95.44
438.943	87.44
439.165	90.44
439.386	87.44
439.608	104.44
439.829	82.44
440.05	68.44
440.272	83.44
440.493	77.44
440.715	89.44
440.936	73.44
441.158	96.44
441.379	80.44
441.6	87.44
441.822	90.44
442.043	79.44
442.264	87.44
442.486	102.44
442.707	112.44
442.928	106.44
443.149	87.44
443.371	104.44
443.592	156.44
443.813	116.44
444.034	82.44
444.255	68.44
444.476	88.44
444.698	92.44
444.919	95.44
445.14	153.44
445.361	142.44
445.582	173.44
445.803	138.44
446.024	101.44
446.245	86.44
446.466	76.44
446.687	89.44
446.908	94.44
447.129	80.44
447.35	89.44
447.571	80.44
447.792	83.44
448.013	76.44
448.234	91.44
448.455	86.44
448.675	73.44
448.896	91.44
449.117	87.44
449.338	84.44
449.559	93.44
449.779	85.44
450	89.44
450.221	81.44
450.442	77.44
450.662	80.44
450.883	79.44
451.104	91.44
451.324	73.44
451.545	92.44
451.766	74.44
451.986	91.44
452.207	88.44
452.428	72.44
452.648	81.44
452.869	104.44
453.089	77.44
453.31	85.44
453.53	89.44
453.751	97.44
453.971	73.44
454.192	86.44
454.412	88.44
454.633	83.44
454.853	81.44
455.073	86.44
455.294	79.44
455.514	90.44
455.734	88.44
455.955	84.44
456.175	80.44
456.395	74.44
456.616	82.44
456.836	81.44
457.056	71.44
457.276	78.44
457.497	80.44
457.717	101.44
457.937	98.44
458.157	90.44
458.377	77.44
458.598	81.44
458.818	96.44
459.038	76.44
459.258	85.44
459.478	92.44
459.698	86.44
459.918	95.44
460.138	76.44
460.358	91.44
460.578	95.44
460.798	95.44
461.018	92.44
461.238	74.44
461.458	94.44
461.678	83.44
461.898	84.44
462.118	72.44
462.338	74.44
462.558	83.44
462.777	77.44
462.997	86.44
463.217	92.44
463.437	77.44
463.657	74.44
463.876	82.44
464.096	82.44
464.316	71.44
464.536	84.44
464.755	84.44
464.975	77.44
465.195	90.44
465.414	87.44
465.634	91.44
465.854	74.44
466.073	69.44
466.293	77.44
466.512	73.44
466.732	83.44
466.951	70.44
467.171	68.44
467.391	72.44
467.61	84.44
467.829	80.44
468.049	86.44
468.268	95.44
468.488	72.44
468.707	76.44
468.927	78.44
469.146	85.44
469.365	84.44
469.585	89.44
469.804	74.44
470.023	81.44
470.243	77.44
470.462	95.44
470.681	93.44
470.901	88.44
471.12	82.44
471.339	83.44
471.558	79.44
471.777	80.44
471.997	85.44
472.216	87.44
472.435	82.44
472.654	93.44
472.873	80.44
473.092	94.44
473.311	93.44
473.53	84.44
473.749	101.44
473.968	89.44
474.187	81.44
474.406	86.44
474.625	71.44
474.844	89.44
475.063	83.44
475.282	84.44
475.501	84.44
475.72	88.44
475.939	93.44
476.158	83.44
476.377	95.44
476.596	87.44
476.814	88.44
477.033	70.44
477.252	76.44
477.471	85.44
477.69	95.44
477.908	79.44
478.127	77.44
478.346	82.44
478.564	96.44
478.783	84.44
479.002	88.44
479.22	85.44
479.439	95.44
479.658	91.44
479.876	95.44
480.095	84.44
480.313	96.44
480.532	87.44
480.751	96.44
480.969	105.44
481.188	79.44
481.406	76.44
481.624	89.44
481.843	87.44
482.061	66.44
482.28	92.44
482.498	78.44
482.717	77.44
482.935	90.44
483.153	79.44
483.372	85.44
483.59	94.44
483.808	84.44
484.027	86.44
484.245	71.44
484.463	83.44
484.681	91.44
484.9	77.44
485.118	101.44
485.336	86.44
485.554	94.44
485.772	78.44
485.99	89.44
486.209	87.44
486.427	91.44
486.645	90.44
486.863	94.44
487.081	91.44
487.299	88.44
487.517	102.44
487.735	103.44
487.953	103.44
488.171	99.44
488.389	81.44
488.607	81.44
488.825	73.44
489.043	84.44
489.261	101.44
489.479	100.44
489.696	95.44
489.914	85.44
490.132	81.44
490.35	85.44
490.568	96.44
490.786	89.44
491.003	87.44
491.221	92.44
491.439	85.44
491.657	86.44
491.874	84.44
492.092	87.44
492.31	93.44
492.527	85.44
492.745	70.44
492.963	95.44
493.18	96.44
493.398	92.44
493.615	93.44
493.833	86.44
494.05	88.44
494.268	86.44
494.485	84.44
494.703	88.44
494.92	93.44
495.138	91.44
495.355	94.44
495.573	94.44
495.79	88.44
496.008	91.44
496.225	87.44
496.442	82.44
496.66	97.44
496.877	85.44
497.094	110.44
497.312	84.44
497.529	78.44
497.746	92.44
497.963	94.44
498.181	79.44
498.398	96.44
498.615	98.44
498.832	85.44
499.049	83.44
499.267	84.44
499.484	77.44
499.701	93.44
499.918	94.44
500.135	93.44
500.352	85.44
500.569	87.44
500.786	80.44
501.003	99.44
501.22	83.44
501.437	80.44
501.654	92.44
501.871	95.44
502.088	81.44
502.305	86.44
502.522	94.44
502.739	90.44
502.956	87.44
503.172	85.44
503.389	85.44
503.606	72.44
503.823	86.44
504.04	93.44
504.256	106.44
504.473	83.44
504.69	84.44
504.907	100.44
505.123	85.44
505.34	95.44
505.557	89.44
505.773	85.44
505.99	87.44
506.207	77.44
506.423	79.44
506.64	81.44
506.856	96.44
507.073	82.44
507.289	98.44
507.506	91.44
507.722	77.44
507.939	76.44
508.155	105.44
508.372	72.44
508.588	85.44
508.805	79.44
509.021	95.44
509.238	91.44
509.454	98.44
509.67	79.44
509.887	79.44
510.103	89.44
510.319	88.44
510.536	98.44
510.752	82.44
510.968	73.44
511.184	91.44
511.401	93.44
511.617	90.44
511.833	84.44
512.049	86.44
512.265	91.44
512.481	89.44
512.698	88.44
512.914	96.44
513.13	84.44
513.346	76.44
513.562	76.44
513.778	95.44
513.994	81.44
514.21	80.44
514.426	82.44
514.642	87.44
514.858	78.44
515.074	85.44
515.29	100.44
515.506	83.44
515.721	85.44
515.937	91.44
516.153	81.44
516.369	81.44
516.585	78.44
516.801	82.44
517.016	94.44
517.232	79.44
517.448	90.44
517.664	78.44
517.879	75.44
518.095	77.44
518.311	96.44
518.527	88.44
518.742	93.44
518.958	94.44
