Data from Mixnoheat1_HRD10591_00018.txt Node
Date: Fri Dec 27 14:58:08 EST 2024
User: Yrep
Spectrometer: HR+D1059
Trigger mode: 1
Integration Time (sec): 1.000000E-1
Scans to average: 1
Electric dark correction enabled: true
Nonlinearity correction enabled: false
Boxcar width: 0
XAxis mode: Wavelengths
Number of Pixels in Spectrum: 2048
>>>>>Begin Spectral Data<<<<<
223.165	-18.81
223.4	-18.81
223.635	-18.81
223.869	-30.81
224.104	-18.81
224.338	-6.81
224.573	-9.81
224.808	-9.81
225.042	-19.81
225.277	-9.81
225.511	-13.81
225.746	-3.81
225.98	16.19
226.215	30.19
226.449	20.19
226.683	27.19
226.918	24.19
227.152	24.19
227.387	42.19
227.621	47.19
227.856	48.19
228.09	49.19
228.324	47.19
228.559	76.19
228.793	71.19
229.027	70.19
229.262	60.19
229.496	69.19
229.73	63.19
229.964	68.19
230.199	75.19
230.433	71.19
230.667	79.19
230.901	75.19
231.136	87.19
231.37	88.19
231.604	91.19
231.838	100.19
232.072	73.19
232.306	87.19
232.541	90.19
232.775	83.19
233.009	80.19
233.243	82.19
233.477	90.19
233.711	91.19
233.945	93.19
234.179	69.19
234.413	90.19
234.647	97.19
234.881	82.19
235.115	67.19
235.349	87.19
235.583	72.19
235.817	76.19
236.051	81.19
236.285	74.19
236.519	91.19
236.753	79.19
236.987	74.19
237.221	76.19
237.455	70.19
237.689	84.19
237.922	92.19
238.156	79.19
238.39	56.19
238.624	85.19
238.858	79.19
239.091	76.19
239.325	90.19
239.559	90.19
239.793	92.19
240.027	81.19
240.26	81.19
240.494	75.19
240.728	72.19
240.961	77.19
241.195	72.19
241.429	81.19
241.662	62.19
241.896	71.19
242.13	88.19
242.363	84.19
242.597	87.19
242.83	92.19
243.064	83.19
243.298	87.19
243.531	87.19
243.765	72.19
243.998	74.19
244.232	88.19
244.465	71.19
244.699	71.19
244.932	85.19
245.166	72.19
245.399	77.19
245.633	81.19
245.866	82.19
246.099	72.19
246.333	78.19
246.566	72.19
246.8	72.19
247.033	69.19
247.266	73.19
247.5	69.19
247.733	75.19
247.966	84.19
248.2	78.19
248.433	80.19
248.666	65.19
248.899	86.19
249.133	87.19
249.366	71.19
249.599	87.19
249.832	91.19
250.066	77.19
250.299	62.19
250.532	75.19
250.765	100.19
250.998	98.19
251.231	80.19
251.465	100.19
251.698	81.19
251.931	80.19
252.164	85.19
252.397	81.19
252.63	73.19
252.863	88.19
253.096	84.19
253.329	79.19
253.562	77.19
253.795	89.19
254.028	76.19
254.261	77.19
254.494	94.19
254.727	89.19
254.96	89.19
255.193	86.19
255.426	80.19
255.659	93.19
255.892	81.19
256.124	89.19
256.357	76.19
256.59	78.19
256.823	72.19
257.056	77.19
257.289	85.19
257.521	90.19
257.754	95.19
257.987	76.19
258.22	77.19
258.452	82.19
258.685	79.19
258.918	71.19
259.151	92.19
259.383	65.19
259.616	96.19
259.849	80.19
260.081	84.19
260.314	92.19
260.547	93.19
260.779	85.19
261.012	73.19
261.244	89.19
261.477	90.19
261.71	81.19
261.942	90.19
262.175	91.19
262.407	92.19
262.64	70.19
262.872	74.19
263.105	82.19
263.337	83.19
263.57	74.19
263.802	68.19
264.035	92.19
264.267	79.19
264.499	76.19
264.732	85.19
264.964	84.19
265.197	78.19
265.429	80.19
265.661	85.19
265.894	89.19
266.126	94.19
266.358	79.19
266.591	93.19
266.823	99.19
267.055	91.19
267.287	76.19
267.52	88.19
267.752	80.19
267.984	86.19
268.216	92.19
268.448	90.19
268.681	76.19
268.913	83.19
269.145	89.19
269.377	94.19
269.609	72.19
269.841	72.19
270.073	71.19
270.306	91.19
270.538	79.19
270.77	83.19
271.002	93.19
271.234	81.19
271.466	91.19
271.698	90.19
271.93	73.19
272.162	74.19
272.394	95.19
272.626	75.19
272.858	84.19
273.09	75.19
273.322	95.19
273.553	93.19
273.785	92.19
274.017	86.19
274.249	92.19
274.481	81.19
274.713	78.19
274.945	76.19
275.176	81.19
275.408	92.19
275.64	70.19
275.872	87.19
276.104	78.19
276.335	93.19
276.567	80.19
276.799	74.19
277.031	65.19
277.262	90.19
277.494	93.19
277.726	88.19
277.957	75.19
278.189	90.19
278.421	90.19
278.652	81.19
278.884	90.19
279.115	85.19
279.347	77.19
279.579	79.19
279.81	75.19
280.042	92.19
280.273	74.19
280.505	73.19
280.736	80.19
280.968	88.19
281.199	87.19
281.431	88.19
281.662	94.19
281.894	71.19
282.125	88.19
282.356	78.19
282.588	88.19
282.819	80.19
283.051	85.19
283.282	81.19
283.513	97.19
283.745	83.19
283.976	76.19
284.207	83.19
284.439	84.19
284.67	91.19
284.901	78.19
285.132	82.19
285.364	90.19
285.595	87.19
285.826	69.19
286.057	93.19
286.288	89.19
286.52	82.19
286.751	90.19
286.982	91.19
287.213	101.19
287.444	81.19
287.675	76.19
287.906	97.19
288.138	85.19
288.369	86.19
288.6	78.19
288.831	92.19
289.062	72.19
289.293	70.19
289.524	91.19
289.755	74.19
289.986	92.19
290.217	85.19
290.448	92.19
290.679	91.19
290.91	92.19
291.141	73.19
291.371	85.19
291.602	81.19
291.833	82.19
292.064	72.19
292.295	104.19
292.526	82.19
292.757	86.19
292.987	93.19
293.218	97.19
293.449	85.19
293.68	80.19
293.91	75.19
294.141	91.19
294.372	85.19
294.603	87.19
294.833	73.19
295.064	73.19
295.295	78.19
295.525	72.19
295.756	102.19
295.987	75.19
296.217	82.19
296.448	89.19
296.679	88.19
296.909	96.19
297.14	91.19
297.37	92.19
297.601	92.19
297.831	82.19
298.062	95.19
298.292	69.19
298.523	95.19
298.753	72.19
298.984	92.19
299.214	77.19
299.445	87.19
299.675	74.19
299.905	89.19
300.136	88.19
300.366	83.19
300.597	102.19
300.827	78.19
301.057	78.19
301.288	80.19
301.518	84.19
301.748	96.19
301.979	97.19
302.209	86.19
302.439	84.19
302.669	77.19
302.9	97.19
303.13	78.19
303.36	91.19
303.59	93.19
303.82	91.19
304.051	74.19
304.281	78.19
304.511	90.19
304.741	85.19
304.971	101.19
305.201	94.19
305.431	88.19
305.661	88.19
305.891	93.19
306.121	87.19
306.352	87.19
306.582	77.19
306.812	84.19
307.042	82.19
307.272	80.19
307.502	83.19
307.731	86.19
307.961	106.19
308.191	93.19
308.421	88.19
308.651	76.19
308.881	85.19
309.111	100.19
309.341	89.19
309.571	81.19
309.8	91.19
310.03	90.19
310.26	82.19
310.49	84.19
310.72	88.19
310.949	87.19
311.179	87.19
311.409	78.19
311.639	75.19
311.868	82.19
312.098	101.19
312.328	80.19
312.557	80.19
312.787	81.19
313.017	98.19
313.246	87.19
313.476	74.19
313.706	92.19
313.935	84.19
314.165	87.19
314.394	92.19
314.624	81.19
314.853	78.19
315.083	84.19
315.312	96.19
315.542	87.19
315.771	93.19
316.001	82.19
316.23	91.19
316.46	76.19
316.689	71.19
316.919	97.19
317.148	92.19
317.377	88.19
317.607	83.19
317.836	74.19
318.065	101.19
318.295	78.19
318.524	81.19
318.753	87.19
318.983	92.19
319.212	88.19
319.441	89.19
319.67	95.19
319.9	93.19
320.129	78.19
320.358	83.19
320.587	84.19
320.816	90.19
321.046	88.19
321.275	95.19
321.504	82.19
321.733	97.19
321.962	74.19
322.191	75.19
322.42	83.19
322.649	89.19
322.878	97.19
323.108	89.19
323.337	95.19
323.566	93.19
323.795	78.19
324.024	75.19
324.253	83.19
324.482	77.19
324.71	86.19
324.939	89.19
325.168	78.19
325.397	66.19
325.626	86.19
325.855	81.19
326.084	90.19
326.313	105.19
326.542	88.19
326.77	75.19
326.999	85.19
327.228	78.19
327.457	88.19
327.686	79.19
327.914	97.19
328.143	83.19
328.372	89.19
328.6	89.19
328.829	79.19
329.058	90.19
329.287	85.19
329.515	76.19
329.744	89.19
329.972	91.19
330.201	92.19
330.43	90.19
330.658	81.19
330.887	85.19
331.115	81.19
331.344	88.19
331.572	86.19
331.801	88.19
332.03	98.19
332.258	83.19
332.486	92.19
332.715	82.19
332.943	89.19
333.172	86.19
333.4	82.19
333.629	82.19
333.857	85.19
334.085	76.19
334.314	87.19
334.542	84.19
334.771	90.19
334.999	80.19
335.227	86.19
335.455	79.19
335.684	100.19
335.912	72.19
336.14	93.19
336.369	89.19
336.597	84.19
336.825	103.19
337.053	80.19
337.281	89.19
337.51	67.19
337.738	83.19
337.966	95.19
338.194	72.19
338.422	86.19
338.65	86.19
338.878	82.19
339.106	94.19
339.334	76.19
339.562	75.19
339.79	81.19
340.018	96.19
340.246	85.19
340.474	93.19
340.702	88.19
340.93	92.19
341.158	81.19
341.386	79.19
341.614	73.19
341.842	77.19
342.07	78.19
342.298	95.19
342.526	68.19
342.754	87.19
342.981	87.19
343.209	75.19
343.437	112.19
343.665	85.19
343.893	84.19
344.12	85.19
344.348	88.19
344.576	95.19
344.804	88.19
345.031	94.19
345.259	84.19
345.487	87.19
345.714	80.19
345.942	85.19
346.17	100.19
346.397	95.19
346.625	82.19
346.853	91.19
347.08	94.19
347.308	71.19
347.535	80.19
347.763	86.19
347.99	79.19
348.218	90.19
348.445	77.19
348.673	81.19
348.9	90.19
349.128	106.19
349.355	89.19
349.583	86.19
349.81	92.19
350.037	80.19
350.265	87.19
350.492	81.19
350.72	87.19
350.947	86.19
351.174	94.19
351.402	88.19
351.629	81.19
351.856	87.19
352.083	80.19
352.311	80.19
352.538	82.19
352.765	86.19
352.992	97.19
353.22	87.19
353.447	96.19
353.674	78.19
353.901	86.19
354.128	82.19
354.355	86.19
354.583	91.19
354.81	91.19
355.037	80.19
355.264	79.19
355.491	86.19
355.718	82.19
355.945	88.19
356.172	76.19
356.399	96.19
356.626	69.19
356.853	82.19
357.08	78.19
357.307	72.19
357.534	75.19
357.761	87.19
357.988	94.19
358.215	88.19
358.441	82.19
358.668	82.19
358.895	90.19
359.122	75.19
359.349	80.19
359.576	87.19
359.802	98.19
360.029	86.19
360.256	93.19
360.483	89.19
360.709	87.19
360.936	82.19
361.163	87.19
361.39	83.19
361.616	87.19
361.843	90.19
362.07	81.19
362.296	93.19
362.523	85.19
362.749	100.19
362.976	86.19
363.203	100.19
363.429	81.19
363.656	95.19
363.882	85.19
364.109	81.19
364.335	85.19
364.562	79.19
364.788	80.19
365.015	89.19
365.241	89.19
365.468	90.19
365.694	88.19
365.92	76.19
366.147	76.19
366.373	73.19
366.599	93.19
366.826	70.19
367.052	84.19
367.278	97.19
367.505	77.19
367.731	97.19
367.957	81.19
368.184	89.19
368.41	69.19
368.636	84.19
368.862	91.19
369.089	71.19
369.315	86.19
369.541	82.19
369.767	90.19
369.993	85.19
370.219	96.19
370.445	80.19
370.672	81.19
370.898	79.19
371.124	77.19
371.35	74.19
371.576	79.19
371.802	85.19
372.028	89.19
372.254	85.19
372.48	86.19
372.706	84.19
372.932	92.19
373.158	69.19
373.384	94.19
373.61	84.19
373.835	78.19
374.061	81.19
374.287	71.19
374.513	80.19
374.739	74.19
374.965	83.19
375.191	75.19
375.416	92.19
375.642	78.19
375.868	77.19
376.094	93.19
376.319	91.19
376.545	84.19
376.771	82.19
376.997	75.19
377.222	76.19
377.448	77.19
377.674	83.19
377.899	75.19
378.125	77.19
378.35	85.19
378.576	79.19
378.802	71.19
379.027	73.19
379.253	89.19
379.478	88.19
379.704	87.19
379.929	86.19
380.155	79.19
380.38	84.19
380.606	74.19
380.831	86.19
381.057	79.19
381.282	76.19
381.507	100.19
381.733	78.19
381.958	86.19
382.184	82.19
382.409	78.19
382.634	89.19
382.86	78.19
383.085	92.19
383.31	97.19
383.535	85.19
383.761	86.19
383.986	75.19
384.211	77.19
384.436	87.19
384.662	95.19
384.887	74.19
385.112	55.19
385.337	87.19
385.562	86.19
385.787	87.19
386.013	94.19
386.238	89.19
386.463	90.19
386.688	102.19
386.913	84.19
387.138	76.19
387.363	91.19
387.588	95.19
387.813	83.19
388.038	91.19
388.263	82.19
388.488	85.19
388.713	90.19
388.938	85.19
389.163	81.19
389.387	82.19
389.612	94.19
389.837	98.19
390.062	97.19
390.287	85.19
390.512	81.19
390.736	94.19
390.961	92.19
391.186	74.19
391.411	87.19
391.636	77.19
391.86	79.19
392.085	70.19
392.31	79.19
392.534	90.19
392.759	87.19
392.984	87.19
393.208	81.19
393.433	100.19
393.658	85.19
393.882	86.19
394.107	95.19
394.331	98.19
394.556	81.19
394.78	87.19
395.005	71.19
395.229	85.19
395.454	84.19
395.678	85.19
395.903	91.19
396.127	97.19
396.352	102.19
396.576	95.19
396.801	89.19
397.025	97.19
397.249	76.19
397.474	90.19
397.698	94.19
397.922	94.19
398.147	90.19
398.371	87.19
398.595	93.19
398.82	66.19
399.044	72.19
399.268	86.19
399.492	81.19
399.717	85.19
399.941	87.19
400.165	84.19
400.389	88.19
400.613	89.19
400.837	91.19
401.062	74.19
401.286	89.19
401.51	88.19
401.734	83.19
401.958	84.19
402.182	79.19
402.406	78.19
402.63	80.19
402.854	82.19
403.078	77.19
403.302	91.19
403.526	97.19
403.75	90.19
403.974	78.19
404.198	94.19
404.422	103.19
404.645	86.19
404.869	71.19
405.093	93.19
405.317	96.19
405.541	90.19
405.765	87.19
405.988	75.19
406.212	71.19
406.436	78.19
406.66	75.19
406.883	80.19
407.107	77.19
407.331	93.19
407.555	103.19
407.778	95.19
408.002	78.19
408.226	89.19
408.449	88.19
408.673	86.19
408.896	81.19
409.12	97.19
409.344	77.19
409.567	78.19
409.791	93.19
410.014	96.19
410.238	95.19
410.461	89.19
410.685	76.19
410.908	80.19
411.132	86.19
411.355	81.19
411.578	89.19
411.802	77.19
412.025	92.19
412.249	90.19
412.472	81.19
412.695	82.19
412.919	81.19
413.142	85.19
413.365	90.19
413.589	81.19
413.812	84.19
414.035	79.19
414.258	86.19
414.482	86.19
414.705	81.19
414.928	75.19
415.151	75.19
415.374	89.19
415.597	93.19
415.821	79.19
416.044	77.19
416.267	90.19
416.49	83.19
416.713	80.19
416.936	74.19
417.159	80.19
417.382	82.19
417.605	87.19
417.828	85.19
418.051	72.19
418.274	86.19
418.497	84.19
418.72	80.19
418.943	88.19
419.166	57.19
419.389	89.19
419.611	73.19
419.834	75.19
420.057	74.19
420.28	89.19
420.503	76.19
420.726	94.19
420.948	81.19
421.171	71.19
421.394	75.19
421.617	75.19
421.839	83.19
422.062	89.19
422.285	89.19
422.507	93.19
422.73	105.19
422.953	106.19
423.175	95.19
423.398	97.19
423.621	77.19
423.843	76.19
424.066	79.19
424.288	88.19
424.511	80.19
424.733	93.19
424.956	66.19
425.178	82.19
425.401	73.19
425.623	77.19
425.846	73.19
426.068	96.19
426.291	100.19
426.513	87.19
426.735	83.19
426.958	91.19
427.18	89.19
427.402	77.19
427.625	72.19
427.847	84.19
428.069	98.19
428.292	90.19
428.514	89.19
428.736	89.19
428.958	78.19
429.181	93.19
429.403	87.19
429.625	89.19
429.847	89.19
430.069	88.19
430.292	101.19
430.514	87.19
430.736	83.19
430.958	69.19
431.18	82.19
431.402	97.19
431.624	74.19
431.846	87.19
432.068	80.19
432.29	78.19
432.512	72.19
432.734	80.19
432.956	78.19
433.178	103.19
433.4	81.19
433.622	71.19
433.844	91.19
434.066	81.19
434.287	87.19
434.509	76.19
434.731	79.19
434.953	79.19
435.175	77.19
435.397	90.19
435.618	96.19
435.84	89.19
436.062	81.19
436.284	79.19
436.505	90.19
436.727	95.19
436.949	90.19
437.17	87.19
437.392	76.19
437.614	76.19
437.835	92.19
438.057	84.19
438.278	85.19
438.5	96.19
438.721	83.19
438.943	92.19
439.165	73.19
439.386	92.19
439.608	84.19
439.829	83.19
440.05	87.19
440.272	90.19
440.493	80.19
440.715	88.19
440.936	84.19
441.158	103.19
441.379	77.19
441.6	88.19
441.822	87.19
442.043	90.19
442.264	81.19
442.486	79.19
442.707	96.19
442.928	90.19
443.149	77.19
443.371	96.19
443.592	87.19
443.813	90.19
444.034	83.19
444.255	85.19
444.476	90.19
444.698	85.19
444.919	91.19
445.14	138.19
445.361	114.19
445.582	115.19
445.803	104.19
446.024	85.19
446.245	90.19
446.466	77.19
446.687	82.19
446.908	86.19
447.129	95.19
447.35	97.19
447.571	83.19
447.792	84.19
448.013	87.19
448.234	91.19
448.455	93.19
448.675	88.19
448.896	85.19
449.117	97.19
449.338	82.19
449.559	87.19
449.779	88.19
450	85.19
450.221	78.19
450.442	87.19
450.662	84.19
450.883	74.19
451.104	90.19
451.324	96.19
451.545	90.19
451.766	88.19
451.986	87.19
452.207	76.19
452.428	78.19
452.648	107.19
452.869	93.19
453.089	85.19
453.31	65.19
453.53	104.19
453.751	82.19
453.971	94.19
454.192	79.19
454.412	84.19
454.633	80.19
454.853	70.19
455.073	75.19
455.294	74.19
455.514	86.19
455.734	72.19
455.955	82.19
456.175	82.19
456.395	79.19
456.616	71.19
456.836	80.19
457.056	84.19
457.276	71.19
457.497	101.19
457.717	77.19
457.937	77.19
458.157	95.19
458.377	97.19
458.598	83.19
458.818	94.19
459.038	80.19
459.258	72.19
459.478	80.19
459.698	74.19
459.918	96.19
460.138	91.19
460.358	90.19
460.578	86.19
460.798	81.19
461.018	91.19
461.238	76.19
461.458	76.19
461.678	81.19
461.898	56.19
462.118	76.19
462.338	96.19
462.558	69.19
462.777	69.19
462.997	90.19
463.217	81.19
463.437	75.19
463.657	68.19
463.876	74.19
464.096	90.19
464.316	90.19
464.536	92.19
464.755	81.19
464.975	77.19
465.195	91.19
465.414	77.19
465.634	74.19
465.854	71.19
466.073	93.19
466.293	78.19
466.512	79.19
466.732	89.19
466.951	84.19
467.171	92.19
467.391	104.19
467.61	80.19
467.829	69.19
468.049	75.19
468.268	76.19
468.488	71.19
468.707	95.19
468.927	96.19
469.146	98.19
469.365	88.19
469.585	88.19
469.804	73.19
470.023	70.19
470.243	84.19
470.462	97.19
470.681	89.19
470.901	98.19
471.12	84.19
471.339	70.19
471.558	70.19
471.777	86.19
471.997	73.19
472.216	79.19
472.435	87.19
472.654	81.19
472.873	84.19
473.092	95.19
473.311	85.19
473.53	72.19
473.749	73.19
473.968	82.19
474.187	77.19
474.406	94.19
474.625	76.19
474.844	88.19
475.063	92.19
475.282	86.19
475.501	92.19
475.72	93.19
475.939	82.19
476.158	81.19
476.377	72.19
476.596	78.19
476.814	87.19
477.033	91.19
477.252	88.19
477.471	88.19
477.69	107.19
477.908	90.19
478.127	91.19
478.346	98.19
478.564	88.19
478.783	75.19
479.002	91.19
479.22	90.19
479.439	97.19
479.658	77.19
479.876	94.19
480.095	82.19
480.313	73.19
480.532	94.19
480.751	101.19
480.969	76.19
481.188	76.19
481.406	88.19
481.624	85.19
481.843	72.19
482.061	80.19
482.28	80.19
482.498	89.19
482.717	74.19
482.935	94.19
483.153	84.19
483.372	76.19
483.59	84.19
483.808	88.19
484.027	82.19
484.245	90.19
484.463	88.19
484.681	97.19
484.9	91.19
485.118	100.19
485.336	84.19
485.554	91.19
485.772	96.19
485.99	96.19
486.209	98.19
486.427	86.19
486.645	92.19
486.863	93.19
487.081	92.19
487.299	81.19
487.517	71.19
487.735	93.19
487.953	91.19
488.171	92.19
488.389	96.19
488.607	80.19
488.825	94.19
489.043	85.19
489.261	82.19
489.479	83.19
489.696	91.19
489.914	91.19
490.132	77.19
490.35	79.19
490.568	97.19
490.786	76.19
491.003	80.19
491.221	86.19
491.439	98.19
491.657	78.19
491.874	76.19
492.092	94.19
492.31	93.19
492.527	75.19
492.745	73.19
492.963	94.19
493.18	91.19
493.398	88.19
493.615	94.19
493.833	91.19
494.05	73.19
494.268	78.19
494.485	78.19
494.703	84.19
494.92	95.19
495.138	78.19
495.355	87.19
495.573	96.19
495.79	92.19
496.008	103.19
496.225	80.19
496.442	91.19
496.66	93.19
496.877	93.19
497.094	99.19
497.312	87.19
497.529	73.19
497.746	85.19
497.963	88.19
498.181	87.19
498.398	81.19
498.615	85.19
498.832	91.19
499.049	85.19
499.267	82.19
499.484	79.19
499.701	77.19
499.918	91.19
500.135	89.19
500.352	84.19
500.569	92.19
500.786	95.19
501.003	105.19
501.22	81.19
501.437	84.19
501.654	88.19
501.871	79.19
502.088	88.19
502.305	88.19
502.522	71.19
502.739	72.19
502.956	94.19
503.172	80.19
503.389	91.19
503.606	88.19
503.823	82.19
504.04	87.19
504.256	92.19
504.473	100.19
504.69	77.19
504.907	96.19
505.123	81.19
505.34	79.19
505.557	75.19
505.773	81.19
505.99	89.19
506.207	82.19
506.423	88.19
506.64	97.19
506.856	87.19
507.073	89.19
507.289	80.19
507.506	87.19
507.722	103.19
507.939	80.19
508.155	86.19
508.372	90.19
508.588	87.19
508.805	82.19
509.021	92.19
509.238	94.19
509.454	82.19
509.67	80.19
509.887	90.19
510.103	71.19
510.319	84.19
510.536	92.19
510.752	86.19
510.968	79.19
511.184	87.19
511.401	90.19
511.617	95.19
511.833	86.19
512.049	78.19
512.265	92.19
512.481	81.19
512.698	86.19
512.914	80.19
513.13	92.19
513.346	89.19
513.562	90.19
513.778	86.19
513.994	72.19
514.21	88.19
514.426	97.19
514.642	88.19
514.858	78.19
515.074	82.19
515.29	91.19
515.506	91.19
515.721	99.19
515.937	77.19
516.153	80.19
516.369	73.19
516.585	85.19
516.801	97.19
517.016	90.19
517.232	78.19
517.448	93.19
517.664	88.19
517.879	71.19
518.095	76.19
518.311	84.19
518.527	82.19
518.742	82.19
518.958	96.19
519.173	89.19
519.389	84.19
519.605	85.19
