Data from Mixnoheat1_HRD10591_00008.txt Node
Date: Fri Dec 27 14:57:58 EST 2024
User: Yrep
Spectrometer: HR+D1059
Trigger mode: 1
Integration Time (sec): 1.000000E-1
Scans to average: 1
Electric dark correction enabled: true
Nonlinearity correction enabled: false
Boxcar width: 0
XAxis mode: Wavelengths
Number of Pixels in Spectrum: 2048
>>>>>Begin Spectral Data<<<<<
223.165	-23.06
223.4	-23.06
223.635	-23.06
223.869	-9.06
224.104	-21.06
224.338	-8.06
224.573	-27.06
224.808	5.94
225.042	-10.06
225.277	-14.06
225.511	1.94
225.746	11.94
225.98	-5.06
226.215	4.94
226.449	22.94
226.683	17.94
226.918	20.94
227.152	30.94
227.387	36.94
227.621	33.94
227.856	44.94
228.09	46.94
228.324	54.94
228.559	62.94
228.793	59.94
229.027	68.94
229.262	70.94
229.496	72.94
229.73	68.94
229.964	69.94
230.199	85.94
230.433	72.94
230.667	76.94
230.901	90.94
231.136	82.94
231.37	82.94
231.604	79.94
231.838	89.94
232.072	84.94
232.306	87.94
232.541	90.94
232.775	91.94
233.009	92.94
233.243	66.94
233.477	80.94
233.711	77.94
233.945	72.94
234.179	81.94
234.413	84.94
234.647	80.94
234.881	97.94
235.115	81.94
235.349	87.94
235.583	81.94
235.817	71.94
236.051	72.94
236.285	65.94
236.519	82.94
236.753	74.94
236.987	80.94
237.221	87.94
237.455	84.94
237.689	66.94
237.922	72.94
238.156	76.94
238.39	77.94
238.624	67.94
238.858	79.94
239.091	80.94
239.325	85.94
239.559	92.94
239.793	69.94
240.027	78.94
240.26	60.94
240.494	74.94
240.728	87.94
240.961	67.94
241.195	86.94
241.429	79.94
241.662	78.94
241.896	90.94
242.13	66.94
242.363	73.94
242.597	78.94
242.83	78.94
243.064	74.94
243.298	96.94
243.531	71.94
243.765	78.94
243.998	78.94
244.232	78.94
244.465	84.94
244.699	90.94
244.932	79.94
245.166	90.94
245.399	87.94
245.633	85.94
245.866	81.94
246.099	82.94
246.333	84.94
246.566	77.94
246.8	70.94
247.033	90.94
247.266	91.94
247.5	56.94
247.733	69.94
247.966	94.94
248.2	86.94
248.433	87.94
248.666	76.94
248.899	84.94
249.133	74.94
249.366	75.94
249.599	73.94
249.832	85.94
250.066	81.94
250.299	78.94
250.532	87.94
250.765	88.94
250.998	80.94
251.231	69.94
251.465	74.94
251.698	83.94
251.931	92.94
252.164	78.94
252.397	79.94
252.63	82.94
252.863	82.94
253.096	75.94
253.329	84.94
253.562	70.94
253.795	77.94
254.028	78.94
254.261	74.94
254.494	72.94
254.727	79.94
254.96	72.94
255.193	86.94
255.426	88.94
255.659	86.94
255.892	81.94
256.124	87.94
256.357	79.94
256.59	86.94
256.823	88.94
257.056	91.94
257.289	80.94
257.521	75.94
257.754	86.94
257.987	78.94
258.22	83.94
258.452	77.94
258.685	79.94
258.918	81.94
259.151	76.94
259.383	87.94
259.616	87.94
259.849	77.94
260.081	87.94
260.314	75.94
260.547	85.94
260.779	82.94
261.012	75.94
261.244	83.94
261.477	84.94
261.71	78.94
261.942	66.94
262.175	93.94
262.407	83.94
262.64	84.94
262.872	77.94
263.105	88.94
263.337	86.94
263.57	82.94
263.802	76.94
264.035	94.94
264.267	88.94
264.499	81.94
264.732	87.94
264.964	85.94
265.197	72.94
265.429	72.94
265.661	79.94
265.894	69.94
266.126	89.94
266.358	85.94
266.591	90.94
266.823	88.94
267.055	76.94
267.287	93.94
267.52	89.94
267.752	76.94
267.984	76.94
268.216	72.94
268.448	83.94
268.681	77.94
268.913	93.94
269.145	83.94
269.377	84.94
269.609	85.94
269.841	85.94
270.073	86.94
270.306	76.94
270.538	91.94
270.77	85.94
271.002	98.94
271.234	80.94
271.466	92.94
271.698	92.94
271.93	74.94
272.162	87.94
272.394	98.94
272.626	88.94
272.858	90.94
273.09	89.94
273.322	80.94
273.553	69.94
273.785	78.94
274.017	85.94
274.249	85.94
274.481	81.94
274.713	81.94
274.945	79.94
275.176	65.94
275.408	87.94
275.64	91.94
275.872	86.94
276.104	90.94
276.335	81.94
276.567	91.94
276.799	95.94
277.031	80.94
277.262	78.94
277.494	89.94
277.726	92.94
277.957	90.94
278.189	80.94
278.421	89.94
278.652	88.94
278.884	61.94
279.115	79.94
279.347	82.94
279.579	87.94
279.81	91.94
280.042	72.94
280.273	86.94
280.505	82.94
280.736	90.94
280.968	94.94
281.199	93.94
281.431	85.94
281.662	79.94
281.894	83.94
282.125	90.94
282.356	101.94
282.588	88.94
282.819	94.94
283.051	85.94
283.282	91.94
283.513	88.94
283.745	83.94
283.976	89.94
284.207	85.94
284.439	89.94
284.67	79.94
284.901	81.94
285.132	74.94
285.364	81.94
285.595	76.94
285.826	86.94
286.057	92.94
286.288	94.94
286.52	81.94
286.751	90.94
286.982	78.94
287.213	92.94
287.444	90.94
287.675	84.94
287.906	85.94
288.138	77.94
288.369	77.94
288.6	93.94
288.831	74.94
289.062	85.94
289.293	89.94
289.524	91.94
289.755	86.94
289.986	84.94
290.217	92.94
290.448	86.94
290.679	84.94
290.91	72.94
291.141	77.94
291.371	90.94
291.602	82.94
291.833	76.94
292.064	73.94
292.295	77.94
292.526	92.94
292.757	90.94
292.987	103.94
293.218	78.94
293.449	92.94
293.68	87.94
293.91	93.94
294.141	85.94
294.372	91.94
294.603	78.94
294.833	86.94
295.064	84.94
295.295	78.94
295.525	87.94
295.756	79.94
295.987	80.94
296.217	90.94
296.448	72.94
296.679	88.94
296.909	93.94
297.14	92.94
297.37	78.94
297.601	92.94
297.831	76.94
298.062	84.94
298.292	100.94
298.523	95.94
298.753	84.94
298.984	80.94
299.214	87.94
299.445	92.94
299.675	85.94
299.905	87.94
300.136	95.94
300.366	77.94
300.597	94.94
300.827	96.94
301.057	91.94
301.288	80.94
301.518	91.94
301.748	77.94
301.979	111.94
302.209	85.94
302.439	100.94
302.669	88.94
302.9	88.94
303.13	89.94
303.36	95.94
303.59	81.94
303.82	81.94
304.051	81.94
304.281	77.94
304.511	99.94
304.741	73.94
304.971	82.94
305.201	82.94
305.431	74.94
305.661	100.94
305.891	90.94
306.121	90.94
306.352	83.94
306.582	91.94
306.812	86.94
307.042	85.94
307.272	78.94
307.502	93.94
307.731	88.94
307.961	89.94
308.191	93.94
308.421	79.94
308.651	81.94
308.881	84.94
309.111	86.94
309.341	99.94
309.571	83.94
309.8	81.94
310.03	93.94
310.26	81.94
310.49	86.94
310.72	94.94
310.949	84.94
311.179	80.94
311.409	76.94
311.639	89.94
311.868	88.94
312.098	93.94
312.328	91.94
312.557	89.94
312.787	80.94
313.017	79.94
313.246	90.94
313.476	101.94
313.706	94.94
313.935	97.94
314.165	110.94
314.394	88.94
314.624	73.94
314.853	84.94
315.083	88.94
315.312	87.94
315.542	94.94
315.771	91.94
316.001	84.94
316.23	84.94
316.46	84.94
316.689	94.94
316.919	82.94
317.148	81.94
317.377	79.94
317.607	89.94
317.836	95.94
318.065	103.94
318.295	98.94
318.524	80.94
318.753	73.94
318.983	77.94
319.212	85.94
319.441	91.94
319.67	81.94
319.9	84.94
320.129	88.94
320.358	92.94
320.587	79.94
320.816	83.94
321.046	78.94
321.275	89.94
321.504	75.94
321.733	82.94
321.962	86.94
322.191	94.94
322.42	74.94
322.649	92.94
322.878	93.94
323.108	89.94
323.337	92.94
323.566	74.94
323.795	86.94
324.024	91.94
324.253	90.94
324.482	80.94
324.71	80.94
324.939	81.94
325.168	85.94
325.397	69.94
325.626	85.94
325.855	91.94
326.084	78.94
326.313	95.94
326.542	87.94
326.77	85.94
326.999	89.94
327.228	94.94
327.457	86.94
327.686	95.94
327.914	91.94
328.143	84.94
328.372	96.94
328.6	84.94
328.829	96.94
329.058	101.94
329.287	84.94
329.515	91.94
329.744	97.94
329.972	94.94
330.201	83.94
330.43	81.94
330.658	79.94
330.887	90.94
331.115	83.94
331.344	96.94
331.572	80.94
331.801	80.94
332.03	100.94
332.258	92.94
332.486	82.94
332.715	87.94
332.943	82.94
333.172	92.94
333.4	89.94
333.629	100.94
333.857	86.94
334.085	85.94
334.314	81.94
334.542	91.94
334.771	88.94
334.999	87.94
335.227	82.94
335.455	76.94
335.684	86.94
335.912	91.94
336.14	84.94
336.369	95.94
336.597	86.94
336.825	83.94
337.053	99.94
337.281	93.94
337.51	97.94
337.738	92.94
337.966	81.94
338.194	88.94
338.422	80.94
338.65	90.94
338.878	94.94
339.106	97.94
339.334	103.94
339.562	89.94
339.79	86.94
340.018	89.94
340.246	80.94
340.474	77.94
340.702	78.94
340.93	87.94
341.158	78.94
341.386	88.94
341.614	81.94
341.842	77.94
342.07	85.94
342.298	90.94
342.526	87.94
342.754	88.94
342.981	85.94
343.209	82.94
343.437	105.94
343.665	84.94
343.893	91.94
344.12	87.94
344.348	81.94
344.576	86.94
344.804	92.94
345.031	92.94
345.259	105.94
345.487	95.94
345.714	90.94
345.942	86.94
346.17	90.94
346.397	91.94
346.625	87.94
346.853	84.94
347.08	79.94
347.308	91.94
347.535	90.94
347.763	92.94
347.99	86.94
348.218	101.94
348.445	96.94
348.673	90.94
348.9	84.94
349.128	77.94
349.355	89.94
349.583	79.94
349.81	78.94
350.037	82.94
350.265	93.94
350.492	85.94
350.72	86.94
350.947	89.94
351.174	91.94
351.402	84.94
351.629	84.94
351.856	97.94
352.083	102.94
352.311	87.94
352.538	78.94
352.765	94.94
352.992	97.94
353.22	84.94
353.447	83.94
353.674	89.94
353.901	88.94
354.128	102.94
354.355	92.94
354.583	84.94
354.81	95.94
355.037	85.94
355.264	77.94
355.491	80.94
355.718	84.94
355.945	78.94
356.172	91.94
356.399	91.94
356.626	75.94
356.853	94.94
357.08	77.94
357.307	82.94
357.534	89.94
357.761	96.94
357.988	89.94
358.215	94.94
358.441	83.94
358.668	101.94
358.895	103.94
359.122	101.94
359.349	88.94
359.576	85.94
359.802	104.94
360.029	85.94
360.256	103.94
360.483	78.94
360.709	86.94
360.936	94.94
361.163	74.94
361.39	87.94
361.616	85.94
361.843	99.94
362.07	91.94
362.296	85.94
362.523	74.94
362.749	92.94
362.976	88.94
363.203	103.94
363.429	110.94
363.656	86.94
363.882	100.94
364.109	88.94
364.335	90.94
364.562	83.94
364.788	97.94
365.015	93.94
365.241	95.94
365.468	91.94
365.694	79.94
365.92	76.94
366.147	85.94
366.373	96.94
366.599	88.94
366.826	82.94
367.052	94.94
367.278	87.94
367.505	88.94
367.731	94.94
367.957	96.94
368.184	87.94
368.41	71.94
368.636	87.94
368.862	90.94
369.089	90.94
369.315	75.94
369.541	94.94
369.767	93.94
369.993	91.94
370.219	88.94
370.445	88.94
370.672	85.94
370.898	94.94
371.124	89.94
371.35	87.94
371.576	77.94
371.802	94.94
372.028	85.94
372.254	80.94
372.48	104.94
372.706	76.94
372.932	69.94
373.158	90.94
373.384	86.94
373.61	117.94
373.835	92.94
374.061	76.94
374.287	101.94
374.513	94.94
374.739	76.94
374.965	77.94
375.191	75.94
375.416	100.94
375.642	104.94
375.868	89.94
376.094	82.94
376.319	90.94
376.545	77.94
376.771	83.94
376.997	86.94
377.222	98.94
377.448	100.94
377.674	84.94
377.899	86.94
378.125	93.94
378.35	87.94
378.576	77.94
378.802	93.94
379.027	75.94
379.253	78.94
379.478	80.94
379.704	82.94
379.929	76.94
380.155	93.94
380.38	78.94
380.606	82.94
380.831	88.94
381.057	102.94
381.282	109.94
381.507	84.94
381.733	100.94
381.958	78.94
382.184	76.94
382.409	92.94
382.634	96.94
382.86	86.94
383.085	111.94
383.31	96.94
383.535	94.94
383.761	94.94
383.986	90.94
384.211	88.94
384.436	82.94
384.662	98.94
384.887	100.94
385.112	75.94
385.337	74.94
385.562	87.94
385.787	94.94
386.013	87.94
386.238	76.94
386.463	87.94
386.688	108.94
386.913	100.94
387.138	88.94
387.363	85.94
387.588	90.94
387.813	72.94
388.038	83.94
388.263	94.94
388.488	86.94
388.713	78.94
388.938	106.94
389.163	102.94
389.387	85.94
389.612	88.94
389.837	89.94
390.062	82.94
390.287	78.94
390.512	78.94
390.736	85.94
390.961	68.94
391.186	80.94
391.411	89.94
391.636	84.94
391.86	88.94
392.085	87.94
392.31	95.94
392.534	89.94
392.759	94.94
392.984	100.94
393.208	125.94
393.433	140.94
393.658	127.94
393.882	86.94
394.107	107.94
394.331	101.94
394.556	94.94
394.78	83.94
395.005	94.94
395.229	78.94
395.454	109.94
395.678	104.94
395.903	106.94
396.127	101.94
396.352	102.94
396.576	109.94
396.801	120.94
397.025	125.94
397.249	89.94
397.474	74.94
397.698	88.94
397.922	93.94
398.147	92.94
398.371	97.94
398.595	92.94
398.82	103.94
399.044	74.94
399.268	90.94
399.492	105.94
399.717	85.94
399.941	76.94
400.165	70.94
400.389	102.94
400.613	86.94
400.837	81.94
401.062	84.94
401.286	86.94
401.51	82.94
401.734	73.94
401.958	82.94
402.182	81.94
402.406	77.94
402.63	76.94
402.854	88.94
403.078	89.94
403.302	78.94
403.526	94.94
403.75	94.94
403.974	74.94
404.198	96.94
404.422	142.94
404.645	152.94
404.869	138.94
405.093	106.94
405.317	92.94
405.541	86.94
405.765	97.94
405.988	95.94
406.212	102.94
406.436	84.94
406.66	84.94
406.883	82.94
407.107	83.94
407.331	76.94
407.555	86.94
407.778	81.94
408.002	76.94
408.226	84.94
408.449	65.94
408.673	76.94
408.896	84.94
409.12	80.94
409.344	97.94
409.567	100.94
409.791	82.94
410.014	82.94
410.238	102.94
410.461	80.94
410.685	81.94
410.908	81.94
411.132	82.94
411.355	88.94
411.578	85.94
411.802	73.94
412.025	94.94
412.249	85.94
412.472	84.94
412.695	98.94
412.919	85.94
413.142	77.94
413.365	88.94
413.589	79.94
413.812	82.94
414.035	99.94
414.258	85.94
414.482	84.94
414.705	90.94
414.928	104.94
415.151	87.94
415.374	78.94
415.597	85.94
415.821	88.94
416.044	87.94
416.267	77.94
416.49	85.94
416.713	83.94
416.936	94.94
417.159	78.94
417.382	81.94
417.605	94.94
417.828	92.94
418.051	97.94
418.274	80.94
418.497	84.94
418.72	90.94
418.943	93.94
419.166	92.94
419.389	91.94
419.611	85.94
419.834	88.94
420.057	69.94
420.28	94.94
420.503	89.94
420.726	91.94
420.948	96.94
421.171	97.94
421.394	88.94
421.617	85.94
421.839	96.94
422.062	93.94
422.285	118.94
422.507	152.94
422.73	192.94
422.953	173.94
423.175	103.94
423.398	87.94
423.621	104.94
423.843	94.94
424.066	88.94
424.288	92.94
424.511	88.94
424.733	84.94
424.956	90.94
425.178	77.94
425.401	79.94
425.623	92.94
425.846	79.94
426.068	92.94
426.291	78.94
426.513	81.94
426.735	76.94
426.958	103.94
427.18	91.94
427.402	86.94
427.625	89.94
427.847	95.94
428.069	84.94
428.292	110.94
428.514	103.94
428.736	91.94
428.958	93.94
429.181	109.94
429.403	80.94
429.625	94.94
429.847	104.94
430.069	127.94
430.292	120.94
430.514	118.94
430.736	105.94
430.958	110.94
431.18	94.94
431.402	84.94
431.624	100.94
431.846	103.94
432.068	114.94
432.29	80.94
432.512	69.94
432.734	93.94
432.956	77.94
433.178	84.94
433.4	95.94
433.622	83.94
433.844	86.94
434.066	81.94
434.287	79.94
434.509	87.94
434.731	88.94
434.953	93.94
435.175	85.94
435.397	89.94
435.618	88.94
435.84	69.94
436.062	94.94
436.284	94.94
436.505	88.94
436.727	103.94
436.949	75.94
437.17	70.94
437.392	92.94
437.614	93.94
437.835	77.94
438.057	94.94
438.278	89.94
438.5	70.94
438.721	87.94
438.943	83.94
439.165	93.94
439.386	94.94
439.608	76.94
439.829	91.94
440.05	87.94
440.272	88.94
440.493	85.94
440.715	81.94
440.936	86.94
441.158	84.94
441.379	83.94
441.6	89.94
441.822	80.94
442.043	94.94
442.264	90.94
442.486	108.94
442.707	112.94
442.928	103.94
443.149	91.94
443.371	124.94
443.592	148.94
443.813	125.94
444.034	84.94
444.255	77.94
444.476	92.94
444.698	95.94
444.919	92.94
445.14	164.94
445.361	144.94
445.582	181.94
445.803	133.94
446.024	97.94
446.245	77.94
446.466	88.94
446.687	74.94
446.908	95.94
447.129	92.94
447.35	84.94
447.571	100.94
447.792	91.94
448.013	83.94
448.234	92.94
448.455	105.94
448.675	87.94
448.896	82.94
449.117	80.94
449.338	82.94
449.559	84.94
449.779	85.94
450	97.94
450.221	97.94
450.442	77.94
450.662	88.94
450.883	80.94
451.104	88.94
451.324	91.94
451.545	83.94
451.766	70.94
451.986	92.94
452.207	94.94
452.428	83.94
452.648	97.94
452.869	102.94
453.089	84.94
453.31	88.94
453.53	87.94
453.751	83.94
453.971	73.94
454.192	93.94
454.412	72.94
454.633	89.94
454.853	94.94
455.073	78.94
455.294	72.94
455.514	88.94
455.734	90.94
455.955	80.94
456.175	88.94
456.395	90.94
456.616	87.94
456.836	94.94
457.056	92.94
457.276	86.94
457.497	75.94
457.717	90.94
457.937	80.94
458.157	83.94
458.377	87.94
458.598	100.94
458.818	89.94
459.038	104.94
459.258	94.94
459.478	85.94
459.698	86.94
459.918	84.94
460.138	82.94
460.358	85.94
460.578	97.94
460.798	102.94
461.018	104.94
461.238	85.94
461.458	71.94
461.678	75.94
461.898	85.94
462.118	97.94
462.338	86.94
462.558	81.94
462.777	82.94
462.997	90.94
463.217	83.94
463.437	85.94
463.657	95.94
463.876	87.94
464.096	76.94
464.316	66.94
464.536	97.94
464.755	87.94
464.975	99.94
465.195	84.94
465.414	84.94
465.634	88.94
465.854	76.94
466.073	87.94
466.293	95.94
466.512	91.94
466.732	93.94
466.951	81.94
467.171	87.94
467.391	77.94
467.61	78.94
467.829	76.94
468.049	80.94
468.268	88.94
468.488	95.94
468.707	98.94
468.927	84.94
469.146	80.94
469.365	81.94
469.585	95.94
469.804	89.94
470.023	76.94
470.243	80.94
470.462	74.94
470.681	95.94
470.901	89.94
471.12	81.94
471.339	75.94
471.558	94.94
471.777	89.94
471.997	88.94
472.216	100.94
472.435	84.94
472.654	76.94
472.873	93.94
473.092	101.94
473.311	94.94
473.53	85.94
473.749	87.94
473.968	84.94
474.187	97.94
474.406	74.94
474.625	79.94
474.844	98.94
475.063	79.94
475.282	96.94
475.501	89.94
475.72	101.94
475.939	97.94
476.158	102.94
476.377	74.94
476.596	77.94
476.814	80.94
477.033	86.94
477.252	84.94
477.471	77.94
477.69	85.94
477.908	87.94
478.127	80.94
478.346	86.94
478.564	82.94
478.783	82.94
479.002	90.94
479.22	83.94
479.439	86.94
479.658	83.94
479.876	97.94
480.095	79.94
480.313	79.94
480.532	89.94
480.751	87.94
480.969	95.94
481.188	89.94
481.406	74.94
481.624	80.94
481.843	86.94
482.061	93.94
482.28	89.94
482.498	79.94
482.717	92.94
482.935	78.94
483.153	87.94
483.372	93.94
483.59	92.94
483.808	94.94
484.027	100.94
484.245	89.94
484.463	84.94
484.681	108.94
484.9	89.94
485.118	87.94
485.336	88.94
485.554	86.94
485.772	103.94
485.99	96.94
486.209	88.94
486.427	89.94
486.645	83.94
486.863	75.94
487.081	72.94
487.299	90.94
487.517	106.94
487.735	98.94
487.953	96.94
488.171	89.94
488.389	109.94
488.607	70.94
488.825	90.94
489.043	80.94
489.261	94.94
489.479	90.94
489.696	104.94
489.914	82.94
490.132	70.94
490.35	90.94
490.568	89.94
490.786	91.94
491.003	78.94
491.221	97.94
491.439	99.94
491.657	92.94
491.874	89.94
492.092	95.94
492.31	98.94
492.527	79.94
492.745	80.94
492.963	98.94
493.18	92.94
493.398	92.94
493.615	102.94
493.833	74.94
494.05	78.94
494.268	77.94
494.485	83.94
494.703	89.94
494.92	102.94
495.138	83.94
495.355	82.94
495.573	79.94
495.79	77.94
496.008	87.94
496.225	105.94
496.442	87.94
496.66	99.94
496.877	88.94
497.094	100.94
497.312	88.94
497.529	87.94
497.746	89.94
497.963	97.94
498.181	87.94
498.398	93.94
498.615	81.94
498.832	75.94
499.049	86.94
499.267	86.94
499.484	80.94
499.701	84.94
499.918	91.94
500.135	95.94
500.352	87.94
500.569	92.94
500.786	102.94
501.003	97.94
501.22	100.94
501.437	88.94
501.654	86.94
501.871	95.94
502.088	93.94
502.305	88.94
502.522	90.94
502.739	95.94
502.956	80.94
503.172	85.94
503.389	98.94
503.606	90.94
503.823	89.94
504.04	94.94
504.256	94.94
504.473	105.94
504.69	100.94
504.907	110.94
505.123	86.94
505.34	84.94
505.557	74.94
505.773	93.94
505.99	80.94
506.207	84.94
506.423	106.94
506.64	89.94
506.856	82.94
507.073	81.94
507.289	92.94
507.506	105.94
507.722	84.94
507.939	91.94
508.155	97.94
508.372	93.94
508.588	93.94
508.805	100.94
509.021	93.94
509.238	91.94
509.454	86.94
509.67	85.94
509.887	80.94
510.103	85.94
510.319	94.94
510.536	89.94
510.752	88.94
510.968	91.94
511.184	95.94
511.401	82.94
511.617	83.94
511.833	86.94
512.049	86.94
512.265	89.94
512.481	78.94
512.698	103.94
512.914	97.94
513.13	89.94
513.346	79.94
513.562	80.94
513.778	81.94
513.994	88.94
514.21	79.94
514.426	88.94
514.642	84.94
514.858	86.94
515.074	96.94
515.29	99.94
515.506	73.94
515.721	71.94
515.937	88.94
516.153	80.94
516.369	97.94
516.585	91.94
516.801	80.94
517.016	68.94
517.232	97.94
517.448	84.94
517.664	100.94
517.879	94.94
518.095	98.94
518.311	96.94
518.527	89.94
