Data from Mixnoheat1_HRD10591_00009.txt Node
Date: Fri Dec 27 14:57:59 EST 2024
User: Yrep
Spectrometer: HR+D1059
Trigger mode: 1
Integration Time (sec): 1.000000E-1
Scans to average: 1
Electric dark correction enabled: true
Nonlinearity correction enabled: false
Boxcar width: 0
XAxis mode: Wavelengths
Number of Pixels in Spectrum: 2048
>>>>>Begin Spectral Data<<<<<
223.165	-17.19
223.4	-17.19
223.635	-17.19
223.869	-13.19
224.104	-15.19
224.338	-20.19
224.573	-11.19
224.808	-13.19
225.042	-5.19
225.277	-9.19
225.511	10.81
225.746	-2.19
225.98	-8.19
226.215	-2.19
226.449	14.81
226.683	36.81
226.918	23.81
227.152	30.81
227.387	39.81
227.621	31.81
227.856	45.81
228.09	46.81
228.324	45.81
228.559	61.81
228.793	45.81
229.027	60.81
229.262	51.81
229.496	62.81
229.73	78.81
229.964	73.81
230.199	67.81
230.433	71.81
230.667	83.81
230.901	83.81
231.136	74.81
231.37	74.81
231.604	76.81
231.838	77.81
232.072	85.81
232.306	83.81
232.541	83.81
232.775	75.81
233.009	71.81
233.243	74.81
233.477	76.81
233.711	90.81
233.945	85.81
234.179	77.81
234.413	84.81
234.647	68.81
234.881	64.81
235.115	70.81
235.349	81.81
235.583	84.81
235.817	77.81
236.051	89.81
236.285	76.81
236.519	81.81
236.753	83.81
236.987	83.81
237.221	79.81
237.455	72.81
237.689	80.81
237.922	75.81
238.156	85.81
238.39	63.81
238.624	68.81
238.858	73.81
239.091	84.81
239.325	77.81
239.559	79.81
239.793	79.81
240.027	75.81
240.26	72.81
240.494	70.81
240.728	75.81
240.961	71.81
241.195	80.81
241.429	65.81
241.662	79.81
241.896	70.81
242.13	68.81
242.363	77.81
242.597	68.81
242.83	78.81
243.064	65.81
243.298	86.81
243.531	91.81
243.765	72.81
243.998	70.81
244.232	71.81
244.465	86.81
244.699	76.81
244.932	63.81
245.166	71.81
245.399	79.81
245.633	71.81
245.866	91.81
246.099	71.81
246.333	71.81
246.566	69.81
246.8	79.81
247.033	86.81
247.266	74.81
247.5	77.81
247.733	68.81
247.966	62.81
248.2	86.81
248.433	86.81
248.666	65.81
248.899	83.81
249.133	91.81
249.366	98.81
249.599	76.81
249.832	74.81
250.066	77.81
250.299	75.81
250.532	80.81
250.765	82.81
250.998	74.81
251.231	85.81
251.465	73.81
251.698	94.81
251.931	90.81
252.164	74.81
252.397	91.81
252.63	77.81
252.863	78.81
253.096	68.81
253.329	80.81
253.562	79.81
253.795	89.81
254.028	86.81
254.261	98.81
254.494	58.81
254.727	72.81
254.96	71.81
255.193	71.81
255.426	83.81
255.659	71.81
255.892	82.81
256.124	83.81
256.357	78.81
256.59	95.81
256.823	84.81
257.056	80.81
257.289	77.81
257.521	78.81
257.754	73.81
257.987	85.81
258.22	91.81
258.452	84.81
258.685	71.81
258.918	92.81
259.151	75.81
259.383	72.81
259.616	73.81
259.849	94.81
260.081	78.81
260.314	87.81
260.547	81.81
260.779	94.81
261.012	81.81
261.244	90.81
261.477	69.81
261.71	68.81
261.942	87.81
262.175	71.81
262.407	83.81
262.64	78.81
262.872	75.81
263.105	84.81
263.337	69.81
263.57	66.81
263.802	82.81
264.035	83.81
264.267	76.81
264.499	85.81
264.732	86.81
264.964	79.81
265.197	92.81
265.429	93.81
265.661	73.81
265.894	81.81
266.126	87.81
266.358	75.81
266.591	77.81
266.823	85.81
267.055	79.81
267.287	86.81
267.52	80.81
267.752	87.81
267.984	78.81
268.216	80.81
268.448	71.81
268.681	86.81
268.913	82.81
269.145	82.81
269.377	88.81
269.609	89.81
269.841	80.81
270.073	88.81
270.306	76.81
270.538	91.81
270.77	77.81
271.002	84.81
271.234	75.81
271.466	94.81
271.698	75.81
271.93	80.81
272.162	89.81
272.394	90.81
272.626	88.81
272.858	84.81
273.09	87.81
273.322	94.81
273.553	73.81
273.785	89.81
274.017	101.81
274.249	92.81
274.481	83.81
274.713	75.81
274.945	77.81
275.176	57.81
275.408	88.81
275.64	90.81
275.872	85.81
276.104	88.81
276.335	89.81
276.567	86.81
276.799	82.81
277.031	78.81
277.262	76.81
277.494	92.81
277.726	83.81
277.957	94.81
278.189	73.81
278.421	91.81
278.652	75.81
278.884	82.81
279.115	81.81
279.347	77.81
279.579	93.81
279.81	83.81
280.042	94.81
280.273	86.81
280.505	82.81
280.736	91.81
280.968	85.81
281.199	95.81
281.431	90.81
281.662	88.81
281.894	82.81
282.125	69.81
282.356	84.81
282.588	88.81
282.819	80.81
283.051	81.81
283.282	82.81
283.513	83.81
283.745	77.81
283.976	88.81
284.207	82.81
284.439	87.81
284.67	83.81
284.901	77.81
285.132	78.81
285.364	91.81
285.595	89.81
285.826	87.81
286.057	78.81
286.288	91.81
286.52	98.81
286.751	90.81
286.982	98.81
287.213	88.81
287.444	80.81
287.675	96.81
287.906	97.81
288.138	56.81
288.369	82.81
288.6	94.81
288.831	84.81
289.062	90.81
289.293	89.81
289.524	86.81
289.755	75.81
289.986	74.81
290.217	78.81
290.448	84.81
290.679	72.81
290.91	84.81
291.141	84.81
291.371	98.81
291.602	81.81
291.833	90.81
292.064	104.81
292.295	97.81
292.526	96.81
292.757	86.81
292.987	86.81
293.218	88.81
293.449	72.81
293.68	68.81
293.91	78.81
294.141	93.81
294.372	88.81
294.603	68.81
294.833	79.81
295.064	90.81
295.295	90.81
295.525	88.81
295.756	89.81
295.987	106.81
296.217	84.81
296.448	84.81
296.679	81.81
296.909	72.81
297.14	88.81
297.37	80.81
297.601	82.81
297.831	84.81
298.062	83.81
298.292	85.81
298.523	98.81
298.753	93.81
298.984	93.81
299.214	87.81
299.445	83.81
299.675	75.81
299.905	99.81
300.136	97.81
300.366	73.81
300.597	86.81
300.827	90.81
301.057	83.81
301.288	94.81
301.518	81.81
301.748	76.81
301.979	99.81
302.209	86.81
302.439	90.81
302.669	80.81
302.9	84.81
303.13	87.81
303.36	75.81
303.59	68.81
303.82	80.81
304.051	76.81
304.281	82.81
304.511	82.81
304.741	80.81
304.971	91.81
305.201	92.81
305.431	84.81
305.661	99.81
305.891	73.81
306.121	70.81
306.352	88.81
306.582	87.81
306.812	85.81
307.042	80.81
307.272	93.81
307.502	90.81
307.731	87.81
307.961	81.81
308.191	90.81
308.421	95.81
308.651	90.81
308.881	85.81
309.111	88.81
309.341	76.81
309.571	77.81
309.8	98.81
310.03	79.81
310.26	83.81
310.49	80.81
310.72	83.81
310.949	79.81
311.179	87.81
311.409	78.81
311.639	98.81
311.868	82.81
312.098	78.81
312.328	77.81
312.557	89.81
312.787	76.81
313.017	83.81
313.246	79.81
313.476	95.81
313.706	66.81
313.935	95.81
314.165	86.81
314.394	80.81
314.624	88.81
314.853	81.81
315.083	96.81
315.312	82.81
315.542	83.81
315.771	94.81
316.001	80.81
316.23	99.81
316.46	93.81
316.689	82.81
316.919	82.81
317.148	84.81
317.377	84.81
317.607	92.81
317.836	84.81
318.065	82.81
318.295	72.81
318.524	92.81
318.753	86.81
318.983	91.81
319.212	95.81
319.441	80.81
319.67	74.81
319.9	73.81
320.129	85.81
320.358	90.81
320.587	90.81
320.816	79.81
321.046	89.81
321.275	90.81
321.504	85.81
321.733	89.81
321.962	78.81
322.191	73.81
322.42	81.81
322.649	99.81
322.878	90.81
323.108	86.81
323.337	97.81
323.566	90.81
323.795	91.81
324.024	79.81
324.253	84.81
324.482	90.81
324.71	95.81
324.939	68.81
325.168	78.81
325.397	91.81
325.626	81.81
325.855	84.81
326.084	91.81
326.313	89.81
326.542	90.81
326.77	96.81
326.999	84.81
327.228	95.81
327.457	71.81
327.686	74.81
327.914	87.81
328.143	85.81
328.372	75.81
328.6	83.81
328.829	101.81
329.058	84.81
329.287	75.81
329.515	81.81
329.744	86.81
329.972	77.81
330.201	77.81
330.43	96.81
330.658	86.81
330.887	92.81
331.115	80.81
331.344	87.81
331.572	73.81
331.801	92.81
332.03	77.81
332.258	88.81
332.486	75.81
332.715	94.81
332.943	90.81
333.172	77.81
333.4	93.81
333.629	88.81
333.857	91.81
334.085	85.81
334.314	100.81
334.542	93.81
334.771	88.81
334.999	92.81
335.227	100.81
335.455	86.81
335.684	91.81
335.912	99.81
336.14	90.81
336.369	91.81
336.597	89.81
336.825	78.81
337.053	83.81
337.281	86.81
337.51	71.81
337.738	80.81
337.966	89.81
338.194	83.81
338.422	99.81
338.65	100.81
338.878	86.81
339.106	86.81
339.334	87.81
339.562	73.81
339.79	97.81
340.018	103.81
340.246	83.81
340.474	81.81
340.702	91.81
340.93	85.81
341.158	90.81
341.386	89.81
341.614	101.81
341.842	100.81
342.07	69.81
342.298	92.81
342.526	86.81
342.754	91.81
342.981	80.81
343.209	80.81
343.437	94.81
343.665	82.81
343.893	79.81
344.12	82.81
344.348	79.81
344.576	101.81
344.804	109.81
345.031	77.81
345.259	85.81
345.487	81.81
345.714	72.81
345.942	85.81
346.17	99.81
346.397	82.81
346.625	76.81
346.853	71.81
347.08	78.81
347.308	82.81
347.535	71.81
347.763	92.81
347.99	90.81
348.218	88.81
348.445	94.81
348.673	93.81
348.9	92.81
349.128	92.81
349.355	91.81
349.583	87.81
349.81	82.81
350.037	76.81
350.265	71.81
350.492	87.81
350.72	97.81
350.947	79.81
351.174	95.81
351.402	94.81
351.629	77.81
351.856	87.81
352.083	92.81
352.311	93.81
352.538	74.81
352.765	99.81
352.992	92.81
353.22	92.81
353.447	78.81
353.674	87.81
353.901	76.81
354.128	92.81
354.355	90.81
354.583	93.81
354.81	84.81
355.037	86.81
355.264	91.81
355.491	74.81
355.718	89.81
355.945	88.81
356.172	72.81
356.399	89.81
356.626	86.81
356.853	92.81
357.08	104.81
357.307	77.81
357.534	81.81
357.761	95.81
357.988	102.81
358.215	86.81
358.441	92.81
358.668	90.81
358.895	106.81
359.122	90.81
359.349	94.81
359.576	79.81
359.802	75.81
360.029	93.81
360.256	80.81
360.483	77.81
360.709	85.81
360.936	85.81
361.163	85.81
361.39	80.81
361.616	87.81
361.843	87.81
362.07	88.81
362.296	93.81
362.523	68.81
362.749	80.81
362.976	81.81
363.203	90.81
363.429	105.81
363.656	88.81
363.882	92.81
364.109	91.81
364.335	94.81
364.562	87.81
364.788	83.81
365.015	81.81
365.241	77.81
365.468	98.81
365.694	95.81
365.92	91.81
366.147	92.81
366.373	100.81
366.599	95.81
366.826	84.81
367.052	83.81
367.278	87.81
367.505	85.81
367.731	95.81
367.957	91.81
368.184	90.81
368.41	84.81
368.636	88.81
368.862	76.81
369.089	92.81
369.315	82.81
369.541	88.81
369.767	86.81
369.993	90.81
370.219	88.81
370.445	93.81
370.672	94.81
370.898	82.81
371.124	85.81
371.35	80.81
371.576	89.81
371.802	105.81
372.028	89.81
372.254	88.81
372.48	80.81
372.706	90.81
372.932	71.81
373.158	100.81
373.384	99.81
373.61	109.81
373.835	95.81
374.061	88.81
374.287	90.81
374.513	90.81
374.739	91.81
374.965	98.81
375.191	76.81
375.416	81.81
375.642	79.81
375.868	86.81
376.094	91.81
376.319	85.81
376.545	83.81
376.771	86.81
376.997	75.81
377.222	83.81
377.448	87.81
377.674	92.81
377.899	87.81
378.125	85.81
378.35	86.81
378.576	83.81
378.802	70.81
379.027	87.81
379.253	75.81
379.478	73.81
379.704	87.81
379.929	82.81
380.155	90.81
380.38	98.81
380.606	91.81
380.831	84.81
381.057	107.81
381.282	74.81
381.507	87.81
381.733	81.81
381.958	96.81
382.184	95.81
382.409	87.81
382.634	81.81
382.86	86.81
383.085	92.81
383.31	79.81
383.535	89.81
383.761	94.81
383.986	75.81
384.211	77.81
384.436	92.81
384.662	77.81
384.887	87.81
385.112	84.81
385.337	81.81
385.562	81.81
385.787	103.81
386.013	91.81
386.238	91.81
386.463	80.81
386.688	110.81
386.913	86.81
387.138	87.81
387.363	96.81
387.588	87.81
387.813	91.81
388.038	86.81
388.263	82.81
388.488	84.81
388.713	90.81
388.938	89.81
389.163	83.81
389.387	79.81
389.612	86.81
389.837	84.81
390.062	86.81
390.287	79.81
390.512	91.81
390.736	84.81
390.961	103.81
391.186	93.81
391.411	86.81
391.636	83.81
391.86	92.81
392.085	105.81
392.31	88.81
392.534	82.81
392.759	100.81
392.984	108.81
393.208	142.81
393.433	145.81
393.658	123.81
393.882	107.81
394.107	104.81
394.331	102.81
394.556	104.81
394.78	96.81
395.005	96.81
395.229	85.81
395.454	92.81
395.678	83.81
395.903	78.81
396.127	98.81
396.352	111.81
396.576	99.81
396.801	130.81
397.025	129.81
397.249	107.81
397.474	105.81
397.698	100.81
397.922	87.81
398.147	77.81
398.371	85.81
398.595	110.81
398.82	80.81
399.044	86.81
399.268	92.81
399.492	95.81
399.717	86.81
399.941	98.81
400.165	95.81
400.389	78.81
400.613	74.81
400.837	71.81
401.062	79.81
401.286	67.81
401.51	92.81
401.734	91.81
401.958	75.81
402.182	85.81
402.406	88.81
402.63	86.81
402.854	87.81
403.078	83.81
403.302	94.81
403.526	73.81
403.75	89.81
403.974	82.81
404.198	113.81
404.422	154.81
404.645	148.81
404.869	132.81
405.093	96.81
405.317	91.81
405.541	85.81
405.765	87.81
405.988	79.81
406.212	84.81
406.436	76.81
406.66	95.81
406.883	79.81
407.107	78.81
407.331	89.81
407.555	78.81
407.778	98.81
408.002	95.81
408.226	91.81
408.449	82.81
408.673	75.81
408.896	89.81
409.12	108.81
409.344	81.81
409.567	89.81
409.791	106.81
410.014	93.81
410.238	78.81
410.461	90.81
410.685	80.81
410.908	86.81
411.132	84.81
411.355	80.81
411.578	106.81
411.802	98.81
412.025	77.81
412.249	86.81
412.472	104.81
412.695	87.81
412.919	91.81
413.142	91.81
413.365	94.81
413.589	83.81
413.812	78.81
414.035	96.81
414.258	82.81
414.482	88.81
414.705	84.81
414.928	89.81
415.151	76.81
415.374	75.81
415.597	78.81
415.821	75.81
416.044	83.81
416.267	81.81
416.49	84.81
416.713	83.81
416.936	75.81
417.159	67.81
417.382	90.81
417.605	78.81
417.828	92.81
418.051	96.81
418.274	89.81
418.497	85.81
418.72	88.81
418.943	100.81
419.166	93.81
419.389	90.81
419.611	92.81
419.834	104.81
420.057	88.81
420.28	92.81
420.503	94.81
420.726	103.81
420.948	90.81
421.171	84.81
421.394	82.81
421.617	101.81
421.839	97.81
422.062	106.81
422.285	129.81
422.507	164.81
422.73	191.81
422.953	172.81
423.175	148.81
423.398	99.81
423.621	105.81
423.843	102.81
424.066	86.81
424.288	92.81
424.511	109.81
424.733	82.81
424.956	78.81
425.178	81.81
425.401	93.81
425.623	81.81
425.846	78.81
426.068	74.81
426.291	83.81
426.513	68.81
426.735	100.81
426.958	90.81
427.18	82.81
427.402	89.81
427.625	91.81
427.847	92.81
428.069	100.81
428.292	107.81
428.514	110.81
428.736	90.81
428.958	103.81
429.181	112.81
429.403	83.81
429.625	95.81
429.847	120.81
430.069	125.81
430.292	122.81
430.514	127.81
430.736	105.81
430.958	117.81
431.18	96.81
431.402	83.81
431.624	94.81
431.846	95.81
432.068	99.81
432.29	88.81
432.512	79.81
432.734	75.81
432.956	76.81
433.178	81.81
433.4	84.81
433.622	103.81
433.844	88.81
434.066	83.81
434.287	73.81
434.509	92.81
434.731	98.81
434.953	78.81
435.175	86.81
435.397	106.81
435.618	79.81
435.84	79.81
436.062	85.81
436.284	81.81
436.505	92.81
436.727	88.81
436.949	89.81
437.17	88.81
437.392	71.81
437.614	97.81
437.835	82.81
438.057	86.81
438.278	88.81
438.5	88.81
438.721	93.81
438.943	81.81
439.165	78.81
439.386	89.81
439.608	79.81
439.829	85.81
440.05	74.81
440.272	83.81
440.493	84.81
440.715	86.81
440.936	102.81
441.158	87.81
441.379	76.81
441.6	90.81
441.822	83.81
442.043	91.81
442.264	99.81
442.486	109.81
442.707	120.81
442.928	104.81
443.149	88.81
443.371	118.81
443.592	158.81
443.813	126.81
444.034	96.81
444.255	85.81
444.476	80.81
444.698	86.81
444.919	96.81
445.14	150.81
445.361	158.81
445.582	168.81
445.803	157.81
446.024	106.81
446.245	92.81
446.466	93.81
446.687	81.81
446.908	91.81
447.129	89.81
447.35	91.81
447.571	83.81
447.792	91.81
448.013	86.81
448.234	87.81
448.455	84.81
448.675	67.81
448.896	76.81
449.117	87.81
449.338	68.81
449.559	84.81
449.779	78.81
450	92.81
450.221	83.81
450.442	86.81
450.662	87.81
450.883	89.81
451.104	88.81
451.324	78.81
451.545	83.81
451.766	95.81
451.986	87.81
452.207	100.81
452.428	92.81
452.648	96.81
452.869	89.81
453.089	98.81
453.31	79.81
453.53	83.81
453.751	80.81
453.971	84.81
454.192	89.81
454.412	103.81
454.633	76.81
454.853	78.81
455.073	77.81
455.294	88.81
455.514	77.81
455.734	87.81
455.955	103.81
456.175	84.81
456.395	91.81
456.616	94.81
456.836	76.81
457.056	85.81
457.276	91.81
457.497	77.81
457.717	86.81
457.937	90.81
458.157	91.81
458.377	111.81
458.598	93.81
458.818	91.81
459.038	81.81
459.258	91.81
459.478	88.81
459.698	83.81
459.918	89.81
460.138	70.81
460.358	80.81
460.578	87.81
460.798	110.81
461.018	79.81
461.238	80.81
461.458	89.81
461.678	75.81
461.898	103.81
462.118	84.81
462.338	85.81
462.558	83.81
462.777	90.81
462.997	102.81
463.217	98.81
463.437	87.81
463.657	93.81
463.876	78.81
464.096	82.81
464.316	94.81
464.536	80.81
464.755	91.81
464.975	84.81
465.195	82.81
465.414	75.81
465.634	85.81
465.854	86.81
466.073	86.81
466.293	79.81
466.512	71.81
466.732	90.81
466.951	78.81
467.171	82.81
467.391	93.81
467.61	86.81
467.829	94.81
468.049	80.81
468.268	88.81
468.488	76.81
468.707	87.81
468.927	90.81
469.146	91.81
469.365	87.81
469.585	84.81
469.804	84.81
470.023	83.81
470.243	94.81
470.462	83.81
470.681	94.81
470.901	74.81
471.12	78.81
471.339	87.81
471.558	85.81
471.777	85.81
471.997	88.81
472.216	86.81
472.435	83.81
472.654	90.81
472.873	88.81
473.092	73.81
473.311	68.81
473.53	80.81
473.749	96.81
473.968	94.81
474.187	78.81
474.406	89.81
474.625	94.81
474.844	78.81
475.063	84.81
475.282	80.81
475.501	79.81
475.72	104.81
475.939	100.81
476.158	93.81
476.377	80.81
476.596	80.81
476.814	88.81
477.033	100.81
477.252	72.81
477.471	73.81
477.69	84.81
477.908	79.81
478.127	86.81
478.346	86.81
478.564	69.81
478.783	90.81
479.002	72.81
479.22	79.81
479.439	87.81
479.658	88.81
479.876	89.81
480.095	76.81
480.313	85.81
480.532	85.81
480.751	74.81
480.969	80.81
481.188	71.81
481.406	86.81
481.624	85.81
481.843	87.81
482.061	96.81
482.28	86.81
482.498	85.81
482.717	87.81
482.935	84.81
483.153	88.81
483.372	84.81
483.59	80.81
483.808	79.81
484.027	94.81
484.245	74.81
484.463	84.81
484.681	105.81
484.9	83.81
485.118	86.81
485.336	103.81
485.554	88.81
485.772	74.81
485.99	85.81
486.209	92.81
486.427	87.81
486.645	78.81
486.863	95.81
487.081	88.81
487.299	96.81
487.517	84.81
487.735	86.81
487.953	105.81
488.171	105.81
488.389	94.81
488.607	88.81
488.825	70.81
489.043	91.81
489.261	106.81
489.479	89.81
489.696	88.81
489.914	88.81
490.132	87.81
490.35	107.81
490.568	85.81
490.786	85.81
491.003	85.81
491.221	91.81
491.439	87.81
491.657	94.81
491.874	90.81
492.092	99.81
492.31	91.81
492.527	84.81
492.745	89.81
492.963	87.81
493.18	84.81
493.398	84.81
493.615	87.81
493.833	89.81
494.05	96.81
494.268	84.81
494.485	84.81
494.703	88.81
494.92	84.81
495.138	76.81
495.355	91.81
495.573	87.81
495.79	81.81
496.008	86.81
496.225	100.81
496.442	98.81
496.66	97.81
496.877	105.81
497.094	85.81
497.312	84.81
497.529	85.81
497.746	90.81
497.963	98.81
498.181	84.81
498.398	95.81
498.615	84.81
498.832	91.81
499.049	92.81
499.267	88.81
499.484	83.81
499.701	78.81
499.918	83.81
500.135	87.81
500.352	83.81
500.569	81.81
500.786	83.81
501.003	99.81
501.22	79.81
501.437	98.81
501.654	91.81
501.871	84.81
502.088	82.81
502.305	85.81
502.522	102.81
502.739	88.81
502.956	102.81
503.172	85.81
503.389	83.81
503.606	105.81
503.823	82.81
504.04	80.81
504.256	101.81
504.473	91.81
504.69	99.81
504.907	82.81
505.123	84.81
505.34	101.81
505.557	97.81
505.773	105.81
505.99	76.81
506.207	82.81
506.423	77.81
506.64	85.81
506.856	93.81
507.073	80.81
507.289	84.81
507.506	88.81
507.722	72.81
507.939	85.81
508.155	84.81
508.372	95.81
508.588	89.81
508.805	87.81
509.021	87.81
509.238	91.81
509.454	83.81
509.67	87.81
509.887	84.81
510.103	79.81
510.319	98.81
510.536	95.81
510.752	93.81
510.968	88.81
511.184	86.81
511.401	92.81
511.617	94.81
511.833	86.81
512.049	87.81
512.265	77.81
512.481	85.81
512.698	86.81
512.914	85.81
513.13	90.81
513.346	83.81
513.562	83.81
513.778	87.81
513.994	100.81
514.21	71.81
514.426	73.81
514.642	86.81
514.858	89.81
515.074	91.81
515.29	98.81
515.506	93.81
515.721	87.81
515.937	93.81
516.153	92.81
516.369	83.81
516.585	89.81
516.801	88.81
517.016	98.81
517.232	87.81
517.448	92.81
517.664	107.81
517.879	98.81
518.095	93.81
518.311	84.81
518.527	102.81
