Data from Mixnoheat1_HRD10591_00006.txt Node
Date: Fri Dec 27 14:57:56 EST 2024
User: Yrep
Spectrometer: HR+D1059
Trigger mode: 1
Integration Time (sec): 1.000000E-1
Scans to average: 1
Electric dark correction enabled: true
Nonlinearity correction enabled: false
Boxcar width: 0
XAxis mode: Wavelengths
Number of Pixels in Spectrum: 2048
>>>>>Begin Spectral Data<<<<<
223.165	-6.69
223.4	-6.69
223.635	-6.69
223.869	-24.69
224.104	-29.69
224.338	-13.69
224.573	-12.69
224.808	-16.69
225.042	-20.69
225.277	-22.69
225.511	4.31
225.746	0.31
225.98	30.31
226.215	13.31
226.449	6.31
226.683	29.31
226.918	23.31
227.152	40.31
227.387	43.31
227.621	43.31
227.856	43.31
228.09	44.31
228.324	56.31
228.559	59.31
228.793	63.31
229.027	68.31
229.262	70.31
229.496	65.31
229.73	66.31
229.964	79.31
230.199	63.31
230.433	64.31
230.667	86.31
230.901	93.31
231.136	75.31
231.37	86.31
231.604	79.31
231.838	81.31
232.072	87.31
232.306	87.31
232.541	93.31
232.775	91.31
233.009	91.31
233.243	92.31
233.477	77.31
233.711	92.31
233.945	78.31
234.179	82.31
234.413	81.31
234.647	88.31
234.881	74.31
235.115	86.31
235.349	72.31
235.583	74.31
235.817	72.31
236.051	75.31
236.285	82.31
236.519	69.31
236.753	77.31
236.987	69.31
237.221	75.31
237.455	70.31
237.689	65.31
237.922	76.31
238.156	76.31
238.39	90.31
238.624	81.31
238.858	78.31
239.091	82.31
239.325	63.31
239.559	82.31
239.793	92.31
240.027	73.31
240.26	62.31
240.494	73.31
240.728	80.31
240.961	82.31
241.195	88.31
241.429	76.31
241.662	75.31
241.896	82.31
242.13	78.31
242.363	76.31
242.597	75.31
242.83	77.31
243.064	74.31
243.298	79.31
243.531	85.31
243.765	90.31
243.998	74.31
244.232	80.31
244.465	74.31
244.699	79.31
244.932	78.31
245.166	88.31
245.399	76.31
245.633	79.31
245.866	82.31
246.099	95.31
246.333	80.31
246.566	83.31
246.8	89.31
247.033	74.31
247.266	73.31
247.5	61.31
247.733	87.31
247.966	78.31
248.2	70.31
248.433	83.31
248.666	72.31
248.899	93.31
249.133	83.31
249.366	94.31
249.599	73.31
249.832	84.31
250.066	71.31
250.299	77.31
250.532	85.31
250.765	79.31
250.998	83.31
251.231	74.31
251.465	79.31
251.698	72.31
251.931	77.31
252.164	77.31
252.397	77.31
252.63	86.31
252.863	77.31
253.096	70.31
253.329	74.31
253.562	70.31
253.795	58.31
254.028	91.31
254.261	73.31
254.494	92.31
254.727	79.31
254.96	82.31
255.193	75.31
255.426	73.31
255.659	68.31
255.892	90.31
256.124	78.31
256.357	74.31
256.59	80.31
256.823	72.31
257.056	87.31
257.289	82.31
257.521	82.31
257.754	85.31
257.987	73.31
258.22	81.31
258.452	84.31
258.685	80.31
258.918	86.31
259.151	74.31
259.383	91.31
259.616	83.31
259.849	86.31
260.081	83.31
260.314	91.31
260.547	80.31
260.779	76.31
261.012	90.31
261.244	72.31
261.477	88.31
261.71	75.31
261.942	72.31
262.175	67.31
262.407	79.31
262.64	86.31
262.872	78.31
263.105	79.31
263.337	85.31
263.57	71.31
263.802	89.31
264.035	87.31
264.267	79.31
264.499	73.31
264.732	80.31
264.964	72.31
265.197	79.31
265.429	67.31
265.661	82.31
265.894	70.31
266.126	80.31
266.358	104.31
266.591	82.31
266.823	81.31
267.055	73.31
267.287	82.31
267.52	99.31
267.752	78.31
267.984	96.31
268.216	87.31
268.448	87.31
268.681	77.31
268.913	95.31
269.145	94.31
269.377	64.31
269.609	90.31
269.841	88.31
270.073	83.31
270.306	72.31
270.538	94.31
270.77	85.31
271.002	69.31
271.234	85.31
271.466	70.31
271.698	83.31
271.93	73.31
272.162	74.31
272.394	87.31
272.626	88.31
272.858	81.31
273.09	94.31
273.322	83.31
273.553	74.31
273.785	87.31
274.017	83.31
274.249	83.31
274.481	92.31
274.713	82.31
274.945	91.31
275.176	88.31
275.408	76.31
275.64	67.31
275.872	86.31
276.104	91.31
276.335	82.31
276.567	68.31
276.799	84.31
277.031	78.31
277.262	68.31
277.494	80.31
277.726	70.31
277.957	87.31
278.189	88.31
278.421	67.31
278.652	78.31
278.884	83.31
279.115	76.31
279.347	88.31
279.579	74.31
279.81	64.31
280.042	82.31
280.273	82.31
280.505	74.31
280.736	91.31
280.968	75.31
281.199	86.31
281.431	91.31
281.662	88.31
281.894	80.31
282.125	78.31
282.356	90.31
282.588	92.31
282.819	80.31
283.051	62.31
283.282	78.31
283.513	82.31
283.745	74.31
283.976	74.31
284.207	89.31
284.439	103.31
284.67	80.31
284.901	82.31
285.132	84.31
285.364	82.31
285.595	71.31
285.826	93.31
286.057	89.31
286.288	82.31
286.52	88.31
286.751	92.31
286.982	90.31
287.213	94.31
287.444	81.31
287.675	82.31
287.906	81.31
288.138	85.31
288.369	85.31
288.6	71.31
288.831	78.31
289.062	91.31
289.293	85.31
289.524	82.31
289.755	80.31
289.986	82.31
290.217	80.31
290.448	84.31
290.679	87.31
290.91	96.31
291.141	82.31
291.371	83.31
291.602	95.31
291.833	91.31
292.064	92.31
292.295	80.31
292.526	84.31
292.757	96.31
292.987	83.31
293.218	68.31
293.449	88.31
293.68	85.31
293.91	71.31
294.141	93.31
294.372	84.31
294.603	87.31
294.833	73.31
295.064	75.31
295.295	83.31
295.525	80.31
295.756	84.31
295.987	88.31
296.217	86.31
296.448	88.31
296.679	94.31
296.909	98.31
297.14	85.31
297.37	86.31
297.601	79.31
297.831	90.31
298.062	73.31
298.292	88.31
298.523	102.31
298.753	83.31
298.984	94.31
299.214	78.31
299.445	78.31
299.675	93.31
299.905	88.31
300.136	75.31
300.366	79.31
300.597	92.31
300.827	102.31
301.057	89.31
301.288	80.31
301.518	78.31
301.748	75.31
301.979	85.31
302.209	74.31
302.439	95.31
302.669	76.31
302.9	85.31
303.13	88.31
303.36	95.31
303.59	94.31
303.82	81.31
304.051	79.31
304.281	102.31
304.511	95.31
304.741	102.31
304.971	79.31
305.201	86.31
305.431	97.31
305.661	79.31
305.891	101.31
306.121	79.31
306.352	90.31
306.582	84.31
306.812	86.31
307.042	80.31
307.272	78.31
307.502	98.31
307.731	86.31
307.961	85.31
308.191	92.31
308.421	93.31
308.651	89.31
308.881	83.31
309.111	79.31
309.341	89.31
309.571	92.31
309.8	83.31
310.03	85.31
310.26	106.31
310.49	87.31
310.72	85.31
310.949	84.31
311.179	74.31
311.409	77.31
311.639	61.31
311.868	81.31
312.098	68.31
312.328	80.31
312.557	75.31
312.787	79.31
313.017	78.31
313.246	79.31
313.476	75.31
313.706	88.31
313.935	81.31
314.165	80.31
314.394	94.31
314.624	98.31
314.853	85.31
315.083	80.31
315.312	87.31
315.542	82.31
315.771	83.31
316.001	90.31
316.23	82.31
316.46	93.31
316.689	79.31
316.919	71.31
317.148	76.31
317.377	91.31
317.607	98.31
317.836	93.31
318.065	79.31
318.295	90.31
318.524	89.31
318.753	91.31
318.983	86.31
319.212	83.31
319.441	76.31
319.67	101.31
319.9	89.31
320.129	85.31
320.358	100.31
320.587	92.31
320.816	92.31
321.046	82.31
321.275	94.31
321.504	87.31
321.733	84.31
321.962	80.31
322.191	80.31
322.42	95.31
322.649	94.31
322.878	75.31
323.108	83.31
323.337	88.31
323.566	96.31
323.795	77.31
324.024	85.31
324.253	100.31
324.482	82.31
324.71	79.31
324.939	90.31
325.168	86.31
325.397	85.31
325.626	71.31
325.855	80.31
326.084	98.31
326.313	90.31
326.542	76.31
326.77	86.31
326.999	78.31
327.228	95.31
327.457	89.31
327.686	106.31
327.914	82.31
328.143	96.31
328.372	63.31
328.6	71.31
328.829	83.31
329.058	90.31
329.287	81.31
329.515	87.31
329.744	84.31
329.972	82.31
330.201	85.31
330.43	86.31
330.658	89.31
330.887	89.31
331.115	89.31
331.344	77.31
331.572	91.31
331.801	79.31
332.03	70.31
332.258	79.31
332.486	75.31
332.715	76.31
332.943	83.31
333.172	72.31
333.4	101.31
333.629	98.31
333.857	87.31
334.085	75.31
334.314	71.31
334.542	84.31
334.771	84.31
334.999	98.31
335.227	84.31
335.455	92.31
335.684	96.31
335.912	93.31
336.14	90.31
336.369	82.31
336.597	76.31
336.825	78.31
337.053	77.31
337.281	80.31
337.51	99.31
337.738	74.31
337.966	84.31
338.194	99.31
338.422	77.31
338.65	99.31
338.878	96.31
339.106	73.31
339.334	98.31
339.562	88.31
339.79	83.31
340.018	98.31
340.246	78.31
340.474	80.31
340.702	82.31
340.93	79.31
341.158	70.31
341.386	88.31
341.614	79.31
341.842	95.31
342.07	79.31
342.298	84.31
342.526	79.31
342.754	87.31
342.981	94.31
343.209	83.31
343.437	107.31
343.665	74.31
343.893	84.31
344.12	87.31
344.348	108.31
344.576	92.31
344.804	104.31
345.031	91.31
345.259	74.31
345.487	85.31
345.714	88.31
345.942	91.31
346.17	71.31
346.397	96.31
346.625	81.31
346.853	87.31
347.08	95.31
347.308	89.31
347.535	68.31
347.763	91.31
347.99	70.31
348.218	98.31
348.445	83.31
348.673	71.31
348.9	81.31
349.128	87.31
349.355	75.31
349.583	95.31
349.81	86.31
350.037	85.31
350.265	85.31
350.492	98.31
350.72	80.31
350.947	92.31
351.174	98.31
351.402	78.31
351.629	82.31
351.856	81.31
352.083	90.31
352.311	85.31
352.538	76.31
352.765	82.31
352.992	96.31
353.22	88.31
353.447	80.31
353.674	96.31
353.901	94.31
354.128	85.31
354.355	82.31
354.583	88.31
354.81	82.31
355.037	80.31
355.264	84.31
355.491	79.31
355.718	85.31
355.945	81.31
356.172	79.31
356.399	91.31
356.626	86.31
356.853	95.31
357.08	82.31
357.307	92.31
357.534	86.31
357.761	89.31
357.988	83.31
358.215	92.31
358.441	82.31
358.668	87.31
358.895	103.31
359.122	87.31
359.349	77.31
359.576	71.31
359.802	83.31
360.029	87.31
360.256	78.31
360.483	90.31
360.709	87.31
360.936	97.31
361.163	87.31
361.39	95.31
361.616	86.31
361.843	87.31
362.07	92.31
362.296	88.31
362.523	88.31
362.749	87.31
362.976	96.31
363.203	84.31
363.429	99.31
363.656	111.31
363.882	93.31
364.109	98.31
364.335	108.31
364.562	90.31
364.788	90.31
365.015	86.31
365.241	91.31
365.468	84.31
365.694	83.31
365.92	86.31
366.147	95.31
366.373	96.31
366.599	80.31
366.826	86.31
367.052	97.31
367.278	91.31
367.505	79.31
367.731	88.31
367.957	78.31
368.184	92.31
368.41	88.31
368.636	99.31
368.862	91.31
369.089	91.31
369.315	89.31
369.541	90.31
369.767	79.31
369.993	75.31
370.219	80.31
370.445	90.31
370.672	70.31
370.898	86.31
371.124	85.31
371.35	87.31
371.576	94.31
371.802	76.31
372.028	81.31
372.254	88.31
372.48	81.31
372.706	103.31
372.932	86.31
373.158	79.31
373.384	87.31
373.61	89.31
373.835	85.31
374.061	104.31
374.287	81.31
374.513	74.31
374.739	79.31
374.965	88.31
375.191	92.31
375.416	95.31
375.642	101.31
375.868	77.31
376.094	87.31
376.319	80.31
376.545	73.31
376.771	71.31
376.997	94.31
377.222	78.31
377.448	92.31
377.674	91.31
377.899	90.31
378.125	76.31
378.35	68.31
378.576	91.31
378.802	87.31
379.027	85.31
379.253	105.31
379.478	79.31
379.704	90.31
379.929	87.31
380.155	94.31
380.38	82.31
380.606	84.31
380.831	83.31
381.057	69.31
381.282	98.31
381.507	84.31
381.733	86.31
381.958	95.31
382.184	90.31
382.409	83.31
382.634	92.31
382.86	81.31
383.085	85.31
383.31	86.31
383.535	97.31
383.761	97.31
383.986	88.31
384.211	60.31
384.436	89.31
384.662	74.31
384.887	91.31
385.112	88.31
385.337	92.31
385.562	81.31
385.787	78.31
386.013	90.31
386.238	83.31
386.463	83.31
386.688	81.31
386.913	83.31
387.138	86.31
387.363	83.31
387.588	93.31
387.813	80.31
388.038	96.31
388.263	92.31
388.488	83.31
388.713	90.31
388.938	80.31
389.163	92.31
389.387	84.31
389.612	73.31
389.837	99.31
390.062	84.31
390.287	77.31
390.512	90.31
390.736	88.31
390.961	77.31
391.186	79.31
391.411	68.31
391.636	82.31
391.86	79.31
392.085	71.31
392.31	91.31
392.534	92.31
392.759	99.31
392.984	98.31
393.208	130.31
393.433	149.31
393.658	137.31
393.882	102.31
394.107	102.31
394.331	89.31
394.556	100.31
394.78	89.31
395.005	81.31
395.229	87.31
395.454	72.31
395.678	91.31
395.903	106.31
396.127	112.31
396.352	118.31
396.576	126.31
396.801	140.31
397.025	137.31
397.249	107.31
397.474	98.31
397.698	91.31
397.922	86.31
398.147	82.31
398.371	99.31
398.595	86.31
398.82	85.31
399.044	87.31
399.268	95.31
399.492	75.31
399.717	88.31
399.941	91.31
400.165	97.31
400.389	68.31
400.613	80.31
400.837	88.31
401.062	82.31
401.286	95.31
401.51	79.31
401.734	81.31
401.958	79.31
402.182	80.31
402.406	77.31
402.63	89.31
402.854	89.31
403.078	79.31
403.302	87.31
403.526	79.31
403.75	78.31
403.974	103.31
404.198	118.31
404.422	121.31
404.645	149.31
404.869	129.31
405.093	100.31
405.317	95.31
405.541	93.31
405.765	78.31
405.988	83.31
406.212	78.31
406.436	85.31
406.66	87.31
406.883	86.31
407.107	92.31
407.331	85.31
407.555	76.31
407.778	99.31
408.002	88.31
408.226	87.31
408.449	90.31
408.673	88.31
408.896	89.31
409.12	91.31
409.344	80.31
409.567	79.31
409.791	83.31
410.014	90.31
410.238	86.31
410.461	92.31
410.685	90.31
410.908	88.31
411.132	77.31
411.355	79.31
411.578	78.31
411.802	82.31
412.025	78.31
412.249	82.31
412.472	81.31
412.695	86.31
412.919	76.31
413.142	82.31
413.365	90.31
413.589	85.31
413.812	67.31
414.035	79.31
414.258	88.31
414.482	83.31
414.705	87.31
414.928	95.31
415.151	80.31
415.374	90.31
415.597	86.31
415.821	91.31
416.044	89.31
416.267	86.31
416.49	76.31
416.713	81.31
416.936	85.31
417.159	95.31
417.382	77.31
417.605	66.31
417.828	87.31
418.051	92.31
418.274	73.31
418.497	96.31
418.72	88.31
418.943	79.31
419.166	87.31
419.389	85.31
419.611	72.31
419.834	91.31
420.057	86.31
420.28	96.31
420.503	98.31
420.726	93.31
420.948	97.31
421.171	98.31
421.394	88.31
421.617	92.31
421.839	111.31
422.062	108.31
422.285	128.31
422.507	160.31
422.73	236.31
422.953	191.31
423.175	150.31
423.398	118.31
423.621	99.31
423.843	102.31
424.066	86.31
424.288	77.31
424.511	77.31
424.733	88.31
424.956	84.31
425.178	89.31
425.401	89.31
425.623	90.31
425.846	83.31
426.068	70.31
426.291	67.31
426.513	88.31
426.735	63.31
426.958	77.31
427.18	89.31
427.402	83.31
427.625	82.31
427.847	84.31
428.069	90.31
428.292	128.31
428.514	102.31
428.736	99.31
428.958	109.31
429.181	104.31
429.403	89.31
429.625	102.31
429.847	97.31
430.069	126.31
430.292	139.31
430.514	122.31
430.736	100.31
430.958	114.31
431.18	92.31
431.402	74.31
431.624	109.31
431.846	107.31
432.068	118.31
432.29	104.31
432.512	87.31
432.734	87.31
432.956	75.31
433.178	75.31
433.4	78.31
433.622	86.31
433.844	72.31
434.066	91.31
434.287	89.31
434.509	87.31
434.731	78.31
434.953	93.31
435.175	89.31
435.397	80.31
435.618	77.31
435.84	80.31
436.062	93.31
436.284	83.31
436.505	78.31
436.727	89.31
436.949	87.31
437.17	86.31
437.392	92.31
437.614	96.31
437.835	73.31
438.057	76.31
438.278	83.31
438.5	87.31
438.721	91.31
438.943	93.31
439.165	89.31
439.386	80.31
439.608	87.31
439.829	74.31
440.05	81.31
440.272	74.31
440.493	86.31
440.715	85.31
440.936	72.31
441.158	88.31
441.379	87.31
441.6	89.31
441.822	88.31
442.043	84.31
442.264	78.31
442.486	101.31
442.707	125.31
442.928	105.31
443.149	101.31
443.371	127.31
443.592	162.31
443.813	159.31
444.034	98.31
444.255	92.31
444.476	91.31
444.698	73.31
444.919	96.31
445.14	158.31
445.361	181.31
445.582	211.31
445.803	156.31
446.024	110.31
446.245	73.31
446.466	98.31
446.687	75.31
446.908	93.31
447.129	91.31
447.35	92.31
447.571	87.31
447.792	85.31
448.013	78.31
448.234	74.31
448.455	95.31
448.675	75.31
448.896	88.31
449.117	87.31
449.338	87.31
449.559	90.31
449.779	73.31
450	87.31
450.221	69.31
450.442	86.31
450.662	80.31
450.883	82.31
451.104	84.31
451.324	82.31
451.545	89.31
451.766	87.31
451.986	84.31
452.207	82.31
452.428	82.31
452.648	72.31
452.869	76.31
453.089	92.31
453.31	77.31
453.53	90.31
453.751	81.31
453.971	93.31
454.192	77.31
454.412	94.31
454.633	74.31
454.853	88.31
455.073	84.31
455.294	80.31
455.514	91.31
455.734	78.31
455.955	80.31
456.175	77.31
456.395	67.31
456.616	82.31
456.836	84.31
457.056	88.31
457.276	94.31
457.497	84.31
457.717	75.31
457.937	92.31
458.157	95.31
458.377	95.31
458.598	85.31
458.818	96.31
459.038	91.31
459.258	94.31
459.478	79.31
459.698	92.31
459.918	87.31
460.138	78.31
460.358	83.31
460.578	80.31
460.798	105.31
461.018	102.31
461.238	84.31
461.458	83.31
461.678	77.31
461.898	86.31
462.118	93.31
462.338	93.31
462.558	84.31
462.777	82.31
462.997	77.31
463.217	79.31
463.437	76.31
463.657	90.31
463.876	69.31
464.096	83.31
464.316	89.31
464.536	87.31
464.755	84.31
464.975	73.31
465.195	70.31
465.414	74.31
465.634	85.31
465.854	78.31
466.073	80.31
466.293	92.31
466.512	77.31
466.732	82.31
466.951	80.31
467.171	103.31
467.391	75.31
467.61	81.31
467.829	102.31
468.049	83.31
468.268	82.31
468.488	85.31
468.707	82.31
468.927	93.31
469.146	78.31
469.365	76.31
469.585	80.31
469.804	86.31
470.023	74.31
470.243	80.31
470.462	95.31
470.681	85.31
470.901	74.31
471.12	82.31
471.339	75.31
471.558	91.31
471.777	92.31
471.997	93.31
472.216	88.31
472.435	95.31
472.654	91.31
472.873	92.31
473.092	70.31
473.311	71.31
473.53	87.31
473.749	95.31
473.968	87.31
474.187	84.31
474.406	71.31
474.625	76.31
474.844	78.31
475.063	89.31
475.282	78.31
475.501	87.31
475.72	80.31
475.939	87.31
476.158	77.31
476.377	93.31
476.596	91.31
476.814	90.31
477.033	82.31
477.252	92.31
477.471	85.31
477.69	81.31
477.908	78.31
478.127	85.31
478.346	79.31
478.564	83.31
478.783	72.31
479.002	90.31
479.22	94.31
479.439	78.31
479.658	82.31
479.876	76.31
480.095	69.31
480.313	91.31
480.532	89.31
480.751	83.31
480.969	64.31
481.188	82.31
481.406	94.31
481.624	98.31
481.843	94.31
482.061	80.31
482.28	89.31
482.498	81.31
482.717	96.31
482.935	86.31
483.153	87.31
483.372	80.31
483.59	80.31
483.808	99.31
484.027	85.31
484.245	93.31
484.463	92.31
484.681	87.31
484.9	88.31
485.118	101.31
485.336	74.31
485.554	88.31
485.772	84.31
485.99	69.31
486.209	79.31
486.427	85.31
486.645	93.31
486.863	88.31
487.081	80.31
487.299	84.31
487.517	90.31
487.735	80.31
487.953	124.31
488.171	115.31
488.389	87.31
488.607	82.31
488.825	90.31
489.043	87.31
489.261	95.31
489.479	84.31
489.696	77.31
489.914	74.31
490.132	79.31
490.35	84.31
490.568	83.31
490.786	92.31
491.003	91.31
491.221	89.31
491.439	80.31
491.657	88.31
491.874	85.31
492.092	93.31
492.31	76.31
492.527	77.31
492.745	71.31
492.963	87.31
493.18	83.31
493.398	93.31
493.615	103.31
493.833	84.31
494.05	70.31
494.268	78.31
494.485	77.31
494.703	85.31
494.92	81.31
495.138	88.31
495.355	77.31
495.573	98.31
495.79	84.31
496.008	84.31
496.225	101.31
496.442	78.31
496.66	88.31
496.877	94.31
497.094	95.31
497.312	87.31
497.529	94.31
497.746	83.31
497.963	82.31
498.181	91.31
498.398	94.31
498.615	76.31
498.832	83.31
499.049	82.31
499.267	84.31
499.484	75.31
499.701	79.31
499.918	86.31
500.135	85.31
500.352	92.31
500.569	70.31
500.786	99.31
501.003	79.31
501.22	71.31
501.437	82.31
501.654	99.31
501.871	89.31
502.088	85.31
502.305	96.31
502.522	82.31
502.739	97.31
502.956	87.31
503.172	71.31
503.389	88.31
503.606	84.31
503.823	77.31
504.04	92.31
504.256	103.31
504.473	105.31
504.69	100.31
504.907	89.31
505.123	86.31
505.34	90.31
505.557	84.31
505.773	83.31
505.99	78.31
506.207	79.31
506.423	86.31
506.64	90.31
506.856	80.31
507.073	85.31
507.289	94.31
507.506	87.31
507.722	81.31
507.939	92.31
508.155	83.31
508.372	98.31
508.588	86.31
508.805	79.31
509.021	91.31
509.238	88.31
509.454	96.31
509.67	87.31
509.887	94.31
510.103	106.31
510.319	94.31
510.536	93.31
510.752	96.31
510.968	100.31
511.184	88.31
511.401	78.31
511.617	94.31
511.833	98.31
512.049	82.31
512.265	89.31
512.481	91.31
512.698	92.31
512.914	90.31
513.13	72.31
513.346	85.31
513.562	92.31
513.778	90.31
513.994	76.31
514.21	75.31
514.426	91.31
514.642	107.31
514.858	83.31
515.074	86.31
515.29	86.31
515.506	82.31
515.721	96.31
515.937	95.31
516.153	102.31
516.369	79.31
516.585	86.31
516.801	109.31
517.016	82.31
517.232	79.31
517.448	91.31
517.664	88.31
517.879	96.31
518.095	83.31
518.311	93.31
518.527	75.31
518.742	93.31
518.958	94.31
