Data from Circ_2013_H10_HRD10591_00092.txt Node
Date: Wed Jan 03 10:04:18 EST 2024
User: Yrep
Spectrometer: HR+D1059
Trigger mode: 1
Integration Time (sec): 1.000000E-1
Scans to average: 1
Electric dark correction enabled: true
Nonlinearity correction enabled: false
Boxcar width: 0
XAxis mode: Wavelengths
Number of Pixels in Spectrum: 2048
>>>>>Begin Spectral Data<<<<<
223.165	-11.69
223.4	-11.69
223.635	-11.69
223.869	-7.69
224.104	-11.69
224.338	-13.69
224.573	-10.69
224.808	-11.69
225.042	-11.69
225.277	-3.69
225.511	-2.69
225.746	-11.69
225.98	8.31
226.215	9.31
226.449	7.31
226.683	22.31
226.918	22.31
227.152	27.31
227.387	25.31
227.621	35.31
227.856	44.31
228.09	44.31
228.324	51.31
228.559	53.31
228.793	55.31
229.027	57.31
229.262	75.31
229.496	64.31
229.73	94.31
229.964	102.31
230.199	83.31
230.433	70.31
230.667	66.31
230.901	82.31
231.136	73.31
231.37	94.31
231.604	87.31
231.838	81.31
232.072	75.31
232.306	95.31
232.541	75.31
232.775	74.31
233.009	79.31
233.243	85.31
233.477	82.31
233.711	77.31
233.945	87.31
234.179	76.31
234.413	69.31
234.647	87.31
234.881	103.31
235.115	74.31
235.349	85.31
235.583	74.31
235.817	81.31
236.051	86.31
236.285	79.31
236.519	72.31
236.753	62.31
236.987	74.31
237.221	92.31
237.455	84.31
237.689	73.31
237.922	72.31
238.156	74.31
238.39	70.31
238.624	84.31
238.858	85.31
239.091	55.31
239.325	84.31
239.559	82.31
239.793	84.31
240.027	65.31
240.26	71.31
240.494	77.31
240.728	80.31
240.961	85.31
241.195	84.31
241.429	79.31
241.662	75.31
241.896	77.31
242.13	71.31
242.363	86.31
242.597	64.31
242.83	79.31
243.064	82.31
243.298	76.31
243.531	78.31
243.765	78.31
243.998	83.31
244.232	87.31
244.465	81.31
244.699	88.31
244.932	77.31
245.166	79.31
245.399	73.31
245.633	76.31
245.866	88.31
246.099	70.31
246.333	83.31
246.566	86.31
246.8	79.31
247.033	75.31
247.266	75.31
247.5	69.31
247.733	87.31
247.966	74.31
248.2	73.31
248.433	78.31
248.666	77.31
248.899	79.31
249.133	82.31
249.366	105.31
249.599	97.31
249.832	78.31
250.066	92.31
250.299	89.31
250.532	88.31
250.765	84.31
250.998	70.31
251.231	69.31
251.465	83.31
251.698	81.31
251.931	73.31
252.164	69.31
252.397	89.31
252.63	76.31
252.863	75.31
253.096	79.31
253.329	78.31
253.562	85.31
253.795	81.31
254.028	75.31
254.261	94.31
254.494	93.31
254.727	90.31
254.96	79.31
255.193	83.31
255.426	89.31
255.659	83.31
255.892	96.31
256.124	78.31
256.357	85.31
256.59	86.31
256.823	74.31
257.056	98.31
257.289	90.31
257.521	73.31
257.754	77.31
257.987	95.31
258.22	104.31
258.452	95.31
258.685	84.31
258.918	93.31
259.151	92.31
259.383	82.31
259.616	81.31
259.849	77.31
260.081	94.31
260.314	78.31
260.547	79.31
260.779	100.31
261.012	102.31
261.244	99.31
261.477	95.31
261.71	104.31
261.942	120.31
262.175	125.31
262.407	103.31
262.64	83.31
262.872	81.31
263.105	99.31
263.337	88.31
263.57	78.31
263.802	77.31
264.035	93.31
264.267	83.31
264.499	91.31
264.732	94.31
264.964	82.31
265.197	79.31
265.429	88.31
265.661	87.31
265.894	83.31
266.126	78.31
266.358	92.31
266.591	84.31
266.823	85.31
267.055	82.31
267.287	78.31
267.52	86.31
267.752	79.31
267.984	93.31
268.216	88.31
268.448	69.31
268.681	98.31
268.913	93.31
269.145	67.31
269.377	76.31
269.609	80.31
269.841	96.31
270.073	97.31
270.306	82.31
270.538	62.31
270.77	88.31
271.002	82.31
271.234	89.31
271.466	93.31
271.698	82.31
271.93	91.31
272.162	99.31
272.394	95.31
272.626	79.31
272.858	79.31
273.09	100.31
273.322	91.31
273.553	88.31
273.785	97.31
274.017	86.31
274.249	92.31
274.481	93.31
274.713	97.31
274.945	85.31
275.176	105.31
275.408	100.31
275.64	96.31
275.872	94.31
276.104	108.31
276.335	94.31
276.567	99.31
276.799	130.31
277.031	131.31
277.262	150.31
277.494	120.31
277.726	104.31
277.957	87.31
278.189	101.31
278.421	83.31
278.652	88.31
278.884	93.31
279.115	75.31
279.347	82.31
279.579	85.31
279.81	102.31
280.042	142.31
280.273	188.31
280.505	131.31
280.736	101.31
280.968	86.31
281.199	79.31
281.431	91.31
281.662	73.31
281.894	99.31
282.125	104.31
282.356	125.31
282.588	138.31
282.819	121.31
283.051	90.31
283.282	77.31
283.513	95.31
283.745	81.31
283.976	89.31
284.207	84.31
284.439	92.31
284.67	101.31
284.901	88.31
285.132	75.31
285.364	97.31
285.595	93.31
285.826	77.31
286.057	90.31
286.288	87.31
286.52	92.31
286.751	94.31
286.982	89.31
287.213	80.31
287.444	96.31
287.675	92.31
287.906	84.31
288.138	89.31
288.369	114.31
288.6	77.31
288.831	84.31
289.062	91.31
289.293	95.31
289.524	90.31
289.755	92.31
289.986	91.31
290.217	84.31
290.448	83.31
290.679	90.31
290.91	99.31
291.141	81.31
291.371	88.31
291.602	79.31
291.833	75.31
292.064	84.31
292.295	85.31
292.526	73.31
292.757	82.31
292.987	78.31
293.218	86.31
293.449	75.31
293.68	82.31
293.91	84.31
294.141	84.31
294.372	106.31
294.603	102.31
294.833	75.31
295.064	89.31
295.295	98.31
295.525	91.31
295.756	105.31
295.987	118.31
296.217	123.31
296.448	133.31
296.679	90.31
296.909	71.31
297.14	83.31
297.37	77.31
297.601	92.31
297.831	83.31
298.062	94.31
298.292	89.31
298.523	97.31
298.753	98.31
298.984	84.31
299.214	85.31
299.445	79.31
299.675	87.31
299.905	107.31
300.136	87.31
300.366	97.31
300.597	83.31
300.827	92.31
301.057	102.31
301.288	101.31
301.518	110.31
301.748	97.31
301.979	101.31
302.209	93.31
302.439	104.31
302.669	86.31
302.9	86.31
303.13	92.31
303.36	101.31
303.59	124.31
303.82	137.31
304.051	97.31
304.281	100.31
304.511	90.31
304.741	89.31
304.971	102.31
305.201	78.31
305.431	107.31
305.661	89.31
305.891	88.31
306.121	88.31
306.352	97.31
306.582	107.31
306.812	102.31
307.042	97.31
307.272	140.31
307.502	133.31
307.731	140.31
307.961	101.31
308.191	87.31
308.421	100.31
308.651	102.31
308.881	94.31
309.111	85.31
309.341	104.31
309.571	98.31
309.8	90.31
310.03	99.31
310.26	112.31
310.49	90.31
310.72	93.31
310.949	95.31
311.179	110.31
311.409	92.31
311.639	99.31
311.868	78.31
312.098	105.31
312.328	89.31
312.557	106.31
312.787	111.31
313.017	118.31
313.246	93.31
313.476	84.31
313.706	74.31
313.935	95.31
314.165	107.31
314.394	94.31
314.624	102.31
314.853	103.31
315.083	94.31
315.312	93.31
315.542	86.31
315.771	97.31
316.001	91.31
316.23	93.31
316.46	82.31
316.689	88.31
316.919	80.31
317.148	98.31
317.377	96.31
317.607	100.31
317.836	99.31
318.065	99.31
318.295	93.31
318.524	101.31
318.753	103.31
318.983	105.31
319.212	109.31
319.441	122.31
319.67	113.31
319.9	80.31
320.129	99.31
320.358	112.31
320.587	100.31
320.816	93.31
321.046	114.31
321.275	105.31
321.504	80.31
321.733	81.31
321.962	105.31
322.191	82.31
322.42	117.31
322.649	116.31
322.878	128.31
323.108	125.31
323.337	146.31
323.566	142.31
323.795	181.31
324.024	221.31
324.253	422.31
324.482	927.31
324.71	1879.31
324.939	2520.31
325.168	917.31
325.397	267.31
325.626	171.31
325.855	107.31
326.084	127.31
326.313	136.31
326.542	164.31
326.77	247.31
326.999	512.31
327.228	1013.31
327.457	1862.31
327.686	1439.31
327.914	467.31
328.143	406.31
328.372	476.31
328.6	264.31
328.829	173.31
329.058	157.31
329.287	164.31
329.515	157.31
329.744	204.31
329.972	315.31
330.201	645.31
330.43	923.31
330.658	428.31
330.887	239.31
331.115	161.31
331.344	130.31
331.572	120.31
331.801	113.31
332.03	114.31
332.258	92.31
332.486	98.31
332.715	110.31
332.943	101.31
333.172	107.31
333.4	102.31
333.629	127.31
333.857	189.31
334.085	288.31
334.314	643.31
334.542	1173.31
334.771	1094.31
334.999	310.31
335.227	145.31
335.455	109.31
335.684	94.31
335.912	102.31
336.14	110.31
336.369	105.31
336.597	126.31
336.825	119.31
337.053	97.31
337.281	88.31
337.51	92.31
337.738	93.31
337.966	94.31
338.194	116.31
338.422	96.31
338.65	86.31
338.878	101.31
339.106	90.31
339.334	77.31
339.562	97.31
339.79	96.31
340.018	101.31
340.246	90.31
340.474	89.31
340.702	97.31
340.93	107.31
341.158	98.31
341.386	107.31
341.614	82.31
341.842	110.31
342.07	107.31
342.298	102.31
342.526	98.31
342.754	88.31
342.981	79.31
343.209	88.31
343.437	84.31
343.665	90.31
343.893	103.31
344.12	81.31
344.348	83.31
344.576	81.31
344.804	95.31
345.031	109.31
345.259	102.31
345.487	95.31
345.714	113.31
345.942	89.31
346.17	84.31
346.397	106.31
346.625	96.31
346.853	82.31
347.08	97.31
347.308	97.31
347.535	93.31
347.763	112.31
347.99	105.31
348.218	113.31
348.445	107.31
348.673	110.31
348.9	104.31
349.128	91.31
349.355	91.31
349.583	94.31
349.81	89.31
350.037	96.31
350.265	107.31
350.492	107.31
350.72	89.31
350.947	95.31
351.174	103.31
351.402	129.31
351.629	121.31
351.856	107.31
352.083	126.31
352.311	123.31
352.538	118.31
352.765	120.31
352.992	125.31
353.22	121.31
353.447	104.31
353.674	105.31
353.901	102.31
354.128	80.31
354.355	102.31
354.583	103.31
354.81	103.31
355.037	86.31
355.264	81.31
355.491	99.31
355.718	71.31
355.945	88.31
356.172	92.31
356.399	92.31
356.626	98.31
356.853	91.31
357.08	103.31
357.307	99.31
357.534	97.31
357.761	95.31
357.988	100.31
358.215	86.31
358.441	83.31
358.668	87.31
358.895	76.31
359.122	94.31
359.349	98.31
359.576	90.31
359.802	107.31
360.029	133.31
360.256	131.31
360.483	103.31
360.709	95.31
360.936	98.31
361.163	107.31
361.39	97.31
361.616	94.31
361.843	92.31
362.07	99.31
362.296	85.31
362.523	105.31
362.749	94.31
362.976	98.31
363.203	95.31
363.429	95.31
363.656	99.31
363.882	89.31
364.109	100.31
364.335	86.31
364.562	101.31
364.788	98.31
365.015	97.31
365.241	96.31
365.468	99.31
365.694	101.31
365.92	112.31
366.147	77.31
366.373	78.31
366.599	99.31
366.826	89.31
367.052	86.31
367.278	105.31
367.505	100.31
367.731	105.31
367.957	94.31
368.184	105.31
368.41	96.31
368.636	100.31
368.862	132.31
369.089	119.31
369.315	104.31
369.541	101.31
369.767	83.31
369.993	87.31
370.219	109.31
370.445	97.31
370.672	74.31
370.898	96.31
371.124	98.31
371.35	89.31
371.576	85.31
371.802	97.31
372.028	82.31
372.254	89.31
372.48	98.31
372.706	79.31
372.932	84.31
373.158	85.31
373.384	102.31
373.61	79.31
373.835	86.31
374.061	90.31
374.287	85.31
374.513	86.31
374.739	87.31
374.965	91.31
375.191	90.31
375.416	89.31
375.642	80.31
375.868	91.31
376.094	86.31
376.319	89.31
376.545	101.31
376.771	92.31
376.997	85.31
377.222	91.31
377.448	70.31
377.674	96.31
377.899	87.31
378.125	103.31
378.35	94.31
378.576	89.31
378.802	100.31
379.027	89.31
379.253	91.31
379.478	103.31
379.704	98.31
379.929	93.31
380.155	95.31
380.38	76.31
380.606	110.31
380.831	93.31
381.057	98.31
381.282	89.31
381.507	89.31
381.733	85.31
381.958	104.31
382.184	95.31
382.409	92.31
382.634	78.31
382.86	105.31
383.085	97.31
383.31	99.31
383.535	111.31
383.761	97.31
383.986	91.31
384.211	101.31
384.436	88.31
384.662	105.31
384.887	89.31
385.112	100.31
385.337	110.31
385.562	102.31
385.787	106.31
386.013	107.31
386.238	113.31
386.463	102.31
386.688	105.31
386.913	115.31
387.138	113.31
387.363	90.31
387.588	105.31
387.813	87.31
388.038	109.31
388.263	116.31
388.488	109.31
388.713	106.31
388.938	99.31
389.163	100.31
389.387	122.31
389.612	98.31
389.837	82.31
390.062	77.31
390.287	86.31
390.512	87.31
390.736	88.31
390.961	87.31
391.186	78.31
391.411	92.31
391.636	106.31
391.86	95.31
392.085	90.31
392.31	78.31
392.534	100.31
392.759	92.31
392.984	81.31
393.208	87.31
393.433	95.31
393.658	82.31
393.882	82.31
394.107	87.31
394.331	81.31
394.556	78.31
394.78	92.31
395.005	84.31
395.229	71.31
395.454	72.31
395.678	86.31
395.903	98.31
396.127	84.31
396.352	79.31
396.576	80.31
396.801	97.31
397.025	85.31
397.249	96.31
397.474	94.31
397.698	88.31
397.922	87.31
398.147	88.31
398.371	105.31
398.595	103.31
398.82	93.31
399.044	88.31
399.268	92.31
399.492	90.31
399.717	99.31
399.941	85.31
400.165	84.31
400.389	107.31
400.613	91.31
400.837	85.31
401.062	81.31
401.286	83.31
401.51	100.31
401.734	95.31
401.958	103.31
402.182	131.31
402.406	159.31
402.63	128.31
402.854	97.31
403.078	84.31
403.302	96.31
403.526	82.31
403.75	92.31
403.974	84.31
404.198	100.31
404.422	102.31
404.645	99.31
404.869	98.31
405.093	98.31
405.317	125.31
405.541	131.31
405.765	126.31
405.988	122.31
406.212	199.31
406.436	263.31
406.66	169.31
406.883	118.31
407.107	93.31
407.331	100.31
407.555	108.31
407.778	98.31
408.002	91.31
408.226	104.31
408.449	84.31
408.673	86.31
408.896	87.31
409.12	90.31
409.344	87.31
409.567	90.31
409.791	99.31
410.014	94.31
410.238	92.31
410.461	87.31
410.685	105.31
410.908	106.31
411.132	102.31
411.355	98.31
411.578	93.31
411.802	101.31
412.025	99.31
412.249	104.31
412.472	108.31
412.695	121.31
412.919	106.31
413.142	105.31
413.365	82.31
413.589	87.31
413.812	98.31
414.035	94.31
414.258	87.31
414.482	93.31
414.705	90.31
414.928	84.31
415.151	84.31
415.374	97.31
415.597	65.31
415.821	90.31
416.044	78.31
416.267	96.31
416.49	97.31
416.713	82.31
416.936	72.31
417.159	86.31
417.382	100.31
417.605	98.31
417.828	116.31
418.051	100.31
418.274	98.31
418.497	85.31
418.72	95.31
418.943	69.31
419.166	73.31
419.389	91.31
419.611	90.31
419.834	95.31
420.057	97.31
420.28	98.31
420.503	101.31
420.726	103.31
420.948	94.31
421.171	100.31
421.394	94.31
421.617	95.31
421.839	77.31
422.062	94.31
422.285	88.31
422.507	92.31
422.73	109.31
422.953	87.31
423.175	80.31
423.398	89.31
423.621	80.31
423.843	91.31
424.066	76.31
424.288	84.31
424.511	88.31
424.733	108.31
424.956	108.31
425.178	101.31
425.401	119.31
425.623	100.31
425.846	95.31
426.068	86.31
426.291	113.31
426.513	101.31
426.735	91.31
426.958	100.31
427.18	110.31
427.402	150.31
427.625	228.31
427.847	220.31
428.069	187.31
428.292	113.31
428.514	96.31
428.736	86.31
428.958	90.31
429.181	96.31
429.403	92.31
429.625	84.31
429.847	98.31
430.069	117.31
430.292	81.31
430.514	97.31
430.736	83.31
430.958	91.31
431.18	91.31
431.402	99.31
431.624	96.31
431.846	98.31
432.068	95.31
432.29	84.31
432.512	73.31
432.734	92.31
432.956	89.31
433.178	107.31
433.4	97.31
433.622	93.31
433.844	99.31
434.066	109.31
434.287	85.31
434.509	84.31
434.731	73.31
434.953	77.31
435.175	94.31
435.397	97.31
435.618	100.31
435.84	102.31
436.062	144.31
436.284	138.31
436.505	97.31
436.727	107.31
436.949	81.31
437.17	101.31
437.392	77.31
437.614	99.31
437.835	113.31
438.057	123.31
438.278	123.31
438.5	115.31
438.721	143.31
438.943	114.31
439.165	88.31
439.386	88.31
439.608	98.31
439.829	113.31
440.05	124.31
440.272	181.31
440.493	122.31
440.715	99.31
440.936	91.31
441.158	95.31
441.379	99.31
441.6	105.31
441.822	100.31
442.043	91.31
442.264	119.31
442.486	113.31
442.707	101.31
442.928	125.31
443.149	148.31
443.371	152.31
443.592	114.31
443.813	129.31
444.034	110.31
444.255	76.31
444.476	77.31
444.698	91.31
444.919	85.31
445.14	142.31
445.361	139.31
445.582	125.31
445.803	171.31
446.024	142.31
446.245	149.31
446.466	113.31
446.687	92.31
446.908	81.31
447.129	87.31
447.35	79.31
447.571	97.31
447.792	89.31
448.013	106.31
448.234	123.31
448.455	98.31
448.675	128.31
448.896	139.31
449.117	107.31
449.338	114.31
449.559	141.31
449.779	146.31
450	102.31
450.221	106.31
450.442	94.31
450.662	101.31
450.883	105.31
451.104	121.31
451.324	105.31
451.545	93.31
451.766	85.31
451.986	88.31
452.207	95.31
452.428	101.31
452.648	95.31
452.869	122.31
453.089	116.31
453.31	129.31
453.53	88.31
453.751	87.31
453.971	108.31
454.192	111.31
454.412	110.31
454.633	78.31
454.853	89.31
455.073	87.31
455.294	89.31
455.514	96.31
455.734	98.31
455.955	77.31
456.175	93.31
456.395	82.31
456.616	92.31
456.836	93.31
457.056	93.31
457.276	86.31
457.497	79.31
457.717	80.31
457.937	97.31
458.157	77.31
458.377	94.31
458.598	114.31
458.818	180.31
459.038	204.31
459.258	132.31
459.478	95.31
459.698	98.31
459.918	94.31
460.138	85.31
460.358	90.31
460.578	76.31
460.798	94.31
461.018	97.31
461.238	87.31
461.458	105.31
461.678	97.31
461.898	91.31
462.118	93.31
462.338	68.31
462.558	79.31
462.777	85.31
462.997	88.31
463.217	107.31
463.437	96.31
463.657	76.31
463.876	86.31
464.096	78.31
464.316	95.31
464.536	85.31
464.755	108.31
464.975	116.31
465.195	215.31
465.414	187.31
465.634	116.31
465.854	97.31
466.073	92.31
466.293	100.31
466.512	78.31
466.732	72.31
466.951	90.31
467.171	90.31
467.391	97.31
467.61	133.31
467.829	165.31
468.049	369.31
468.268	554.31
468.488	152.31
468.707	103.31
468.927	97.31
469.146	90.31
469.365	85.31
469.585	92.31
469.804	116.31
470.023	113.31
470.243	89.31
470.462	98.31
470.681	127.31
470.901	93.31
471.12	110.31
471.339	102.31
471.558	113.31
471.777	133.31
471.997	219.31
472.216	700.31
472.435	1540.31
472.654	403.31
472.873	140.31
473.092	107.31
473.311	96.31
473.53	79.31
473.749	97.31
473.968	84.31
474.187	124.31
474.406	104.31
474.625	86.31
474.844	76.31
475.063	95.31
475.282	85.31
475.501	84.31
475.72	90.31
475.939	98.31
476.158	81.31
476.377	90.31
476.596	100.31
476.814	89.31
477.033	100.31
477.252	87.31
477.471	106.31
477.69	102.31
477.908	79.31
478.127	99.31
478.346	92.31
478.564	98.31
478.783	113.31
479.002	110.31
479.22	107.31
479.439	111.31
479.658	124.31
479.876	88.31
480.095	109.31
480.313	116.31
480.532	141.31
480.751	214.31
480.969	682.31
481.188	2639.31
481.406	1628.31
481.624	268.31
481.843	116.31
482.061	97.31
482.28	91.31
482.498	85.31
482.717	85.31
482.935	103.31
483.153	111.31
483.372	86.31
483.59	84.31
483.808	91.31
484.027	97.31
484.245	93.31
484.463	86.31
484.681	97.31
484.9	91.31
485.118	98.31
485.336	92.31
485.554	93.31
485.772	102.31
485.99	89.31
486.209	115.31
486.427	96.31
486.645	113.31
486.863	132.31
487.081	115.31
487.299	88.31
487.517	83.31
487.735	105.31
487.953	77.31
488.171	79.31
488.389	91.31
488.607	116.31
488.825	88.31
489.043	100.31
489.261	89.31
489.479	84.31
489.696	84.31
489.914	90.31
490.132	88.31
490.35	97.31
490.568	83.31
490.786	73.31
491.003	84.31
491.221	80.31
491.439	102.31
491.657	94.31
491.874	90.31
492.092	86.31
492.31	100.31
492.527	87.31
492.745	85.31
492.963	96.31
493.18	97.31
493.398	103.31
493.615	90.31
493.833	98.31
494.05	89.31
494.268	82.31
494.485	88.31
494.703	86.31
494.92	85.31
495.138	90.31
495.355	90.31
495.573	94.31
495.79	105.31
496.008	90.31
496.225	92.31
496.442	80.31
496.66	87.31
496.877	87.31
497.094	94.31
497.312	92.31
497.529	93.31
497.746	100.31
497.963	103.31
498.181	94.31
498.398	93.31
498.615	112.31
498.832	106.31
499.049	104.31
499.267	101.31
499.484	84.31
499.701	101.31
499.918	97.31
500.135	65.31
500.352	91.31
500.569	71.31
500.786	96.31
501.003	107.31
501.22	103.31
501.437	89.31
501.654	95.31
501.871	115.31
502.088	85.31
502.305	78.31
502.522	90.31
502.739	82.31
502.956	97.31
503.172	83.31
503.389	89.31
503.606	101.31
503.823	97.31
504.04	85.31
504.256	88.31
504.473	91.31
504.69	88.31
504.907	96.31
505.123	101.31
505.34	103.31
505.557	88.31
505.773	77.31
505.99	96.31
506.207	101.31
506.423	84.31
506.64	102.31
506.856	81.31
507.073	92.31
507.289	84.31
507.506	108.31
507.722	119.31
507.939	119.31
508.155	104.31
508.372	90.31
508.588	89.31
508.805	108.31
509.021	106.31
509.238	91.31
509.454	81.31
509.67	105.31
509.887	98.31
510.103	124.31
510.319	212.31
510.536	731.31
510.752	2522.31
510.968	725.31
511.184	161.31
511.401	121.31
511.617	105.31
511.833	105.31
512.049	83.31
512.265	76.31
512.481	98.31
512.698	97.31
512.914	84.31
513.13	98.31
513.346	109.31
513.562	95.31
513.778	103.31
