Data from Circ_2013_H10_HRD10591_00077.txt Node
Date: Wed Jan 03 10:04:15 EST 2024
User: Yrep
Spectrometer: HR+D1059
Trigger mode: 1
Integration Time (sec): 1.000000E-1
Scans to average: 1
Electric dark correction enabled: true
Nonlinearity correction enabled: false
Boxcar width: 0
XAxis mode: Wavelengths
Number of Pixels in Spectrum: 2048
>>>>>Begin Spectral Data<<<<<
223.165	-21.94
223.4	-21.94
223.635	-21.94
223.869	-13.94
224.104	-13.94
224.338	-13.94
224.573	-3.94
224.808	-17.94
225.042	-7.94
225.277	-10.94
225.511	-3.94
225.746	-2.94
225.98	8.06
226.215	20.06
226.449	6.06
226.683	24.06
226.918	27.06
227.152	26.06
227.387	28.06
227.621	23.06
227.856	44.06
228.09	41.06
228.324	74.06
228.559	60.06
228.793	47.06
229.027	52.06
229.262	64.06
229.496	65.06
229.73	85.06
229.964	77.06
230.199	76.06
230.433	91.06
230.667	85.06
230.901	75.06
231.136	79.06
231.37	79.06
231.604	69.06
231.838	75.06
232.072	77.06
232.306	76.06
232.541	80.06
232.775	70.06
233.009	72.06
233.243	67.06
233.477	66.06
233.711	75.06
233.945	80.06
234.179	87.06
234.413	80.06
234.647	67.06
234.881	78.06
235.115	85.06
235.349	71.06
235.583	75.06
235.817	72.06
236.051	73.06
236.285	82.06
236.519	70.06
236.753	83.06
236.987	87.06
237.221	83.06
237.455	82.06
237.689	77.06
237.922	79.06
238.156	75.06
238.39	69.06
238.624	74.06
238.858	66.06
239.091	81.06
239.325	84.06
239.559	82.06
239.793	78.06
240.027	85.06
240.26	86.06
240.494	77.06
240.728	79.06
240.961	78.06
241.195	72.06
241.429	81.06
241.662	78.06
241.896	77.06
242.13	75.06
242.363	68.06
242.597	75.06
242.83	77.06
243.064	64.06
243.298	76.06
243.531	71.06
243.765	66.06
243.998	92.06
244.232	72.06
244.465	77.06
244.699	91.06
244.932	81.06
245.166	68.06
245.399	84.06
245.633	81.06
245.866	63.06
246.099	82.06
246.333	70.06
246.566	64.06
246.8	77.06
247.033	66.06
247.266	77.06
247.5	78.06
247.733	83.06
247.966	73.06
248.2	98.06
248.433	72.06
248.666	81.06
248.899	85.06
249.133	100.06
249.366	108.06
249.599	94.06
249.832	90.06
250.066	81.06
250.299	82.06
250.532	91.06
250.765	86.06
250.998	101.06
251.231	74.06
251.465	84.06
251.698	63.06
251.931	85.06
252.164	77.06
252.397	81.06
252.63	74.06
252.863	76.06
253.096	69.06
253.329	75.06
253.562	86.06
253.795	90.06
254.028	83.06
254.261	73.06
254.494	83.06
254.727	81.06
254.96	78.06
255.193	78.06
255.426	78.06
255.659	78.06
255.892	99.06
256.124	99.06
256.357	75.06
256.59	86.06
256.823	78.06
257.056	81.06
257.289	78.06
257.521	84.06
257.754	66.06
257.987	82.06
258.22	85.06
258.452	79.06
258.685	87.06
258.918	74.06
259.151	75.06
259.383	73.06
259.616	75.06
259.849	68.06
260.081	74.06
260.314	87.06
260.547	85.06
260.779	92.06
261.012	99.06
261.244	89.06
261.477	79.06
261.71	100.06
261.942	114.06
262.175	132.06
262.407	90.06
262.64	89.06
262.872	83.06
263.105	81.06
263.337	77.06
263.57	87.06
263.802	77.06
264.035	70.06
264.267	78.06
264.499	71.06
264.732	85.06
264.964	73.06
265.197	60.06
265.429	78.06
265.661	78.06
265.894	79.06
266.126	100.06
266.358	85.06
266.591	76.06
266.823	73.06
267.055	88.06
267.287	83.06
267.52	80.06
267.752	78.06
267.984	80.06
268.216	76.06
268.448	88.06
268.681	83.06
268.913	101.06
269.145	84.06
269.377	92.06
269.609	88.06
269.841	77.06
270.073	75.06
270.306	83.06
270.538	76.06
270.77	79.06
271.002	80.06
271.234	75.06
271.466	94.06
271.698	80.06
271.93	97.06
272.162	90.06
272.394	78.06
272.626	92.06
272.858	96.06
273.09	82.06
273.322	78.06
273.553	68.06
273.785	89.06
274.017	86.06
274.249	79.06
274.481	84.06
274.713	88.06
274.945	70.06
275.176	73.06
275.408	99.06
275.64	104.06
275.872	108.06
276.104	96.06
276.335	101.06
276.567	106.06
276.799	131.06
277.031	130.06
277.262	168.06
277.494	121.06
277.726	91.06
277.957	95.06
278.189	84.06
278.421	74.06
278.652	74.06
278.884	73.06
279.115	94.06
279.347	102.06
279.579	105.06
279.81	118.06
280.042	160.06
280.273	192.06
280.505	152.06
280.736	84.06
280.968	92.06
281.199	81.06
281.431	88.06
281.662	83.06
281.894	92.06
282.125	100.06
282.356	127.06
282.588	146.06
282.819	132.06
283.051	79.06
283.282	78.06
283.513	91.06
283.745	88.06
283.976	89.06
284.207	100.06
284.439	86.06
284.67	74.06
284.901	78.06
285.132	83.06
285.364	66.06
285.595	96.06
285.826	84.06
286.057	104.06
286.288	80.06
286.52	75.06
286.751	81.06
286.982	86.06
287.213	86.06
287.444	71.06
287.675	95.06
287.906	97.06
288.138	78.06
288.369	90.06
288.6	104.06
288.831	88.06
289.062	77.06
289.293	74.06
289.524	82.06
289.755	77.06
289.986	81.06
290.217	85.06
290.448	98.06
290.679	93.06
290.91	82.06
291.141	86.06
291.371	96.06
291.602	98.06
291.833	85.06
292.064	89.06
292.295	90.06
292.526	65.06
292.757	81.06
292.987	75.06
293.218	95.06
293.449	86.06
293.68	88.06
293.91	69.06
294.141	97.06
294.372	77.06
294.603	92.06
294.833	84.06
295.064	72.06
295.295	94.06
295.525	96.06
295.756	94.06
295.987	116.06
296.217	150.06
296.448	141.06
296.679	93.06
296.909	76.06
297.14	83.06
297.37	96.06
297.601	82.06
297.831	85.06
298.062	84.06
298.292	91.06
298.523	85.06
298.753	81.06
298.984	81.06
299.214	87.06
299.445	84.06
299.675	109.06
299.905	90.06
300.136	85.06
300.366	81.06
300.597	80.06
300.827	95.06
301.057	95.06
301.288	102.06
301.518	92.06
301.748	100.06
301.979	100.06
302.209	97.06
302.439	105.06
302.669	92.06
302.9	88.06
303.13	91.06
303.36	102.06
303.59	122.06
303.82	141.06
304.051	104.06
304.281	101.06
304.511	99.06
304.741	96.06
304.971	77.06
305.201	89.06
305.431	94.06
305.661	79.06
305.891	83.06
306.121	102.06
306.352	98.06
306.582	108.06
306.812	117.06
307.042	110.06
307.272	130.06
307.502	148.06
307.731	143.06
307.961	109.06
308.191	115.06
308.421	85.06
308.651	89.06
308.881	80.06
309.111	97.06
309.341	85.06
309.571	101.06
309.8	103.06
310.03	96.06
310.26	103.06
310.49	96.06
310.72	105.06
310.949	113.06
311.179	116.06
311.409	97.06
311.639	122.06
311.868	98.06
312.098	100.06
312.328	100.06
312.557	106.06
312.787	108.06
313.017	121.06
313.246	106.06
313.476	87.06
313.706	101.06
313.935	89.06
314.165	97.06
314.394	113.06
314.624	90.06
314.853	99.06
315.083	83.06
315.312	91.06
315.542	84.06
315.771	98.06
316.001	92.06
316.23	98.06
316.46	90.06
316.689	81.06
316.919	72.06
317.148	98.06
317.377	101.06
317.607	79.06
317.836	94.06
318.065	87.06
318.295	85.06
318.524	80.06
318.753	91.06
318.983	90.06
319.212	87.06
319.441	125.06
319.67	105.06
319.9	89.06
320.129	94.06
320.358	92.06
320.587	94.06
320.816	101.06
321.046	101.06
321.275	98.06
321.504	87.06
321.733	100.06
321.962	85.06
322.191	105.06
322.42	107.06
322.649	124.06
322.878	113.06
323.108	126.06
323.337	144.06
323.566	140.06
323.795	183.06
324.024	227.06
324.253	463.06
324.482	971.06
324.71	1999.06
324.939	2618.06
325.168	975.06
325.397	281.06
325.626	166.06
325.855	148.06
326.084	131.06
326.313	140.06
326.542	161.06
326.77	252.06
326.999	518.06
327.228	1064.06
327.457	1941.06
327.686	1571.06
327.914	495.06
328.143	404.06
328.372	492.06
328.6	291.06
328.829	170.06
329.058	161.06
329.287	189.06
329.515	167.06
329.744	190.06
329.972	340.06
330.201	672.06
330.43	984.06
330.658	472.06
330.887	245.06
331.115	167.06
331.344	124.06
331.572	103.06
331.801	102.06
332.03	126.06
332.258	119.06
332.486	102.06
332.715	100.06
332.943	97.06
333.172	116.06
333.4	106.06
333.629	137.06
333.857	191.06
334.085	329.06
334.314	648.06
334.542	1230.06
334.771	1193.06
334.999	336.06
335.227	156.06
335.455	115.06
335.684	102.06
335.912	90.06
336.14	98.06
336.369	108.06
336.597	107.06
336.825	101.06
337.053	89.06
337.281	97.06
337.51	95.06
337.738	113.06
337.966	97.06
338.194	102.06
338.422	110.06
338.65	95.06
338.878	93.06
339.106	81.06
339.334	92.06
339.562	87.06
339.79	86.06
340.018	90.06
340.246	81.06
340.474	84.06
340.702	93.06
340.93	96.06
341.158	84.06
341.386	95.06
341.614	106.06
341.842	113.06
342.07	88.06
342.298	70.06
342.526	80.06
342.754	81.06
342.981	88.06
343.209	91.06
343.437	104.06
343.665	79.06
343.893	82.06
344.12	96.06
344.348	91.06
344.576	86.06
344.804	86.06
345.031	89.06
345.259	112.06
345.487	97.06
345.714	86.06
345.942	89.06
346.17	92.06
346.397	89.06
346.625	90.06
346.853	84.06
347.08	98.06
347.308	87.06
347.535	101.06
347.763	100.06
347.99	106.06
348.218	116.06
348.445	116.06
348.673	100.06
348.9	97.06
349.128	82.06
349.355	87.06
349.583	90.06
349.81	93.06
350.037	90.06
350.265	103.06
350.492	89.06
350.72	112.06
350.947	96.06
351.174	113.06
351.402	134.06
351.629	103.06
351.856	112.06
352.083	109.06
352.311	91.06
352.538	120.06
352.765	119.06
352.992	113.06
353.22	124.06
353.447	104.06
353.674	94.06
353.901	89.06
354.128	102.06
354.355	87.06
354.583	100.06
354.81	102.06
355.037	110.06
355.264	87.06
355.491	98.06
355.718	86.06
355.945	79.06
356.172	86.06
356.399	73.06
356.626	96.06
356.853	82.06
357.08	89.06
357.307	91.06
357.534	97.06
357.761	98.06
357.988	74.06
358.215	98.06
358.441	97.06
358.668	93.06
358.895	98.06
359.122	88.06
359.349	84.06
359.576	108.06
359.802	109.06
360.029	122.06
360.256	133.06
360.483	109.06
360.709	90.06
360.936	95.06
361.163	99.06
361.39	98.06
361.616	102.06
361.843	90.06
362.07	93.06
362.296	108.06
362.523	108.06
362.749	99.06
362.976	81.06
363.203	87.06
363.429	73.06
363.656	99.06
363.882	92.06
364.109	98.06
364.335	109.06
364.562	96.06
364.788	101.06
365.015	89.06
365.241	96.06
365.468	110.06
365.694	104.06
365.92	106.06
366.147	105.06
366.373	85.06
366.599	78.06
366.826	87.06
367.052	93.06
367.278	88.06
367.505	100.06
367.731	113.06
367.957	99.06
368.184	83.06
368.41	103.06
368.636	124.06
368.862	113.06
369.089	102.06
369.315	92.06
369.541	89.06
369.767	88.06
369.993	99.06
370.219	80.06
370.445	77.06
370.672	78.06
370.898	86.06
371.124	85.06
371.35	72.06
371.576	78.06
371.802	92.06
372.028	84.06
372.254	90.06
372.48	78.06
372.706	77.06
372.932	79.06
373.158	78.06
373.384	99.06
373.61	86.06
373.835	87.06
374.061	93.06
374.287	93.06
374.513	85.06
374.739	97.06
374.965	93.06
375.191	90.06
375.416	86.06
375.642	93.06
375.868	100.06
376.094	77.06
376.319	82.06
376.545	84.06
376.771	95.06
376.997	88.06
377.222	85.06
377.448	67.06
377.674	94.06
377.899	96.06
378.125	98.06
378.35	96.06
378.576	91.06
378.802	99.06
379.027	88.06
379.253	89.06
379.478	87.06
379.704	93.06
379.929	92.06
380.155	100.06
380.38	84.06
380.606	88.06
380.831	84.06
381.057	86.06
381.282	92.06
381.507	99.06
381.733	79.06
381.958	98.06
382.184	99.06
382.409	96.06
382.634	90.06
382.86	94.06
383.085	94.06
383.31	91.06
383.535	104.06
383.761	100.06
383.986	94.06
384.211	98.06
384.436	78.06
384.662	96.06
384.887	78.06
385.112	99.06
385.337	101.06
385.562	106.06
385.787	112.06
386.013	97.06
386.238	121.06
386.463	112.06
386.688	93.06
386.913	91.06
387.138	90.06
387.363	89.06
387.588	106.06
387.813	99.06
388.038	100.06
388.263	112.06
388.488	96.06
388.713	95.06
388.938	84.06
389.163	88.06
389.387	88.06
389.612	87.06
389.837	95.06
390.062	88.06
390.287	85.06
390.512	83.06
390.736	97.06
390.961	91.06
391.186	85.06
391.411	92.06
391.636	85.06
391.86	70.06
392.085	72.06
392.31	82.06
392.534	92.06
392.759	76.06
392.984	102.06
393.208	89.06
393.433	96.06
393.658	78.06
393.882	95.06
394.107	90.06
394.331	76.06
394.556	75.06
394.78	80.06
395.005	84.06
395.229	97.06
395.454	90.06
395.678	83.06
395.903	83.06
396.127	89.06
396.352	101.06
396.576	82.06
396.801	95.06
397.025	98.06
397.249	91.06
397.474	86.06
397.698	88.06
397.922	93.06
398.147	84.06
398.371	74.06
398.595	84.06
398.82	70.06
399.044	88.06
399.268	93.06
399.492	88.06
399.717	88.06
399.941	93.06
400.165	99.06
400.389	87.06
400.613	92.06
400.837	104.06
401.062	81.06
401.286	90.06
401.51	88.06
401.734	86.06
401.958	109.06
402.182	148.06
402.406	192.06
402.63	129.06
402.854	96.06
403.078	83.06
403.302	91.06
403.526	78.06
403.75	83.06
403.974	89.06
404.198	82.06
404.422	100.06
404.645	85.06
404.869	89.06
405.093	114.06
405.317	124.06
405.541	141.06
405.765	95.06
405.988	123.06
406.212	188.06
406.436	289.06
406.66	188.06
406.883	125.06
407.107	92.06
407.331	105.06
407.555	106.06
407.778	112.06
408.002	88.06
408.226	96.06
408.449	89.06
408.673	82.06
408.896	100.06
409.12	116.06
409.344	91.06
409.567	93.06
409.791	89.06
410.014	91.06
410.238	84.06
410.461	76.06
410.685	91.06
410.908	91.06
411.132	102.06
411.355	96.06
411.578	75.06
411.802	72.06
412.025	95.06
412.249	92.06
412.472	98.06
412.695	132.06
412.919	103.06
413.142	80.06
413.365	100.06
413.589	88.06
413.812	74.06
414.035	91.06
414.258	86.06
414.482	92.06
414.705	79.06
414.928	84.06
415.151	81.06
415.374	83.06
415.597	96.06
415.821	89.06
416.044	85.06
416.267	98.06
416.49	91.06
416.713	92.06
416.936	83.06
417.159	74.06
417.382	91.06
417.605	95.06
417.828	114.06
418.051	102.06
418.274	102.06
418.497	90.06
418.72	69.06
418.943	80.06
419.166	88.06
419.389	97.06
419.611	76.06
419.834	93.06
420.057	90.06
420.28	77.06
420.503	94.06
420.726	95.06
420.948	91.06
421.171	93.06
421.394	88.06
421.617	82.06
421.839	85.06
422.062	95.06
422.285	83.06
422.507	93.06
422.73	98.06
422.953	81.06
423.175	97.06
423.398	86.06
423.621	95.06
423.843	105.06
424.066	83.06
424.288	84.06
424.511	89.06
424.733	106.06
424.956	119.06
425.178	100.06
425.401	92.06
425.623	105.06
425.846	99.06
426.068	88.06
426.291	97.06
426.513	85.06
426.735	94.06
426.958	93.06
427.18	132.06
427.402	171.06
427.625	213.06
427.847	214.06
428.069	181.06
428.292	128.06
428.514	101.06
428.736	80.06
428.958	78.06
429.181	97.06
429.403	84.06
429.625	89.06
429.847	109.06
430.069	118.06
430.292	84.06
430.514	70.06
430.736	75.06
430.958	92.06
431.18	70.06
431.402	91.06
431.624	86.06
431.846	64.06
432.068	71.06
432.29	77.06
432.512	77.06
432.734	88.06
432.956	85.06
433.178	96.06
433.4	85.06
433.622	99.06
433.844	79.06
434.066	87.06
434.287	89.06
434.509	88.06
434.731	88.06
434.953	75.06
435.175	76.06
435.397	97.06
435.618	83.06
435.84	93.06
436.062	136.06
436.284	120.06
436.505	103.06
436.727	104.06
436.949	88.06
437.17	78.06
437.392	91.06
437.614	90.06
437.835	119.06
438.057	143.06
438.278	131.06
438.5	114.06
438.721	135.06
438.943	99.06
439.165	98.06
439.386	105.06
439.608	97.06
439.829	94.06
440.05	148.06
440.272	176.06
440.493	115.06
440.715	91.06
440.936	83.06
441.158	98.06
441.379	91.06
441.6	100.06
441.822	87.06
442.043	100.06
442.264	128.06
442.486	103.06
442.707	92.06
442.928	109.06
443.149	152.06
443.371	164.06
443.592	128.06
443.813	120.06
444.034	109.06
444.255	103.06
444.476	90.06
444.698	93.06
444.919	89.06
445.14	139.06
445.361	132.06
445.582	119.06
445.803	183.06
446.024	171.06
446.245	151.06
446.466	116.06
446.687	101.06
446.908	102.06
447.129	89.06
447.35	86.06
447.571	99.06
447.792	100.06
448.013	108.06
448.234	113.06
448.455	93.06
448.675	113.06
448.896	133.06
449.117	84.06
449.338	105.06
449.559	128.06
449.779	132.06
450	98.06
450.221	101.06
450.442	113.06
450.662	101.06
450.883	122.06
451.104	141.06
451.324	110.06
451.545	103.06
451.766	85.06
451.986	92.06
452.207	90.06
452.428	89.06
452.648	96.06
452.869	130.06
453.089	132.06
453.31	120.06
453.53	91.06
453.751	99.06
453.971	125.06
454.192	114.06
454.412	98.06
454.633	100.06
454.853	86.06
455.073	87.06
455.294	94.06
455.514	104.06
455.734	102.06
455.955	85.06
456.175	85.06
456.395	85.06
456.616	88.06
456.836	90.06
457.056	86.06
457.276	86.06
457.497	81.06
457.717	92.06
457.937	82.06
458.157	75.06
458.377	94.06
458.598	113.06
458.818	176.06
459.038	202.06
459.258	128.06
459.478	101.06
459.698	87.06
459.918	71.06
460.138	84.06
460.358	89.06
460.578	88.06
460.798	101.06
461.018	96.06
461.238	86.06
461.458	89.06
461.678	87.06
461.898	84.06
462.118	87.06
462.338	91.06
462.558	78.06
462.777	79.06
462.997	102.06
463.217	86.06
463.437	93.06
463.657	90.06
463.876	90.06
464.096	90.06
464.316	87.06
464.536	96.06
464.755	90.06
464.975	114.06
465.195	213.06
465.414	222.06
465.634	115.06
465.854	85.06
466.073	107.06
466.293	96.06
466.512	84.06
466.732	72.06
466.951	73.06
467.171	87.06
467.391	102.06
467.61	112.06
467.829	160.06
468.049	368.06
468.268	556.06
468.488	173.06
468.707	105.06
468.927	81.06
469.146	89.06
469.365	91.06
469.585	91.06
469.804	92.06
470.023	119.06
470.243	113.06
470.462	109.06
470.681	132.06
470.901	84.06
471.12	98.06
471.339	97.06
471.558	106.06
471.777	136.06
471.997	209.06
472.216	705.06
472.435	1648.06
472.654	430.06
472.873	136.06
473.092	96.06
473.311	86.06
473.53	94.06
473.749	94.06
473.968	92.06
474.187	113.06
474.406	94.06
474.625	86.06
474.844	88.06
475.063	91.06
475.282	88.06
475.501	80.06
475.72	95.06
475.939	89.06
476.158	90.06
476.377	77.06
476.596	91.06
476.814	70.06
477.033	90.06
477.252	88.06
477.471	87.06
477.69	87.06
477.908	92.06
478.127	86.06
478.346	93.06
478.564	106.06
478.783	108.06
479.002	121.06
479.22	106.06
479.439	109.06
479.658	103.06
479.876	114.06
480.095	132.06
480.313	112.06
480.532	139.06
480.751	205.06
480.969	679.06
481.188	2763.06
481.406	1727.06
481.624	275.06
481.843	121.06
482.061	103.06
482.28	108.06
482.498	90.06
482.717	82.06
482.935	90.06
483.153	78.06
483.372	82.06
483.59	103.06
483.808	89.06
484.027	86.06
484.245	90.06
484.463	89.06
484.681	102.06
484.9	85.06
485.118	85.06
485.336	90.06
485.554	82.06
485.772	86.06
485.99	99.06
486.209	91.06
486.427	97.06
486.645	111.06
486.863	116.06
487.081	98.06
487.299	94.06
487.517	84.06
487.735	90.06
487.953	105.06
488.171	97.06
488.389	92.06
488.607	91.06
488.825	89.06
489.043	97.06
489.261	98.06
489.479	86.06
489.696	91.06
489.914	99.06
490.132	98.06
490.35	86.06
490.568	94.06
490.786	82.06
491.003	93.06
491.221	92.06
491.439	91.06
491.657	89.06
491.874	75.06
492.092	86.06
492.31	99.06
492.527	87.06
492.745	91.06
492.963	81.06
493.18	97.06
493.398	94.06
493.615	98.06
493.833	87.06
494.05	92.06
494.268	104.06
494.485	94.06
494.703	77.06
494.92	82.06
495.138	84.06
495.355	66.06
495.573	103.06
495.79	105.06
496.008	88.06
496.225	96.06
496.442	94.06
496.66	107.06
496.877	84.06
497.094	103.06
497.312	87.06
497.529	90.06
497.746	96.06
497.963	91.06
498.181	106.06
498.398	96.06
498.615	121.06
498.832	104.06
499.049	84.06
499.267	96.06
499.484	77.06
499.701	97.06
499.918	98.06
500.135	97.06
500.352	74.06
500.569	84.06
500.786	88.06
501.003	85.06
501.22	87.06
501.437	93.06
501.654	106.06
501.871	122.06
502.088	93.06
502.305	90.06
502.522	96.06
502.739	95.06
502.956	99.06
503.172	85.06
503.389	90.06
503.606	105.06
503.823	97.06
504.04	102.06
504.256	90.06
504.473	85.06
504.69	102.06
504.907	93.06
505.123	80.06
505.34	80.06
505.557	101.06
505.773	93.06
505.99	78.06
506.207	99.06
506.423	92.06
506.64	96.06
506.856	100.06
507.073	95.06
507.289	81.06
507.506	91.06
507.722	118.06
507.939	112.06
508.155	101.06
508.372	96.06
508.588	89.06
508.805	98.06
509.021	91.06
509.238	100.06
509.454	101.06
509.67	98.06
509.887	111.06
510.103	132.06
510.319	225.06
510.536	793.06
510.752	2778.06
510.968	764.06
511.184	176.06
511.401	112.06
511.617	107.06
511.833	96.06
512.049	101.06
512.265	110.06
512.481	88.06
512.698	77.06
512.914	95.06
513.13	92.06
513.346	91.06
513.562	96.06
513.778	93.06
513.994	103.06
514.21	103.06
514.426	143.06
514.642	173.06
