Data from Circ_2013_H10_HRD10591_00025.txt Node
Date: Wed Jan 03 10:04:05 EST 2024
User: Yrep
Spectrometer: HR+D1059
Trigger mode: 1
Integration Time (sec): 1.000000E-1
Scans to average: 1
Electric dark correction enabled: true
Nonlinearity correction enabled: false
Boxcar width: 0
XAxis mode: Wavelengths
Number of Pixels in Spectrum: 2048
>>>>>Begin Spectral Data<<<<<
223.165	-11.06
223.4	-11.06
223.635	-11.06
223.869	-22.06
224.104	-26.06
224.338	-21.06
224.573	-20.06
224.808	-0.06
225.042	-8.06
225.277	-3.06
225.511	-18.06
225.746	10.94
225.98	9.94
226.215	16.94
226.449	22.94
226.683	12.94
226.918	29.94
227.152	25.94
227.387	31.94
227.621	48.94
227.856	51.94
228.09	47.94
228.324	54.94
228.559	60.94
228.793	66.94
229.027	73.94
229.262	69.94
229.496	78.94
229.73	86.94
229.964	88.94
230.199	70.94
230.433	79.94
230.667	83.94
230.901	72.94
231.136	72.94
231.37	92.94
231.604	82.94
231.838	92.94
232.072	86.94
232.306	82.94
232.541	87.94
232.775	90.94
233.009	72.94
233.243	78.94
233.477	76.94
233.711	95.94
233.945	92.94
234.179	69.94
234.413	79.94
234.647	75.94
234.881	91.94
235.115	75.94
235.349	76.94
235.583	79.94
235.817	83.94
236.051	87.94
236.285	77.94
236.519	72.94
236.753	80.94
236.987	80.94
237.221	85.94
237.455	93.94
237.689	87.94
237.922	73.94
238.156	66.94
238.39	71.94
238.624	84.94
238.858	61.94
239.091	69.94
239.325	93.94
239.559	77.94
239.793	76.94
240.027	87.94
240.26	61.94
240.494	77.94
240.728	74.94
240.961	74.94
241.195	69.94
241.429	87.94
241.662	86.94
241.896	80.94
242.13	72.94
242.363	62.94
242.597	67.94
242.83	71.94
243.064	74.94
243.298	86.94
243.531	90.94
243.765	74.94
243.998	88.94
244.232	80.94
244.465	83.94
244.699	62.94
244.932	82.94
245.166	79.94
245.399	71.94
245.633	82.94
245.866	88.94
246.099	79.94
246.333	83.94
246.566	86.94
246.8	80.94
247.033	69.94
247.266	75.94
247.5	76.94
247.733	83.94
247.966	76.94
248.2	88.94
248.433	78.94
248.666	75.94
248.899	80.94
249.133	91.94
249.366	99.94
249.599	102.94
249.832	87.94
250.066	86.94
250.299	73.94
250.532	85.94
250.765	80.94
250.998	61.94
251.231	80.94
251.465	83.94
251.698	92.94
251.931	79.94
252.164	81.94
252.397	70.94
252.63	75.94
252.863	71.94
253.096	84.94
253.329	66.94
253.562	91.94
253.795	84.94
254.028	86.94
254.261	69.94
254.494	84.94
254.727	80.94
254.96	80.94
255.193	79.94
255.426	72.94
255.659	95.94
255.892	85.94
256.124	88.94
256.357	80.94
256.59	87.94
256.823	80.94
257.056	76.94
257.289	85.94
257.521	96.94
257.754	92.94
257.987	80.94
258.22	80.94
258.452	83.94
258.685	86.94
258.918	80.94
259.151	80.94
259.383	98.94
259.616	78.94
259.849	94.94
260.081	86.94
260.314	79.94
260.547	92.94
260.779	86.94
261.012	79.94
261.244	79.94
261.477	90.94
261.71	90.94
261.942	103.94
262.175	109.94
262.407	92.94
262.64	94.94
262.872	98.94
263.105	100.94
263.337	92.94
263.57	73.94
263.802	87.94
264.035	76.94
264.267	107.94
264.499	86.94
264.732	83.94
264.964	70.94
265.197	71.94
265.429	83.94
265.661	75.94
265.894	74.94
266.126	91.94
266.358	73.94
266.591	67.94
266.823	74.94
267.055	79.94
267.287	87.94
267.52	85.94
267.752	90.94
267.984	83.94
268.216	77.94
268.448	89.94
268.681	85.94
268.913	94.94
269.145	79.94
269.377	88.94
269.609	77.94
269.841	73.94
270.073	75.94
270.306	89.94
270.538	55.94
270.77	78.94
271.002	86.94
271.234	85.94
271.466	86.94
271.698	86.94
271.93	91.94
272.162	94.94
272.394	87.94
272.626	93.94
272.858	86.94
273.09	83.94
273.322	82.94
273.553	80.94
273.785	94.94
274.017	89.94
274.249	79.94
274.481	75.94
274.713	80.94
274.945	95.94
275.176	87.94
275.408	91.94
275.64	94.94
275.872	103.94
276.104	78.94
276.335	84.94
276.567	102.94
276.799	95.94
277.031	111.94
277.262	113.94
277.494	104.94
277.726	90.94
277.957	83.94
278.189	90.94
278.421	91.94
278.652	87.94
278.884	92.94
279.115	86.94
279.347	90.94
279.579	101.94
279.81	91.94
280.042	94.94
280.273	124.94
280.505	107.94
280.736	91.94
280.968	92.94
281.199	80.94
281.431	100.94
281.662	84.94
281.894	80.94
282.125	90.94
282.356	119.94
282.588	129.94
282.819	114.94
283.051	111.94
283.282	82.94
283.513	94.94
283.745	84.94
283.976	102.94
284.207	93.94
284.439	81.94
284.67	96.94
284.901	90.94
285.132	67.94
285.364	83.94
285.595	88.94
285.826	88.94
286.057	85.94
286.288	94.94
286.52	85.94
286.751	90.94
286.982	97.94
287.213	68.94
287.444	89.94
287.675	105.94
287.906	94.94
288.138	91.94
288.369	99.94
288.6	99.94
288.831	76.94
289.062	90.94
289.293	87.94
289.524	92.94
289.755	75.94
289.986	79.94
290.217	91.94
290.448	83.94
290.679	86.94
290.91	80.94
291.141	88.94
291.371	86.94
291.602	91.94
291.833	86.94
292.064	98.94
292.295	90.94
292.526	95.94
292.757	83.94
292.987	98.94
293.218	104.94
293.449	94.94
293.68	81.94
293.91	76.94
294.141	78.94
294.372	86.94
294.603	83.94
294.833	87.94
295.064	92.94
295.295	98.94
295.525	97.94
295.756	109.94
295.987	115.94
296.217	163.94
296.448	134.94
296.679	91.94
296.909	107.94
297.14	99.94
297.37	99.94
297.601	94.94
297.831	94.94
298.062	99.94
298.292	85.94
298.523	95.94
298.753	91.94
298.984	87.94
299.214	91.94
299.445	90.94
299.675	83.94
299.905	111.94
300.136	82.94
300.366	90.94
300.597	95.94
300.827	97.94
301.057	98.94
301.288	93.94
301.518	100.94
301.748	89.94
301.979	100.94
302.209	105.94
302.439	95.94
302.669	86.94
302.9	82.94
303.13	99.94
303.36	95.94
303.59	105.94
303.82	128.94
304.051	97.94
304.281	86.94
304.511	94.94
304.741	76.94
304.971	82.94
305.201	91.94
305.431	93.94
305.661	85.94
305.891	86.94
306.121	92.94
306.352	99.94
306.582	93.94
306.812	114.94
307.042	100.94
307.272	99.94
307.502	109.94
307.731	115.94
307.961	103.94
308.191	82.94
308.421	87.94
308.651	100.94
308.881	91.94
309.111	111.94
309.341	99.94
309.571	95.94
309.8	94.94
310.03	102.94
310.26	93.94
310.49	87.94
310.72	99.94
310.949	108.94
311.179	104.94
311.409	93.94
311.639	93.94
311.868	87.94
312.098	101.94
312.328	100.94
312.557	83.94
312.787	95.94
313.017	110.94
313.246	102.94
313.476	95.94
313.706	93.94
313.935	100.94
314.165	97.94
314.394	91.94
314.624	116.94
314.853	93.94
315.083	95.94
315.312	100.94
315.542	95.94
315.771	90.94
316.001	90.94
316.23	93.94
316.46	88.94
316.689	91.94
316.919	87.94
317.148	102.94
317.377	101.94
317.607	103.94
317.836	95.94
318.065	92.94
318.295	84.94
318.524	80.94
318.753	87.94
318.983	101.94
319.212	117.94
319.441	117.94
319.67	111.94
319.9	97.94
320.129	91.94
320.358	97.94
320.587	95.94
320.816	91.94
321.046	111.94
321.275	106.94
321.504	81.94
321.733	97.94
321.962	93.94
322.191	100.94
322.42	108.94
322.649	118.94
322.878	108.94
323.108	113.94
323.337	135.94
323.566	150.94
323.795	152.94
324.024	195.94
324.253	411.94
324.482	838.94
324.71	1690.94
324.939	2370.94
325.168	861.94
325.397	246.94
325.626	155.94
325.855	132.94
326.084	138.94
326.313	127.94
326.542	159.94
326.77	243.94
326.999	470.94
327.228	967.94
327.457	1771.94
327.686	1415.94
327.914	404.94
328.143	251.94
328.372	235.94
328.6	172.94
328.829	127.94
329.058	117.94
329.287	139.94
329.515	139.94
329.744	143.94
329.972	181.94
330.201	278.94
330.43	359.94
330.658	229.94
330.887	162.94
331.115	145.94
331.344	112.94
331.572	105.94
331.801	102.94
332.03	96.94
332.258	102.94
332.486	80.94
332.715	101.94
332.943	107.94
333.172	114.94
333.4	98.94
333.629	112.94
333.857	135.94
334.085	172.94
334.314	267.94
334.542	422.94
334.771	458.94
334.999	174.94
335.227	119.94
335.455	89.94
335.684	92.94
335.912	87.94
336.14	77.94
336.369	108.94
336.597	101.94
336.825	114.94
337.053	101.94
337.281	90.94
337.51	89.94
337.738	80.94
337.966	88.94
338.194	92.94
338.422	102.94
338.65	100.94
338.878	90.94
339.106	95.94
339.334	102.94
339.562	95.94
339.79	96.94
340.018	94.94
340.246	88.94
340.474	99.94
340.702	103.94
340.93	89.94
341.158	90.94
341.386	107.94
341.614	85.94
341.842	89.94
342.07	92.94
342.298	90.94
342.526	86.94
342.754	88.94
342.981	80.94
343.209	93.94
343.437	108.94
343.665	90.94
343.893	91.94
344.12	85.94
344.348	88.94
344.576	92.94
344.804	93.94
345.031	82.94
345.259	111.94
345.487	87.94
345.714	94.94
345.942	85.94
346.17	101.94
346.397	92.94
346.625	98.94
346.853	95.94
347.08	83.94
347.308	89.94
347.535	90.94
347.763	110.94
347.99	109.94
348.218	109.94
348.445	92.94
348.673	101.94
348.9	116.94
349.128	101.94
349.355	107.94
349.583	106.94
349.81	97.94
350.037	96.94
350.265	76.94
350.492	91.94
350.72	106.94
350.947	105.94
351.174	102.94
351.402	106.94
351.629	95.94
351.856	103.94
352.083	101.94
352.311	91.94
352.538	116.94
352.765	122.94
352.992	99.94
353.22	109.94
353.447	116.94
353.674	93.94
353.901	104.94
354.128	98.94
354.355	98.94
354.583	95.94
354.81	105.94
355.037	96.94
355.264	82.94
355.491	94.94
355.718	79.94
355.945	83.94
356.172	100.94
356.399	101.94
356.626	83.94
356.853	105.94
357.08	93.94
357.307	97.94
357.534	100.94
357.761	93.94
357.988	108.94
358.215	115.94
358.441	108.94
358.668	99.94
358.895	83.94
359.122	83.94
359.349	93.94
359.576	95.94
359.802	95.94
360.029	123.94
360.256	122.94
360.483	95.94
360.709	82.94
360.936	95.94
361.163	98.94
361.39	101.94
361.616	96.94
361.843	91.94
362.07	93.94
362.296	93.94
362.523	94.94
362.749	96.94
362.976	105.94
363.203	103.94
363.429	101.94
363.656	107.94
363.882	90.94
364.109	90.94
364.335	94.94
364.562	90.94
364.788	83.94
365.015	89.94
365.241	92.94
365.468	119.94
365.694	111.94
365.92	94.94
366.147	87.94
366.373	72.94
366.599	93.94
366.826	102.94
367.052	91.94
367.278	98.94
367.505	98.94
367.731	88.94
367.957	90.94
368.184	89.94
368.41	91.94
368.636	106.94
368.862	131.94
369.089	103.94
369.315	102.94
369.541	89.94
369.767	90.94
369.993	91.94
370.219	104.94
370.445	95.94
370.672	94.94
370.898	87.94
371.124	82.94
371.35	96.94
371.576	87.94
371.802	82.94
372.028	82.94
372.254	90.94
372.48	97.94
372.706	80.94
372.932	96.94
373.158	91.94
373.384	91.94
373.61	100.94
373.835	81.94
374.061	93.94
374.287	87.94
374.513	83.94
374.739	84.94
374.965	82.94
375.191	78.94
375.416	83.94
375.642	83.94
375.868	99.94
376.094	95.94
376.319	94.94
376.545	100.94
376.771	92.94
376.997	92.94
377.222	79.94
377.448	94.94
377.674	91.94
377.899	71.94
378.125	87.94
378.35	107.94
378.576	86.94
378.802	80.94
379.027	79.94
379.253	93.94
379.478	100.94
379.704	101.94
379.929	103.94
380.155	98.94
380.38	95.94
380.606	99.94
380.831	102.94
381.057	111.94
381.282	88.94
381.507	112.94
381.733	100.94
381.958	99.94
382.184	100.94
382.409	104.94
382.634	97.94
382.86	107.94
383.085	95.94
383.31	99.94
383.535	90.94
383.761	95.94
383.986	102.94
384.211	97.94
384.436	102.94
384.662	100.94
384.887	101.94
385.112	108.94
385.337	98.94
385.562	108.94
385.787	121.94
386.013	109.94
386.238	119.94
386.463	109.94
386.688	110.94
386.913	108.94
387.138	111.94
387.363	114.94
387.588	103.94
387.813	86.94
388.038	117.94
388.263	113.94
388.488	101.94
388.713	88.94
388.938	93.94
389.163	91.94
389.387	120.94
389.612	107.94
389.837	96.94
390.062	109.94
390.287	89.94
390.512	93.94
390.736	86.94
390.961	97.94
391.186	80.94
391.411	80.94
391.636	96.94
391.86	100.94
392.085	90.94
392.31	87.94
392.534	64.94
392.759	66.94
392.984	80.94
393.208	90.94
393.433	94.94
393.658	93.94
393.882	83.94
394.107	83.94
394.331	99.94
394.556	94.94
394.78	87.94
395.005	98.94
395.229	97.94
395.454	84.94
395.678	94.94
395.903	80.94
396.127	91.94
396.352	93.94
396.576	86.94
396.801	86.94
397.025	88.94
397.249	94.94
397.474	88.94
397.698	94.94
397.922	77.94
398.147	84.94
398.371	85.94
398.595	75.94
398.82	77.94
399.044	95.94
399.268	83.94
399.492	101.94
399.717	96.94
399.941	105.94
400.165	83.94
400.389	96.94
400.613	73.94
400.837	88.94
401.062	86.94
401.286	98.94
401.51	93.94
401.734	99.94
401.958	95.94
402.182	138.94
402.406	173.94
402.63	131.94
402.854	104.94
403.078	85.94
403.302	95.94
403.526	95.94
403.75	96.94
403.974	79.94
404.198	81.94
404.422	73.94
404.645	92.94
404.869	87.94
405.093	107.94
405.317	107.94
405.541	106.94
405.765	104.94
405.988	118.94
406.212	191.94
406.436	242.94
406.66	150.94
406.883	97.94
407.107	98.94
407.331	91.94
407.555	91.94
407.778	91.94
408.002	108.94
408.226	96.94
408.449	84.94
408.673	88.94
408.896	91.94
409.12	86.94
409.344	85.94
409.567	88.94
409.791	99.94
410.014	96.94
410.238	91.94
410.461	109.94
410.685	108.94
410.908	90.94
411.132	96.94
411.355	102.94
411.578	92.94
411.802	88.94
412.025	94.94
412.249	94.94
412.472	96.94
412.695	107.94
412.919	87.94
413.142	85.94
413.365	90.94
413.589	90.94
413.812	89.94
414.035	102.94
414.258	88.94
414.482	99.94
414.705	91.94
414.928	79.94
415.151	85.94
415.374	86.94
415.597	87.94
415.821	94.94
416.044	83.94
416.267	94.94
416.49	88.94
416.713	88.94
416.936	87.94
417.159	86.94
417.382	75.94
417.605	93.94
417.828	103.94
418.051	98.94
418.274	93.94
418.497	88.94
418.72	93.94
418.943	91.94
419.166	89.94
419.389	84.94
419.611	86.94
419.834	110.94
420.057	75.94
420.28	86.94
420.503	80.94
420.726	89.94
420.948	90.94
421.171	91.94
421.394	102.94
421.617	88.94
421.839	74.94
422.062	79.94
422.285	79.94
422.507	96.94
422.73	92.94
422.953	93.94
423.175	96.94
423.398	107.94
423.621	91.94
423.843	69.94
424.066	82.94
424.288	94.94
424.511	93.94
424.733	107.94
424.956	112.94
425.178	94.94
425.401	112.94
425.623	100.94
425.846	110.94
426.068	94.94
426.291	92.94
426.513	96.94
426.735	95.94
426.958	89.94
427.18	114.94
427.402	149.94
427.625	185.94
427.847	162.94
428.069	143.94
428.292	96.94
428.514	88.94
428.736	93.94
428.958	75.94
429.181	107.94
429.403	73.94
429.625	84.94
429.847	94.94
430.069	91.94
430.292	95.94
430.514	97.94
430.736	84.94
430.958	91.94
431.18	84.94
431.402	88.94
431.624	84.94
431.846	86.94
432.068	81.94
432.29	83.94
432.512	93.94
432.734	87.94
432.956	104.94
433.178	102.94
433.4	92.94
433.622	95.94
433.844	94.94
434.066	91.94
434.287	82.94
434.509	85.94
434.731	77.94
434.953	80.94
435.175	93.94
435.397	87.94
435.618	89.94
435.84	100.94
436.062	136.94
436.284	121.94
436.505	118.94
436.727	95.94
436.949	96.94
437.17	80.94
437.392	77.94
437.614	97.94
437.835	102.94
438.057	138.94
438.278	104.94
438.5	108.94
438.721	125.94
438.943	100.94
439.165	86.94
439.386	80.94
439.608	101.94
439.829	113.94
440.05	119.94
440.272	139.94
440.493	116.94
440.715	82.94
440.936	96.94
441.158	98.94
441.379	76.94
441.6	100.94
441.822	86.94
442.043	98.94
442.264	107.94
442.486	95.94
442.707	96.94
442.928	118.94
443.149	119.94
443.371	140.94
443.592	101.94
443.813	102.94
444.034	107.94
444.255	107.94
444.476	84.94
444.698	92.94
444.919	98.94
445.14	134.94
445.361	122.94
445.582	130.94
445.803	143.94
446.024	146.94
446.245	138.94
446.466	108.94
446.687	93.94
446.908	91.94
447.129	92.94
447.35	94.94
447.571	104.94
447.792	96.94
448.013	103.94
448.234	97.94
448.455	97.94
448.675	121.94
448.896	133.94
449.117	100.94
449.338	100.94
449.559	134.94
449.779	132.94
450	94.94
450.221	92.94
450.442	89.94
450.662	95.94
450.883	106.94
451.104	108.94
451.324	93.94
451.545	78.94
451.766	82.94
451.986	92.94
452.207	82.94
452.428	92.94
452.648	109.94
452.869	135.94
453.089	119.94
453.31	111.94
453.53	90.94
453.751	75.94
453.971	105.94
454.192	114.94
454.412	99.94
454.633	99.94
454.853	94.94
455.073	98.94
455.294	90.94
455.514	96.94
455.734	102.94
455.955	81.94
456.175	78.94
456.395	76.94
456.616	70.94
456.836	99.94
457.056	95.94
457.276	87.94
457.497	80.94
457.717	82.94
457.937	92.94
458.157	87.94
458.377	98.94
458.598	116.94
458.818	135.94
459.038	168.94
459.258	116.94
459.478	81.94
459.698	84.94
459.918	86.94
460.138	87.94
460.358	99.94
460.578	88.94
460.798	94.94
461.018	91.94
461.238	87.94
461.458	87.94
461.678	91.94
461.898	81.94
462.118	94.94
462.338	81.94
462.558	79.94
462.777	91.94
462.997	89.94
463.217	93.94
463.437	85.94
463.657	89.94
463.876	92.94
464.096	86.94
464.316	82.94
464.536	103.94
464.755	93.94
464.975	105.94
465.195	156.94
465.414	164.94
465.634	101.94
465.854	86.94
466.073	103.94
466.293	80.94
466.512	95.94
466.732	90.94
466.951	100.94
467.171	99.94
467.391	101.94
467.61	110.94
467.829	120.94
468.049	188.94
468.268	249.94
468.488	122.94
468.707	82.94
468.927	76.94
469.146	90.94
469.365	98.94
469.585	94.94
469.804	87.94
470.023	102.94
470.243	80.94
470.462	98.94
470.681	119.94
470.901	98.94
471.12	85.94
471.339	95.94
471.558	100.94
471.777	100.94
471.997	131.94
472.216	283.94
472.435	568.94
472.654	197.94
472.873	100.94
473.092	86.94
473.311	87.94
473.53	102.94
473.749	87.94
473.968	95.94
474.187	98.94
474.406	96.94
474.625	101.94
474.844	91.94
475.063	88.94
475.282	76.94
475.501	89.94
475.72	98.94
475.939	85.94
476.158	92.94
476.377	79.94
476.596	83.94
476.814	110.94
477.033	98.94
477.252	79.94
477.471	80.94
477.69	86.94
477.908	93.94
478.127	94.94
478.346	96.94
478.564	97.94
478.783	90.94
479.002	99.94
479.22	94.94
479.439	104.94
479.658	114.94
479.876	93.94
480.095	99.94
480.313	100.94
480.532	92.94
480.751	142.94
480.969	289.94
481.188	979.94
481.406	645.94
481.624	156.94
481.843	90.94
482.061	95.94
482.28	84.94
482.498	95.94
482.717	93.94
482.935	86.94
483.153	87.94
483.372	89.94
483.59	93.94
483.808	95.94
484.027	91.94
484.245	102.94
484.463	93.94
484.681	88.94
484.9	83.94
485.118	95.94
485.336	99.94
485.554	96.94
485.772	91.94
485.99	90.94
486.209	118.94
486.427	130.94
486.645	102.94
486.863	117.94
487.081	110.94
487.299	87.94
487.517	99.94
487.735	84.94
487.953	85.94
488.171	92.94
488.389	95.94
488.607	95.94
488.825	100.94
489.043	82.94
489.261	94.94
489.479	93.94
489.696	81.94
489.914	76.94
490.132	97.94
490.35	92.94
490.568	97.94
490.786	91.94
491.003	100.94
491.221	92.94
491.439	98.94
491.657	90.94
491.874	103.94
492.092	100.94
492.31	90.94
492.527	92.94
492.745	101.94
492.963	103.94
493.18	80.94
493.398	83.94
493.615	94.94
493.833	89.94
494.05	92.94
494.268	91.94
494.485	90.94
494.703	74.94
494.92	77.94
495.138	104.94
495.355	81.94
495.573	72.94
495.79	106.94
496.008	94.94
496.225	78.94
496.442	94.94
496.66	104.94
496.877	87.94
497.094	80.94
497.312	100.94
497.529	96.94
497.746	93.94
497.963	89.94
498.181	99.94
498.398	98.94
498.615	106.94
498.832	103.94
499.049	96.94
499.267	89.94
499.484	97.94
499.701	78.94
499.918	89.94
500.135	103.94
500.352	90.94
500.569	95.94
500.786	87.94
501.003	93.94
501.22	94.94
501.437	95.94
501.654	81.94
501.871	95.94
502.088	90.94
502.305	73.94
502.522	93.94
502.739	99.94
502.956	95.94
503.172	98.94
503.389	118.94
503.606	116.94
503.823	103.94
504.04	96.94
504.256	83.94
504.473	98.94
504.69	104.94
504.907	97.94
505.123	90.94
505.34	97.94
505.557	98.94
505.773	93.94
505.99	81.94
506.207	102.94
506.423	84.94
506.64	103.94
506.856	98.94
507.073	105.94
507.289	90.94
507.506	91.94
507.722	119.94
507.939	98.94
508.155	103.94
508.372	95.94
508.588	86.94
508.805	103.94
509.021	103.94
509.238	88.94
509.454	97.94
509.67	94.94
509.887	100.94
510.103	126.94
510.319	212.94
510.536	697.94
510.752	2305.94
510.968	692.94
511.184	163.94
511.401	101.94
511.617	101.94
511.833	99.94
512.049	93.94
512.265	101.94
512.481	88.94
512.698	99.94
512.914	86.94
513.13	114.94
513.346	94.94
513.562	91.94
513.778	108.94
513.994	99.94
514.21	99.94
514.426	123.94
514.642	142.94
514.858	139.94
