Data from Circ_2013_H10_HRD10591_00032.txt Node
Date: Wed Jan 03 10:04:06 EST 2024
User: Yrep
Spectrometer: HR+D1059
Trigger mode: 1
Integration Time (sec): 1.000000E-1
Scans to average: 1
Electric dark correction enabled: true
Nonlinearity correction enabled: false
Boxcar width: 0
XAxis mode: Wavelengths
Number of Pixels in Spectrum: 2048
>>>>>Begin Spectral Data<<<<<
223.165	-29.62
223.4	-29.62
223.635	-29.62
223.869	-14.62
224.104	-26.62
224.338	-9.62
224.573	-12.62
224.808	-24.62
225.042	-5.62
225.277	-3.62
225.511	8.38
225.746	1.38
225.98	1.38
226.215	11.38
226.449	14.38
226.683	28.38
226.918	31.38
227.152	30.38
227.387	32.38
227.621	48.38
227.856	45.38
228.09	36.38
228.324	39.38
228.559	43.38
228.793	45.38
229.027	65.38
229.262	70.38
229.496	76.38
229.73	95.38
229.964	74.38
230.199	81.38
230.433	71.38
230.667	73.38
230.901	75.38
231.136	66.38
231.37	83.38
231.604	80.38
231.838	69.38
232.072	75.38
232.306	86.38
232.541	90.38
232.775	72.38
233.009	74.38
233.243	73.38
233.477	78.38
233.711	71.38
233.945	72.38
234.179	82.38
234.413	66.38
234.647	78.38
234.881	87.38
235.115	73.38
235.349	91.38
235.583	94.38
235.817	87.38
236.051	79.38
236.285	72.38
236.519	76.38
236.753	84.38
236.987	83.38
237.221	83.38
237.455	93.38
237.689	63.38
237.922	68.38
238.156	81.38
238.39	85.38
238.624	80.38
238.858	82.38
239.091	97.38
239.325	80.38
239.559	90.38
239.793	100.38
240.027	80.38
240.26	57.38
240.494	79.38
240.728	83.38
240.961	87.38
241.195	77.38
241.429	85.38
241.662	88.38
241.896	80.38
242.13	67.38
242.363	58.38
242.597	60.38
242.83	77.38
243.064	79.38
243.298	73.38
243.531	76.38
243.765	74.38
243.998	88.38
244.232	89.38
244.465	105.38
244.699	82.38
244.932	73.38
245.166	81.38
245.399	90.38
245.633	91.38
245.866	79.38
246.099	78.38
246.333	87.38
246.566	79.38
246.8	84.38
247.033	92.38
247.266	67.38
247.5	68.38
247.733	66.38
247.966	79.38
248.2	82.38
248.433	87.38
248.666	88.38
248.899	83.38
249.133	84.38
249.366	94.38
249.599	112.38
249.832	79.38
250.066	78.38
250.299	76.38
250.532	75.38
250.765	85.38
250.998	83.38
251.231	76.38
251.465	70.38
251.698	81.38
251.931	77.38
252.164	79.38
252.397	77.38
252.63	71.38
252.863	73.38
253.096	71.38
253.329	83.38
253.562	89.38
253.795	80.38
254.028	76.38
254.261	65.38
254.494	76.38
254.727	77.38
254.96	84.38
255.193	70.38
255.426	78.38
255.659	85.38
255.892	84.38
256.124	92.38
256.357	92.38
256.59	77.38
256.823	91.38
257.056	68.38
257.289	102.38
257.521	77.38
257.754	78.38
257.987	82.38
258.22	85.38
258.452	77.38
258.685	94.38
258.918	76.38
259.151	87.38
259.383	68.38
259.616	69.38
259.849	73.38
260.081	91.38
260.314	78.38
260.547	91.38
260.779	87.38
261.012	88.38
261.244	98.38
261.477	96.38
261.71	83.38
261.942	126.38
262.175	134.38
262.407	96.38
262.64	88.38
262.872	98.38
263.105	75.38
263.337	81.38
263.57	91.38
263.802	100.38
264.035	88.38
264.267	74.38
264.499	76.38
264.732	83.38
264.964	80.38
265.197	87.38
265.429	83.38
265.661	85.38
265.894	91.38
266.126	82.38
266.358	63.38
266.591	99.38
266.823	79.38
267.055	88.38
267.287	88.38
267.52	87.38
267.752	82.38
267.984	76.38
268.216	98.38
268.448	89.38
268.681	87.38
268.913	80.38
269.145	73.38
269.377	74.38
269.609	78.38
269.841	89.38
270.073	82.38
270.306	94.38
270.538	92.38
270.77	74.38
271.002	90.38
271.234	86.38
271.466	75.38
271.698	72.38
271.93	82.38
272.162	87.38
272.394	85.38
272.626	70.38
272.858	88.38
273.09	86.38
273.322	91.38
273.553	90.38
273.785	77.38
274.017	66.38
274.249	71.38
274.481	88.38
274.713	87.38
274.945	80.38
275.176	81.38
275.408	92.38
275.64	92.38
275.872	101.38
276.104	105.38
276.335	96.38
276.567	104.38
276.799	118.38
277.031	135.38
277.262	137.38
277.494	102.38
277.726	90.38
277.957	88.38
278.189	83.38
278.421	95.38
278.652	92.38
278.884	83.38
279.115	77.38
279.347	84.38
279.579	92.38
279.81	96.38
280.042	118.38
280.273	138.38
280.505	123.38
280.736	91.38
280.968	85.38
281.199	90.38
281.431	94.38
281.662	93.38
281.894	91.38
282.125	108.38
282.356	118.38
282.588	160.38
282.819	117.38
283.051	124.38
283.282	75.38
283.513	79.38
283.745	82.38
283.976	92.38
284.207	78.38
284.439	71.38
284.67	75.38
284.901	89.38
285.132	93.38
285.364	79.38
285.595	94.38
285.826	95.38
286.057	80.38
286.288	87.38
286.52	78.38
286.751	97.38
286.982	87.38
287.213	78.38
287.444	89.38
287.675	91.38
287.906	97.38
288.138	95.38
288.369	88.38
288.6	102.38
288.831	85.38
289.062	75.38
289.293	94.38
289.524	93.38
289.755	77.38
289.986	93.38
290.217	87.38
290.448	101.38
290.679	75.38
290.91	83.38
291.141	85.38
291.371	91.38
291.602	89.38
291.833	92.38
292.064	87.38
292.295	78.38
292.526	87.38
292.757	91.38
292.987	85.38
293.218	79.38
293.449	83.38
293.68	82.38
293.91	95.38
294.141	79.38
294.372	102.38
294.603	83.38
294.833	76.38
295.064	107.38
295.295	86.38
295.525	88.38
295.756	114.38
295.987	124.38
296.217	152.38
296.448	136.38
296.679	85.38
296.909	97.38
297.14	88.38
297.37	102.38
297.601	76.38
297.831	81.38
298.062	93.38
298.292	91.38
298.523	91.38
298.753	90.38
298.984	90.38
299.214	79.38
299.445	83.38
299.675	91.38
299.905	90.38
300.136	93.38
300.366	92.38
300.597	94.38
300.827	88.38
301.057	93.38
301.288	124.38
301.518	108.38
301.748	95.38
301.979	97.38
302.209	92.38
302.439	93.38
302.669	96.38
302.9	100.38
303.13	80.38
303.36	101.38
303.59	110.38
303.82	129.38
304.051	82.38
304.281	90.38
304.511	90.38
304.741	87.38
304.971	99.38
305.201	84.38
305.431	103.38
305.661	88.38
305.891	83.38
306.121	98.38
306.352	95.38
306.582	109.38
306.812	84.38
307.042	96.38
307.272	106.38
307.502	116.38
307.731	129.38
307.961	102.38
308.191	96.38
308.421	90.38
308.651	89.38
308.881	88.38
309.111	99.38
309.341	86.38
309.571	100.38
309.8	90.38
310.03	94.38
310.26	101.38
310.49	97.38
310.72	104.38
310.949	119.38
311.179	114.38
311.409	98.38
311.639	120.38
311.868	97.38
312.098	87.38
312.328	95.38
312.557	108.38
312.787	104.38
313.017	117.38
313.246	92.38
313.476	106.38
313.706	92.38
313.935	98.38
314.165	116.38
314.394	114.38
314.624	110.38
314.853	99.38
315.083	96.38
315.312	92.38
315.542	86.38
315.771	67.38
316.001	94.38
316.23	75.38
316.46	78.38
316.689	88.38
316.919	84.38
317.148	98.38
317.377	99.38
317.607	102.38
317.836	92.38
318.065	97.38
318.295	110.38
318.524	87.38
318.753	93.38
318.983	102.38
319.212	110.38
319.441	93.38
319.67	113.38
319.9	98.38
320.129	90.38
320.358	78.38
320.587	101.38
320.816	110.38
321.046	96.38
321.275	104.38
321.504	94.38
321.733	94.38
321.962	106.38
322.191	101.38
322.42	106.38
322.649	108.38
322.878	99.38
323.108	123.38
323.337	144.38
323.566	136.38
323.795	155.38
324.024	213.38
324.253	444.38
324.482	868.38
324.71	1770.38
324.939	2370.38
325.168	893.38
325.397	276.38
325.626	153.38
325.855	133.38
326.084	125.38
326.313	131.38
326.542	172.38
326.77	243.38
326.999	473.38
327.228	921.38
327.457	1739.38
327.686	1395.38
327.914	451.38
328.143	335.38
328.372	358.38
328.6	227.38
328.829	160.38
329.058	167.38
329.287	181.38
329.515	154.38
329.744	177.38
329.972	242.38
330.201	449.38
330.43	649.38
330.658	357.38
330.887	233.38
331.115	154.38
331.344	110.38
331.572	104.38
331.801	112.38
332.03	117.38
332.258	110.38
332.486	89.38
332.715	100.38
332.943	107.38
333.172	92.38
333.4	115.38
333.629	127.38
333.857	156.38
334.085	229.38
334.314	406.38
334.542	795.38
334.771	818.38
334.999	261.38
335.227	128.38
335.455	89.38
335.684	100.38
335.912	101.38
336.14	106.38
336.369	98.38
336.597	115.38
336.825	105.38
337.053	92.38
337.281	96.38
337.51	96.38
337.738	93.38
337.966	98.38
338.194	107.38
338.422	95.38
338.65	109.38
338.878	110.38
339.106	98.38
339.334	90.38
339.562	85.38
339.79	99.38
340.018	100.38
340.246	97.38
340.474	108.38
340.702	110.38
340.93	99.38
341.158	102.38
341.386	98.38
341.614	95.38
341.842	95.38
342.07	99.38
342.298	89.38
342.526	80.38
342.754	83.38
342.981	100.38
343.209	85.38
343.437	101.38
343.665	87.38
343.893	87.38
344.12	89.38
344.348	78.38
344.576	83.38
344.804	100.38
345.031	102.38
345.259	92.38
345.487	105.38
345.714	99.38
345.942	95.38
346.17	91.38
346.397	103.38
346.625	89.38
346.853	97.38
347.08	88.38
347.308	100.38
347.535	95.38
347.763	105.38
347.99	108.38
348.218	109.38
348.445	103.38
348.673	102.38
348.9	96.38
349.128	102.38
349.355	109.38
349.583	99.38
349.81	97.38
350.037	92.38
350.265	108.38
350.492	93.38
350.72	103.38
350.947	96.38
351.174	107.38
351.402	113.38
351.629	98.38
351.856	84.38
352.083	110.38
352.311	95.38
352.538	121.38
352.765	117.38
352.992	123.38
353.22	116.38
353.447	115.38
353.674	104.38
353.901	98.38
354.128	100.38
354.355	89.38
354.583	103.38
354.81	98.38
355.037	92.38
355.264	97.38
355.491	90.38
355.718	85.38
355.945	96.38
356.172	89.38
356.399	91.38
356.626	88.38
356.853	93.38
357.08	87.38
357.307	94.38
357.534	95.38
357.761	95.38
357.988	97.38
358.215	99.38
358.441	93.38
358.668	92.38
358.895	102.38
359.122	86.38
359.349	103.38
359.576	113.38
359.802	102.38
360.029	147.38
360.256	125.38
360.483	95.38
360.709	86.38
360.936	100.38
361.163	85.38
361.39	111.38
361.616	97.38
361.843	105.38
362.07	94.38
362.296	110.38
362.523	97.38
362.749	108.38
362.976	82.38
363.203	81.38
363.429	75.38
363.656	99.38
363.882	108.38
364.109	88.38
364.335	96.38
364.562	93.38
364.788	96.38
365.015	98.38
365.241	91.38
365.468	119.38
365.694	114.38
365.92	109.38
366.147	106.38
366.373	99.38
366.599	86.38
366.826	90.38
367.052	93.38
367.278	85.38
367.505	95.38
367.731	86.38
367.957	97.38
368.184	103.38
368.41	116.38
368.636	121.38
368.862	135.38
369.089	132.38
369.315	109.38
369.541	106.38
369.767	103.38
369.993	99.38
370.219	88.38
370.445	84.38
370.672	74.38
370.898	93.38
371.124	91.38
371.35	97.38
371.576	91.38
371.802	82.38
372.028	88.38
372.254	94.38
372.48	86.38
372.706	90.38
372.932	84.38
373.158	79.38
373.384	88.38
373.61	93.38
373.835	93.38
374.061	79.38
374.287	91.38
374.513	89.38
374.739	86.38
374.965	83.38
375.191	86.38
375.416	93.38
375.642	94.38
375.868	90.38
376.094	89.38
376.319	94.38
376.545	82.38
376.771	88.38
376.997	88.38
377.222	93.38
377.448	84.38
377.674	93.38
377.899	75.38
378.125	86.38
378.35	101.38
378.576	81.38
378.802	90.38
379.027	91.38
379.253	111.38
379.478	111.38
379.704	86.38
379.929	100.38
380.155	79.38
380.38	103.38
380.606	103.38
380.831	88.38
381.057	93.38
381.282	85.38
381.507	92.38
381.733	87.38
381.958	78.38
382.184	97.38
382.409	93.38
382.634	94.38
382.86	90.38
383.085	102.38
383.31	100.38
383.535	100.38
383.761	97.38
383.986	94.38
384.211	93.38
384.436	103.38
384.662	95.38
384.887	92.38
385.112	104.38
385.337	88.38
385.562	97.38
385.787	109.38
386.013	113.38
386.238	113.38
386.463	94.38
386.688	101.38
386.913	107.38
387.138	103.38
387.363	108.38
387.588	105.38
387.813	94.38
388.038	95.38
388.263	115.38
388.488	102.38
388.713	77.38
388.938	105.38
389.163	100.38
389.387	103.38
389.612	97.38
389.837	81.38
390.062	106.38
390.287	79.38
390.512	86.38
390.736	88.38
390.961	86.38
391.186	89.38
391.411	110.38
391.636	106.38
391.86	87.38
392.085	85.38
392.31	76.38
392.534	92.38
392.759	94.38
392.984	88.38
393.208	93.38
393.433	88.38
393.658	93.38
393.882	79.38
394.107	81.38
394.331	88.38
394.556	93.38
394.78	102.38
395.005	85.38
395.229	98.38
395.454	91.38
395.678	86.38
395.903	86.38
396.127	93.38
396.352	82.38
396.576	81.38
396.801	88.38
397.025	91.38
397.249	87.38
397.474	98.38
397.698	100.38
397.922	80.38
398.147	94.38
398.371	83.38
398.595	80.38
398.82	93.38
399.044	76.38
399.268	97.38
399.492	83.38
399.717	80.38
399.941	89.38
400.165	85.38
400.389	91.38
400.613	98.38
400.837	96.38
401.062	95.38
401.286	103.38
401.51	91.38
401.734	92.38
401.958	104.38
402.182	153.38
402.406	194.38
402.63	143.38
402.854	99.38
403.078	99.38
403.302	85.38
403.526	91.38
403.75	98.38
403.974	86.38
404.198	91.38
404.422	100.38
404.645	91.38
404.869	103.38
405.093	116.38
405.317	115.38
405.541	119.38
405.765	106.38
405.988	129.38
406.212	197.38
406.436	306.38
406.66	203.38
406.883	118.38
407.107	105.38
407.331	110.38
407.555	119.38
407.778	95.38
408.002	95.38
408.226	91.38
408.449	105.38
408.673	85.38
408.896	93.38
409.12	84.38
409.344	87.38
409.567	93.38
409.791	100.38
410.014	92.38
410.238	104.38
410.461	90.38
410.685	89.38
410.908	85.38
411.132	107.38
411.355	99.38
411.578	90.38
411.802	103.38
412.025	92.38
412.249	96.38
412.472	94.38
412.695	108.38
412.919	92.38
413.142	96.38
413.365	89.38
413.589	88.38
413.812	77.38
414.035	86.38
414.258	84.38
414.482	93.38
414.705	79.38
414.928	93.38
415.151	92.38
415.374	91.38
415.597	79.38
415.821	86.38
416.044	84.38
416.267	88.38
416.49	94.38
416.713	88.38
416.936	90.38
417.159	95.38
417.382	92.38
417.605	88.38
417.828	104.38
418.051	90.38
418.274	88.38
418.497	74.38
418.72	85.38
418.943	94.38
419.166	98.38
419.389	84.38
419.611	93.38
419.834	91.38
420.057	70.38
420.28	76.38
420.503	90.38
420.726	95.38
420.948	89.38
421.171	100.38
421.394	90.38
421.617	76.38
421.839	89.38
422.062	85.38
422.285	91.38
422.507	96.38
422.73	97.38
422.953	95.38
423.175	89.38
423.398	87.38
423.621	93.38
423.843	89.38
424.066	72.38
424.288	78.38
424.511	106.38
424.733	111.38
424.956	109.38
425.178	101.38
425.401	92.38
425.623	97.38
425.846	102.38
426.068	103.38
426.291	109.38
426.513	102.38
426.735	105.38
426.958	86.38
427.18	109.38
427.402	159.38
427.625	209.38
427.847	191.38
428.069	149.38
428.292	114.38
428.514	87.38
428.736	100.38
428.958	88.38
429.181	106.38
429.403	87.38
429.625	90.38
429.847	86.38
430.069	103.38
430.292	90.38
430.514	66.38
430.736	95.38
430.958	89.38
431.18	84.38
431.402	88.38
431.624	84.38
431.846	89.38
432.068	79.38
432.29	76.38
432.512	84.38
432.734	92.38
432.956	96.38
433.178	98.38
433.4	87.38
433.622	77.38
433.844	87.38
434.066	85.38
434.287	97.38
434.509	94.38
434.731	100.38
434.953	87.38
435.175	78.38
435.397	86.38
435.618	102.38
435.84	99.38
436.062	121.38
436.284	124.38
436.505	93.38
436.727	91.38
436.949	89.38
437.17	82.38
437.392	85.38
437.614	100.38
437.835	99.38
438.057	142.38
438.278	118.38
438.5	110.38
438.721	111.38
438.943	104.38
439.165	87.38
439.386	87.38
439.608	103.38
439.829	94.38
440.05	135.38
440.272	156.38
440.493	115.38
440.715	90.38
440.936	106.38
441.158	85.38
441.379	105.38
441.6	107.38
441.822	104.38
442.043	96.38
442.264	110.38
442.486	121.38
442.707	85.38
442.928	105.38
443.149	163.38
443.371	158.38
443.592	129.38
443.813	136.38
444.034	111.38
444.255	104.38
444.476	81.38
444.698	80.38
444.919	89.38
445.14	138.38
445.361	127.38
445.582	117.38
445.803	166.38
446.024	158.38
446.245	134.38
446.466	121.38
446.687	85.38
446.908	91.38
447.129	72.38
447.35	79.38
447.571	93.38
447.792	90.38
448.013	97.38
448.234	118.38
448.455	118.38
448.675	110.38
448.896	116.38
449.117	97.38
449.338	111.38
449.559	141.38
449.779	122.38
450	110.38
450.221	98.38
450.442	103.38
450.662	97.38
450.883	109.38
451.104	120.38
451.324	115.38
451.545	90.38
451.766	93.38
451.986	95.38
452.207	96.38
452.428	97.38
452.648	101.38
452.869	128.38
453.089	121.38
453.31	109.38
453.53	89.38
453.751	95.38
453.971	100.38
454.192	132.38
454.412	102.38
454.633	78.38
454.853	91.38
455.073	82.38
455.294	76.38
455.514	106.38
455.734	75.38
455.955	86.38
456.175	87.38
456.395	80.38
456.616	78.38
456.836	86.38
457.056	87.38
457.276	88.38
457.497	98.38
457.717	98.38
457.937	93.38
458.157	85.38
458.377	93.38
458.598	118.38
458.818	181.38
459.038	201.38
459.258	136.38
459.478	98.38
459.698	92.38
459.918	82.38
460.138	92.38
460.358	91.38
460.578	98.38
460.798	102.38
461.018	91.38
461.238	90.38
461.458	84.38
461.678	105.38
461.898	90.38
462.118	79.38
462.338	84.38
462.558	80.38
462.777	78.38
462.997	97.38
463.217	100.38
463.437	79.38
463.657	79.38
463.876	84.38
464.096	86.38
464.316	86.38
464.536	105.38
464.755	96.38
464.975	123.38
465.195	204.38
465.414	218.38
465.634	100.38
465.854	92.38
466.073	94.38
466.293	85.38
466.512	84.38
466.732	79.38
466.951	107.38
467.171	80.38
467.391	103.38
467.61	116.38
467.829	138.38
468.049	256.38
468.268	385.38
468.488	146.38
468.707	95.38
468.927	86.38
469.146	81.38
469.365	93.38
469.585	84.38
469.804	105.38
470.023	101.38
470.243	93.38
470.462	100.38
470.681	154.38
470.901	117.38
471.12	93.38
471.339	100.38
471.558	94.38
471.777	117.38
471.997	161.38
472.216	477.38
472.435	1060.38
472.654	305.38
472.873	115.38
473.092	87.38
473.311	88.38
473.53	94.38
473.749	100.38
473.968	82.38
474.187	102.38
474.406	111.38
474.625	98.38
474.844	83.38
475.063	96.38
475.282	93.38
475.501	88.38
475.72	91.38
475.939	80.38
476.158	81.38
476.377	81.38
476.596	85.38
476.814	101.38
477.033	94.38
477.252	87.38
477.471	89.38
477.69	93.38
477.908	83.38
478.127	92.38
478.346	82.38
478.564	86.38
478.783	101.38
479.002	95.38
479.22	89.38
479.439	116.38
479.658	130.38
479.876	101.38
480.095	114.38
480.313	100.38
480.532	105.38
480.751	165.38
480.969	424.38
481.188	1721.38
481.406	1141.38
481.624	209.38
481.843	103.38
482.061	95.38
482.28	94.38
482.498	98.38
482.717	93.38
482.935	107.38
483.153	81.38
483.372	90.38
483.59	97.38
483.808	87.38
484.027	104.38
484.245	79.38
484.463	102.38
484.681	96.38
484.9	97.38
485.118	84.38
485.336	84.38
485.554	98.38
485.772	98.38
485.99	103.38
486.209	96.38
486.427	91.38
486.645	88.38
486.863	115.38
487.081	90.38
487.299	92.38
487.517	91.38
487.735	97.38
487.953	94.38
488.171	90.38
488.389	99.38
488.607	90.38
488.825	81.38
489.043	92.38
489.261	94.38
489.479	93.38
489.696	98.38
489.914	100.38
490.132	81.38
490.35	94.38
490.568	91.38
490.786	86.38
491.003	91.38
491.221	88.38
491.439	90.38
491.657	85.38
491.874	99.38
492.092	83.38
492.31	85.38
492.527	99.38
492.745	88.38
492.963	72.38
493.18	93.38
493.398	67.38
493.615	98.38
493.833	91.38
494.05	81.38
494.268	88.38
494.485	98.38
494.703	85.38
494.92	79.38
495.138	87.38
495.355	100.38
495.573	97.38
495.79	94.38
496.008	87.38
496.225	89.38
496.442	85.38
496.66	86.38
496.877	83.38
497.094	83.38
497.312	90.38
497.529	86.38
497.746	101.38
497.963	87.38
498.181	97.38
498.398	88.38
498.615	106.38
498.832	101.38
499.049	84.38
499.267	92.38
499.484	84.38
499.701	88.38
499.918	63.38
500.135	90.38
500.352	83.38
500.569	90.38
500.786	95.38
501.003	101.38
501.22	81.38
501.437	78.38
501.654	86.38
501.871	109.38
502.088	97.38
502.305	86.38
502.522	87.38
502.739	84.38
502.956	78.38
503.172	100.38
503.389	115.38
503.606	129.38
503.823	117.38
504.04	96.38
504.256	87.38
504.473	74.38
504.69	98.38
504.907	103.38
505.123	74.38
505.34	76.38
505.557	87.38
505.773	90.38
505.99	97.38
506.207	90.38
506.423	77.38
506.64	85.38
506.856	91.38
507.073	96.38
507.289	94.38
507.506	107.38
507.722	111.38
507.939	122.38
508.155	98.38
508.372	90.38
508.588	94.38
508.805	91.38
509.021	115.38
509.238	76.38
509.454	108.38
509.67	100.38
509.887	115.38
510.103	149.38
510.319	236.38
510.536	878.38
510.752	2957.38
510.968	873.38
511.184	192.38
511.401	141.38
511.617	104.38
511.833	102.38
512.049	86.38
512.265	103.38
512.481	83.38
512.698	92.38
512.914	95.38
513.13	90.38
513.346	94.38
513.562	85.38
513.778	97.38
513.994	107.38
514.21	100.38
514.426	137.38
