Data from Circ_2013_H10_HRD10591_00058.txt Node
Date: Wed Jan 03 10:04:11 EST 2024
User: Yrep
Spectrometer: HR+D1059
Trigger mode: 1
Integration Time (sec): 1.000000E-1
Scans to average: 1
Electric dark correction enabled: true
Nonlinearity correction enabled: false
Boxcar width: 0
XAxis mode: Wavelengths
Number of Pixels in Spectrum: 2048
>>>>>Begin Spectral Data<<<<<
223.165	-2
223.4	-2
223.635	-2
223.869	-23
224.104	-29
224.338	-10
224.573	-8
224.808	-20
225.042	-4
225.277	-1
225.511	-4
225.746	-4
225.98	4
226.215	20
226.449	25
226.683	9
226.918	13
227.152	34
227.387	30
227.621	50
227.856	52
228.09	45
228.324	53
228.559	60
228.793	74
229.027	78
229.262	74
229.496	75
229.73	76
229.964	81
230.199	80
230.433	75
230.667	87
230.901	68
231.136	77
231.37	72
231.604	81
231.838	84
232.072	80
232.306	78
232.541	78
232.775	87
233.009	82
233.243	89
233.477	85
233.711	87
233.945	75
234.179	81
234.413	80
234.647	75
234.881	82
235.115	85
235.349	81
235.583	78
235.817	62
236.051	75
236.285	76
236.519	83
236.753	79
236.987	87
237.221	76
237.455	88
237.689	91
237.922	77
238.156	78
238.39	84
238.624	81
238.858	82
239.091	73
239.325	80
239.559	78
239.793	72
240.027	76
240.26	77
240.494	75
240.728	66
240.961	84
241.195	88
241.429	74
241.662	84
241.896	86
242.13	82
242.363	80
242.597	78
242.83	88
243.064	86
243.298	81
243.531	90
243.765	71
243.998	71
244.232	86
244.465	93
244.699	73
244.932	69
245.166	73
245.399	65
245.633	64
245.866	91
246.099	77
246.333	74
246.566	79
246.8	77
247.033	80
247.266	75
247.5	85
247.733	93
247.966	79
248.2	73
248.433	75
248.666	82
248.899	97
249.133	91
249.366	105
249.599	91
249.832	81
250.066	81
250.299	87
250.532	84
250.765	77
250.998	78
251.231	84
251.465	73
251.698	88
251.931	82
252.164	77
252.397	67
252.63	77
252.863	73
253.096	80
253.329	82
253.562	80
253.795	81
254.028	72
254.261	75
254.494	76
254.727	68
254.96	86
255.193	81
255.426	83
255.659	89
255.892	95
256.124	89
256.357	86
256.59	78
256.823	87
257.056	87
257.289	86
257.521	86
257.754	83
257.987	82
258.22	78
258.452	94
258.685	96
258.918	82
259.151	86
259.383	76
259.616	90
259.849	87
260.081	87
260.314	91
260.547	85
260.779	94
261.012	106
261.244	110
261.477	90
261.71	106
261.942	124
262.175	130
262.407	94
262.64	83
262.872	76
263.105	81
263.337	73
263.57	85
263.802	84
264.035	84
264.267	93
264.499	52
264.732	71
264.964	83
265.197	81
265.429	83
265.661	94
265.894	88
266.126	83
266.358	83
266.591	80
266.823	78
267.055	90
267.287	77
267.52	91
267.752	89
267.984	75
268.216	83
268.448	69
268.681	81
268.913	90
269.145	79
269.377	94
269.609	74
269.841	87
270.073	88
270.306	82
270.538	82
270.77	93
271.002	98
271.234	94
271.466	91
271.698	101
271.93	72
272.162	74
272.394	85
272.626	90
272.858	76
273.09	72
273.322	78
273.553	97
273.785	76
274.017	85
274.249	94
274.481	87
274.713	70
274.945	97
275.176	78
275.408	99
275.64	92
275.872	118
276.104	94
276.335	98
276.567	113
276.799	133
277.031	160
277.262	180
277.494	137
277.726	100
277.957	80
278.189	81
278.421	92
278.652	80
278.884	72
279.115	91
279.347	95
279.579	98
279.81	126
280.042	163
280.273	206
280.505	145
280.736	107
280.968	92
281.199	80
281.431	90
281.662	104
281.894	96
282.125	89
282.356	142
282.588	183
282.819	137
283.051	88
283.282	81
283.513	97
283.745	91
283.976	80
284.207	84
284.439	83
284.67	84
284.901	77
285.132	78
285.364	84
285.595	97
285.826	83
286.057	97
286.288	86
286.52	87
286.751	85
286.982	82
287.213	84
287.444	94
287.675	70
287.906	84
288.138	90
288.369	91
288.6	89
288.831	74
289.062	92
289.293	84
289.524	88
289.755	87
289.986	76
290.217	61
290.448	70
290.679	93
290.91	84
291.141	90
291.371	84
291.602	97
291.833	85
292.064	79
292.295	74
292.526	89
292.757	93
292.987	95
293.218	73
293.449	77
293.68	99
293.91	70
294.141	93
294.372	89
294.603	89
294.833	99
295.064	101
295.295	84
295.525	76
295.756	102
295.987	104
296.217	150
296.448	144
296.679	88
296.909	97
297.14	92
297.37	92
297.601	91
297.831	98
298.062	97
298.292	98
298.523	102
298.753	100
298.984	81
299.214	96
299.445	81
299.675	88
299.905	98
300.136	71
300.366	85
300.597	86
300.827	99
301.057	101
301.288	126
301.518	99
301.748	82
301.979	105
302.209	102
302.439	91
302.669	98
302.9	85
303.13	111
303.36	107
303.59	124
303.82	120
304.051	89
304.281	95
304.511	98
304.741	75
304.971	89
305.201	96
305.431	86
305.661	94
305.891	93
306.121	100
306.352	122
306.582	127
306.812	121
307.042	89
307.272	128
307.502	155
307.731	143
307.961	103
308.191	89
308.421	84
308.651	96
308.881	91
309.111	97
309.341	92
309.571	110
309.8	96
310.03	105
310.26	116
310.49	106
310.72	103
310.949	110
311.179	112
311.409	100
311.639	109
311.868	86
312.098	113
312.328	107
312.557	106
312.787	122
313.017	100
313.246	93
313.476	91
313.706	112
313.935	95
314.165	114
314.394	111
314.624	99
314.853	101
315.083	101
315.312	86
315.542	73
315.771	96
316.001	91
316.23	107
316.46	99
316.689	93
316.919	91
317.148	105
317.377	82
317.607	99
317.836	96
318.065	75
318.295	89
318.524	97
318.753	78
318.983	100
319.212	114
319.441	106
319.67	121
319.9	105
320.129	90
320.358	98
320.587	96
320.816	101
321.046	105
321.275	87
321.504	100
321.733	101
321.962	102
322.191	114
322.42	120
322.649	112
322.878	126
323.108	148
323.337	134
323.566	157
323.795	161
324.024	239
324.253	481
324.482	1060
324.71	2164
324.939	2846
325.168	1036
325.397	283
325.626	155
325.855	151
326.084	154
326.313	157
326.542	187
326.77	247
326.999	532
327.228	1158
327.457	2036
327.686	1631
327.914	536
328.143	452
328.372	526
328.6	331
328.829	182
329.058	178
329.287	185
329.515	165
329.744	207
329.972	392
330.201	731
330.43	1082
330.658	537
330.887	267
331.115	192
331.344	123
331.572	118
331.801	134
332.03	131
332.258	127
332.486	107
332.715	117
332.943	102
333.172	116
333.4	132
333.629	137
333.857	205
334.085	368
334.314	672
334.542	1311
334.771	1251
334.999	351
335.227	154
335.455	114
335.684	104
335.912	114
336.14	101
336.369	116
336.597	114
336.825	96
337.053	109
337.281	95
337.51	86
337.738	98
337.966	110
338.194	112
338.422	114
338.65	91
338.878	97
339.106	85
339.334	90
339.562	92
339.79	84
340.018	109
340.246	86
340.474	101
340.702	89
340.93	91
341.158	85
341.386	114
341.614	94
341.842	94
342.07	100
342.298	97
342.526	89
342.754	76
342.981	94
343.209	87
343.437	92
343.665	71
343.893	99
344.12	76
344.348	89
344.576	92
344.804	92
345.031	96
345.259	113
345.487	93
345.714	100
345.942	96
346.17	91
346.397	84
346.625	80
346.853	94
347.08	94
347.308	93
347.535	107
347.763	116
347.99	100
348.218	123
348.445	125
348.673	102
348.9	109
349.128	79
349.355	96
349.583	107
349.81	106
350.037	107
350.265	88
350.492	86
350.72	90
350.947	103
351.174	103
351.402	117
351.629	109
351.856	109
352.083	109
352.311	126
352.538	121
352.765	121
352.992	119
353.22	125
353.447	111
353.674	105
353.901	97
354.128	88
354.355	92
354.583	96
354.81	84
355.037	96
355.264	98
355.491	104
355.718	83
355.945	96
356.172	100
356.399	87
356.626	86
356.853	101
357.08	101
357.307	74
357.534	99
357.761	89
357.988	100
358.215	97
358.441	92
358.668	93
358.895	84
359.122	101
359.349	104
359.576	86
359.802	121
360.029	143
360.256	128
360.483	105
360.709	100
360.936	93
361.163	95
361.39	100
361.616	97
361.843	93
362.07	109
362.296	95
362.523	97
362.749	92
362.976	94
363.203	99
363.429	93
363.656	99
363.882	92
364.109	89
364.335	102
364.562	99
364.788	112
365.015	102
365.241	89
365.468	119
365.694	126
365.92	102
366.147	85
366.373	86
366.599	95
366.826	68
367.052	90
367.278	90
367.505	101
367.731	97
367.957	98
368.184	86
368.41	96
368.636	121
368.862	140
369.089	123
369.315	91
369.541	91
369.767	97
369.993	78
370.219	88
370.445	85
370.672	86
370.898	90
371.124	89
371.35	106
371.576	87
371.802	94
372.028	77
372.254	97
372.48	88
372.706	68
372.932	82
373.158	95
373.384	91
373.61	89
373.835	89
374.061	85
374.287	98
374.513	99
374.739	89
374.965	98
375.191	83
375.416	93
375.642	86
375.868	82
376.094	96
376.319	78
376.545	92
376.771	85
376.997	94
377.222	86
377.448	78
377.674	100
377.899	88
378.125	89
378.35	82
378.576	100
378.802	86
379.027	86
379.253	90
379.478	88
379.704	87
379.929	92
380.155	80
380.38	92
380.606	96
380.831	81
381.057	105
381.282	103
381.507	82
381.733	109
381.958	105
382.184	99
382.409	91
382.634	88
382.86	84
383.085	98
383.31	96
383.535	97
383.761	102
383.986	97
384.211	95
384.436	89
384.662	99
384.887	95
385.112	79
385.337	96
385.562	83
385.787	94
386.013	102
386.238	112
386.463	104
386.688	111
386.913	109
387.138	86
387.363	93
387.588	87
387.813	98
388.038	96
388.263	87
388.488	96
388.713	83
388.938	88
389.163	97
389.387	91
389.612	86
389.837	99
390.062	102
390.287	89
390.512	82
390.736	86
390.961	84
391.186	89
391.411	103
391.636	98
391.86	101
392.085	92
392.31	89
392.534	93
392.759	86
392.984	81
393.208	74
393.433	94
393.658	104
393.882	83
394.107	91
394.331	112
394.556	94
394.78	93
395.005	71
395.229	92
395.454	70
395.678	94
395.903	82
396.127	95
396.352	91
396.576	88
396.801	96
397.025	81
397.249	87
397.474	82
397.698	97
397.922	92
398.147	101
398.371	90
398.595	92
398.82	87
399.044	89
399.268	85
399.492	93
399.717	72
399.941	93
400.165	95
400.389	86
400.613	82
400.837	87
401.062	89
401.286	78
401.51	102
401.734	96
401.958	116
402.182	144
402.406	192
402.63	158
402.854	102
403.078	76
403.302	90
403.526	103
403.75	96
403.974	86
404.198	78
404.422	93
404.645	94
404.869	96
405.093	113
405.317	123
405.541	135
405.765	113
405.988	134
406.212	208
406.436	295
406.66	203
406.883	114
407.107	98
407.331	94
407.555	112
407.778	96
408.002	96
408.226	95
408.449	93
408.673	97
408.896	96
409.12	90
409.344	89
409.567	75
409.791	85
410.014	100
410.238	103
410.461	97
410.685	92
410.908	96
411.132	107
411.355	103
411.578	89
411.802	94
412.025	84
412.249	111
412.472	109
412.695	121
412.919	99
413.142	96
413.365	97
413.589	103
413.812	88
414.035	82
414.258	77
414.482	92
414.705	79
414.928	86
415.151	97
415.374	96
415.597	83
415.821	79
416.044	92
416.267	97
416.49	92
416.713	92
416.936	80
417.159	90
417.382	92
417.605	95
417.828	98
418.051	118
418.274	88
418.497	104
418.72	83
418.943	72
419.166	70
419.389	101
419.611	92
419.834	80
420.057	81
420.28	89
420.503	82
420.726	88
420.948	99
421.171	100
421.394	96
421.617	104
421.839	92
422.062	72
422.285	93
422.507	105
422.73	108
422.953	97
423.175	103
423.398	89
423.621	97
423.843	80
424.066	93
424.288	94
424.511	83
424.733	96
424.956	113
425.178	114
425.401	104
425.623	96
425.846	92
426.068	90
426.291	103
426.513	94
426.735	95
426.958	108
427.18	112
427.402	182
427.625	248
427.847	244
428.069	205
428.292	112
428.514	88
428.736	90
428.958	89
429.181	87
429.403	94
429.625	79
429.847	94
430.069	122
430.292	119
430.514	96
430.736	86
430.958	89
431.18	86
431.402	70
431.624	90
431.846	94
432.068	83
432.29	103
432.512	89
432.734	87
432.956	94
433.178	94
433.4	97
433.622	87
433.844	92
434.066	95
434.287	88
434.509	86
434.731	83
434.953	80
435.175	94
435.397	93
435.618	96
435.84	108
436.062	129
436.284	141
436.505	104
436.727	116
436.949	98
437.17	80
437.392	105
437.614	104
437.835	125
438.057	155
438.278	126
438.5	118
438.721	138
438.943	90
439.165	83
439.386	96
439.608	100
439.829	111
440.05	141
440.272	188
440.493	116
440.715	99
440.936	73
441.158	91
441.379	82
441.6	101
441.822	107
442.043	104
442.264	108
442.486	105
442.707	101
442.928	122
443.149	193
443.371	185
443.592	132
443.813	115
444.034	131
444.255	104
444.476	88
444.698	87
444.919	88
445.14	130
445.361	135
445.582	138
445.803	184
446.024	181
446.245	152
446.466	114
446.687	93
446.908	101
447.129	90
447.35	86
447.571	97
447.792	98
448.013	109
448.234	107
448.455	108
448.675	124
448.896	117
449.117	109
449.338	102
449.559	160
449.779	159
450	96
450.221	93
450.442	83
450.662	97
450.883	132
451.104	132
451.324	121
451.545	92
451.766	91
451.986	76
452.207	92
452.428	92
452.648	98
452.869	129
453.089	121
453.31	140
453.53	98
453.751	97
453.971	119
454.192	136
454.412	100
454.633	101
454.853	84
455.073	88
455.294	71
455.514	98
455.734	94
455.955	90
456.175	91
456.395	92
456.616	85
456.836	92
457.056	75
457.276	91
457.497	82
457.717	90
457.937	88
458.157	94
458.377	95
458.598	119
458.818	198
459.038	238
459.258	159
459.478	102
459.698	85
459.918	89
460.138	89
460.358	97
460.578	93
460.798	106
461.018	89
461.238	84
461.458	89
461.678	78
461.898	84
462.118	84
462.338	83
462.558	88
462.777	92
462.997	94
463.217	96
463.437	90
463.657	102
463.876	93
464.096	93
464.316	97
464.536	105
464.755	104
464.975	131
465.195	230
465.414	234
465.634	108
465.854	90
466.073	88
466.293	95
466.512	96
466.732	91
466.951	88
467.171	103
467.391	114
467.61	124
467.829	176
468.049	416
468.268	617
468.488	171
468.707	105
468.927	93
469.146	94
469.365	95
469.585	91
469.804	104
470.023	103
470.243	97
470.462	116
470.681	154
470.901	98
471.12	101
471.339	92
471.558	113
471.777	130
471.997	233
472.216	807
472.435	1762
472.654	450
472.873	142
473.092	98
473.311	92
473.53	101
473.749	92
473.968	98
474.187	122
474.406	113
474.625	84
474.844	98
475.063	81
475.282	93
475.501	73
475.72	82
475.939	88
476.158	77
476.377	100
476.596	92
476.814	103
477.033	86
477.252	94
477.471	89
477.69	98
477.908	89
478.127	93
478.346	98
478.564	114
478.783	122
479.002	97
479.22	102
479.439	124
479.658	116
479.876	108
480.095	118
480.313	124
480.532	160
480.751	230
480.969	722
481.188	2962
481.406	1882
481.624	304
481.843	122
482.061	104
482.28	98
482.498	86
482.717	101
482.935	76
483.153	93
483.372	82
483.59	83
483.808	90
484.027	103
484.245	91
484.463	93
484.681	103
484.9	81
485.118	90
485.336	87
485.554	118
485.772	96
485.99	102
486.209	97
486.427	107
486.645	113
486.863	113
487.081	109
487.299	87
487.517	92
487.735	83
487.953	78
488.171	83
488.389	90
488.607	96
488.825	109
489.043	112
489.261	102
489.479	108
489.696	97
489.914	91
490.132	102
490.35	87
490.568	88
490.786	82
491.003	86
491.221	98
491.439	96
491.657	88
491.874	88
492.092	91
492.31	92
492.527	88
492.745	96
492.963	97
493.18	85
493.398	82
493.615	87
493.833	87
494.05	82
494.268	85
494.485	91
494.703	82
494.92	90
495.138	81
495.355	87
495.573	96
495.79	92
496.008	82
496.225	86
496.442	76
496.66	94
496.877	99
497.094	75
497.312	99
497.529	96
497.746	81
497.963	86
498.181	89
498.398	86
498.615	102
498.832	112
499.049	90
499.267	85
499.484	93
499.701	100
499.918	91
500.135	93
500.352	113
500.569	109
500.786	100
501.003	95
501.22	89
501.437	91
501.654	92
501.871	129
502.088	95
502.305	91
502.522	87
502.739	81
502.956	96
503.172	91
503.389	96
503.606	108
503.823	110
504.04	89
504.256	104
504.473	103
504.69	90
504.907	92
505.123	78
505.34	93
505.557	86
505.773	92
505.99	90
506.207	107
506.423	105
506.64	83
506.856	98
507.073	89
507.289	89
507.506	102
507.722	116
507.939	128
508.155	108
508.372	98
508.588	107
508.805	104
509.021	99
509.238	97
509.454	106
509.67	90
509.887	98
510.103	135
510.319	243
510.536	908
510.752	3218
510.968	914
511.184	190
511.401	121
511.617	117
511.833	101
512.049	99
512.265	92
512.481	95
512.698	86
512.914	96
513.13	98
513.346	93
513.562	103
513.778	92
513.994	106
514.21	108
514.426	130
514.642	169
514.858	156
515.074	224
515.29	696
515.506	2553
515.721	941
515.937	203
516.153	125
516.369	101
516.585	83
516.801	93
517.016	97
517.232	97
517.448	87
517.664	94
517.879	89
518.095	98
518.311	96
518.527	118
518.742	85
518.958	81
519.173	103
519.389	99
519.605	93
519.82	106
520.036	122
520.251	150
520.467	151
520.682	115
520.898	129
521.113	136
521.329	168
521.544	291
521.76	904
521.975	4228
522.19	2592
522.406	506
522.621	162
522.836	127
523.052	112
523.267	100
523.482	108
523.698	109
523.913	146
524.128	105
524.343	108
524.559	100
524.774	97
524.989	85
525.204	127
525.419	106
525.634	94
525.849	108
526.064	108
526.28	88
526.495	82
526.71	92
526.925	100
527.14	86
527.355	85
527.57	100
527.785	96
527.999	84
528.214	92
528.429	94
528.644	97
528.859	88
529.074	105
529.289	144
529.503	263
529.718	136
529.933	96
530.148	88
530.363	88
530.577	79
530.792	94
531.007	93
531.221	96
531.436	95
531.651	81
531.865	90
532.08	99
532.295	87
532.509	84
532.724	85
532.938	84
533.153	112
533.367	108
533.582	92
533.796	93
534.011	86
534.225	108
534.44	84
534.654	83
534.868	101
535.083	99
535.297	110
535.511	114
535.726	127
535.94	104
536.154	88
536.369	86
536.583	84
536.797	76
537.011	94
537.225	90
537.44	87
537.654	95
537.868	89
538.082	99
538.296	89
538.51	97
538.724	96
538.938	87
539.153	93
539.367	137
539.581	82
539.795	90
540.009	97
540.222	67
540.436	100
540.65	92
540.864	90
541.078	98
541.292	92
541.506	84
541.72	94
541.934	105
542.147	97
542.361	94
542.575	73
542.789	87
543.002	100
543.216	104
543.43	112
543.644	98
543.857	100
544.071	71
544.285	100
544.498	101
544.712	93
544.925	103
545.139	88
545.352	84
545.566	84
545.779	93
545.993	88
546.206	88
546.42	81
546.633	102
546.847	97
547.06	104
547.274	79
547.487	77
547.7	93
547.914	67
548.127	91
548.34	94
548.554	85
548.767	74
548.98	82
549.193	85
549.407	91
549.62	81
549.833	84
550.046	88
550.259	78
550.473	92
550.686	73
550.899	86
551.112	97
551.325	90
551.538	87
551.751	89
551.964	102
552.177	99
552.39	84
552.603	81
552.816	72
553.029	70
553.242	92
553.455	103
553.667	112
553.88	126
554.093	93
554.306	115
554.519	111
554.732	96
554.944	89
555.157	89
555.37	103
555.583	90
555.795	101
556.008	92
556.221	91
556.433	88
556.646	86
556.859	90
557.071	86
557.284	97
557.496	83
557.709	92
557.921	91
558.134	94
558.346	93
558.559	87
558.771	76
558.984	108
559.196	89
559.409	84
559.621	102
559.833	84
560.046	92
560.258	101
560.47	109
560.683	96
560.895	93
561.107	82
561.32	92
561.532	96
561.744	86
561.956	99
562.168	116
562.381	84
562.593	83
562.805	82
563.017	88
563.229	81
563.441	89
563.653	90
563.865	90
564.077	85
564.289	96
564.501	87
564.713	83
564.925	103
565.137	108
565.349	98
565.561	90
565.773	88
565.985	82
566.197	81
566.408	96
566.62	82
566.832	87
567.044	74
567.255	85
567.467	83
567.679	77
567.891	86
568.102	82
568.314	95
568.526	84
568.737	96
568.949	96
569.161	81
569.372	92
569.584	85
569.795	98
570.007	122
570.218	283
570.43	156
570.641	105
570.853	76
571.064	78
571.276	82
571.487	83
571.698	97
571.91	86
572.121	97
572.333	96
572.544	87
572.755	81
572.966	98
573.178	89
573.389	92
573.6	100
573.811	94
574.023	84
574.234	99
574.445	96
574.656	95
574.867	63
575.078	91
575.289	88
575.501	88
575.712	97
575.923	92
576.134	98
576.345	88
576.556	93
576.767	85
576.978	86
577.188	99
577.399	91
577.61	93
577.821	90
578.032	117
578.243	301
578.454	995
578.665	265
578.875	104
579.086	89
579.297	92
579.508	94
579.718	98
579.929	91
580.14	83
580.35	82
580.561	79
580.772	99
580.982	73
581.193	88
581.403	109
581.614	87
581.825	71
