Data from Circ_2013_H10_HRD10591_00013.txt Node
Date: Wed Jan 03 10:04:02 EST 2024
User: Yrep
Spectrometer: HR+D1059
Trigger mode: 1
Integration Time (sec): 1.000000E-1
Scans to average: 1
Electric dark correction enabled: true
Nonlinearity correction enabled: false
Boxcar width: 0
XAxis mode: Wavelengths
Number of Pixels in Spectrum: 2048
>>>>>Begin Spectral Data<<<<<
223.165	-23.94
223.4	-23.94
223.635	-23.94
223.869	-25.94
224.104	-18.94
224.338	-2.94
224.573	-3.94
224.808	-11.94
225.042	-2.94
225.277	-18.94
225.511	-5.94
225.746	15.06
225.98	-2.94
226.215	-1.94
226.449	11.06
226.683	36.06
226.918	26.06
227.152	32.06
227.387	30.06
227.621	39.06
227.856	31.06
228.09	45.06
228.324	62.06
228.559	64.06
228.793	69.06
229.027	72.06
229.262	75.06
229.496	68.06
229.73	104.06
229.964	88.06
230.199	66.06
230.433	83.06
230.667	71.06
230.901	88.06
231.136	65.06
231.37	71.06
231.604	73.06
231.838	84.06
232.072	74.06
232.306	74.06
232.541	69.06
232.775	82.06
233.009	72.06
233.243	73.06
233.477	84.06
233.711	80.06
233.945	77.06
234.179	78.06
234.413	72.06
234.647	75.06
234.881	88.06
235.115	72.06
235.349	78.06
235.583	77.06
235.817	68.06
236.051	67.06
236.285	84.06
236.519	81.06
236.753	74.06
236.987	83.06
237.221	78.06
237.455	89.06
237.689	71.06
237.922	74.06
238.156	75.06
238.39	73.06
238.624	80.06
238.858	80.06
239.091	71.06
239.325	87.06
239.559	77.06
239.793	66.06
240.027	67.06
240.26	80.06
240.494	55.06
240.728	72.06
240.961	64.06
241.195	80.06
241.429	74.06
241.662	70.06
241.896	74.06
242.13	81.06
242.363	72.06
242.597	73.06
242.83	85.06
243.064	87.06
243.298	81.06
243.531	79.06
243.765	85.06
243.998	74.06
244.232	80.06
244.465	70.06
244.699	59.06
244.932	81.06
245.166	69.06
245.399	60.06
245.633	76.06
245.866	71.06
246.099	71.06
246.333	68.06
246.566	80.06
246.8	79.06
247.033	69.06
247.266	79.06
247.5	75.06
247.733	68.06
247.966	61.06
248.2	72.06
248.433	76.06
248.666	77.06
248.899	86.06
249.133	83.06
249.366	99.06
249.599	85.06
249.832	69.06
250.066	95.06
250.299	86.06
250.532	86.06
250.765	82.06
250.998	93.06
251.231	93.06
251.465	74.06
251.698	70.06
251.931	72.06
252.164	73.06
252.397	87.06
252.63	82.06
252.863	73.06
253.096	82.06
253.329	77.06
253.562	77.06
253.795	79.06
254.028	83.06
254.261	92.06
254.494	79.06
254.727	76.06
254.96	84.06
255.193	103.06
255.426	91.06
255.659	77.06
255.892	91.06
256.124	90.06
256.357	84.06
256.59	95.06
256.823	68.06
257.056	84.06
257.289	88.06
257.521	68.06
257.754	69.06
257.987	75.06
258.22	94.06
258.452	82.06
258.685	70.06
258.918	85.06
259.151	83.06
259.383	79.06
259.616	74.06
259.849	79.06
260.081	88.06
260.314	86.06
260.547	82.06
260.779	76.06
261.012	82.06
261.244	84.06
261.477	87.06
261.71	96.06
261.942	117.06
262.175	119.06
262.407	108.06
262.64	83.06
262.872	77.06
263.105	73.06
263.337	93.06
263.57	73.06
263.802	82.06
264.035	89.06
264.267	88.06
264.499	81.06
264.732	82.06
264.964	85.06
265.197	93.06
265.429	83.06
265.661	75.06
265.894	78.06
266.126	90.06
266.358	74.06
266.591	67.06
266.823	77.06
267.055	76.06
267.287	86.06
267.52	65.06
267.752	72.06
267.984	77.06
268.216	68.06
268.448	84.06
268.681	100.06
268.913	88.06
269.145	90.06
269.377	71.06
269.609	79.06
269.841	80.06
270.073	88.06
270.306	76.06
270.538	82.06
270.77	91.06
271.002	93.06
271.234	84.06
271.466	92.06
271.698	76.06
271.93	78.06
272.162	84.06
272.394	87.06
272.626	81.06
272.858	82.06
273.09	94.06
273.322	93.06
273.553	76.06
273.785	84.06
274.017	76.06
274.249	82.06
274.481	99.06
274.713	79.06
274.945	85.06
275.176	96.06
275.408	81.06
275.64	90.06
275.872	92.06
276.104	87.06
276.335	94.06
276.567	96.06
276.799	117.06
277.031	100.06
277.262	123.06
277.494	98.06
277.726	74.06
277.957	66.06
278.189	78.06
278.421	96.06
278.652	82.06
278.884	72.06
279.115	93.06
279.347	97.06
279.579	77.06
279.81	86.06
280.042	93.06
280.273	116.06
280.505	106.06
280.736	100.06
280.968	87.06
281.199	80.06
281.431	98.06
281.662	60.06
281.894	87.06
282.125	92.06
282.356	110.06
282.588	143.06
282.819	121.06
283.051	79.06
283.282	83.06
283.513	83.06
283.745	91.06
283.976	91.06
284.207	88.06
284.439	81.06
284.67	73.06
284.901	92.06
285.132	88.06
285.364	94.06
285.595	87.06
285.826	82.06
286.057	79.06
286.288	84.06
286.52	80.06
286.751	103.06
286.982	97.06
287.213	90.06
287.444	94.06
287.675	95.06
287.906	95.06
288.138	107.06
288.369	96.06
288.6	97.06
288.831	88.06
289.062	70.06
289.293	73.06
289.524	67.06
289.755	75.06
289.986	83.06
290.217	85.06
290.448	86.06
290.679	77.06
290.91	90.06
291.141	83.06
291.371	83.06
291.602	90.06
291.833	79.06
292.064	82.06
292.295	72.06
292.526	89.06
292.757	85.06
292.987	98.06
293.218	80.06
293.449	77.06
293.68	81.06
293.91	87.06
294.141	79.06
294.372	86.06
294.603	85.06
294.833	81.06
295.064	83.06
295.295	84.06
295.525	91.06
295.756	104.06
295.987	121.06
296.217	160.06
296.448	136.06
296.679	89.06
296.909	95.06
297.14	75.06
297.37	90.06
297.601	86.06
297.831	75.06
298.062	96.06
298.292	97.06
298.523	91.06
298.753	86.06
298.984	86.06
299.214	93.06
299.445	94.06
299.675	90.06
299.905	95.06
300.136	95.06
300.366	83.06
300.597	84.06
300.827	90.06
301.057	91.06
301.288	96.06
301.518	97.06
301.748	83.06
301.979	104.06
302.209	88.06
302.439	86.06
302.669	92.06
302.9	77.06
303.13	85.06
303.36	96.06
303.59	102.06
303.82	108.06
304.051	94.06
304.281	82.06
304.511	90.06
304.741	89.06
304.971	84.06
305.201	91.06
305.431	82.06
305.661	90.06
305.891	88.06
306.121	99.06
306.352	103.06
306.582	93.06
306.812	80.06
307.042	81.06
307.272	103.06
307.502	92.06
307.731	97.06
307.961	93.06
308.191	88.06
308.421	83.06
308.651	69.06
308.881	86.06
309.111	93.06
309.341	99.06
309.571	89.06
309.8	86.06
310.03	100.06
310.26	94.06
310.49	98.06
310.72	84.06
310.949	116.06
311.179	101.06
311.409	94.06
311.639	90.06
311.868	93.06
312.098	94.06
312.328	95.06
312.557	92.06
312.787	111.06
313.017	92.06
313.246	100.06
313.476	99.06
313.706	90.06
313.935	98.06
314.165	106.06
314.394	92.06
314.624	89.06
314.853	105.06
315.083	87.06
315.312	81.06
315.542	80.06
315.771	90.06
316.001	95.06
316.23	90.06
316.46	83.06
316.689	86.06
316.919	87.06
317.148	100.06
317.377	83.06
317.607	106.06
317.836	96.06
318.065	90.06
318.295	97.06
318.524	79.06
318.753	84.06
318.983	84.06
319.212	88.06
319.441	103.06
319.67	118.06
319.9	102.06
320.129	79.06
320.358	94.06
320.587	91.06
320.816	87.06
321.046	87.06
321.275	99.06
321.504	95.06
321.733	92.06
321.962	92.06
322.191	111.06
322.42	112.06
322.649	103.06
322.878	106.06
323.108	119.06
323.337	137.06
323.566	133.06
323.795	139.06
324.024	213.06
324.253	413.06
324.482	872.06
324.71	1792.06
324.939	2403.06
325.168	908.06
325.397	274.06
325.626	141.06
325.855	127.06
326.084	155.06
326.313	139.06
326.542	164.06
326.77	232.06
326.999	490.06
327.228	994.06
327.457	1820.06
327.686	1460.06
327.914	426.06
328.143	273.06
328.372	281.06
328.6	180.06
328.829	143.06
329.058	144.06
329.287	154.06
329.515	132.06
329.744	156.06
329.972	192.06
330.201	313.06
330.43	434.06
330.658	253.06
330.887	197.06
331.115	143.06
331.344	113.06
331.572	101.06
331.801	120.06
332.03	98.06
332.258	87.06
332.486	84.06
332.715	102.06
332.943	98.06
333.172	97.06
333.4	92.06
333.629	132.06
333.857	143.06
334.085	179.06
334.314	295.06
334.542	527.06
334.771	527.06
334.999	196.06
335.227	106.06
335.455	109.06
335.684	111.06
335.912	116.06
336.14	100.06
336.369	75.06
336.597	105.06
336.825	91.06
337.053	96.06
337.281	87.06
337.51	92.06
337.738	92.06
337.966	100.06
338.194	95.06
338.422	98.06
338.65	96.06
338.878	85.06
339.106	78.06
339.334	85.06
339.562	94.06
339.79	90.06
340.018	94.06
340.246	98.06
340.474	107.06
340.702	80.06
340.93	81.06
341.158	86.06
341.386	87.06
341.614	97.06
341.842	95.06
342.07	97.06
342.298	96.06
342.526	87.06
342.754	68.06
342.981	75.06
343.209	93.06
343.437	101.06
343.665	91.06
343.893	86.06
344.12	82.06
344.348	74.06
344.576	89.06
344.804	89.06
345.031	98.06
345.259	102.06
345.487	86.06
345.714	102.06
345.942	97.06
346.17	97.06
346.397	93.06
346.625	90.06
346.853	88.06
347.08	75.06
347.308	105.06
347.535	93.06
347.763	113.06
347.99	87.06
348.218	97.06
348.445	106.06
348.673	108.06
348.9	103.06
349.128	92.06
349.355	88.06
349.583	94.06
349.81	87.06
350.037	90.06
350.265	85.06
350.492	94.06
350.72	88.06
350.947	112.06
351.174	114.06
351.402	114.06
351.629	96.06
351.856	97.06
352.083	89.06
352.311	105.06
352.538	89.06
352.765	104.06
352.992	113.06
353.22	101.06
353.447	96.06
353.674	102.06
353.901	82.06
354.128	100.06
354.355	80.06
354.583	100.06
354.81	105.06
355.037	86.06
355.264	85.06
355.491	101.06
355.718	87.06
355.945	90.06
356.172	96.06
356.399	81.06
356.626	99.06
356.853	103.06
357.08	98.06
357.307	86.06
357.534	88.06
357.761	87.06
357.988	81.06
358.215	101.06
358.441	89.06
358.668	87.06
358.895	83.06
359.122	79.06
359.349	87.06
359.576	93.06
359.802	96.06
360.029	99.06
360.256	117.06
360.483	107.06
360.709	92.06
360.936	87.06
361.163	114.06
361.39	108.06
361.616	90.06
361.843	104.06
362.07	82.06
362.296	101.06
362.523	97.06
362.749	91.06
362.976	83.06
363.203	96.06
363.429	86.06
363.656	87.06
363.882	94.06
364.109	107.06
364.335	95.06
364.562	83.06
364.788	89.06
365.015	112.06
365.241	104.06
365.468	97.06
365.694	110.06
365.92	98.06
366.147	96.06
366.373	95.06
366.599	81.06
366.826	81.06
367.052	84.06
367.278	82.06
367.505	81.06
367.731	84.06
367.957	93.06
368.184	88.06
368.41	95.06
368.636	102.06
368.862	119.06
369.089	101.06
369.315	88.06
369.541	87.06
369.767	84.06
369.993	84.06
370.219	98.06
370.445	95.06
370.672	77.06
370.898	89.06
371.124	84.06
371.35	90.06
371.576	98.06
371.802	78.06
372.028	89.06
372.254	75.06
372.48	96.06
372.706	97.06
372.932	81.06
373.158	85.06
373.384	88.06
373.61	88.06
373.835	105.06
374.061	92.06
374.287	78.06
374.513	101.06
374.739	83.06
374.965	89.06
375.191	89.06
375.416	81.06
375.642	93.06
375.868	92.06
376.094	92.06
376.319	84.06
376.545	85.06
376.771	83.06
376.997	82.06
377.222	100.06
377.448	74.06
377.674	76.06
377.899	88.06
378.125	84.06
378.35	104.06
378.576	99.06
378.802	90.06
379.027	88.06
379.253	103.06
379.478	100.06
379.704	94.06
379.929	99.06
380.155	98.06
380.38	95.06
380.606	91.06
380.831	97.06
381.057	97.06
381.282	98.06
381.507	100.06
381.733	97.06
381.958	100.06
382.184	90.06
382.409	103.06
382.634	99.06
382.86	98.06
383.085	106.06
383.31	109.06
383.535	108.06
383.761	97.06
383.986	103.06
384.211	102.06
384.436	103.06
384.662	108.06
384.887	112.06
385.112	125.06
385.337	106.06
385.562	119.06
385.787	101.06
386.013	112.06
386.238	128.06
386.463	120.06
386.688	104.06
386.913	101.06
387.138	108.06
387.363	101.06
387.588	111.06
387.813	103.06
388.038	111.06
388.263	117.06
388.488	122.06
388.713	96.06
388.938	89.06
389.163	78.06
389.387	88.06
389.612	92.06
389.837	83.06
390.062	90.06
390.287	97.06
390.512	89.06
390.736	91.06
390.961	77.06
391.186	97.06
391.411	91.06
391.636	85.06
391.86	91.06
392.085	78.06
392.31	73.06
392.534	86.06
392.759	82.06
392.984	88.06
393.208	101.06
393.433	106.06
393.658	94.06
393.882	92.06
394.107	89.06
394.331	97.06
394.556	81.06
394.78	88.06
395.005	95.06
395.229	79.06
395.454	76.06
395.678	79.06
395.903	83.06
396.127	88.06
396.352	87.06
396.576	95.06
396.801	77.06
397.025	105.06
397.249	89.06
397.474	89.06
397.698	78.06
397.922	79.06
398.147	80.06
398.371	73.06
398.595	71.06
398.82	76.06
399.044	94.06
399.268	89.06
399.492	82.06
399.717	88.06
399.941	88.06
400.165	91.06
400.389	87.06
400.613	82.06
400.837	75.06
401.062	93.06
401.286	95.06
401.51	85.06
401.734	93.06
401.958	96.06
402.182	135.06
402.406	165.06
402.63	141.06
402.854	96.06
403.078	90.06
403.302	81.06
403.526	84.06
403.75	79.06
403.974	96.06
404.198	89.06
404.422	88.06
404.645	84.06
404.869	81.06
405.093	97.06
405.317	106.06
405.541	104.06
405.765	105.06
405.988	123.06
406.212	184.06
406.436	255.06
406.66	164.06
406.883	99.06
407.107	91.06
407.331	79.06
407.555	99.06
407.778	89.06
408.002	95.06
408.226	93.06
408.449	86.06
408.673	88.06
408.896	90.06
409.12	90.06
409.344	88.06
409.567	90.06
409.791	95.06
410.014	92.06
410.238	96.06
410.461	98.06
410.685	101.06
410.908	100.06
411.132	114.06
411.355	88.06
411.578	95.06
411.802	71.06
412.025	81.06
412.249	108.06
412.472	112.06
412.695	109.06
412.919	101.06
413.142	92.06
413.365	84.06
413.589	85.06
413.812	89.06
414.035	92.06
414.258	87.06
414.482	81.06
414.705	107.06
414.928	85.06
415.151	100.06
415.374	95.06
415.597	85.06
415.821	87.06
416.044	95.06
416.267	88.06
416.49	88.06
416.713	86.06
416.936	89.06
417.159	89.06
417.382	88.06
417.605	96.06
417.828	88.06
418.051	92.06
418.274	87.06
418.497	84.06
418.72	87.06
418.943	87.06
419.166	93.06
419.389	86.06
419.611	83.06
419.834	76.06
420.057	83.06
420.28	84.06
420.503	89.06
420.726	90.06
420.948	90.06
421.171	97.06
421.394	91.06
421.617	91.06
421.839	89.06
422.062	77.06
422.285	95.06
422.507	101.06
422.73	105.06
422.953	88.06
423.175	91.06
423.398	85.06
423.621	73.06
423.843	72.06
424.066	75.06
424.288	88.06
424.511	82.06
424.733	86.06
424.956	109.06
425.178	96.06
425.401	104.06
425.623	98.06
425.846	92.06
426.068	86.06
426.291	79.06
426.513	88.06
426.735	86.06
426.958	94.06
427.18	102.06
427.402	148.06
427.625	193.06
427.847	166.06
428.069	155.06
428.292	98.06
428.514	80.06
428.736	84.06
428.958	88.06
429.181	81.06
429.403	77.06
429.625	88.06
429.847	81.06
430.069	103.06
430.292	96.06
430.514	86.06
430.736	89.06
430.958	90.06
431.18	83.06
431.402	79.06
431.624	72.06
431.846	81.06
432.068	90.06
432.29	91.06
432.512	90.06
432.734	80.06
432.956	85.06
433.178	97.06
433.4	96.06
433.622	82.06
433.844	96.06
434.066	95.06
434.287	95.06
434.509	83.06
434.731	88.06
434.953	88.06
435.175	89.06
435.397	87.06
435.618	84.06
435.84	101.06
436.062	131.06
436.284	136.06
436.505	100.06
436.727	110.06
436.949	92.06
437.17	77.06
437.392	95.06
437.614	83.06
437.835	110.06
438.057	117.06
438.278	115.06
438.5	99.06
438.721	121.06
438.943	104.06
439.165	85.06
439.386	82.06
439.608	104.06
439.829	108.06
440.05	126.06
440.272	144.06
440.493	95.06
440.715	85.06
440.936	79.06
441.158	75.06
441.379	83.06
441.6	96.06
441.822	108.06
442.043	93.06
442.264	102.06
442.486	95.06
442.707	104.06
442.928	98.06
443.149	135.06
443.371	148.06
443.592	122.06
443.813	127.06
444.034	103.06
444.255	93.06
444.476	74.06
444.698	76.06
444.919	88.06
445.14	137.06
445.361	125.06
445.582	137.06
445.803	164.06
446.024	144.06
446.245	139.06
446.466	126.06
446.687	82.06
446.908	91.06
447.129	95.06
447.35	98.06
447.571	95.06
447.792	97.06
448.013	100.06
448.234	113.06
448.455	97.06
448.675	97.06
448.896	113.06
449.117	102.06
449.338	120.06
449.559	141.06
449.779	148.06
450	101.06
450.221	80.06
450.442	72.06
450.662	93.06
450.883	106.06
451.104	113.06
451.324	95.06
451.545	72.06
451.766	85.06
451.986	84.06
452.207	89.06
452.428	98.06
452.648	85.06
452.869	132.06
453.089	130.06
453.31	133.06
453.53	87.06
453.751	90.06
453.971	110.06
454.192	116.06
454.412	97.06
454.633	92.06
454.853	73.06
455.073	81.06
455.294	95.06
455.514	96.06
455.734	96.06
455.955	88.06
456.175	91.06
456.395	77.06
456.616	91.06
456.836	86.06
457.056	74.06
457.276	85.06
457.497	84.06
457.717	91.06
457.937	87.06
458.157	93.06
458.377	95.06
458.598	118.06
458.818	173.06
459.038	192.06
459.258	131.06
459.478	75.06
459.698	73.06
459.918	77.06
460.138	79.06
460.358	89.06
460.578	73.06
460.798	84.06
461.018	87.06
461.238	74.06
461.458	76.06
461.678	81.06
461.898	75.06
462.118	88.06
462.338	89.06
462.558	64.06
462.777	86.06
462.997	81.06
463.217	85.06
463.437	96.06
463.657	93.06
463.876	89.06
464.096	84.06
464.316	106.06
464.536	101.06
464.755	90.06
464.975	103.06
465.195	170.06
465.414	176.06
465.634	92.06
465.854	100.06
466.073	88.06
466.293	82.06
466.512	79.06
466.732	71.06
466.951	83.06
467.171	91.06
467.391	88.06
467.61	112.06
467.829	104.06
468.049	194.06
468.268	275.06
468.488	120.06
468.707	90.06
468.927	74.06
469.146	74.06
469.365	88.06
469.585	95.06
469.804	88.06
470.023	105.06
470.243	104.06
470.462	103.06
470.681	105.06
470.901	102.06
471.12	95.06
471.339	98.06
471.558	101.06
471.777	98.06
471.997	131.06
472.216	322.06
472.435	683.06
472.654	221.06
472.873	113.06
473.092	84.06
473.311	83.06
473.53	82.06
473.749	85.06
473.968	92.06
474.187	104.06
474.406	100.06
474.625	61.06
474.844	79.06
475.063	63.06
475.282	92.06
475.501	73.06
475.72	91.06
475.939	85.06
476.158	75.06
476.377	76.06
476.596	84.06
476.814	89.06
477.033	90.06
477.252	93.06
477.471	89.06
477.69	85.06
477.908	85.06
478.127	83.06
478.346	80.06
478.564	87.06
478.783	95.06
479.002	89.06
479.22	95.06
479.439	111.06
479.658	104.06
479.876	88.06
480.095	92.06
480.313	103.06
480.532	96.06
480.751	136.06
480.969	303.06
481.188	1112.06
481.406	748.06
481.624	160.06
481.843	96.06
482.061	90.06
482.28	87.06
482.498	77.06
482.717	80.06
482.935	83.06
483.153	89.06
483.372	89.06
483.59	98.06
483.808	87.06
484.027	83.06
484.245	72.06
484.463	89.06
484.681	99.06
484.9	86.06
485.118	86.06
485.336	80.06
485.554	93.06
485.772	104.06
485.99	106.06
486.209	99.06
486.427	93.06
486.645	92.06
486.863	113.06
487.081	81.06
487.299	83.06
487.517	88.06
487.735	95.06
487.953	84.06
488.171	87.06
488.389	100.06
488.607	103.06
488.825	99.06
489.043	94.06
489.261	88.06
489.479	85.06
489.696	100.06
489.914	90.06
490.132	89.06
490.35	94.06
490.568	94.06
490.786	93.06
491.003	77.06
491.221	84.06
491.439	88.06
491.657	85.06
491.874	85.06
492.092	80.06
492.31	77.06
492.527	87.06
492.745	90.06
492.963	96.06
493.18	77.06
493.398	96.06
493.615	103.06
493.833	94.06
494.05	85.06
494.268	98.06
494.485	77.06
494.703	89.06
494.92	74.06
495.138	96.06
495.355	98.06
495.573	96.06
495.79	92.06
496.008	87.06
496.225	94.06
496.442	95.06
496.66	97.06
496.877	99.06
497.094	90.06
497.312	85.06
497.529	92.06
497.746	100.06
497.963	78.06
498.181	92.06
498.398	93.06
498.615	109.06
498.832	109.06
499.049	98.06
499.267	82.06
499.484	80.06
499.701	87.06
499.918	96.06
500.135	93.06
500.352	89.06
500.569	89.06
500.786	98.06
501.003	86.06
501.22	87.06
501.437	97.06
501.654	102.06
501.871	96.06
502.088	84.06
502.305	101.06
502.522	74.06
502.739	68.06
502.956	83.06
503.172	91.06
503.389	97.06
503.606	118.06
503.823	113.06
504.04	88.06
504.256	85.06
504.473	92.06
504.69	87.06
504.907	90.06
505.123	86.06
505.34	76.06
505.557	65.06
505.773	96.06
505.99	89.06
506.207	73.06
506.423	95.06
506.64	80.06
506.856	81.06
507.073	85.06
507.289	92.06
507.506	101.06
507.722	112.06
507.939	119.06
508.155	100.06
508.372	85.06
508.588	84.06
508.805	92.06
509.021	80.06
509.238	108.06
509.454	98.06
509.67	99.06
509.887	111.06
510.103	105.06
510.319	194.06
510.536	766.06
510.752	2675.06
510.968	746.06
511.184	151.06
511.401	112.06
511.617	98.06
511.833	95.06
512.049	86.06
512.265	76.06
512.481	98.06
512.698	88.06
512.914	90.06
513.13	80.06
513.346	85.06
513.562	97.06
513.778	96.06
513.994	101.06
514.21	106.06
514.426	126.06
514.642	140.06
514.858	127.06
515.074	165.06
515.29	529.06
515.506	1894.06
