Data from Circ_2013_H10_HRD10591_00054.txt Node
Date: Wed Jan 03 10:04:11 EST 2024
User: Yrep
Spectrometer: HR+D1059
Trigger mode: 1
Integration Time (sec): 1.000000E-1
Scans to average: 1
Electric dark correction enabled: true
Nonlinearity correction enabled: false
Boxcar width: 0
XAxis mode: Wavelengths
Number of Pixels in Spectrum: 2048
>>>>>Begin Spectral Data<<<<<
223.165	-20.62
223.4	-20.62
223.635	-20.62
223.869	-18.62
224.104	-23.62
224.338	-28.62
224.573	-11.62
224.808	-4.62
225.042	-0.62
225.277	-10.62
225.511	14.38
225.746	-0.62
225.98	5.38
226.215	12.38
226.449	20.38
226.683	16.38
226.918	25.38
227.152	25.38
227.387	33.38
227.621	48.38
227.856	41.38
228.09	41.38
228.324	54.38
228.559	61.38
228.793	55.38
229.027	51.38
229.262	73.38
229.496	77.38
229.73	96.38
229.964	93.38
230.199	76.38
230.433	76.38
230.667	80.38
230.901	74.38
231.136	68.38
231.37	66.38
231.604	84.38
231.838	97.38
232.072	81.38
232.306	65.38
232.541	90.38
232.775	77.38
233.009	67.38
233.243	80.38
233.477	79.38
233.711	71.38
233.945	84.38
234.179	82.38
234.413	66.38
234.647	71.38
234.881	78.38
235.115	84.38
235.349	77.38
235.583	86.38
235.817	82.38
236.051	72.38
236.285	68.38
236.519	78.38
236.753	98.38
236.987	89.38
237.221	78.38
237.455	91.38
237.689	94.38
237.922	83.38
238.156	84.38
238.39	76.38
238.624	76.38
238.858	87.38
239.091	69.38
239.325	76.38
239.559	96.38
239.793	85.38
240.027	78.38
240.26	86.38
240.494	71.38
240.728	77.38
240.961	76.38
241.195	87.38
241.429	77.38
241.662	64.38
241.896	80.38
242.13	75.38
242.363	75.38
242.597	69.38
242.83	82.38
243.064	65.38
243.298	70.38
243.531	72.38
243.765	60.38
243.998	84.38
244.232	81.38
244.465	94.38
244.699	97.38
244.932	80.38
245.166	70.38
245.399	80.38
245.633	86.38
245.866	75.38
246.099	68.38
246.333	86.38
246.566	84.38
246.8	83.38
247.033	82.38
247.266	65.38
247.5	75.38
247.733	72.38
247.966	81.38
248.2	77.38
248.433	71.38
248.666	83.38
248.899	77.38
249.133	96.38
249.366	105.38
249.599	120.38
249.832	77.38
250.066	80.38
250.299	88.38
250.532	70.38
250.765	64.38
250.998	87.38
251.231	85.38
251.465	99.38
251.698	75.38
251.931	78.38
252.164	83.38
252.397	83.38
252.63	81.38
252.863	68.38
253.096	92.38
253.329	75.38
253.562	93.38
253.795	91.38
254.028	85.38
254.261	70.38
254.494	80.38
254.727	91.38
254.96	80.38
255.193	77.38
255.426	76.38
255.659	89.38
255.892	88.38
256.124	80.38
256.357	90.38
256.59	81.38
256.823	80.38
257.056	82.38
257.289	63.38
257.521	87.38
257.754	81.38
257.987	86.38
258.22	91.38
258.452	79.38
258.685	81.38
258.918	86.38
259.151	82.38
259.383	90.38
259.616	92.38
259.849	88.38
260.081	89.38
260.314	92.38
260.547	73.38
260.779	92.38
261.012	84.38
261.244	97.38
261.477	85.38
261.71	94.38
261.942	134.38
262.175	143.38
262.407	93.38
262.64	83.38
262.872	80.38
263.105	81.38
263.337	89.38
263.57	84.38
263.802	73.38
264.035	90.38
264.267	85.38
264.499	81.38
264.732	77.38
264.964	66.38
265.197	82.38
265.429	75.38
265.661	86.38
265.894	81.38
266.126	83.38
266.358	84.38
266.591	99.38
266.823	97.38
267.055	85.38
267.287	60.38
267.52	94.38
267.752	81.38
267.984	87.38
268.216	81.38
268.448	90.38
268.681	82.38
268.913	78.38
269.145	87.38
269.377	92.38
269.609	81.38
269.841	80.38
270.073	90.38
270.306	80.38
270.538	87.38
270.77	85.38
271.002	62.38
271.234	83.38
271.466	76.38
271.698	89.38
271.93	87.38
272.162	88.38
272.394	81.38
272.626	82.38
272.858	88.38
273.09	81.38
273.322	80.38
273.553	71.38
273.785	90.38
274.017	82.38
274.249	93.38
274.481	85.38
274.713	93.38
274.945	96.38
275.176	81.38
275.408	107.38
275.64	86.38
275.872	108.38
276.104	94.38
276.335	87.38
276.567	120.38
276.799	129.38
277.031	147.38
277.262	156.38
277.494	134.38
277.726	99.38
277.957	87.38
278.189	84.38
278.421	93.38
278.652	82.38
278.884	87.38
279.115	90.38
279.347	94.38
279.579	103.38
279.81	108.38
280.042	159.38
280.273	200.38
280.505	146.38
280.736	105.38
280.968	82.38
281.199	87.38
281.431	75.38
281.662	90.38
281.894	88.38
282.125	99.38
282.356	132.38
282.588	178.38
282.819	150.38
283.051	100.38
283.282	89.38
283.513	87.38
283.745	91.38
283.976	89.38
284.207	74.38
284.439	92.38
284.67	91.38
284.901	84.38
285.132	82.38
285.364	82.38
285.595	83.38
285.826	89.38
286.057	83.38
286.288	87.38
286.52	79.38
286.751	90.38
286.982	93.38
287.213	80.38
287.444	89.38
287.675	93.38
287.906	79.38
288.138	93.38
288.369	85.38
288.6	89.38
288.831	91.38
289.062	96.38
289.293	86.38
289.524	99.38
289.755	87.38
289.986	92.38
290.217	92.38
290.448	90.38
290.679	86.38
290.91	87.38
291.141	86.38
291.371	89.38
291.602	96.38
291.833	84.38
292.064	88.38
292.295	80.38
292.526	86.38
292.757	88.38
292.987	86.38
293.218	92.38
293.449	81.38
293.68	70.38
293.91	86.38
294.141	83.38
294.372	88.38
294.603	85.38
294.833	89.38
295.064	89.38
295.295	72.38
295.525	92.38
295.756	127.38
295.987	132.38
296.217	164.38
296.448	151.38
296.679	101.38
296.909	106.38
297.14	87.38
297.37	94.38
297.601	76.38
297.831	84.38
298.062	104.38
298.292	88.38
298.523	96.38
298.753	101.38
298.984	85.38
299.214	73.38
299.445	95.38
299.675	85.38
299.905	106.38
300.136	86.38
300.366	91.38
300.597	99.38
300.827	87.38
301.057	101.38
301.288	114.38
301.518	92.38
301.748	88.38
301.979	106.38
302.209	98.38
302.439	95.38
302.669	83.38
302.9	83.38
303.13	91.38
303.36	106.38
303.59	132.38
303.82	116.38
304.051	91.38
304.281	90.38
304.511	78.38
304.741	95.38
304.971	87.38
305.201	111.38
305.431	96.38
305.661	100.38
305.891	106.38
306.121	96.38
306.352	115.38
306.582	113.38
306.812	95.38
307.042	104.38
307.272	128.38
307.502	141.38
307.731	143.38
307.961	118.38
308.191	109.38
308.421	95.38
308.651	88.38
308.881	95.38
309.111	94.38
309.341	102.38
309.571	107.38
309.8	111.38
310.03	99.38
310.26	107.38
310.49	102.38
310.72	108.38
310.949	119.38
311.179	96.38
311.409	115.38
311.639	111.38
311.868	108.38
312.098	100.38
312.328	112.38
312.557	114.38
312.787	105.38
313.017	107.38
313.246	111.38
313.476	101.38
313.706	82.38
313.935	103.38
314.165	93.38
314.394	111.38
314.624	102.38
314.853	98.38
315.083	98.38
315.312	97.38
315.542	74.38
315.771	91.38
316.001	90.38
316.23	91.38
316.46	92.38
316.689	104.38
316.919	88.38
317.148	94.38
317.377	85.38
317.607	108.38
317.836	91.38
318.065	82.38
318.295	89.38
318.524	87.38
318.753	97.38
318.983	89.38
319.212	96.38
319.441	116.38
319.67	123.38
319.9	90.38
320.129	93.38
320.358	98.38
320.587	97.38
320.816	106.38
321.046	99.38
321.275	95.38
321.504	101.38
321.733	108.38
321.962	106.38
322.191	105.38
322.42	101.38
322.649	131.38
322.878	118.38
323.108	126.38
323.337	148.38
323.566	156.38
323.795	181.38
324.024	215.38
324.253	439.38
324.482	963.38
324.71	1941.38
324.939	2565.38
325.168	964.38
325.397	264.38
325.626	163.38
325.855	141.38
326.084	150.38
326.313	145.38
326.542	171.38
326.77	236.38
326.999	505.38
327.228	979.38
327.457	1765.38
327.686	1459.38
327.914	500.38
328.143	407.38
328.372	485.38
328.6	293.38
328.829	173.38
329.058	172.38
329.287	179.38
329.515	151.38
329.744	183.38
329.972	348.38
330.201	655.38
330.43	959.38
330.658	491.38
330.887	281.38
331.115	171.38
331.344	120.38
331.572	123.38
331.801	134.38
332.03	129.38
332.258	122.38
332.486	101.38
332.715	100.38
332.943	108.38
333.172	113.38
333.4	121.38
333.629	134.38
333.857	185.38
334.085	304.38
334.314	571.38
334.542	1153.38
334.771	1128.38
334.999	319.38
335.227	145.38
335.455	111.38
335.684	94.38
335.912	94.38
336.14	120.38
336.369	95.38
336.597	106.38
336.825	100.38
337.053	88.38
337.281	83.38
337.51	90.38
337.738	101.38
337.966	84.38
338.194	104.38
338.422	127.38
338.65	109.38
338.878	94.38
339.106	84.38
339.334	76.38
339.562	89.38
339.79	101.38
340.018	87.38
340.246	90.38
340.474	97.38
340.702	90.38
340.93	97.38
341.158	81.38
341.386	92.38
341.614	115.38
341.842	95.38
342.07	101.38
342.298	90.38
342.526	92.38
342.754	103.38
342.981	90.38
343.209	89.38
343.437	97.38
343.665	84.38
343.893	100.38
344.12	103.38
344.348	88.38
344.576	93.38
344.804	98.38
345.031	97.38
345.259	107.38
345.487	95.38
345.714	89.38
345.942	101.38
346.17	89.38
346.397	83.38
346.625	99.38
346.853	101.38
347.08	99.38
347.308	102.38
347.535	99.38
347.763	114.38
347.99	105.38
348.218	88.38
348.445	127.38
348.673	118.38
348.9	100.38
349.128	95.38
349.355	85.38
349.583	87.38
349.81	91.38
350.037	97.38
350.265	96.38
350.492	98.38
350.72	99.38
350.947	116.38
351.174	117.38
351.402	119.38
351.629	112.38
351.856	95.38
352.083	101.38
352.311	108.38
352.538	109.38
352.765	111.38
352.992	131.38
353.22	130.38
353.447	117.38
353.674	107.38
353.901	86.38
354.128	101.38
354.355	105.38
354.583	98.38
354.81	98.38
355.037	88.38
355.264	99.38
355.491	114.38
355.718	82.38
355.945	87.38
356.172	91.38
356.399	86.38
356.626	94.38
356.853	102.38
357.08	97.38
357.307	94.38
357.534	80.38
357.761	87.38
357.988	98.38
358.215	95.38
358.441	87.38
358.668	100.38
358.895	99.38
359.122	87.38
359.349	86.38
359.576	96.38
359.802	110.38
360.029	150.38
360.256	131.38
360.483	132.38
360.709	99.38
360.936	91.38
361.163	92.38
361.39	104.38
361.616	93.38
361.843	96.38
362.07	113.38
362.296	92.38
362.523	99.38
362.749	98.38
362.976	101.38
363.203	76.38
363.429	89.38
363.656	84.38
363.882	91.38
364.109	90.38
364.335	96.38
364.562	97.38
364.788	102.38
365.015	92.38
365.241	89.38
365.468	114.38
365.694	120.38
365.92	105.38
366.147	92.38
366.373	86.38
366.599	101.38
366.826	93.38
367.052	73.38
367.278	96.38
367.505	89.38
367.731	88.38
367.957	76.38
368.184	98.38
368.41	99.38
368.636	112.38
368.862	131.38
369.089	113.38
369.315	91.38
369.541	93.38
369.767	96.38
369.993	80.38
370.219	95.38
370.445	93.38
370.672	85.38
370.898	96.38
371.124	90.38
371.35	98.38
371.576	89.38
371.802	77.38
372.028	80.38
372.254	75.38
372.48	87.38
372.706	97.38
372.932	88.38
373.158	91.38
373.384	91.38
373.61	91.38
373.835	85.38
374.061	88.38
374.287	104.38
374.513	92.38
374.739	98.38
374.965	90.38
375.191	91.38
375.416	88.38
375.642	94.38
375.868	99.38
376.094	83.38
376.319	75.38
376.545	91.38
376.771	88.38
376.997	85.38
377.222	79.38
377.448	99.38
377.674	85.38
377.899	80.38
378.125	97.38
378.35	92.38
378.576	90.38
378.802	84.38
379.027	78.38
379.253	86.38
379.478	99.38
379.704	91.38
379.929	89.38
380.155	104.38
380.38	97.38
380.606	93.38
380.831	90.38
381.057	95.38
381.282	88.38
381.507	104.38
381.733	89.38
381.958	90.38
382.184	102.38
382.409	88.38
382.634	81.38
382.86	86.38
383.085	104.38
383.31	111.38
383.535	95.38
383.761	100.38
383.986	101.38
384.211	84.38
384.436	86.38
384.662	97.38
384.887	97.38
385.112	113.38
385.337	105.38
385.562	99.38
385.787	99.38
386.013	107.38
386.238	134.38
386.463	107.38
386.688	91.38
386.913	96.38
387.138	93.38
387.363	89.38
387.588	91.38
387.813	95.38
388.038	107.38
388.263	110.38
388.488	104.38
388.713	94.38
388.938	98.38
389.163	95.38
389.387	92.38
389.612	96.38
389.837	96.38
390.062	101.38
390.287	95.38
390.512	85.38
390.736	92.38
390.961	74.38
391.186	90.38
391.411	95.38
391.636	84.38
391.86	87.38
392.085	75.38
392.31	88.38
392.534	78.38
392.759	88.38
392.984	75.38
393.208	82.38
393.433	99.38
393.658	86.38
393.882	77.38
394.107	82.38
394.331	88.38
394.556	79.38
394.78	80.38
395.005	92.38
395.229	92.38
395.454	103.38
395.678	97.38
395.903	75.38
396.127	102.38
396.352	96.38
396.576	88.38
396.801	87.38
397.025	85.38
397.249	84.38
397.474	88.38
397.698	79.38
397.922	78.38
398.147	81.38
398.371	66.38
398.595	81.38
398.82	86.38
399.044	81.38
399.268	74.38
399.492	88.38
399.717	106.38
399.941	85.38
400.165	94.38
400.389	75.38
400.613	67.38
400.837	76.38
401.062	88.38
401.286	90.38
401.51	96.38
401.734	103.38
401.958	116.38
402.182	145.38
402.406	203.38
402.63	145.38
402.854	102.38
403.078	96.38
403.302	89.38
403.526	84.38
403.75	86.38
403.974	89.38
404.198	88.38
404.422	82.38
404.645	96.38
404.869	84.38
405.093	94.38
405.317	123.38
405.541	128.38
405.765	115.38
405.988	131.38
406.212	206.38
406.436	316.38
406.66	204.38
406.883	123.38
407.107	106.38
407.331	93.38
407.555	102.38
407.778	102.38
408.002	88.38
408.226	83.38
408.449	88.38
408.673	84.38
408.896	95.38
409.12	97.38
409.344	88.38
409.567	95.38
409.791	83.38
410.014	96.38
410.238	76.38
410.461	100.38
410.685	97.38
410.908	100.38
411.132	89.38
411.355	94.38
411.578	85.38
411.802	95.38
412.025	98.38
412.249	98.38
412.472	103.38
412.695	127.38
412.919	93.38
413.142	91.38
413.365	90.38
413.589	91.38
413.812	83.38
414.035	83.38
414.258	86.38
414.482	81.38
414.705	74.38
414.928	85.38
415.151	92.38
415.374	91.38
415.597	94.38
415.821	85.38
416.044	80.38
416.267	93.38
416.49	87.38
416.713	88.38
416.936	93.38
417.159	89.38
417.382	96.38
417.605	92.38
417.828	111.38
418.051	84.38
418.274	73.38
418.497	84.38
418.72	86.38
418.943	90.38
419.166	93.38
419.389	90.38
419.611	93.38
419.834	63.38
420.057	87.38
420.28	88.38
420.503	93.38
420.726	103.38
420.948	87.38
421.171	102.38
421.394	99.38
421.617	82.38
421.839	87.38
422.062	99.38
422.285	71.38
422.507	105.38
422.73	107.38
422.953	92.38
423.175	84.38
423.398	113.38
423.621	98.38
423.843	97.38
424.066	91.38
424.288	83.38
424.511	81.38
424.733	92.38
424.956	116.38
425.178	118.38
425.401	105.38
425.623	99.38
425.846	97.38
426.068	94.38
426.291	101.38
426.513	79.38
426.735	92.38
426.958	108.38
427.18	105.38
427.402	162.38
427.625	225.38
427.847	212.38
428.069	176.38
428.292	112.38
428.514	88.38
428.736	98.38
428.958	88.38
429.181	89.38
429.403	79.38
429.625	109.38
429.847	98.38
430.069	103.38
430.292	98.38
430.514	91.38
430.736	79.38
430.958	81.38
431.18	78.38
431.402	84.38
431.624	84.38
431.846	80.38
432.068	77.38
432.29	83.38
432.512	87.38
432.734	83.38
432.956	91.38
433.178	91.38
433.4	94.38
433.622	79.38
433.844	90.38
434.066	71.38
434.287	89.38
434.509	92.38
434.731	87.38
434.953	86.38
435.175	91.38
435.397	82.38
435.618	99.38
435.84	104.38
436.062	118.38
436.284	115.38
436.505	103.38
436.727	103.38
436.949	104.38
437.17	77.38
437.392	97.38
437.614	93.38
437.835	130.38
438.057	148.38
438.278	119.38
438.5	106.38
438.721	131.38
438.943	102.38
439.165	88.38
439.386	87.38
439.608	83.38
439.829	107.38
440.05	140.38
440.272	168.38
440.493	101.38
440.715	102.38
440.936	92.38
441.158	80.38
441.379	92.38
441.6	103.38
441.822	95.38
442.043	101.38
442.264	108.38
442.486	102.38
442.707	101.38
442.928	112.38
443.149	158.38
443.371	161.38
443.592	129.38
443.813	130.38
444.034	116.38
444.255	89.38
444.476	103.38
444.698	96.38
444.919	90.38
445.14	135.38
445.361	118.38
445.582	130.38
445.803	177.38
446.024	147.38
446.245	154.38
446.466	135.38
446.687	103.38
446.908	88.38
447.129	82.38
447.35	85.38
447.571	101.38
447.792	98.38
448.013	99.38
448.234	128.38
448.455	108.38
448.675	115.38
448.896	119.38
449.117	104.38
449.338	107.38
449.559	127.38
449.779	133.38
450	97.38
450.221	93.38
450.442	94.38
450.662	104.38
450.883	126.38
451.104	129.38
451.324	101.38
451.545	99.38
451.766	82.38
451.986	89.38
452.207	92.38
452.428	95.38
452.648	93.38
452.869	123.38
453.089	136.38
453.31	152.38
453.53	105.38
453.751	92.38
453.971	106.38
454.192	133.38
454.412	105.38
454.633	80.38
454.853	93.38
455.073	82.38
455.294	91.38
455.514	103.38
455.734	75.38
455.955	89.38
456.175	81.38
456.395	100.38
456.616	91.38
456.836	84.38
457.056	85.38
457.276	80.38
457.497	69.38
457.717	87.38
457.937	79.38
458.157	90.38
458.377	99.38
458.598	131.38
458.818	188.38
459.038	252.38
459.258	140.38
459.478	113.38
459.698	72.38
459.918	90.38
460.138	88.38
460.358	80.38
460.578	87.38
460.798	98.38
461.018	96.38
461.238	101.38
461.458	80.38
461.678	84.38
461.898	84.38
462.118	69.38
462.338	92.38
462.558	88.38
462.777	91.38
462.997	92.38
463.217	96.38
463.437	88.38
463.657	85.38
463.876	74.38
464.096	81.38
464.316	90.38
464.536	103.38
464.755	101.38
464.975	119.38
465.195	231.38
465.414	243.38
465.634	107.38
465.854	89.38
466.073	86.38
466.293	83.38
466.512	84.38
466.732	82.38
466.951	82.38
467.171	95.38
467.391	89.38
467.61	128.38
467.829	176.38
468.049	382.38
468.268	575.38
468.488	185.38
468.707	91.38
468.927	73.38
469.146	70.38
469.365	84.38
469.585	87.38
469.804	114.38
470.023	119.38
470.243	112.38
470.462	103.38
470.681	135.38
470.901	95.38
471.12	93.38
471.339	92.38
471.558	111.38
471.777	137.38
471.997	225.38
472.216	707.38
472.435	1618.38
472.654	439.38
472.873	121.38
473.092	103.38
473.311	86.38
473.53	83.38
473.749	83.38
473.968	112.38
474.187	125.38
474.406	100.38
474.625	101.38
474.844	85.38
475.063	100.38
475.282	92.38
475.501	96.38
475.72	88.38
475.939	86.38
476.158	82.38
476.377	87.38
476.596	89.38
476.814	100.38
477.033	101.38
477.252	97.38
477.471	86.38
477.69	85.38
477.908	96.38
478.127	77.38
478.346	85.38
478.564	81.38
478.783	88.38
479.002	102.38
479.22	116.38
479.439	105.38
479.658	131.38
479.876	118.38
480.095	99.38
480.313	123.38
480.532	144.38
480.751	219.38
480.969	631.38
481.188	2719.38
481.406	1717.38
481.624	299.38
481.843	114.38
482.061	100.38
482.28	83.38
482.498	92.38
482.717	87.38
482.935	78.38
483.153	77.38
483.372	91.38
483.59	87.38
483.808	86.38
484.027	79.38
484.245	92.38
484.463	88.38
484.681	102.38
484.9	100.38
485.118	95.38
485.336	91.38
485.554	95.38
485.772	95.38
485.99	99.38
486.209	94.38
486.427	111.38
486.645	113.38
486.863	125.38
487.081	111.38
487.299	100.38
487.517	88.38
487.735	87.38
487.953	101.38
488.171	102.38
488.389	95.38
488.607	102.38
488.825	98.38
489.043	79.38
489.261	92.38
489.479	92.38
489.696	82.38
489.914	91.38
490.132	88.38
490.35	91.38
490.568	78.38
490.786	87.38
491.003	83.38
491.221	90.38
491.439	84.38
491.657	90.38
491.874	91.38
492.092	90.38
492.31	82.38
492.527	84.38
492.745	93.38
492.963	90.38
493.18	80.38
493.398	98.38
493.615	97.38
493.833	85.38
494.05	83.38
494.268	81.38
494.485	92.38
494.703	82.38
494.92	86.38
495.138	92.38
495.355	86.38
495.573	89.38
495.79	101.38
496.008	90.38
496.225	88.38
496.442	87.38
496.66	81.38
496.877	80.38
497.094	103.38
497.312	99.38
497.529	95.38
497.746	81.38
497.963	89.38
498.181	87.38
498.398	91.38
498.615	117.38
498.832	121.38
499.049	95.38
499.267	107.38
499.484	84.38
499.701	105.38
499.918	90.38
500.135	92.38
500.352	101.38
500.569	98.38
500.786	85.38
501.003	73.38
501.22	89.38
501.437	92.38
501.654	89.38
501.871	109.38
502.088	91.38
502.305	99.38
502.522	95.38
502.739	102.38
502.956	78.38
503.172	99.38
503.389	103.38
503.606	123.38
503.823	93.38
504.04	85.38
504.256	101.38
504.473	92.38
504.69	91.38
504.907	99.38
505.123	81.38
505.34	86.38
505.557	87.38
505.773	104.38
505.99	79.38
506.207	87.38
506.423	93.38
506.64	88.38
506.856	76.38
507.073	70.38
507.289	95.38
507.506	102.38
507.722	126.38
507.939	139.38
508.155	98.38
508.372	82.38
508.588	87.38
508.805	109.38
509.021	103.38
509.238	95.38
509.454	93.38
509.67	98.38
509.887	101.38
510.103	136.38
510.319	229.38
510.536	932.38
510.752	3312.38
510.968	903.38
511.184	183.38
511.401	141.38
511.617	114.38
511.833	105.38
512.049	85.38
512.265	82.38
512.481	82.38
512.698	87.38
512.914	82.38
513.13	90.38
513.346	100.38
513.562	95.38
513.778	82.38
513.994	110.38
514.21	130.38
