Data from Circ_2013_H10_HRD10591_00078.txt Node
Date: Wed Jan 03 10:04:15 EST 2024
User: Yrep
Spectrometer: HR+D1059
Trigger mode: 1
Integration Time (sec): 1.000000E-1
Scans to average: 1
Electric dark correction enabled: true
Nonlinearity correction enabled: false
Boxcar width: 0
XAxis mode: Wavelengths
Number of Pixels in Spectrum: 2048
>>>>>Begin Spectral Data<<<<<
223.165	-26.44
223.4	-26.44
223.635	-26.44
223.869	-26.44
224.104	-13.44
224.338	-21.44
224.573	-23.44
224.808	-17.44
225.042	-10.44
225.277	4.56
225.511	-3.44
225.746	-1.44
225.98	15.56
226.215	13.56
226.449	15.56
226.683	26.56
226.918	33.56
227.152	34.56
227.387	31.56
227.621	35.56
227.856	40.56
228.09	54.56
228.324	54.56
228.559	65.56
228.793	54.56
229.027	56.56
229.262	71.56
229.496	99.56
229.73	93.56
229.964	83.56
230.199	83.56
230.433	87.56
230.667	72.56
230.901	82.56
231.136	89.56
231.37	87.56
231.604	80.56
231.838	79.56
232.072	88.56
232.306	80.56
232.541	88.56
232.775	89.56
233.009	77.56
233.243	83.56
233.477	80.56
233.711	90.56
233.945	79.56
234.179	93.56
234.413	83.56
234.647	78.56
234.881	85.56
235.115	87.56
235.349	80.56
235.583	87.56
235.817	79.56
236.051	77.56
236.285	83.56
236.519	72.56
236.753	71.56
236.987	85.56
237.221	86.56
237.455	88.56
237.689	75.56
237.922	66.56
238.156	82.56
238.39	86.56
238.624	78.56
238.858	74.56
239.091	71.56
239.325	79.56
239.559	86.56
239.793	90.56
240.027	84.56
240.26	76.56
240.494	83.56
240.728	75.56
240.961	80.56
241.195	58.56
241.429	88.56
241.662	87.56
241.896	77.56
242.13	76.56
242.363	82.56
242.597	72.56
242.83	84.56
243.064	83.56
243.298	80.56
243.531	89.56
243.765	80.56
243.998	77.56
244.232	100.56
244.465	93.56
244.699	81.56
244.932	76.56
245.166	84.56
245.399	75.56
245.633	81.56
245.866	78.56
246.099	69.56
246.333	74.56
246.566	80.56
246.8	76.56
247.033	83.56
247.266	80.56
247.5	85.56
247.733	90.56
247.966	81.56
248.2	77.56
248.433	79.56
248.666	98.56
248.899	78.56
249.133	105.56
249.366	101.56
249.599	114.56
249.832	86.56
250.066	86.56
250.299	79.56
250.532	86.56
250.765	82.56
250.998	77.56
251.231	86.56
251.465	84.56
251.698	84.56
251.931	87.56
252.164	85.56
252.397	62.56
252.63	70.56
252.863	88.56
253.096	84.56
253.329	71.56
253.562	82.56
253.795	86.56
254.028	86.56
254.261	79.56
254.494	83.56
254.727	81.56
254.96	84.56
255.193	90.56
255.426	91.56
255.659	89.56
255.892	86.56
256.124	94.56
256.357	83.56
256.59	79.56
256.823	76.56
257.056	84.56
257.289	80.56
257.521	86.56
257.754	78.56
257.987	82.56
258.22	98.56
258.452	91.56
258.685	83.56
258.918	92.56
259.151	85.56
259.383	98.56
259.616	91.56
259.849	85.56
260.081	87.56
260.314	74.56
260.547	90.56
260.779	82.56
261.012	91.56
261.244	100.56
261.477	109.56
261.71	98.56
261.942	137.56
262.175	128.56
262.407	85.56
262.64	65.56
262.872	91.56
263.105	80.56
263.337	80.56
263.57	84.56
263.802	96.56
264.035	66.56
264.267	76.56
264.499	78.56
264.732	78.56
264.964	83.56
265.197	92.56
265.429	90.56
265.661	86.56
265.894	79.56
266.126	79.56
266.358	91.56
266.591	84.56
266.823	78.56
267.055	91.56
267.287	70.56
267.52	66.56
267.752	76.56
267.984	92.56
268.216	87.56
268.448	89.56
268.681	92.56
268.913	80.56
269.145	94.56
269.377	79.56
269.609	86.56
269.841	82.56
270.073	80.56
270.306	87.56
270.538	81.56
270.77	83.56
271.002	89.56
271.234	88.56
271.466	90.56
271.698	84.56
271.93	91.56
272.162	76.56
272.394	78.56
272.626	87.56
272.858	87.56
273.09	90.56
273.322	78.56
273.553	78.56
273.785	83.56
274.017	73.56
274.249	95.56
274.481	101.56
274.713	71.56
274.945	79.56
275.176	84.56
275.408	89.56
275.64	103.56
275.872	105.56
276.104	100.56
276.335	103.56
276.567	112.56
276.799	130.56
277.031	132.56
277.262	149.56
277.494	119.56
277.726	96.56
277.957	92.56
278.189	88.56
278.421	103.56
278.652	102.56
278.884	97.56
279.115	88.56
279.347	74.56
279.579	107.56
279.81	103.56
280.042	150.56
280.273	182.56
280.505	124.56
280.736	98.56
280.968	93.56
281.199	96.56
281.431	88.56
281.662	75.56
281.894	103.56
282.125	90.56
282.356	133.56
282.588	159.56
282.819	131.56
283.051	86.56
283.282	89.56
283.513	109.56
283.745	87.56
283.976	92.56
284.207	92.56
284.439	80.56
284.67	91.56
284.901	74.56
285.132	77.56
285.364	98.56
285.595	91.56
285.826	87.56
286.057	83.56
286.288	90.56
286.52	79.56
286.751	86.56
286.982	82.56
287.213	90.56
287.444	94.56
287.675	86.56
287.906	88.56
288.138	101.56
288.369	104.56
288.6	90.56
288.831	86.56
289.062	103.56
289.293	92.56
289.524	86.56
289.755	79.56
289.986	76.56
290.217	85.56
290.448	76.56
290.679	83.56
290.91	93.56
291.141	77.56
291.371	84.56
291.602	90.56
291.833	90.56
292.064	88.56
292.295	85.56
292.526	83.56
292.757	99.56
292.987	89.56
293.218	87.56
293.449	85.56
293.68	101.56
293.91	95.56
294.141	105.56
294.372	84.56
294.603	94.56
294.833	89.56
295.064	80.56
295.295	88.56
295.525	92.56
295.756	114.56
295.987	118.56
296.217	152.56
296.448	152.56
296.679	87.56
296.909	95.56
297.14	92.56
297.37	84.56
297.601	93.56
297.831	95.56
298.062	91.56
298.292	86.56
298.523	96.56
298.753	93.56
298.984	80.56
299.214	86.56
299.445	89.56
299.675	110.56
299.905	94.56
300.136	89.56
300.366	77.56
300.597	67.56
300.827	95.56
301.057	107.56
301.288	91.56
301.518	92.56
301.748	90.56
301.979	106.56
302.209	107.56
302.439	100.56
302.669	80.56
302.9	92.56
303.13	83.56
303.36	104.56
303.59	130.56
303.82	142.56
304.051	105.56
304.281	92.56
304.511	86.56
304.741	92.56
304.971	87.56
305.201	95.56
305.431	103.56
305.661	90.56
305.891	102.56
306.121	100.56
306.352	104.56
306.582	112.56
306.812	109.56
307.042	99.56
307.272	133.56
307.502	146.56
307.731	142.56
307.961	123.56
308.191	90.56
308.421	76.56
308.651	88.56
308.881	102.56
309.111	87.56
309.341	94.56
309.571	109.56
309.8	111.56
310.03	90.56
310.26	86.56
310.49	80.56
310.72	102.56
310.949	116.56
311.179	122.56
311.409	101.56
311.639	84.56
311.868	105.56
312.098	92.56
312.328	102.56
312.557	108.56
312.787	113.56
313.017	126.56
313.246	96.56
313.476	88.56
313.706	90.56
313.935	104.56
314.165	120.56
314.394	108.56
314.624	98.56
314.853	106.56
315.083	109.56
315.312	98.56
315.542	111.56
315.771	86.56
316.001	86.56
316.23	82.56
316.46	83.56
316.689	95.56
316.919	78.56
317.148	100.56
317.377	102.56
317.607	104.56
317.836	101.56
318.065	95.56
318.295	88.56
318.524	105.56
318.753	95.56
318.983	81.56
319.212	100.56
319.441	132.56
319.67	114.56
319.9	95.56
320.129	87.56
320.358	86.56
320.587	85.56
320.816	116.56
321.046	103.56
321.275	116.56
321.504	95.56
321.733	115.56
321.962	99.56
322.191	98.56
322.42	118.56
322.649	128.56
322.878	115.56
323.108	114.56
323.337	139.56
323.566	166.56
323.795	170.56
324.024	244.56
324.253	500.56
324.482	1089.56
324.71	2235.56
324.939	3027.56
325.168	1102.56
325.397	298.56
325.626	174.56
325.855	138.56
326.084	137.56
326.313	153.56
326.542	172.56
326.77	274.56
326.999	586.56
327.228	1213.56
327.457	2205.56
327.686	1746.56
327.914	542.56
328.143	414.56
328.372	498.56
328.6	290.56
328.829	167.56
329.058	182.56
329.287	190.56
329.515	171.56
329.744	204.56
329.972	350.56
330.201	668.56
330.43	1002.56
330.658	477.56
330.887	236.56
331.115	174.56
331.344	122.56
331.572	113.56
331.801	140.56
332.03	113.56
332.258	95.56
332.486	102.56
332.715	98.56
332.943	91.56
333.172	117.56
333.4	120.56
333.629	131.56
333.857	182.56
334.085	317.56
334.314	633.56
334.542	1201.56
334.771	1158.56
334.999	327.56
335.227	168.56
335.455	120.56
335.684	131.56
335.912	104.56
336.14	88.56
336.369	113.56
336.597	106.56
336.825	108.56
337.053	96.56
337.281	84.56
337.51	96.56
337.738	100.56
337.966	108.56
338.194	103.56
338.422	96.56
338.65	86.56
338.878	83.56
339.106	84.56
339.334	108.56
339.562	108.56
339.79	85.56
340.018	84.56
340.246	92.56
340.474	85.56
340.702	108.56
340.93	90.56
341.158	87.56
341.386	99.56
341.614	106.56
341.842	99.56
342.07	88.56
342.298	92.56
342.526	87.56
342.754	97.56
342.981	88.56
343.209	89.56
343.437	83.56
343.665	79.56
343.893	80.56
344.12	95.56
344.348	92.56
344.576	86.56
344.804	91.56
345.031	114.56
345.259	99.56
345.487	84.56
345.714	106.56
345.942	88.56
346.17	101.56
346.397	85.56
346.625	100.56
346.853	87.56
347.08	84.56
347.308	94.56
347.535	92.56
347.763	103.56
347.99	99.56
348.218	108.56
348.445	108.56
348.673	106.56
348.9	104.56
349.128	92.56
349.355	84.56
349.583	96.56
349.81	79.56
350.037	92.56
350.265	103.56
350.492	101.56
350.72	97.56
350.947	112.56
351.174	130.56
351.402	130.56
351.629	102.56
351.856	110.56
352.083	100.56
352.311	114.56
352.538	114.56
352.765	127.56
352.992	101.56
353.22	105.56
353.447	103.56
353.674	119.56
353.901	94.56
354.128	99.56
354.355	102.56
354.583	95.56
354.81	84.56
355.037	96.56
355.264	80.56
355.491	86.56
355.718	95.56
355.945	108.56
356.172	108.56
356.399	85.56
356.626	78.56
356.853	86.56
357.08	95.56
357.307	88.56
357.534	87.56
357.761	86.56
357.988	88.56
358.215	96.56
358.441	89.56
358.668	78.56
358.895	77.56
359.122	96.56
359.349	73.56
359.576	103.56
359.802	107.56
360.029	133.56
360.256	128.56
360.483	114.56
360.709	85.56
360.936	80.56
361.163	109.56
361.39	101.56
361.616	107.56
361.843	82.56
362.07	89.56
362.296	100.56
362.523	98.56
362.749	86.56
362.976	93.56
363.203	93.56
363.429	92.56
363.656	88.56
363.882	84.56
364.109	90.56
364.335	85.56
364.562	93.56
364.788	89.56
365.015	89.56
365.241	107.56
365.468	111.56
365.694	120.56
365.92	106.56
366.147	93.56
366.373	91.56
366.599	91.56
366.826	96.56
367.052	94.56
367.278	109.56
367.505	95.56
367.731	89.56
367.957	73.56
368.184	90.56
368.41	118.56
368.636	126.56
368.862	122.56
369.089	98.56
369.315	99.56
369.541	80.56
369.767	106.56
369.993	87.56
370.219	98.56
370.445	85.56
370.672	87.56
370.898	85.56
371.124	101.56
371.35	88.56
371.576	90.56
371.802	87.56
372.028	91.56
372.254	94.56
372.48	85.56
372.706	90.56
372.932	92.56
373.158	87.56
373.384	93.56
373.61	100.56
373.835	106.56
374.061	79.56
374.287	86.56
374.513	85.56
374.739	91.56
374.965	91.56
375.191	91.56
375.416	90.56
375.642	98.56
375.868	90.56
376.094	85.56
376.319	95.56
376.545	86.56
376.771	101.56
376.997	98.56
377.222	77.56
377.448	96.56
377.674	94.56
377.899	77.56
378.125	81.56
378.35	85.56
378.576	102.56
378.802	78.56
379.027	75.56
379.253	88.56
379.478	90.56
379.704	86.56
379.929	102.56
380.155	87.56
380.38	92.56
380.606	101.56
380.831	82.56
381.057	86.56
381.282	98.56
381.507	90.56
381.733	99.56
381.958	102.56
382.184	78.56
382.409	101.56
382.634	93.56
382.86	109.56
383.085	83.56
383.31	105.56
383.535	93.56
383.761	90.56
383.986	94.56
384.211	111.56
384.436	92.56
384.662	94.56
384.887	100.56
385.112	95.56
385.337	95.56
385.562	102.56
385.787	99.56
386.013	115.56
386.238	111.56
386.463	111.56
386.688	103.56
386.913	100.56
387.138	106.56
387.363	97.56
387.588	91.56
387.813	94.56
388.038	104.56
388.263	108.56
388.488	100.56
388.713	112.56
388.938	102.56
389.163	101.56
389.387	98.56
389.612	97.56
389.837	84.56
390.062	94.56
390.287	91.56
390.512	100.56
390.736	84.56
390.961	87.56
391.186	88.56
391.411	82.56
391.636	97.56
391.86	81.56
392.085	77.56
392.31	75.56
392.534	77.56
392.759	103.56
392.984	90.56
393.208	78.56
393.433	80.56
393.658	86.56
393.882	93.56
394.107	83.56
394.331	90.56
394.556	83.56
394.78	94.56
395.005	94.56
395.229	81.56
395.454	81.56
395.678	91.56
395.903	79.56
396.127	82.56
396.352	89.56
396.576	106.56
396.801	84.56
397.025	95.56
397.249	94.56
397.474	95.56
397.698	83.56
397.922	79.56
398.147	83.56
398.371	79.56
398.595	81.56
398.82	94.56
399.044	96.56
399.268	96.56
399.492	94.56
399.717	88.56
399.941	94.56
400.165	91.56
400.389	105.56
400.613	83.56
400.837	99.56
401.062	89.56
401.286	97.56
401.51	85.56
401.734	86.56
401.958	95.56
402.182	142.56
402.406	204.56
402.63	150.56
402.854	91.56
403.078	100.56
403.302	96.56
403.526	81.56
403.75	95.56
403.974	90.56
404.198	95.56
404.422	94.56
404.645	77.56
404.869	98.56
405.093	114.56
405.317	132.56
405.541	123.56
405.765	119.56
405.988	140.56
406.212	206.56
406.436	290.56
406.66	202.56
406.883	121.56
407.107	99.56
407.331	100.56
407.555	98.56
407.778	99.56
408.002	102.56
408.226	87.56
408.449	82.56
408.673	98.56
408.896	92.56
409.12	90.56
409.344	98.56
409.567	82.56
409.791	88.56
410.014	102.56
410.238	97.56
410.461	98.56
410.685	102.56
410.908	92.56
411.132	99.56
411.355	103.56
411.578	101.56
411.802	88.56
412.025	84.56
412.249	102.56
412.472	111.56
412.695	118.56
412.919	107.56
413.142	95.56
413.365	78.56
413.589	83.56
413.812	106.56
414.035	100.56
414.258	93.56
414.482	95.56
414.705	83.56
414.928	103.56
415.151	79.56
415.374	92.56
415.597	100.56
415.821	88.56
416.044	94.56
416.267	84.56
416.49	89.56
416.713	92.56
416.936	91.56
417.159	89.56
417.382	105.56
417.605	99.56
417.828	107.56
418.051	83.56
418.274	87.56
418.497	86.56
418.72	79.56
418.943	94.56
419.166	93.56
419.389	101.56
419.611	93.56
419.834	79.56
420.057	90.56
420.28	81.56
420.503	92.56
420.726	96.56
420.948	103.56
421.171	87.56
421.394	105.56
421.617	100.56
421.839	95.56
422.062	99.56
422.285	86.56
422.507	99.56
422.73	107.56
422.953	94.56
423.175	93.56
423.398	89.56
423.621	95.56
423.843	90.56
424.066	78.56
424.288	94.56
424.511	107.56
424.733	107.56
424.956	121.56
425.178	110.56
425.401	107.56
425.623	121.56
425.846	103.56
426.068	86.56
426.291	98.56
426.513	96.56
426.735	91.56
426.958	92.56
427.18	120.56
427.402	169.56
427.625	254.56
427.847	215.56
428.069	215.56
428.292	123.56
428.514	102.56
428.736	98.56
428.958	71.56
429.181	74.56
429.403	85.56
429.625	91.56
429.847	87.56
430.069	111.56
430.292	104.56
430.514	95.56
430.736	98.56
430.958	95.56
431.18	95.56
431.402	93.56
431.624	94.56
431.846	90.56
432.068	98.56
432.29	84.56
432.512	85.56
432.734	94.56
432.956	101.56
433.178	96.56
433.4	107.56
433.622	90.56
433.844	97.56
434.066	88.56
434.287	94.56
434.509	89.56
434.731	94.56
434.953	85.56
435.175	95.56
435.397	94.56
435.618	99.56
435.84	118.56
436.062	162.56
436.284	155.56
436.505	122.56
436.727	117.56
436.949	105.56
437.17	90.56
437.392	75.56
437.614	108.56
437.835	123.56
438.057	127.56
438.278	123.56
438.5	121.56
438.721	135.56
438.943	111.56
439.165	85.56
439.386	83.56
439.608	92.56
439.829	107.56
440.05	155.56
440.272	189.56
440.493	111.56
440.715	91.56
440.936	82.56
441.158	76.56
441.379	96.56
441.6	106.56
441.822	89.56
442.043	95.56
442.264	124.56
442.486	106.56
442.707	103.56
442.928	132.56
443.149	166.56
443.371	165.56
443.592	127.56
443.813	116.56
444.034	122.56
444.255	98.56
444.476	79.56
444.698	88.56
444.919	100.56
445.14	141.56
445.361	133.56
445.582	134.56
445.803	194.56
446.024	184.56
446.245	182.56
446.466	128.56
446.687	109.56
446.908	89.56
447.129	93.56
447.35	95.56
447.571	100.56
447.792	106.56
448.013	116.56
448.234	129.56
448.455	106.56
448.675	140.56
448.896	145.56
449.117	110.56
449.338	112.56
449.559	127.56
449.779	146.56
450	89.56
450.221	82.56
450.442	96.56
450.662	101.56
450.883	126.56
451.104	120.56
451.324	114.56
451.545	85.56
451.766	96.56
451.986	110.56
452.207	91.56
452.428	91.56
452.648	122.56
452.869	126.56
453.089	137.56
453.31	140.56
453.53	92.56
453.751	97.56
453.971	106.56
454.192	136.56
454.412	106.56
454.633	87.56
454.853	86.56
455.073	94.56
455.294	100.56
455.514	93.56
455.734	103.56
455.955	96.56
456.175	87.56
456.395	83.56
456.616	87.56
456.836	84.56
457.056	86.56
457.276	87.56
457.497	101.56
457.717	88.56
457.937	88.56
458.157	98.56
458.377	88.56
458.598	115.56
458.818	184.56
459.038	213.56
459.258	146.56
459.478	92.56
459.698	98.56
459.918	95.56
460.138	90.56
460.358	93.56
460.578	96.56
460.798	91.56
461.018	83.56
461.238	83.56
461.458	85.56
461.678	95.56
461.898	100.56
462.118	75.56
462.338	85.56
462.558	88.56
462.777	85.56
462.997	106.56
463.217	105.56
463.437	108.56
463.657	83.56
463.876	95.56
464.096	93.56
464.316	96.56
464.536	102.56
464.755	101.56
464.975	142.56
465.195	211.56
465.414	215.56
465.634	109.56
465.854	87.56
466.073	103.56
466.293	93.56
466.512	79.56
466.732	76.56
466.951	94.56
467.171	102.56
467.391	104.56
467.61	137.56
467.829	153.56
468.049	383.56
468.268	555.56
468.488	166.56
468.707	116.56
468.927	98.56
469.146	78.56
469.365	90.56
469.585	98.56
469.804	108.56
470.023	120.56
470.243	107.56
470.462	136.56
470.681	152.56
470.901	91.56
471.12	89.56
471.339	95.56
471.558	111.56
471.777	138.56
471.997	226.56
472.216	715.56
472.435	1636.56
472.654	448.56
472.873	146.56
473.092	106.56
473.311	87.56
473.53	94.56
473.749	109.56
473.968	99.56
474.187	126.56
474.406	94.56
474.625	87.56
474.844	90.56
475.063	75.56
475.282	90.56
475.501	102.56
475.72	94.56
475.939	105.56
476.158	103.56
476.377	84.56
476.596	98.56
476.814	106.56
477.033	105.56
477.252	100.56
477.471	83.56
477.69	99.56
477.908	100.56
478.127	103.56
478.346	82.56
478.564	90.56
478.783	123.56
479.002	103.56
479.22	103.56
479.439	130.56
479.658	130.56
479.876	116.56
480.095	102.56
480.313	119.56
480.532	150.56
480.751	210.56
480.969	671.56
481.188	2742.56
481.406	1710.56
481.624	288.56
481.843	121.56
482.061	112.56
482.28	106.56
482.498	99.56
482.717	96.56
482.935	103.56
483.153	96.56
483.372	102.56
483.59	99.56
483.808	75.56
484.027	90.56
484.245	99.56
484.463	89.56
484.681	114.56
484.9	93.56
485.118	91.56
485.336	91.56
485.554	92.56
485.772	109.56
485.99	101.56
486.209	102.56
486.427	106.56
486.645	102.56
486.863	126.56
487.081	112.56
487.299	107.56
487.517	98.56
487.735	104.56
487.953	98.56
488.171	99.56
488.389	93.56
488.607	108.56
488.825	101.56
489.043	102.56
489.261	91.56
489.479	88.56
489.696	86.56
489.914	99.56
490.132	104.56
490.35	90.56
490.568	94.56
490.786	87.56
491.003	93.56
491.221	98.56
491.439	99.56
491.657	108.56
491.874	92.56
492.092	80.56
492.31	84.56
492.527	112.56
492.745	99.56
492.963	95.56
493.18	87.56
493.398	86.56
493.615	102.56
493.833	97.56
494.05	103.56
494.268	87.56
494.485	94.56
494.703	82.56
494.92	86.56
495.138	96.56
495.355	94.56
495.573	80.56
495.79	92.56
496.008	99.56
496.225	83.56
496.442	92.56
496.66	83.56
496.877	94.56
497.094	94.56
497.312	88.56
497.529	94.56
497.746	82.56
497.963	93.56
498.181	91.56
498.398	92.56
498.615	115.56
498.832	116.56
499.049	87.56
499.267	78.56
499.484	99.56
499.701	92.56
499.918	89.56
500.135	85.56
500.352	77.56
500.569	106.56
500.786	88.56
501.003	83.56
501.22	98.56
501.437	106.56
501.654	103.56
501.871	111.56
502.088	106.56
502.305	95.56
502.522	88.56
502.739	103.56
502.956	95.56
503.172	90.56
503.389	91.56
503.606	126.56
503.823	104.56
504.04	87.56
504.256	78.56
504.473	89.56
504.69	95.56
504.907	90.56
505.123	86.56
505.34	90.56
505.557	90.56
505.773	104.56
505.99	75.56
506.207	95.56
506.423	88.56
506.64	84.56
506.856	96.56
507.073	101.56
507.289	82.56
507.506	107.56
507.722	139.56
507.939	123.56
508.155	94.56
508.372	86.56
508.588	92.56
508.805	88.56
509.021	99.56
509.238	98.56
509.454	115.56
509.67	111.56
509.887	124.56
510.103	148.56
510.319	235.56
510.536	858.56
510.752	2938.56
510.968	851.56
511.184	174.56
511.401	130.56
511.617	116.56
511.833	93.56
512.049	103.56
512.265	116.56
512.481	107.56
512.698	97.56
512.914	86.56
513.13	90.56
513.346	95.56
