Data from Circ_2013_H10_HRD10591_00026.txt Node
Date: Wed Jan 03 10:04:05 EST 2024
User: Yrep
Spectrometer: HR+D1059
Trigger mode: 1
Integration Time (sec): 1.000000E-1
Scans to average: 1
Electric dark correction enabled: true
Nonlinearity correction enabled: false
Boxcar width: 0
XAxis mode: Wavelengths
Number of Pixels in Spectrum: 2048
>>>>>Begin Spectral Data<<<<<
223.165	-12.44
223.4	-12.44
223.635	-12.44
223.869	-12.44
224.104	-23.44
224.338	-10.44
224.573	-25.44
224.808	-9.44
225.042	4.56
225.277	-5.44
225.511	3.56
225.746	9.56
225.98	11.56
226.215	-0.44
226.449	13.56
226.683	12.56
226.918	12.56
227.152	31.56
227.387	32.56
227.621	38.56
227.856	46.56
228.09	30.56
228.324	33.56
228.559	51.56
228.793	48.56
229.027	48.56
229.262	59.56
229.496	66.56
229.73	90.56
229.964	78.56
230.199	79.56
230.433	66.56
230.667	80.56
230.901	75.56
231.136	72.56
231.37	72.56
231.604	70.56
231.838	75.56
232.072	85.56
232.306	79.56
232.541	64.56
232.775	77.56
233.009	78.56
233.243	80.56
233.477	72.56
233.711	68.56
233.945	70.56
234.179	68.56
234.413	76.56
234.647	80.56
234.881	65.56
235.115	83.56
235.349	81.56
235.583	75.56
235.817	76.56
236.051	64.56
236.285	82.56
236.519	67.56
236.753	83.56
236.987	77.56
237.221	76.56
237.455	70.56
237.689	74.56
237.922	69.56
238.156	66.56
238.39	67.56
238.624	67.56
238.858	67.56
239.091	74.56
239.325	51.56
239.559	93.56
239.793	81.56
240.027	76.56
240.26	86.56
240.494	67.56
240.728	77.56
240.961	64.56
241.195	82.56
241.429	68.56
241.662	66.56
241.896	62.56
242.13	61.56
242.363	59.56
242.597	78.56
242.83	70.56
243.064	85.56
243.298	72.56
243.531	76.56
243.765	87.56
243.998	69.56
244.232	88.56
244.465	81.56
244.699	82.56
244.932	88.56
245.166	83.56
245.399	58.56
245.633	76.56
245.866	80.56
246.099	83.56
246.333	74.56
246.566	75.56
246.8	77.56
247.033	81.56
247.266	71.56
247.5	70.56
247.733	74.56
247.966	71.56
248.2	64.56
248.433	82.56
248.666	73.56
248.899	70.56
249.133	75.56
249.366	90.56
249.599	95.56
249.832	95.56
250.066	81.56
250.299	74.56
250.532	74.56
250.765	91.56
250.998	79.56
251.231	80.56
251.465	65.56
251.698	79.56
251.931	75.56
252.164	72.56
252.397	72.56
252.63	76.56
252.863	75.56
253.096	76.56
253.329	91.56
253.562	75.56
253.795	84.56
254.028	70.56
254.261	81.56
254.494	72.56
254.727	75.56
254.96	88.56
255.193	91.56
255.426	74.56
255.659	75.56
255.892	82.56
256.124	75.56
256.357	82.56
256.59	78.56
256.823	88.56
257.056	73.56
257.289	73.56
257.521	67.56
257.754	85.56
257.987	84.56
258.22	86.56
258.452	78.56
258.685	78.56
258.918	89.56
259.151	84.56
259.383	67.56
259.616	80.56
259.849	80.56
260.081	76.56
260.314	73.56
260.547	82.56
260.779	81.56
261.012	75.56
261.244	75.56
261.477	84.56
261.71	95.56
261.942	111.56
262.175	107.56
262.407	92.56
262.64	77.56
262.872	78.56
263.105	84.56
263.337	77.56
263.57	79.56
263.802	75.56
264.035	84.56
264.267	71.56
264.499	79.56
264.732	93.56
264.964	88.56
265.197	84.56
265.429	90.56
265.661	70.56
265.894	77.56
266.126	90.56
266.358	83.56
266.591	82.56
266.823	75.56
267.055	82.56
267.287	81.56
267.52	80.56
267.752	90.56
267.984	93.56
268.216	83.56
268.448	95.56
268.681	77.56
268.913	82.56
269.145	81.56
269.377	75.56
269.609	88.56
269.841	85.56
270.073	83.56
270.306	72.56
270.538	81.56
270.77	74.56
271.002	96.56
271.234	78.56
271.466	91.56
271.698	85.56
271.93	86.56
272.162	87.56
272.394	79.56
272.626	75.56
272.858	74.56
273.09	68.56
273.322	78.56
273.553	72.56
273.785	78.56
274.017	77.56
274.249	76.56
274.481	83.56
274.713	70.56
274.945	68.56
275.176	83.56
275.408	90.56
275.64	88.56
275.872	95.56
276.104	81.56
276.335	91.56
276.567	106.56
276.799	138.56
277.031	107.56
277.262	105.56
277.494	102.56
277.726	86.56
277.957	76.56
278.189	87.56
278.421	88.56
278.652	69.56
278.884	85.56
279.115	90.56
279.347	83.56
279.579	90.56
279.81	103.56
280.042	108.56
280.273	119.56
280.505	113.56
280.736	87.56
280.968	83.56
281.199	77.56
281.431	68.56
281.662	83.56
281.894	100.56
282.125	92.56
282.356	105.56
282.588	140.56
282.819	125.56
283.051	95.56
283.282	90.56
283.513	84.56
283.745	86.56
283.976	88.56
284.207	76.56
284.439	85.56
284.67	89.56
284.901	85.56
285.132	83.56
285.364	65.56
285.595	79.56
285.826	81.56
286.057	91.56
286.288	84.56
286.52	75.56
286.751	76.56
286.982	87.56
287.213	72.56
287.444	83.56
287.675	88.56
287.906	86.56
288.138	94.56
288.369	94.56
288.6	95.56
288.831	96.56
289.062	85.56
289.293	69.56
289.524	79.56
289.755	87.56
289.986	75.56
290.217	80.56
290.448	88.56
290.679	76.56
290.91	87.56
291.141	93.56
291.371	80.56
291.602	81.56
291.833	92.56
292.064	81.56
292.295	89.56
292.526	86.56
292.757	88.56
292.987	89.56
293.218	87.56
293.449	99.56
293.68	89.56
293.91	84.56
294.141	80.56
294.372	91.56
294.603	95.56
294.833	86.56
295.064	86.56
295.295	83.56
295.525	86.56
295.756	96.56
295.987	133.56
296.217	126.56
296.448	129.56
296.679	85.56
296.909	85.56
297.14	101.56
297.37	81.56
297.601	75.56
297.831	87.56
298.062	90.56
298.292	93.56
298.523	90.56
298.753	91.56
298.984	96.56
299.214	90.56
299.445	79.56
299.675	85.56
299.905	95.56
300.136	87.56
300.366	71.56
300.597	71.56
300.827	79.56
301.057	92.56
301.288	80.56
301.518	94.56
301.748	96.56
301.979	98.56
302.209	89.56
302.439	79.56
302.669	83.56
302.9	85.56
303.13	88.56
303.36	76.56
303.59	103.56
303.82	127.56
304.051	98.56
304.281	98.56
304.511	79.56
304.741	82.56
304.971	82.56
305.201	78.56
305.431	88.56
305.661	95.56
305.891	92.56
306.121	94.56
306.352	106.56
306.582	100.56
306.812	94.56
307.042	84.56
307.272	105.56
307.502	110.56
307.731	108.56
307.961	99.56
308.191	89.56
308.421	101.56
308.651	91.56
308.881	89.56
309.111	91.56
309.341	93.56
309.571	85.56
309.8	90.56
310.03	84.56
310.26	99.56
310.49	88.56
310.72	89.56
310.949	105.56
311.179	91.56
311.409	96.56
311.639	90.56
311.868	84.56
312.098	93.56
312.328	96.56
312.557	100.56
312.787	110.56
313.017	107.56
313.246	91.56
313.476	84.56
313.706	85.56
313.935	82.56
314.165	94.56
314.394	100.56
314.624	106.56
314.853	88.56
315.083	84.56
315.312	91.56
315.542	95.56
315.771	89.56
316.001	103.56
316.23	85.56
316.46	88.56
316.689	84.56
316.919	84.56
317.148	95.56
317.377	88.56
317.607	86.56
317.836	87.56
318.065	77.56
318.295	78.56
318.524	83.56
318.753	81.56
318.983	87.56
319.212	83.56
319.441	101.56
319.67	103.56
319.9	92.56
320.129	100.56
320.358	91.56
320.587	81.56
320.816	91.56
321.046	110.56
321.275	89.56
321.504	89.56
321.733	116.56
321.962	100.56
322.191	101.56
322.42	107.56
322.649	95.56
322.878	114.56
323.108	118.56
323.337	121.56
323.566	138.56
323.795	148.56
324.024	224.56
324.253	412.56
324.482	894.56
324.71	1858.56
324.939	2416.56
325.168	899.56
325.397	275.56
325.626	145.56
325.855	116.56
326.084	132.56
326.313	136.56
326.542	152.56
326.77	239.56
326.999	490.56
327.228	1021.56
327.457	1908.56
327.686	1497.56
327.914	412.56
328.143	276.56
328.372	260.56
328.6	180.56
328.829	125.56
329.058	139.56
329.287	147.56
329.515	122.56
329.744	142.56
329.972	186.56
330.201	310.56
330.43	436.56
330.658	250.56
330.887	177.56
331.115	158.56
331.344	100.56
331.572	96.56
331.801	109.56
332.03	103.56
332.258	97.56
332.486	98.56
332.715	93.56
332.943	103.56
333.172	94.56
333.4	115.56
333.629	126.56
333.857	134.56
334.085	186.56
334.314	288.56
334.542	500.56
334.771	523.56
334.999	177.56
335.227	107.56
335.455	116.56
335.684	99.56
335.912	83.56
336.14	97.56
336.369	99.56
336.597	102.56
336.825	104.56
337.053	81.56
337.281	100.56
337.51	99.56
337.738	99.56
337.966	89.56
338.194	104.56
338.422	108.56
338.65	70.56
338.878	91.56
339.106	91.56
339.334	106.56
339.562	88.56
339.79	74.56
340.018	86.56
340.246	81.56
340.474	90.56
340.702	105.56
340.93	89.56
341.158	86.56
341.386	98.56
341.614	84.56
341.842	93.56
342.07	85.56
342.298	84.56
342.526	88.56
342.754	82.56
342.981	90.56
343.209	92.56
343.437	100.56
343.665	86.56
343.893	85.56
344.12	92.56
344.348	100.56
344.576	94.56
344.804	88.56
345.031	93.56
345.259	95.56
345.487	107.56
345.714	90.56
345.942	95.56
346.17	100.56
346.397	87.56
346.625	105.56
346.853	87.56
347.08	95.56
347.308	90.56
347.535	102.56
347.763	102.56
347.99	84.56
348.218	118.56
348.445	107.56
348.673	87.56
348.9	93.56
349.128	96.56
349.355	95.56
349.583	83.56
349.81	95.56
350.037	93.56
350.265	81.56
350.492	85.56
350.72	90.56
350.947	92.56
351.174	96.56
351.402	103.56
351.629	96.56
351.856	100.56
352.083	95.56
352.311	94.56
352.538	99.56
352.765	108.56
352.992	101.56
353.22	107.56
353.447	96.56
353.674	100.56
353.901	84.56
354.128	82.56
354.355	85.56
354.583	101.56
354.81	95.56
355.037	80.56
355.264	104.56
355.491	91.56
355.718	87.56
355.945	79.56
356.172	77.56
356.399	87.56
356.626	91.56
356.853	87.56
357.08	94.56
357.307	87.56
357.534	93.56
357.761	99.56
357.988	95.56
358.215	92.56
358.441	88.56
358.668	98.56
358.895	100.56
359.122	99.56
359.349	87.56
359.576	96.56
359.802	85.56
360.029	101.56
360.256	107.56
360.483	91.56
360.709	87.56
360.936	96.56
361.163	94.56
361.39	86.56
361.616	93.56
361.843	84.56
362.07	91.56
362.296	92.56
362.523	94.56
362.749	89.56
362.976	80.56
363.203	90.56
363.429	87.56
363.656	100.56
363.882	90.56
364.109	86.56
364.335	90.56
364.562	98.56
364.788	80.56
365.015	89.56
365.241	91.56
365.468	110.56
365.694	101.56
365.92	100.56
366.147	99.56
366.373	87.56
366.599	76.56
366.826	90.56
367.052	95.56
367.278	76.56
367.505	101.56
367.731	92.56
367.957	103.56
368.184	95.56
368.41	107.56
368.636	115.56
368.862	114.56
369.089	115.56
369.315	107.56
369.541	102.56
369.767	89.56
369.993	89.56
370.219	92.56
370.445	82.56
370.672	84.56
370.898	70.56
371.124	97.56
371.35	101.56
371.576	90.56
371.802	87.56
372.028	82.56
372.254	84.56
372.48	82.56
372.706	84.56
372.932	94.56
373.158	75.56
373.384	89.56
373.61	94.56
373.835	94.56
374.061	87.56
374.287	95.56
374.513	80.56
374.739	89.56
374.965	85.56
375.191	88.56
375.416	91.56
375.642	82.56
375.868	94.56
376.094	90.56
376.319	79.56
376.545	97.56
376.771	89.56
376.997	79.56
377.222	66.56
377.448	87.56
377.674	83.56
377.899	80.56
378.125	82.56
378.35	85.56
378.576	89.56
378.802	105.56
379.027	98.56
379.253	88.56
379.478	86.56
379.704	110.56
379.929	95.56
380.155	91.56
380.38	89.56
380.606	95.56
380.831	97.56
381.057	98.56
381.282	93.56
381.507	79.56
381.733	90.56
381.958	95.56
382.184	110.56
382.409	106.56
382.634	107.56
382.86	105.56
383.085	103.56
383.31	89.56
383.535	108.56
383.761	96.56
383.986	88.56
384.211	105.56
384.436	95.56
384.662	99.56
384.887	108.56
385.112	106.56
385.337	100.56
385.562	105.56
385.787	104.56
386.013	123.56
386.238	114.56
386.463	105.56
386.688	103.56
386.913	114.56
387.138	94.56
387.363	95.56
387.588	104.56
387.813	95.56
388.038	113.56
388.263	114.56
388.488	107.56
388.713	97.56
388.938	87.56
389.163	92.56
389.387	82.56
389.612	93.56
389.837	85.56
390.062	97.56
390.287	86.56
390.512	74.56
390.736	103.56
390.961	98.56
391.186	81.56
391.411	87.56
391.636	85.56
391.86	95.56
392.085	76.56
392.31	71.56
392.534	85.56
392.759	76.56
392.984	80.56
393.208	93.56
393.433	99.56
393.658	107.56
393.882	93.56
394.107	80.56
394.331	80.56
394.556	87.56
394.78	85.56
395.005	84.56
395.229	75.56
395.454	99.56
395.678	80.56
395.903	90.56
396.127	80.56
396.352	74.56
396.576	91.56
396.801	87.56
397.025	86.56
397.249	101.56
397.474	77.56
397.698	87.56
397.922	74.56
398.147	79.56
398.371	73.56
398.595	80.56
398.82	86.56
399.044	87.56
399.268	94.56
399.492	103.56
399.717	94.56
399.941	74.56
400.165	83.56
400.389	88.56
400.613	75.56
400.837	76.56
401.062	71.56
401.286	72.56
401.51	98.56
401.734	104.56
401.958	94.56
402.182	123.56
402.406	157.56
402.63	115.56
402.854	97.56
403.078	89.56
403.302	81.56
403.526	82.56
403.75	96.56
403.974	81.56
404.198	88.56
404.422	93.56
404.645	87.56
404.869	97.56
405.093	106.56
405.317	113.56
405.541	108.56
405.765	96.56
405.988	121.56
406.212	169.56
406.436	258.56
406.66	164.56
406.883	107.56
407.107	89.56
407.331	86.56
407.555	105.56
407.778	91.56
408.002	87.56
408.226	90.56
408.449	88.56
408.673	91.56
408.896	91.56
409.12	101.56
409.344	96.56
409.567	89.56
409.791	91.56
410.014	93.56
410.238	70.56
410.461	102.56
410.685	94.56
410.908	93.56
411.132	114.56
411.355	80.56
411.578	94.56
411.802	101.56
412.025	105.56
412.249	75.56
412.472	89.56
412.695	127.56
412.919	84.56
413.142	86.56
413.365	88.56
413.589	82.56
413.812	83.56
414.035	89.56
414.258	96.56
414.482	89.56
414.705	70.56
414.928	90.56
415.151	96.56
415.374	73.56
415.597	88.56
415.821	95.56
416.044	83.56
416.267	86.56
416.49	89.56
416.713	88.56
416.936	86.56
417.159	99.56
417.382	90.56
417.605	86.56
417.828	67.56
418.051	84.56
418.274	81.56
418.497	72.56
418.72	84.56
418.943	88.56
419.166	80.56
419.389	90.56
419.611	91.56
419.834	93.56
420.057	89.56
420.28	80.56
420.503	93.56
420.726	81.56
420.948	93.56
421.171	83.56
421.394	92.56
421.617	92.56
421.839	91.56
422.062	82.56
422.285	87.56
422.507	95.56
422.73	109.56
422.953	111.56
423.175	100.56
423.398	97.56
423.621	81.56
423.843	92.56
424.066	76.56
424.288	84.56
424.511	94.56
424.733	105.56
424.956	103.56
425.178	94.56
425.401	98.56
425.623	94.56
425.846	92.56
426.068	88.56
426.291	85.56
426.513	89.56
426.735	72.56
426.958	83.56
427.18	95.56
427.402	125.56
427.625	190.56
427.847	151.56
428.069	150.56
428.292	90.56
428.514	82.56
428.736	75.56
428.958	78.56
429.181	76.56
429.403	80.56
429.625	94.56
429.847	87.56
430.069	89.56
430.292	92.56
430.514	99.56
430.736	89.56
430.958	81.56
431.18	74.56
431.402	95.56
431.624	82.56
431.846	79.56
432.068	84.56
432.29	86.56
432.512	75.56
432.734	81.56
432.956	93.56
433.178	121.56
433.4	106.56
433.622	84.56
433.844	77.56
434.066	89.56
434.287	100.56
434.509	87.56
434.731	83.56
434.953	84.56
435.175	86.56
435.397	91.56
435.618	89.56
435.84	104.56
436.062	136.56
436.284	108.56
436.505	91.56
436.727	85.56
436.949	92.56
437.17	88.56
437.392	81.56
437.614	87.56
437.835	108.56
438.057	136.56
438.278	112.56
438.5	87.56
438.721	124.56
438.943	92.56
439.165	66.56
439.386	91.56
439.608	86.56
439.829	95.56
440.05	135.56
440.272	148.56
440.493	100.56
440.715	113.56
440.936	83.56
441.158	90.56
441.379	83.56
441.6	89.56
441.822	99.56
442.043	84.56
442.264	107.56
442.486	87.56
442.707	100.56
442.928	103.56
443.149	139.56
443.371	141.56
443.592	103.56
443.813	117.56
444.034	94.56
444.255	83.56
444.476	77.56
444.698	80.56
444.919	91.56
445.14	129.56
445.361	122.56
445.582	114.56
445.803	129.56
446.024	149.56
446.245	139.56
446.466	120.56
446.687	100.56
446.908	87.56
447.129	88.56
447.35	100.56
447.571	102.56
447.792	88.56
448.013	104.56
448.234	107.56
448.455	94.56
448.675	100.56
448.896	114.56
449.117	93.56
449.338	115.56
449.559	126.56
449.779	123.56
450	96.56
450.221	85.56
450.442	90.56
450.662	93.56
450.883	116.56
451.104	112.56
451.324	100.56
451.545	88.56
451.766	91.56
451.986	94.56
452.207	84.56
452.428	97.56
452.648	103.56
452.869	120.56
453.089	116.56
453.31	122.56
453.53	97.56
453.751	96.56
453.971	103.56
454.192	110.56
454.412	89.56
454.633	89.56
454.853	78.56
455.073	92.56
455.294	91.56
455.514	95.56
455.734	88.56
455.955	83.56
456.175	64.56
456.395	91.56
456.616	86.56
456.836	74.56
457.056	76.56
457.276	83.56
457.497	83.56
457.717	94.56
457.937	85.56
458.157	87.56
458.377	78.56
458.598	114.56
458.818	152.56
459.038	170.56
459.258	119.56
459.478	82.56
459.698	88.56
459.918	85.56
460.138	83.56
460.358	97.56
460.578	73.56
460.798	90.56
461.018	81.56
461.238	76.56
461.458	88.56
461.678	92.56
461.898	76.56
462.118	74.56
462.338	83.56
462.558	74.56
462.777	89.56
462.997	86.56
463.217	79.56
463.437	85.56
463.657	93.56
463.876	104.56
464.096	88.56
464.316	99.56
464.536	83.56
464.755	104.56
464.975	107.56
465.195	170.56
465.414	175.56
465.634	81.56
465.854	88.56
466.073	80.56
466.293	90.56
466.512	89.56
466.732	82.56
466.951	81.56
467.171	88.56
467.391	90.56
467.61	121.56
467.829	134.56
468.049	212.56
468.268	274.56
468.488	117.56
468.707	88.56
468.927	81.56
469.146	78.56
469.365	98.56
469.585	90.56
469.804	104.56
470.023	114.56
470.243	93.56
470.462	101.56
470.681	108.56
470.901	79.56
471.12	91.56
471.339	91.56
471.558	73.56
471.777	106.56
471.997	147.56
472.216	339.56
472.435	711.56
472.654	215.56
472.873	101.56
473.092	78.56
473.311	80.56
473.53	87.56
473.749	85.56
473.968	92.56
474.187	104.56
474.406	104.56
474.625	95.56
474.844	93.56
475.063	84.56
475.282	91.56
475.501	90.56
475.72	86.56
475.939	84.56
476.158	79.56
476.377	87.56
476.596	85.56
476.814	85.56
477.033	96.56
477.252	87.56
477.471	92.56
477.69	102.56
477.908	94.56
478.127	81.56
478.346	79.56
478.564	99.56
478.783	96.56
479.002	87.56
479.22	87.56
479.439	106.56
479.658	103.56
479.876	95.56
480.095	84.56
480.313	112.56
480.532	115.56
480.751	127.56
480.969	332.56
481.188	1122.56
481.406	787.56
481.624	170.56
481.843	90.56
482.061	93.56
482.28	92.56
482.498	80.56
482.717	91.56
482.935	83.56
483.153	84.56
483.372	80.56
483.59	80.56
483.808	85.56
484.027	66.56
484.245	75.56
484.463	89.56
484.681	96.56
484.9	87.56
485.118	97.56
485.336	88.56
485.554	97.56
485.772	91.56
485.99	101.56
486.209	97.56
486.427	112.56
486.645	98.56
486.863	107.56
487.081	96.56
487.299	111.56
487.517	85.56
487.735	89.56
487.953	87.56
488.171	93.56
488.389	81.56
488.607	95.56
488.825	91.56
489.043	83.56
489.261	83.56
489.479	96.56
489.696	79.56
489.914	80.56
490.132	83.56
490.35	76.56
490.568	84.56
490.786	98.56
491.003	80.56
491.221	94.56
491.439	83.56
491.657	88.56
491.874	106.56
492.092	86.56
492.31	65.56
492.527	91.56
492.745	89.56
492.963	91.56
493.18	89.56
493.398	90.56
493.615	79.56
493.833	99.56
494.05	80.56
494.268	93.56
494.485	75.56
494.703	81.56
494.92	83.56
495.138	91.56
495.355	95.56
495.573	74.56
495.79	82.56
496.008	99.56
496.225	88.56
496.442	87.56
496.66	91.56
496.877	83.56
497.094	105.56
497.312	80.56
497.529	91.56
497.746	90.56
497.963	83.56
498.181	79.56
498.398	82.56
498.615	106.56
498.832	111.56
499.049	108.56
499.267	92.56
499.484	83.56
499.701	73.56
499.918	99.56
500.135	90.56
500.352	89.56
500.569	92.56
500.786	78.56
501.003	87.56
501.22	89.56
501.437	83.56
501.654	89.56
501.871	112.56
502.088	76.56
502.305	80.56
502.522	86.56
502.739	89.56
502.956	93.56
503.172	83.56
503.389	95.56
503.606	111.56
503.823	77.56
504.04	97.56
504.256	95.56
504.473	92.56
504.69	89.56
504.907	93.56
505.123	95.56
505.34	67.56
505.557	83.56
505.773	109.56
505.99	94.56
506.207	79.56
506.423	95.56
506.64	79.56
506.856	96.56
507.073	91.56
507.289	89.56
507.506	101.56
507.722	121.56
507.939	115.56
508.155	90.56
508.372	83.56
508.588	84.56
508.805	90.56
509.021	86.56
509.238	88.56
509.454	104.56
509.67	108.56
509.887	97.56
510.103	130.56
510.319	186.56
510.536	738.56
510.752	2464.56
510.968	716.56
511.184	158.56
511.401	116.56
511.617	99.56
511.833	96.56
512.049	94.56
512.265	89.56
512.481	95.56
512.698	91.56
512.914	90.56
513.13	101.56
513.346	92.56
513.562	89.56
513.778	97.56
513.994	92.56
514.21	103.56
514.426	123.56
514.642	138.56
514.858	121.56
515.074	165.56
515.29	502.56
515.506	1739.56
515.721	641.56
