Data from Circ_2013_H10_HRD10591_00037.txt Node
Date: Wed Jan 03 10:04:07 EST 2024
User: Yrep
Spectrometer: HR+D1059
Trigger mode: 1
Integration Time (sec): 1.000000E-1
Scans to average: 1
Electric dark correction enabled: true
Nonlinearity correction enabled: false
Boxcar width: 0
XAxis mode: Wavelengths
Number of Pixels in Spectrum: 2048
>>>>>Begin Spectral Data<<<<<
223.165	-22.31
223.4	-22.31
223.635	-22.31
223.869	-25.31
224.104	-12.31
224.338	-10.31
224.573	-8.31
224.808	-1.31
225.042	-11.31
225.277	-14.31
225.511	-4.31
225.746	0.69
225.98	4.69
226.215	8.69
226.449	12.69
226.683	28.69
226.918	21.69
227.152	32.69
227.387	41.69
227.621	33.69
227.856	40.69
228.09	36.69
228.324	51.69
228.559	60.69
228.793	65.69
229.027	60.69
229.262	66.69
229.496	76.69
229.73	91.69
229.964	86.69
230.199	61.69
230.433	65.69
230.667	63.69
230.901	74.69
231.136	74.69
231.37	75.69
231.604	81.69
231.838	87.69
232.072	73.69
232.306	76.69
232.541	82.69
232.775	81.69
233.009	81.69
233.243	81.69
233.477	81.69
233.711	76.69
233.945	73.69
234.179	75.69
234.413	95.69
234.647	88.69
234.881	84.69
235.115	78.69
235.349	91.69
235.583	69.69
235.817	77.69
236.051	82.69
236.285	66.69
236.519	89.69
236.753	79.69
236.987	83.69
237.221	79.69
237.455	80.69
237.689	86.69
237.922	69.69
238.156	60.69
238.39	82.69
238.624	82.69
238.858	81.69
239.091	78.69
239.325	80.69
239.559	76.69
239.793	99.69
240.027	81.69
240.26	80.69
240.494	73.69
240.728	81.69
240.961	77.69
241.195	85.69
241.429	83.69
241.662	76.69
241.896	65.69
242.13	82.69
242.363	82.69
242.597	77.69
242.83	83.69
243.064	81.69
243.298	83.69
243.531	82.69
243.765	84.69
243.998	97.69
244.232	66.69
244.465	78.69
244.699	92.69
244.932	91.69
245.166	75.69
245.399	89.69
245.633	81.69
245.866	82.69
246.099	82.69
246.333	60.69
246.566	82.69
246.8	77.69
247.033	67.69
247.266	75.69
247.5	80.69
247.733	77.69
247.966	85.69
248.2	66.69
248.433	75.69
248.666	87.69
248.899	92.69
249.133	95.69
249.366	103.69
249.599	106.69
249.832	84.69
250.066	96.69
250.299	78.69
250.532	87.69
250.765	77.69
250.998	74.69
251.231	82.69
251.465	72.69
251.698	78.69
251.931	83.69
252.164	91.69
252.397	87.69
252.63	75.69
252.863	71.69
253.096	82.69
253.329	74.69
253.562	90.69
253.795	88.69
254.028	87.69
254.261	72.69
254.494	86.69
254.727	77.69
254.96	91.69
255.193	68.69
255.426	86.69
255.659	81.69
255.892	83.69
256.124	82.69
256.357	86.69
256.59	71.69
256.823	81.69
257.056	81.69
257.289	80.69
257.521	81.69
257.754	68.69
257.987	74.69
258.22	93.69
258.452	76.69
258.685	96.69
258.918	84.69
259.151	81.69
259.383	86.69
259.616	89.69
259.849	77.69
260.081	80.69
260.314	76.69
260.547	81.69
260.779	81.69
261.012	87.69
261.244	91.69
261.477	88.69
261.71	93.69
261.942	129.69
262.175	132.69
262.407	96.69
262.64	76.69
262.872	82.69
263.105	87.69
263.337	79.69
263.57	86.69
263.802	99.69
264.035	80.69
264.267	64.69
264.499	66.69
264.732	72.69
264.964	82.69
265.197	82.69
265.429	66.69
265.661	82.69
265.894	92.69
266.126	69.69
266.358	83.69
266.591	72.69
266.823	86.69
267.055	79.69
267.287	74.69
267.52	84.69
267.752	74.69
267.984	64.69
268.216	81.69
268.448	73.69
268.681	75.69
268.913	91.69
269.145	77.69
269.377	88.69
269.609	80.69
269.841	73.69
270.073	74.69
270.306	81.69
270.538	95.69
270.77	81.69
271.002	85.69
271.234	69.69
271.466	86.69
271.698	86.69
271.93	103.69
272.162	73.69
272.394	91.69
272.626	81.69
272.858	81.69
273.09	91.69
273.322	86.69
273.553	92.69
273.785	74.69
274.017	76.69
274.249	83.69
274.481	76.69
274.713	81.69
274.945	88.69
275.176	101.69
275.408	96.69
275.64	96.69
275.872	92.69
276.104	92.69
276.335	99.69
276.567	103.69
276.799	122.69
277.031	141.69
277.262	140.69
277.494	129.69
277.726	97.69
277.957	84.69
278.189	86.69
278.421	83.69
278.652	92.69
278.884	84.69
279.115	86.69
279.347	96.69
279.579	85.69
279.81	112.69
280.042	131.69
280.273	160.69
280.505	129.69
280.736	96.69
280.968	89.69
281.199	107.69
281.431	84.69
281.662	80.69
281.894	85.69
282.125	104.69
282.356	130.69
282.588	147.69
282.819	128.69
283.051	89.69
283.282	89.69
283.513	84.69
283.745	88.69
283.976	82.69
284.207	80.69
284.439	89.69
284.67	103.69
284.901	87.69
285.132	83.69
285.364	86.69
285.595	73.69
285.826	92.69
286.057	77.69
286.288	82.69
286.52	77.69
286.751	97.69
286.982	90.69
287.213	70.69
287.444	86.69
287.675	71.69
287.906	85.69
288.138	86.69
288.369	107.69
288.6	83.69
288.831	85.69
289.062	99.69
289.293	86.69
289.524	92.69
289.755	102.69
289.986	94.69
290.217	92.69
290.448	85.69
290.679	84.69
290.91	80.69
291.141	89.69
291.371	90.69
291.602	75.69
291.833	84.69
292.064	89.69
292.295	85.69
292.526	86.69
292.757	85.69
292.987	94.69
293.218	78.69
293.449	93.69
293.68	84.69
293.91	93.69
294.141	77.69
294.372	79.69
294.603	77.69
294.833	81.69
295.064	99.69
295.295	89.69
295.525	106.69
295.756	111.69
295.987	125.69
296.217	160.69
296.448	158.69
296.679	99.69
296.909	98.69
297.14	83.69
297.37	90.69
297.601	86.69
297.831	100.69
298.062	93.69
298.292	101.69
298.523	99.69
298.753	89.69
298.984	96.69
299.214	99.69
299.445	91.69
299.675	101.69
299.905	104.69
300.136	99.69
300.366	83.69
300.597	77.69
300.827	95.69
301.057	96.69
301.288	113.69
301.518	94.69
301.748	89.69
301.979	95.69
302.209	97.69
302.439	98.69
302.669	89.69
302.9	90.69
303.13	105.69
303.36	96.69
303.59	107.69
303.82	124.69
304.051	88.69
304.281	78.69
304.511	87.69
304.741	92.69
304.971	81.69
305.201	90.69
305.431	89.69
305.661	89.69
305.891	88.69
306.121	88.69
306.352	124.69
306.582	95.69
306.812	97.69
307.042	107.69
307.272	109.69
307.502	130.69
307.731	117.69
307.961	106.69
308.191	98.69
308.421	95.69
308.651	80.69
308.881	91.69
309.111	93.69
309.341	97.69
309.571	97.69
309.8	83.69
310.03	110.69
310.26	93.69
310.49	85.69
310.72	93.69
310.949	119.69
311.179	104.69
311.409	95.69
311.639	102.69
311.868	104.69
312.098	94.69
312.328	95.69
312.557	105.69
312.787	121.69
313.017	111.69
313.246	90.69
313.476	98.69
313.706	83.69
313.935	104.69
314.165	111.69
314.394	130.69
314.624	109.69
314.853	113.69
315.083	85.69
315.312	99.69
315.542	94.69
315.771	97.69
316.001	89.69
316.23	96.69
316.46	88.69
316.689	86.69
316.919	90.69
317.148	113.69
317.377	95.69
317.607	97.69
317.836	96.69
318.065	88.69
318.295	99.69
318.524	90.69
318.753	91.69
318.983	88.69
319.212	112.69
319.441	102.69
319.67	116.69
319.9	100.69
320.129	92.69
320.358	86.69
320.587	92.69
320.816	102.69
321.046	115.69
321.275	103.69
321.504	88.69
321.733	84.69
321.962	104.69
322.191	94.69
322.42	113.69
322.649	112.69
322.878	121.69
323.108	138.69
323.337	138.69
323.566	143.69
323.795	171.69
324.024	245.69
324.253	466.69
324.482	1009.69
324.71	2063.69
324.939	2742.69
325.168	1005.69
325.397	280.69
325.626	174.69
325.855	133.69
326.084	133.69
326.313	133.69
326.542	168.69
326.77	268.69
326.999	540.69
327.228	1082.69
327.457	1965.69
327.686	1589.69
327.914	493.69
328.143	380.69
328.372	427.69
328.6	259.69
328.829	164.69
329.058	171.69
329.287	183.69
329.515	147.69
329.744	174.69
329.972	311.69
330.201	547.69
330.43	829.69
330.658	419.69
330.887	231.69
331.115	173.69
331.344	123.69
331.572	115.69
331.801	128.69
332.03	112.69
332.258	107.69
332.486	99.69
332.715	113.69
332.943	101.69
333.172	111.69
333.4	113.69
333.629	130.69
333.857	163.69
334.085	273.69
334.314	509.69
334.542	1004.69
334.771	981.69
334.999	279.69
335.227	145.69
335.455	108.69
335.684	102.69
335.912	96.69
336.14	100.69
336.369	107.69
336.597	122.69
336.825	104.69
337.053	87.69
337.281	111.69
337.51	84.69
337.738	97.69
337.966	97.69
338.194	114.69
338.422	103.69
338.65	90.69
338.878	86.69
339.106	101.69
339.334	87.69
339.562	97.69
339.79	103.69
340.018	95.69
340.246	98.69
340.474	105.69
340.702	97.69
340.93	84.69
341.158	83.69
341.386	85.69
341.614	101.69
341.842	103.69
342.07	100.69
342.298	101.69
342.526	102.69
342.754	98.69
342.981	96.69
343.209	86.69
343.437	98.69
343.665	88.69
343.893	87.69
344.12	97.69
344.348	93.69
344.576	93.69
344.804	93.69
345.031	105.69
345.259	109.69
345.487	98.69
345.714	100.69
345.942	95.69
346.17	89.69
346.397	98.69
346.625	90.69
346.853	92.69
347.08	87.69
347.308	97.69
347.535	101.69
347.763	100.69
347.99	102.69
348.218	103.69
348.445	107.69
348.673	114.69
348.9	92.69
349.128	98.69
349.355	91.69
349.583	83.69
349.81	92.69
350.037	112.69
350.265	104.69
350.492	88.69
350.72	95.69
350.947	102.69
351.174	123.69
351.402	119.69
351.629	105.69
351.856	111.69
352.083	97.69
352.311	97.69
352.538	124.69
352.765	118.69
352.992	127.69
353.22	111.69
353.447	112.69
353.674	97.69
353.901	96.69
354.128	97.69
354.355	93.69
354.583	97.69
354.81	85.69
355.037	93.69
355.264	93.69
355.491	99.69
355.718	92.69
355.945	88.69
356.172	99.69
356.399	87.69
356.626	90.69
356.853	92.69
357.08	90.69
357.307	91.69
357.534	86.69
357.761	107.69
357.988	103.69
358.215	89.69
358.441	98.69
358.668	92.69
358.895	70.69
359.122	91.69
359.349	100.69
359.576	103.69
359.802	99.69
360.029	143.69
360.256	143.69
360.483	109.69
360.709	90.69
360.936	104.69
361.163	99.69
361.39	92.69
361.616	98.69
361.843	86.69
362.07	97.69
362.296	103.69
362.523	96.69
362.749	92.69
362.976	113.69
363.203	92.69
363.429	85.69
363.656	84.69
363.882	88.69
364.109	95.69
364.335	87.69
364.562	83.69
364.788	85.69
365.015	94.69
365.241	105.69
365.468	121.69
365.694	113.69
365.92	101.69
366.147	102.69
366.373	93.69
366.599	88.69
366.826	95.69
367.052	108.69
367.278	89.69
367.505	84.69
367.731	103.69
367.957	95.69
368.184	97.69
368.41	116.69
368.636	118.69
368.862	134.69
369.089	116.69
369.315	114.69
369.541	103.69
369.767	90.69
369.993	103.69
370.219	99.69
370.445	68.69
370.672	92.69
370.898	95.69
371.124	91.69
371.35	77.69
371.576	88.69
371.802	94.69
372.028	86.69
372.254	85.69
372.48	84.69
372.706	83.69
372.932	74.69
373.158	81.69
373.384	90.69
373.61	90.69
373.835	88.69
374.061	80.69
374.287	82.69
374.513	96.69
374.739	86.69
374.965	85.69
375.191	84.69
375.416	86.69
375.642	77.69
375.868	89.69
376.094	84.69
376.319	75.69
376.545	80.69
376.771	88.69
376.997	95.69
377.222	93.69
377.448	79.69
377.674	82.69
377.899	76.69
378.125	74.69
378.35	84.69
378.576	95.69
378.802	100.69
379.027	93.69
379.253	92.69
379.478	84.69
379.704	88.69
379.929	98.69
380.155	100.69
380.38	95.69
380.606	112.69
380.831	91.69
381.057	102.69
381.282	81.69
381.507	90.69
381.733	89.69
381.958	93.69
382.184	100.69
382.409	84.69
382.634	98.69
382.86	100.69
383.085	101.69
383.31	85.69
383.535	98.69
383.761	89.69
383.986	99.69
384.211	99.69
384.436	100.69
384.662	93.69
384.887	112.69
385.112	100.69
385.337	88.69
385.562	93.69
385.787	92.69
386.013	104.69
386.238	145.69
386.463	121.69
386.688	104.69
386.913	99.69
387.138	106.69
387.363	105.69
387.588	107.69
387.813	95.69
388.038	107.69
388.263	100.69
388.488	103.69
388.713	94.69
388.938	91.69
389.163	88.69
389.387	91.69
389.612	89.69
389.837	96.69
390.062	93.69
390.287	93.69
390.512	93.69
390.736	92.69
390.961	77.69
391.186	83.69
391.411	92.69
391.636	86.69
391.86	81.69
392.085	69.69
392.31	89.69
392.534	84.69
392.759	95.69
392.984	90.69
393.208	90.69
393.433	93.69
393.658	104.69
393.882	91.69
394.107	68.69
394.331	78.69
394.556	93.69
394.78	83.69
395.005	69.69
395.229	89.69
395.454	76.69
395.678	84.69
395.903	84.69
396.127	89.69
396.352	91.69
396.576	84.69
396.801	101.69
397.025	93.69
397.249	88.69
397.474	98.69
397.698	87.69
397.922	87.69
398.147	89.69
398.371	93.69
398.595	86.69
398.82	92.69
399.044	70.69
399.268	97.69
399.492	94.69
399.717	89.69
399.941	92.69
400.165	86.69
400.389	83.69
400.613	99.69
400.837	91.69
401.062	89.69
401.286	76.69
401.51	79.69
401.734	101.69
401.958	86.69
402.182	140.69
402.406	186.69
402.63	156.69
402.854	111.69
403.078	83.69
403.302	88.69
403.526	85.69
403.75	88.69
403.974	99.69
404.198	100.69
404.422	93.69
404.645	90.69
404.869	86.69
405.093	106.69
405.317	127.69
405.541	109.69
405.765	127.69
405.988	125.69
406.212	211.69
406.436	307.69
406.66	215.69
406.883	106.69
407.107	104.69
407.331	108.69
407.555	107.69
407.778	104.69
408.002	93.69
408.226	104.69
408.449	92.69
408.673	92.69
408.896	80.69
409.12	101.69
409.344	78.69
409.567	84.69
409.791	89.69
410.014	74.69
410.238	92.69
410.461	82.69
410.685	100.69
410.908	91.69
411.132	114.69
411.355	112.69
411.578	77.69
411.802	87.69
412.025	85.69
412.249	94.69
412.472	102.69
412.695	137.69
412.919	80.69
413.142	90.69
413.365	85.69
413.589	73.69
413.812	97.69
414.035	91.69
414.258	82.69
414.482	99.69
414.705	96.69
414.928	97.69
415.151	84.69
415.374	98.69
415.597	98.69
415.821	91.69
416.044	91.69
416.267	94.69
416.49	79.69
416.713	95.69
416.936	78.69
417.159	94.69
417.382	94.69
417.605	102.69
417.828	100.69
418.051	93.69
418.274	95.69
418.497	79.69
418.72	84.69
418.943	81.69
419.166	82.69
419.389	99.69
419.611	92.69
419.834	92.69
420.057	82.69
420.28	78.69
420.503	72.69
420.726	87.69
420.948	91.69
421.171	107.69
421.394	98.69
421.617	92.69
421.839	97.69
422.062	88.69
422.285	90.69
422.507	83.69
422.73	107.69
422.953	83.69
423.175	71.69
423.398	100.69
423.621	93.69
423.843	84.69
424.066	86.69
424.288	90.69
424.511	96.69
424.733	90.69
424.956	114.69
425.178	105.69
425.401	104.69
425.623	119.69
425.846	107.69
426.068	104.69
426.291	104.69
426.513	91.69
426.735	89.69
426.958	96.69
427.18	116.69
427.402	153.69
427.625	228.69
427.847	219.69
428.069	191.69
428.292	121.69
428.514	91.69
428.736	88.69
428.958	88.69
429.181	83.69
429.403	80.69
429.625	93.69
429.847	109.69
430.069	105.69
430.292	101.69
430.514	86.69
430.736	68.69
430.958	84.69
431.18	88.69
431.402	79.69
431.624	66.69
431.846	84.69
432.068	72.69
432.29	84.69
432.512	82.69
432.734	86.69
432.956	100.69
433.178	104.69
433.4	99.69
433.622	90.69
433.844	66.69
434.066	82.69
434.287	104.69
434.509	86.69
434.731	97.69
434.953	94.69
435.175	80.69
435.397	69.69
435.618	96.69
435.84	109.69
436.062	130.69
436.284	114.69
436.505	98.69
436.727	101.69
436.949	99.69
437.17	95.69
437.392	91.69
437.614	88.69
437.835	113.69
438.057	141.69
438.278	111.69
438.5	117.69
438.721	135.69
438.943	103.69
439.165	81.69
439.386	84.69
439.608	89.69
439.829	107.69
440.05	141.69
440.272	180.69
440.493	113.69
440.715	100.69
440.936	98.69
441.158	86.69
441.379	89.69
441.6	93.69
441.822	98.69
442.043	106.69
442.264	123.69
442.486	118.69
442.707	103.69
442.928	127.69
443.149	153.69
443.371	162.69
443.592	121.69
443.813	105.69
444.034	127.69
444.255	95.69
444.476	96.69
444.698	78.69
444.919	86.69
445.14	140.69
445.361	135.69
445.582	123.69
445.803	168.69
446.024	166.69
446.245	159.69
446.466	132.69
446.687	93.69
446.908	84.69
447.129	81.69
447.35	71.69
447.571	88.69
447.792	92.69
448.013	109.69
448.234	112.69
448.455	106.69
448.675	127.69
448.896	121.69
449.117	121.69
449.338	116.69
449.559	142.69
449.779	137.69
450	95.69
450.221	88.69
450.442	101.69
450.662	99.69
450.883	134.69
451.104	143.69
451.324	101.69
451.545	92.69
451.766	91.69
451.986	94.69
452.207	101.69
452.428	98.69
452.648	90.69
452.869	102.69
453.089	116.69
453.31	139.69
453.53	105.69
453.751	102.69
453.971	124.69
454.192	140.69
454.412	109.69
454.633	88.69
454.853	90.69
455.073	75.69
455.294	92.69
455.514	105.69
455.734	95.69
455.955	87.69
456.175	89.69
456.395	79.69
456.616	89.69
456.836	87.69
457.056	77.69
457.276	88.69
457.497	79.69
457.717	90.69
457.937	92.69
458.157	96.69
458.377	100.69
458.598	131.69
458.818	211.69
459.038	218.69
459.258	144.69
459.478	77.69
459.698	94.69
459.918	104.69
460.138	92.69
460.358	85.69
460.578	96.69
460.798	82.69
461.018	79.69
461.238	81.69
461.458	84.69
461.678	73.69
461.898	84.69
462.118	84.69
462.338	82.69
462.558	80.69
462.777	91.69
462.997	89.69
463.217	98.69
463.437	85.69
463.657	86.69
463.876	88.69
464.096	91.69
464.316	116.69
464.536	92.69
464.755	104.69
464.975	132.69
465.195	215.69
465.414	230.69
465.634	109.69
465.854	91.69
466.073	91.69
466.293	95.69
466.512	91.69
466.732	86.69
466.951	94.69
467.171	101.69
467.391	105.69
467.61	120.69
467.829	151.69
468.049	316.69
468.268	469.69
468.488	162.69
468.707	105.69
468.927	74.69
469.146	83.69
469.365	91.69
469.585	85.69
469.804	101.69
470.023	96.69
470.243	95.69
470.462	95.69
470.681	133.69
470.901	98.69
471.12	81.69
471.339	100.69
471.558	103.69
471.777	106.69
471.997	191.69
472.216	561.69
472.435	1333.69
472.654	355.69
472.873	133.69
473.092	92.69
473.311	88.69
473.53	86.69
473.749	99.69
473.968	95.69
474.187	118.69
474.406	106.69
474.625	96.69
474.844	80.69
475.063	83.69
475.282	66.69
475.501	58.69
475.72	93.69
475.939	84.69
476.158	88.69
476.377	95.69
476.596	98.69
476.814	87.69
477.033	113.69
477.252	94.69
477.471	82.69
477.69	83.69
477.908	97.69
478.127	95.69
478.346	94.69
478.564	107.69
478.783	118.69
479.002	104.69
479.22	103.69
479.439	111.69
479.658	107.69
479.876	109.69
480.095	105.69
480.313	98.69
480.532	129.69
480.751	185.69
480.969	524.69
481.188	2188.69
481.406	1446.69
481.624	252.69
481.843	129.69
482.061	89.69
482.28	82.69
482.498	99.69
482.717	103.69
482.935	81.69
483.153	81.69
483.372	85.69
483.59	93.69
483.808	98.69
484.027	82.69
484.245	99.69
484.463	78.69
484.681	101.69
484.9	90.69
485.118	93.69
485.336	80.69
485.554	101.69
485.772	96.69
485.99	102.69
486.209	98.69
486.427	90.69
486.645	116.69
486.863	109.69
487.081	101.69
487.299	102.69
487.517	89.69
487.735	81.69
487.953	88.69
488.171	81.69
488.389	83.69
488.607	102.69
488.825	87.69
489.043	73.69
489.261	90.69
489.479	84.69
489.696	88.69
489.914	93.69
490.132	79.69
490.35	80.69
490.568	93.69
490.786	83.69
491.003	81.69
491.221	93.69
491.439	94.69
491.657	77.69
491.874	99.69
492.092	102.69
492.31	81.69
492.527	88.69
492.745	95.69
492.963	95.69
493.18	95.69
493.398	103.69
493.615	96.69
493.833	91.69
494.05	91.69
494.268	72.69
494.485	97.69
494.703	80.69
494.92	87.69
495.138	75.69
495.355	94.69
495.573	83.69
495.79	90.69
496.008	96.69
496.225	90.69
496.442	82.69
496.66	95.69
496.877	72.69
497.094	92.69
497.312	102.69
497.529	83.69
497.746	96.69
497.963	101.69
498.181	95.69
498.398	91.69
498.615	115.69
498.832	107.69
499.049	109.69
499.267	92.69
499.484	96.69
499.701	92.69
499.918	98.69
500.135	95.69
500.352	96.69
500.569	114.69
500.786	95.69
501.003	84.69
501.22	86.69
501.437	82.69
501.654	93.69
501.871	113.69
502.088	86.69
502.305	100.69
502.522	98.69
502.739	78.69
502.956	86.69
503.172	101.69
503.389	96.69
503.606	115.69
503.823	116.69
504.04	104.69
504.256	99.69
504.473	88.69
504.69	82.69
504.907	89.69
505.123	83.69
505.34	87.69
505.557	95.69
505.773	87.69
505.99	75.69
506.207	86.69
506.423	100.69
506.64	100.69
506.856	97.69
507.073	94.69
507.289	98.69
507.506	101.69
507.722	122.69
507.939	143.69
508.155	108.69
508.372	107.69
508.588	103.69
508.805	107.69
509.021	94.69
509.238	95.69
509.454	105.69
509.67	99.69
509.887	108.69
510.103	132.69
510.319	216.69
510.536	869.69
510.752	3060.69
510.968	864.69
511.184	179.69
511.401	135.69
511.617	123.69
511.833	111.69
512.049	101.69
512.265	84.69
512.481	96.69
512.698	87.69
512.914	84.69
513.13	103.69
513.346	97.69
513.562	102.69
513.778	95.69
513.994	107.69
514.21	113.69
