Data from Circ_2013_H10_HRD10591_00006.txt Node
Date: Wed Jan 03 10:04:01 EST 2024
User: Yrep
Spectrometer: HR+D1059
Trigger mode: 1
Integration Time (sec): 1.000000E-1
Scans to average: 1
Electric dark correction enabled: true
Nonlinearity correction enabled: false
Boxcar width: 0
XAxis mode: Wavelengths
Number of Pixels in Spectrum: 2048
>>>>>Begin Spectral Data<<<<<
223.165	-12.31
223.4	-12.31
223.635	-12.31
223.869	-26.31
224.104	-9.31
224.338	-11.31
224.573	-5.31
224.808	-10.31
225.042	-15.31
225.277	-23.31
225.511	-3.31
225.746	-5.31
225.98	12.69
226.215	11.69
226.449	20.69
226.683	12.69
226.918	36.69
227.152	27.69
227.387	31.69
227.621	35.69
227.856	41.69
228.09	42.69
228.324	54.69
228.559	56.69
228.793	65.69
229.027	51.69
229.262	56.69
229.496	58.69
229.73	79.69
229.964	87.69
230.199	72.69
230.433	71.69
230.667	89.69
230.901	65.69
231.136	77.69
231.37	66.69
231.604	60.69
231.838	78.69
232.072	73.69
232.306	86.69
232.541	69.69
232.775	80.69
233.009	71.69
233.243	59.69
233.477	73.69
233.711	74.69
233.945	87.69
234.179	80.69
234.413	81.69
234.647	74.69
234.881	79.69
235.115	83.69
235.349	84.69
235.583	65.69
235.817	75.69
236.051	67.69
236.285	72.69
236.519	88.69
236.753	74.69
236.987	75.69
237.221	90.69
237.455	85.69
237.689	68.69
237.922	70.69
238.156	55.69
238.39	62.69
238.624	88.69
238.858	66.69
239.091	70.69
239.325	66.69
239.559	74.69
239.793	68.69
240.027	82.69
240.26	83.69
240.494	60.69
240.728	81.69
240.961	92.69
241.195	73.69
241.429	82.69
241.662	66.69
241.896	65.69
242.13	67.69
242.363	68.69
242.597	61.69
242.83	78.69
243.064	76.69
243.298	71.69
243.531	59.69
243.765	75.69
243.998	67.69
244.232	81.69
244.465	87.69
244.699	67.69
244.932	88.69
245.166	84.69
245.399	80.69
245.633	74.69
245.866	65.69
246.099	59.69
246.333	64.69
246.566	80.69
246.8	70.69
247.033	69.69
247.266	88.69
247.5	90.69
247.733	80.69
247.966	83.69
248.2	83.69
248.433	88.69
248.666	67.69
248.899	73.69
249.133	59.69
249.366	79.69
249.599	90.69
249.832	88.69
250.066	83.69
250.299	71.69
250.532	76.69
250.765	78.69
250.998	60.69
251.231	76.69
251.465	70.69
251.698	70.69
251.931	86.69
252.164	78.69
252.397	91.69
252.63	73.69
252.863	84.69
253.096	82.69
253.329	83.69
253.562	70.69
253.795	67.69
254.028	78.69
254.261	84.69
254.494	76.69
254.727	89.69
254.96	71.69
255.193	70.69
255.426	74.69
255.659	72.69
255.892	79.69
256.124	91.69
256.357	79.69
256.59	75.69
256.823	80.69
257.056	89.69
257.289	88.69
257.521	85.69
257.754	67.69
257.987	80.69
258.22	84.69
258.452	78.69
258.685	76.69
258.918	67.69
259.151	73.69
259.383	86.69
259.616	74.69
259.849	80.69
260.081	76.69
260.314	98.69
260.547	80.69
260.779	81.69
261.012	96.69
261.244	85.69
261.477	80.69
261.71	94.69
261.942	100.69
262.175	111.69
262.407	82.69
262.64	63.69
262.872	81.69
263.105	85.69
263.337	79.69
263.57	89.69
263.802	67.69
264.035	76.69
264.267	85.69
264.499	70.69
264.732	74.69
264.964	83.69
265.197	76.69
265.429	93.69
265.661	89.69
265.894	97.69
266.126	79.69
266.358	80.69
266.591	80.69
266.823	84.69
267.055	91.69
267.287	96.69
267.52	70.69
267.752	79.69
267.984	92.69
268.216	76.69
268.448	73.69
268.681	82.69
268.913	83.69
269.145	62.69
269.377	70.69
269.609	79.69
269.841	80.69
270.073	88.69
270.306	95.69
270.538	73.69
270.77	82.69
271.002	78.69
271.234	99.69
271.466	79.69
271.698	87.69
271.93	89.69
272.162	90.69
272.394	96.69
272.626	76.69
272.858	97.69
273.09	84.69
273.322	76.69
273.553	83.69
273.785	87.69
274.017	82.69
274.249	91.69
274.481	82.69
274.713	70.69
274.945	77.69
275.176	96.69
275.408	66.69
275.64	80.69
275.872	90.69
276.104	90.69
276.335	97.69
276.567	89.69
276.799	107.69
277.031	108.69
277.262	113.69
277.494	88.69
277.726	102.69
277.957	82.69
278.189	89.69
278.421	88.69
278.652	92.69
278.884	95.69
279.115	76.69
279.347	85.69
279.579	81.69
279.81	100.69
280.042	114.69
280.273	134.69
280.505	98.69
280.736	95.69
280.968	86.69
281.199	81.69
281.431	88.69
281.662	91.69
281.894	91.69
282.125	87.69
282.356	104.69
282.588	123.69
282.819	114.69
283.051	73.69
283.282	82.69
283.513	86.69
283.745	88.69
283.976	91.69
284.207	80.69
284.439	73.69
284.67	88.69
284.901	78.69
285.132	79.69
285.364	90.69
285.595	78.69
285.826	92.69
286.057	86.69
286.288	87.69
286.52	89.69
286.751	67.69
286.982	84.69
287.213	80.69
287.444	79.69
287.675	79.69
287.906	82.69
288.138	92.69
288.369	86.69
288.6	84.69
288.831	76.69
289.062	80.69
289.293	90.69
289.524	79.69
289.755	90.69
289.986	82.69
290.217	82.69
290.448	76.69
290.679	79.69
290.91	82.69
291.141	88.69
291.371	96.69
291.602	83.69
291.833	89.69
292.064	88.69
292.295	97.69
292.526	78.69
292.757	104.69
292.987	80.69
293.218	75.69
293.449	83.69
293.68	80.69
293.91	86.69
294.141	81.69
294.372	88.69
294.603	84.69
294.833	80.69
295.064	80.69
295.295	75.69
295.525	99.69
295.756	95.69
295.987	104.69
296.217	132.69
296.448	114.69
296.679	76.69
296.909	80.69
297.14	78.69
297.37	84.69
297.601	88.69
297.831	78.69
298.062	91.69
298.292	88.69
298.523	80.69
298.753	80.69
298.984	83.69
299.214	90.69
299.445	83.69
299.675	77.69
299.905	89.69
300.136	96.69
300.366	90.69
300.597	98.69
300.827	82.69
301.057	101.69
301.288	99.69
301.518	98.69
301.748	70.69
301.979	97.69
302.209	88.69
302.439	98.69
302.669	87.69
302.9	92.69
303.13	90.69
303.36	107.69
303.59	99.69
303.82	97.69
304.051	87.69
304.281	87.69
304.511	83.69
304.741	81.69
304.971	85.69
305.201	98.69
305.431	80.69
305.661	86.69
305.891	90.69
306.121	89.69
306.352	94.69
306.582	80.69
306.812	89.69
307.042	76.69
307.272	98.69
307.502	114.69
307.731	98.69
307.961	91.69
308.191	97.69
308.421	83.69
308.651	83.69
308.881	85.69
309.111	81.69
309.341	75.69
309.571	100.69
309.8	84.69
310.03	100.69
310.26	96.69
310.49	94.69
310.72	96.69
310.949	97.69
311.179	99.69
311.409	99.69
311.639	93.69
311.868	84.69
312.098	90.69
312.328	91.69
312.557	98.69
312.787	106.69
313.017	91.69
313.246	83.69
313.476	87.69
313.706	82.69
313.935	91.69
314.165	95.69
314.394	103.69
314.624	88.69
314.853	91.69
315.083	96.69
315.312	92.69
315.542	90.69
315.771	88.69
316.001	90.69
316.23	93.69
316.46	86.69
316.689	82.69
316.919	94.69
317.148	89.69
317.377	76.69
317.607	100.69
317.836	91.69
318.065	91.69
318.295	94.69
318.524	97.69
318.753	83.69
318.983	77.69
319.212	91.69
319.441	104.69
319.67	101.69
319.9	84.69
320.129	87.69
320.358	84.69
320.587	83.69
320.816	104.69
321.046	100.69
321.275	100.69
321.504	92.69
321.733	91.69
321.962	83.69
322.191	112.69
322.42	101.69
322.649	103.69
322.878	108.69
323.108	113.69
323.337	125.69
323.566	126.69
323.795	150.69
324.024	219.69
324.253	394.69
324.482	826.69
324.71	1726.69
324.939	2310.69
325.168	838.69
325.397	250.69
325.626	137.69
325.855	128.69
326.084	134.69
326.313	131.69
326.542	154.69
326.77	232.69
326.999	469.69
327.228	974.69
327.457	1779.69
327.686	1419.69
327.914	401.69
328.143	278.69
328.372	275.69
328.6	179.69
328.829	126.69
329.058	131.69
329.287	137.69
329.515	137.69
329.744	146.69
329.972	198.69
330.201	335.69
330.43	499.69
330.658	266.69
330.887	191.69
331.115	144.69
331.344	107.69
331.572	109.69
331.801	97.69
332.03	122.69
332.258	97.69
332.486	92.69
332.715	90.69
332.943	92.69
333.172	95.69
333.4	95.69
333.629	118.69
333.857	133.69
334.085	199.69
334.314	306.69
334.542	594.69
334.771	585.69
334.999	184.69
335.227	104.69
335.455	97.69
335.684	92.69
335.912	96.69
336.14	95.69
336.369	90.69
336.597	102.69
336.825	92.69
337.053	86.69
337.281	89.69
337.51	68.69
337.738	84.69
337.966	94.69
338.194	110.69
338.422	93.69
338.65	100.69
338.878	86.69
339.106	83.69
339.334	90.69
339.562	82.69
339.79	90.69
340.018	84.69
340.246	89.69
340.474	100.69
340.702	92.69
340.93	76.69
341.158	82.69
341.386	88.69
341.614	83.69
341.842	102.69
342.07	93.69
342.298	95.69
342.526	89.69
342.754	90.69
342.981	87.69
343.209	91.69
343.437	98.69
343.665	86.69
343.893	88.69
344.12	89.69
344.348	76.69
344.576	80.69
344.804	97.69
345.031	110.69
345.259	109.69
345.487	98.69
345.714	75.69
345.942	89.69
346.17	86.69
346.397	100.69
346.625	90.69
346.853	80.69
347.08	94.69
347.308	106.69
347.535	95.69
347.763	97.69
347.99	86.69
348.218	96.69
348.445	106.69
348.673	100.69
348.9	98.69
349.128	97.69
349.355	98.69
349.583	78.69
349.81	94.69
350.037	95.69
350.265	106.69
350.492	91.69
350.72	88.69
350.947	87.69
351.174	112.69
351.402	108.69
351.629	100.69
351.856	91.69
352.083	87.69
352.311	99.69
352.538	111.69
352.765	98.69
352.992	105.69
353.22	98.69
353.447	107.69
353.674	87.69
353.901	104.69
354.128	94.69
354.355	92.69
354.583	89.69
354.81	114.69
355.037	90.69
355.264	95.69
355.491	96.69
355.718	95.69
355.945	89.69
356.172	87.69
356.399	102.69
356.626	86.69
356.853	90.69
357.08	94.69
357.307	83.69
357.534	87.69
357.761	86.69
357.988	92.69
358.215	91.69
358.441	117.69
358.668	96.69
358.895	89.69
359.122	107.69
359.349	98.69
359.576	89.69
359.802	112.69
360.029	126.69
360.256	114.69
360.483	110.69
360.709	78.69
360.936	91.69
361.163	101.69
361.39	92.69
361.616	96.69
361.843	93.69
362.07	89.69
362.296	92.69
362.523	99.69
362.749	93.69
362.976	87.69
363.203	82.69
363.429	79.69
363.656	82.69
363.882	66.69
364.109	72.69
364.335	89.69
364.562	92.69
364.788	103.69
365.015	98.69
365.241	95.69
365.468	96.69
365.694	100.69
365.92	92.69
366.147	94.69
366.373	94.69
366.599	95.69
366.826	89.69
367.052	87.69
367.278	85.69
367.505	85.69
367.731	88.69
367.957	74.69
368.184	103.69
368.41	94.69
368.636	104.69
368.862	132.69
369.089	98.69
369.315	82.69
369.541	85.69
369.767	87.69
369.993	89.69
370.219	84.69
370.445	100.69
370.672	77.69
370.898	76.69
371.124	79.69
371.35	77.69
371.576	82.69
371.802	86.69
372.028	76.69
372.254	79.69
372.48	82.69
372.706	89.69
372.932	87.69
373.158	82.69
373.384	85.69
373.61	75.69
373.835	84.69
374.061	91.69
374.287	89.69
374.513	100.69
374.739	85.69
374.965	76.69
375.191	87.69
375.416	90.69
375.642	95.69
375.868	85.69
376.094	88.69
376.319	84.69
376.545	89.69
376.771	89.69
376.997	87.69
377.222	75.69
377.448	91.69
377.674	80.69
377.899	85.69
378.125	77.69
378.35	85.69
378.576	98.69
378.802	91.69
379.027	77.69
379.253	79.69
379.478	94.69
379.704	94.69
379.929	85.69
380.155	105.69
380.38	86.69
380.606	94.69
380.831	101.69
381.057	106.69
381.282	94.69
381.507	97.69
381.733	100.69
381.958	90.69
382.184	98.69
382.409	113.69
382.634	108.69
382.86	112.69
383.085	96.69
383.31	110.69
383.535	89.69
383.761	97.69
383.986	113.69
384.211	102.69
384.436	107.69
384.662	100.69
384.887	117.69
385.112	107.69
385.337	133.69
385.562	130.69
385.787	110.69
386.013	128.69
386.238	132.69
386.463	118.69
386.688	124.69
386.913	115.69
387.138	121.69
387.363	119.69
387.588	107.69
387.813	111.69
388.038	117.69
388.263	131.69
388.488	124.69
388.713	89.69
388.938	94.69
389.163	91.69
389.387	90.69
389.612	93.69
389.837	84.69
390.062	99.69
390.287	86.69
390.512	100.69
390.736	100.69
390.961	93.69
391.186	87.69
391.411	92.69
391.636	79.69
391.86	82.69
392.085	88.69
392.31	87.69
392.534	94.69
392.759	91.69
392.984	76.69
393.208	86.69
393.433	118.69
393.658	107.69
393.882	86.69
394.107	86.69
394.331	82.69
394.556	87.69
394.78	74.69
395.005	79.69
395.229	80.69
395.454	90.69
395.678	81.69
395.903	86.69
396.127	79.69
396.352	81.69
396.576	82.69
396.801	87.69
397.025	106.69
397.249	81.69
397.474	87.69
397.698	87.69
397.922	80.69
398.147	94.69
398.371	75.69
398.595	66.69
398.82	86.69
399.044	74.69
399.268	85.69
399.492	89.69
399.717	89.69
399.941	82.69
400.165	89.69
400.389	84.69
400.613	89.69
400.837	86.69
401.062	79.69
401.286	81.69
401.51	86.69
401.734	83.69
401.958	88.69
402.182	115.69
402.406	149.69
402.63	107.69
402.854	99.69
403.078	92.69
403.302	80.69
403.526	87.69
403.75	91.69
403.974	87.69
404.198	72.69
404.422	75.69
404.645	84.69
404.869	85.69
405.093	112.69
405.317	110.69
405.541	97.69
405.765	88.69
405.988	120.69
406.212	161.69
406.436	231.69
406.66	152.69
406.883	94.69
407.107	116.69
407.331	104.69
407.555	96.69
407.778	95.69
408.002	84.69
408.226	101.69
408.449	85.69
408.673	77.69
408.896	82.69
409.12	94.69
409.344	101.69
409.567	86.69
409.791	77.69
410.014	97.69
410.238	91.69
410.461	89.69
410.685	82.69
410.908	88.69
411.132	101.69
411.355	108.69
411.578	97.69
411.802	89.69
412.025	95.69
412.249	96.69
412.472	103.69
412.695	111.69
412.919	102.69
413.142	88.69
413.365	85.69
413.589	74.69
413.812	72.69
414.035	76.69
414.258	88.69
414.482	95.69
414.705	92.69
414.928	91.69
415.151	100.69
415.374	97.69
415.597	85.69
415.821	95.69
416.044	89.69
416.267	90.69
416.49	74.69
416.713	85.69
416.936	97.69
417.159	87.69
417.382	84.69
417.605	72.69
417.828	98.69
418.051	94.69
418.274	96.69
418.497	73.69
418.72	83.69
418.943	74.69
419.166	81.69
419.389	87.69
419.611	79.69
419.834	89.69
420.057	97.69
420.28	103.69
420.503	88.69
420.726	79.69
420.948	82.69
421.171	84.69
421.394	84.69
421.617	95.69
421.839	83.69
422.062	84.69
422.285	88.69
422.507	98.69
422.73	96.69
422.953	91.69
423.175	90.69
423.398	79.69
423.621	76.69
423.843	83.69
424.066	81.69
424.288	100.69
424.511	103.69
424.733	91.69
424.956	122.69
425.178	116.69
425.401	100.69
425.623	95.69
425.846	78.69
426.068	80.69
426.291	87.69
426.513	91.69
426.735	86.69
426.958	92.69
427.18	107.69
427.402	139.69
427.625	201.69
427.847	185.69
428.069	169.69
428.292	103.69
428.514	99.69
428.736	93.69
428.958	89.69
429.181	68.69
429.403	78.69
429.625	86.69
429.847	93.69
430.069	89.69
430.292	90.69
430.514	80.69
430.736	82.69
430.958	94.69
431.18	98.69
431.402	91.69
431.624	94.69
431.846	81.69
432.068	93.69
432.29	73.69
432.512	81.69
432.734	73.69
432.956	85.69
433.178	106.69
433.4	90.69
433.622	86.69
433.844	82.69
434.066	90.69
434.287	94.69
434.509	79.69
434.731	83.69
434.953	90.69
435.175	82.69
435.397	75.69
435.618	99.69
435.84	111.69
436.062	126.69
436.284	127.69
436.505	96.69
436.727	95.69
436.949	99.69
437.17	77.69
437.392	92.69
437.614	105.69
437.835	103.69
438.057	134.69
438.278	110.69
438.5	108.69
438.721	134.69
438.943	94.69
439.165	73.69
439.386	89.69
439.608	96.69
439.829	94.69
440.05	130.69
440.272	170.69
440.493	103.69
440.715	96.69
440.936	85.69
441.158	91.69
441.379	78.69
441.6	96.69
441.822	99.69
442.043	96.69
442.264	105.69
442.486	102.69
442.707	94.69
442.928	100.69
443.149	122.69
443.371	141.69
443.592	127.69
443.813	98.69
444.034	106.69
444.255	80.69
444.476	91.69
444.698	88.69
444.919	95.69
445.14	131.69
445.361	127.69
445.582	117.69
445.803	137.69
446.024	146.69
446.245	144.69
446.466	121.69
446.687	82.69
446.908	95.69
447.129	87.69
447.35	81.69
447.571	91.69
447.792	95.69
448.013	94.69
448.234	95.69
448.455	103.69
448.675	118.69
448.896	137.69
449.117	95.69
449.338	114.69
449.559	154.69
449.779	137.69
450	94.69
450.221	78.69
450.442	92.69
450.662	82.69
450.883	104.69
451.104	108.69
451.324	87.69
451.545	84.69
451.766	89.69
451.986	80.69
452.207	88.69
452.428	73.69
452.648	107.69
452.869	102.69
453.089	119.69
453.31	108.69
453.53	90.69
453.751	88.69
453.971	81.69
454.192	116.69
454.412	95.69
454.633	92.69
454.853	86.69
455.073	93.69
455.294	85.69
455.514	91.69
455.734	80.69
455.955	85.69
456.175	84.69
456.395	82.69
456.616	84.69
456.836	81.69
457.056	86.69
457.276	87.69
457.497	91.69
457.717	79.69
457.937	95.69
458.157	98.69
458.377	98.69
458.598	110.69
458.818	166.69
459.038	196.69
459.258	128.69
459.478	105.69
459.698	88.69
459.918	75.69
460.138	86.69
460.358	86.69
460.578	94.69
460.798	66.69
461.018	94.69
461.238	85.69
461.458	71.69
461.678	83.69
461.898	79.69
462.118	78.69
462.338	75.69
462.558	87.69
462.777	76.69
462.997	76.69
463.217	81.69
463.437	100.69
463.657	92.69
463.876	104.69
464.096	84.69
464.316	86.69
464.536	94.69
464.755	82.69
464.975	92.69
465.195	171.69
465.414	192.69
465.634	101.69
465.854	92.69
466.073	85.69
466.293	89.69
466.512	89.69
466.732	85.69
466.951	88.69
467.171	91.69
467.391	89.69
467.61	95.69
467.829	119.69
468.049	186.69
468.268	266.69
468.488	114.69
468.707	97.69
468.927	86.69
469.146	80.69
469.365	91.69
469.585	91.69
469.804	96.69
470.023	87.69
470.243	96.69
470.462	100.69
470.681	105.69
470.901	87.69
471.12	73.69
471.339	90.69
471.558	91.69
471.777	99.69
471.997	130.69
472.216	326.69
472.435	724.69
472.654	235.69
472.873	111.69
473.092	99.69
473.311	89.69
473.53	81.69
473.749	97.69
473.968	107.69
474.187	126.69
474.406	93.69
474.625	96.69
474.844	83.69
475.063	94.69
475.282	89.69
475.501	86.69
475.72	85.69
475.939	78.69
476.158	82.69
476.377	85.69
476.596	86.69
476.814	89.69
477.033	101.69
477.252	76.69
477.471	85.69
477.69	87.69
477.908	86.69
478.127	86.69
478.346	83.69
478.564	80.69
478.783	104.69
479.002	98.69
479.22	87.69
479.439	120.69
479.658	106.69
479.876	94.69
480.095	86.69
480.313	98.69
480.532	104.69
480.751	138.69
480.969	333.69
481.188	1174.69
481.406	796.69
481.624	177.69
481.843	99.69
482.061	80.69
482.28	78.69
482.498	91.69
482.717	88.69
482.935	93.69
483.153	76.69
483.372	85.69
483.59	76.69
483.808	87.69
484.027	82.69
484.245	90.69
484.463	110.69
484.681	90.69
484.9	88.69
485.118	97.69
485.336	94.69
485.554	100.69
485.772	95.69
485.99	103.69
486.209	99.69
486.427	79.69
486.645	118.69
486.863	108.69
487.081	97.69
487.299	93.69
487.517	95.69
487.735	82.69
487.953	84.69
488.171	81.69
488.389	94.69
488.607	94.69
488.825	99.69
489.043	95.69
489.261	90.69
489.479	87.69
489.696	81.69
489.914	75.69
490.132	92.69
490.35	80.69
490.568	82.69
490.786	77.69
491.003	71.69
491.221	92.69
491.439	79.69
491.657	90.69
491.874	81.69
492.092	68.69
492.31	70.69
492.527	83.69
492.745	91.69
492.963	79.69
493.18	86.69
493.398	81.69
493.615	84.69
493.833	94.69
494.05	76.69
494.268	85.69
494.485	98.69
494.703	95.69
494.92	82.69
495.138	91.69
495.355	88.69
495.573	95.69
495.79	90.69
496.008	83.69
496.225	88.69
496.442	90.69
496.66	80.69
496.877	84.69
497.094	83.69
497.312	91.69
497.529	73.69
497.746	82.69
497.963	102.69
498.181	89.69
498.398	90.69
498.615	104.69
498.832	96.69
499.049	92.69
499.267	74.69
499.484	88.69
499.701	82.69
499.918	83.69
500.135	88.69
500.352	87.69
500.569	89.69
500.786	94.69
501.003	89.69
501.22	84.69
501.437	95.69
501.654	96.69
501.871	115.69
502.088	92.69
502.305	80.69
502.522	82.69
502.739	87.69
502.956	88.69
503.172	66.69
503.389	87.69
503.606	110.69
503.823	88.69
504.04	98.69
504.256	85.69
504.473	92.69
504.69	84.69
504.907	82.69
505.123	96.69
505.34	86.69
505.557	99.69
505.773	89.69
505.99	85.69
506.207	86.69
506.423	87.69
506.64	79.69
506.856	86.69
507.073	80.69
507.289	83.69
507.506	90.69
507.722	110.69
507.939	109.69
508.155	84.69
508.372	78.69
508.588	94.69
508.805	89.69
509.021	89.69
509.238	105.69
509.454	93.69
509.67	86.69
509.887	110.69
510.103	119.69
510.319	184.69
510.536	641.69
510.752	2096.69
510.968	619.69
511.184	158.69
511.401	105.69
511.617	101.69
511.833	97.69
512.049	94.69
512.265	88.69
512.481	76.69
512.698	75.69
512.914	80.69
513.13	86.69
513.346	91.69
513.562	73.69
513.778	102.69
513.994	99.69
514.21	111.69
514.426	96.69
514.642	136.69
514.858	131.69
515.074	172.69
515.29	457.69
515.506	1552.69
515.721	615.69
515.937	169.69
