Data from Circ_2013_H10_HRD10591_00041.txt Node
Date: Wed Jan 03 10:04:08 EST 2024
User: Yrep
Spectrometer: HR+D1059
Trigger mode: 1
Integration Time (sec): 1.000000E-1
Scans to average: 1
Electric dark correction enabled: true
Nonlinearity correction enabled: false
Boxcar width: 0
XAxis mode: Wavelengths
Number of Pixels in Spectrum: 2048
>>>>>Begin Spectral Data<<<<<
223.165	-9.19
223.4	-9.19
223.635	-9.19
223.869	-7.19
224.104	-14.19
224.338	-12.19
224.573	-21.19
224.808	-8.19
225.042	-11.19
225.277	-2.19
225.511	-13.19
225.746	1.81
225.98	11.81
226.215	11.81
226.449	11.81
226.683	12.81
226.918	12.81
227.152	35.81
227.387	31.81
227.621	28.81
227.856	44.81
228.09	49.81
228.324	52.81
228.559	43.81
228.793	60.81
229.027	71.81
229.262	65.81
229.496	64.81
229.73	81.81
229.964	89.81
230.199	73.81
230.433	70.81
230.667	70.81
230.901	57.81
231.136	82.81
231.37	65.81
231.604	80.81
231.838	72.81
232.072	92.81
232.306	103.81
232.541	74.81
232.775	80.81
233.009	76.81
233.243	74.81
233.477	80.81
233.711	74.81
233.945	80.81
234.179	75.81
234.413	71.81
234.647	78.81
234.881	68.81
235.115	69.81
235.349	77.81
235.583	78.81
235.817	73.81
236.051	78.81
236.285	69.81
236.519	86.81
236.753	68.81
236.987	77.81
237.221	83.81
237.455	75.81
237.689	61.81
237.922	80.81
238.156	78.81
238.39	63.81
238.624	78.81
238.858	80.81
239.091	85.81
239.325	73.81
239.559	75.81
239.793	82.81
240.027	69.81
240.26	71.81
240.494	82.81
240.728	69.81
240.961	64.81
241.195	78.81
241.429	73.81
241.662	73.81
241.896	59.81
242.13	80.81
242.363	77.81
242.597	80.81
242.83	66.81
243.064	62.81
243.298	73.81
243.531	75.81
243.765	73.81
243.998	76.81
244.232	81.81
244.465	78.81
244.699	76.81
244.932	69.81
245.166	74.81
245.399	80.81
245.633	74.81
245.866	64.81
246.099	71.81
246.333	93.81
246.566	82.81
246.8	74.81
247.033	82.81
247.266	66.81
247.5	79.81
247.733	69.81
247.966	76.81
248.2	82.81
248.433	71.81
248.666	77.81
248.899	78.81
249.133	62.81
249.366	93.81
249.599	97.81
249.832	77.81
250.066	82.81
250.299	66.81
250.532	68.81
250.765	79.81
250.998	65.81
251.231	72.81
251.465	87.81
251.698	88.81
251.931	84.81
252.164	85.81
252.397	63.81
252.63	73.81
252.863	76.81
253.096	73.81
253.329	70.81
253.562	70.81
253.795	82.81
254.028	77.81
254.261	79.81
254.494	77.81
254.727	80.81
254.96	75.81
255.193	76.81
255.426	78.81
255.659	75.81
255.892	87.81
256.124	94.81
256.357	74.81
256.59	79.81
256.823	75.81
257.056	72.81
257.289	75.81
257.521	85.81
257.754	71.81
257.987	69.81
258.22	90.81
258.452	70.81
258.685	81.81
258.918	69.81
259.151	74.81
259.383	80.81
259.616	77.81
259.849	90.81
260.081	87.81
260.314	72.81
260.547	81.81
260.779	73.81
261.012	71.81
261.244	77.81
261.477	85.81
261.71	90.81
261.942	104.81
262.175	113.81
262.407	81.81
262.64	81.81
262.872	87.81
263.105	66.81
263.337	89.81
263.57	83.81
263.802	85.81
264.035	82.81
264.267	81.81
264.499	76.81
264.732	75.81
264.964	84.81
265.197	95.81
265.429	98.81
265.661	77.81
265.894	89.81
266.126	81.81
266.358	96.81
266.591	90.81
266.823	85.81
267.055	72.81
267.287	64.81
267.52	74.81
267.752	79.81
267.984	82.81
268.216	81.81
268.448	87.81
268.681	100.81
268.913	80.81
269.145	66.81
269.377	94.81
269.609	81.81
269.841	83.81
270.073	67.81
270.306	87.81
270.538	82.81
270.77	90.81
271.002	80.81
271.234	93.81
271.466	81.81
271.698	87.81
271.93	100.81
272.162	88.81
272.394	85.81
272.626	84.81
272.858	84.81
273.09	73.81
273.322	81.81
273.553	77.81
273.785	99.81
274.017	82.81
274.249	76.81
274.481	77.81
274.713	64.81
274.945	92.81
275.176	93.81
275.408	85.81
275.64	91.81
275.872	83.81
276.104	92.81
276.335	86.81
276.567	88.81
276.799	111.81
277.031	131.81
277.262	118.81
277.494	97.81
277.726	77.81
277.957	74.81
278.189	78.81
278.421	100.81
278.652	99.81
278.884	87.81
279.115	95.81
279.347	71.81
279.579	89.81
279.81	108.81
280.042	123.81
280.273	144.81
280.505	113.81
280.736	83.81
280.968	97.81
281.199	91.81
281.431	86.81
281.662	83.81
281.894	107.81
282.125	111.81
282.356	95.81
282.588	155.81
282.819	103.81
283.051	84.81
283.282	77.81
283.513	87.81
283.745	68.81
283.976	83.81
284.207	79.81
284.439	87.81
284.67	80.81
284.901	76.81
285.132	89.81
285.364	73.81
285.595	87.81
285.826	92.81
286.057	87.81
286.288	83.81
286.52	76.81
286.751	83.81
286.982	80.81
287.213	90.81
287.444	82.81
287.675	96.81
287.906	89.81
288.138	92.81
288.369	88.81
288.6	87.81
288.831	87.81
289.062	92.81
289.293	68.81
289.524	80.81
289.755	90.81
289.986	67.81
290.217	69.81
290.448	71.81
290.679	82.81
290.91	82.81
291.141	83.81
291.371	84.81
291.602	71.81
291.833	76.81
292.064	90.81
292.295	82.81
292.526	79.81
292.757	97.81
292.987	81.81
293.218	84.81
293.449	93.81
293.68	88.81
293.91	80.81
294.141	84.81
294.372	91.81
294.603	96.81
294.833	86.81
295.064	83.81
295.295	89.81
295.525	86.81
295.756	113.81
295.987	103.81
296.217	134.81
296.448	125.81
296.679	88.81
296.909	87.81
297.14	90.81
297.37	90.81
297.601	88.81
297.831	88.81
298.062	81.81
298.292	89.81
298.523	85.81
298.753	100.81
298.984	87.81
299.214	83.81
299.445	94.81
299.675	95.81
299.905	83.81
300.136	87.81
300.366	76.81
300.597	81.81
300.827	91.81
301.057	95.81
301.288	105.81
301.518	86.81
301.748	96.81
301.979	99.81
302.209	90.81
302.439	88.81
302.669	74.81
302.9	67.81
303.13	85.81
303.36	89.81
303.59	116.81
303.82	102.81
304.051	102.81
304.281	93.81
304.511	89.81
304.741	75.81
304.971	78.81
305.201	92.81
305.431	100.81
305.661	96.81
305.891	83.81
306.121	100.81
306.352	123.81
306.582	96.81
306.812	108.81
307.042	99.81
307.272	122.81
307.502	111.81
307.731	129.81
307.961	105.81
308.191	93.81
308.421	97.81
308.651	91.81
308.881	88.81
309.111	85.81
309.341	97.81
309.571	105.81
309.8	96.81
310.03	103.81
310.26	105.81
310.49	91.81
310.72	97.81
310.949	115.81
311.179	104.81
311.409	92.81
311.639	97.81
311.868	100.81
312.098	93.81
312.328	88.81
312.557	100.81
312.787	97.81
313.017	93.81
313.246	80.81
313.476	91.81
313.706	90.81
313.935	85.81
314.165	83.81
314.394	90.81
314.624	97.81
314.853	96.81
315.083	93.81
315.312	95.81
315.542	92.81
315.771	100.81
316.001	82.81
316.23	82.81
316.46	80.81
316.689	84.81
316.919	90.81
317.148	91.81
317.377	91.81
317.607	99.81
317.836	97.81
318.065	77.81
318.295	89.81
318.524	94.81
318.753	97.81
318.983	89.81
319.212	100.81
319.441	101.81
319.67	101.81
319.9	108.81
320.129	86.81
320.358	98.81
320.587	85.81
320.816	87.81
321.046	89.81
321.275	92.81
321.504	91.81
321.733	92.81
321.962	98.81
322.191	99.81
322.42	100.81
322.649	112.81
322.878	109.81
323.108	99.81
323.337	129.81
323.566	139.81
323.795	171.81
324.024	202.81
324.253	412.81
324.482	879.81
324.71	1850.81
324.939	2453.81
325.168	923.81
325.397	264.81
325.626	163.81
325.855	119.81
326.084	123.81
326.313	124.81
326.542	162.81
326.77	235.81
326.999	497.81
327.228	995.81
327.457	1829.81
327.686	1450.81
327.914	412.81
328.143	304.81
328.372	303.81
328.6	211.81
328.829	124.81
329.058	127.81
329.287	150.81
329.515	136.81
329.744	155.81
329.972	215.81
330.201	378.81
330.43	551.81
330.658	305.81
330.887	184.81
331.115	131.81
331.344	105.81
331.572	90.81
331.801	104.81
332.03	103.81
332.258	92.81
332.486	101.81
332.715	92.81
332.943	98.81
333.172	113.81
333.4	95.81
333.629	119.81
333.857	151.81
334.085	205.81
334.314	371.81
334.542	655.81
334.771	674.81
334.999	209.81
335.227	110.81
335.455	102.81
335.684	91.81
335.912	84.81
336.14	97.81
336.369	82.81
336.597	89.81
336.825	95.81
337.053	91.81
337.281	85.81
337.51	93.81
337.738	96.81
337.966	99.81
338.194	97.81
338.422	95.81
338.65	96.81
338.878	88.81
339.106	92.81
339.334	97.81
339.562	90.81
339.79	83.81
340.018	77.81
340.246	85.81
340.474	99.81
340.702	97.81
340.93	87.81
341.158	88.81
341.386	93.81
341.614	95.81
341.842	89.81
342.07	85.81
342.298	88.81
342.526	97.81
342.754	79.81
342.981	87.81
343.209	84.81
343.437	104.81
343.665	88.81
343.893	63.81
344.12	81.81
344.348	83.81
344.576	91.81
344.804	79.81
345.031	91.81
345.259	101.81
345.487	91.81
345.714	90.81
345.942	103.81
346.17	90.81
346.397	93.81
346.625	103.81
346.853	90.81
347.08	79.81
347.308	95.81
347.535	97.81
347.763	94.81
347.99	107.81
348.218	107.81
348.445	116.81
348.673	104.81
348.9	96.81
349.128	92.81
349.355	84.81
349.583	77.81
349.81	88.81
350.037	96.81
350.265	89.81
350.492	94.81
350.72	99.81
350.947	108.81
351.174	100.81
351.402	116.81
351.629	101.81
351.856	92.81
352.083	98.81
352.311	115.81
352.538	111.81
352.765	101.81
352.992	123.81
353.22	127.81
353.447	98.81
353.674	94.81
353.901	102.81
354.128	98.81
354.355	84.81
354.583	96.81
354.81	102.81
355.037	107.81
355.264	86.81
355.491	91.81
355.718	75.81
355.945	85.81
356.172	85.81
356.399	92.81
356.626	84.81
356.853	85.81
357.08	79.81
357.307	82.81
357.534	77.81
357.761	79.81
357.988	95.81
358.215	88.81
358.441	100.81
358.668	82.81
358.895	92.81
359.122	99.81
359.349	90.81
359.576	90.81
359.802	96.81
360.029	114.81
360.256	106.81
360.483	113.81
360.709	87.81
360.936	73.81
361.163	84.81
361.39	88.81
361.616	100.81
361.843	98.81
362.07	87.81
362.296	99.81
362.523	83.81
362.749	79.81
362.976	84.81
363.203	89.81
363.429	89.81
363.656	100.81
363.882	85.81
364.109	89.81
364.335	98.81
364.562	86.81
364.788	100.81
365.015	93.81
365.241	100.81
365.468	113.81
365.694	102.81
365.92	112.81
366.147	89.81
366.373	94.81
366.599	86.81
366.826	87.81
367.052	75.81
367.278	83.81
367.505	101.81
367.731	95.81
367.957	103.81
368.184	90.81
368.41	102.81
368.636	104.81
368.862	121.81
369.089	117.81
369.315	102.81
369.541	101.81
369.767	89.81
369.993	77.81
370.219	88.81
370.445	84.81
370.672	76.81
370.898	71.81
371.124	72.81
371.35	86.81
371.576	96.81
371.802	84.81
372.028	86.81
372.254	81.81
372.48	82.81
372.706	80.81
372.932	87.81
373.158	83.81
373.384	96.81
373.61	92.81
373.835	90.81
374.061	95.81
374.287	80.81
374.513	96.81
374.739	95.81
374.965	89.81
375.191	74.81
375.416	77.81
375.642	86.81
375.868	84.81
376.094	81.81
376.319	107.81
376.545	94.81
376.771	74.81
376.997	78.81
377.222	88.81
377.448	89.81
377.674	89.81
377.899	94.81
378.125	91.81
378.35	83.81
378.576	82.81
378.802	91.81
379.027	89.81
379.253	101.81
379.478	84.81
379.704	81.81
379.929	82.81
380.155	86.81
380.38	92.81
380.606	90.81
380.831	91.81
381.057	99.81
381.282	85.81
381.507	89.81
381.733	84.81
381.958	98.81
382.184	90.81
382.409	87.81
382.634	110.81
382.86	102.81
383.085	97.81
383.31	99.81
383.535	111.81
383.761	98.81
383.986	107.81
384.211	95.81
384.436	95.81
384.662	88.81
384.887	94.81
385.112	108.81
385.337	107.81
385.562	107.81
385.787	120.81
386.013	117.81
386.238	125.81
386.463	95.81
386.688	121.81
386.913	85.81
387.138	100.81
387.363	112.81
387.588	93.81
387.813	92.81
388.038	107.81
388.263	112.81
388.488	108.81
388.713	98.81
388.938	89.81
389.163	93.81
389.387	78.81
389.612	95.81
389.837	87.81
390.062	91.81
390.287	90.81
390.512	88.81
390.736	87.81
390.961	93.81
391.186	80.81
391.411	89.81
391.636	101.81
391.86	83.81
392.085	82.81
392.31	76.81
392.534	83.81
392.759	85.81
392.984	96.81
393.208	92.81
393.433	100.81
393.658	85.81
393.882	81.81
394.107	88.81
394.331	79.81
394.556	88.81
394.78	87.81
395.005	90.81
395.229	93.81
395.454	93.81
395.678	85.81
395.903	88.81
396.127	81.81
396.352	83.81
396.576	82.81
396.801	96.81
397.025	82.81
397.249	80.81
397.474	95.81
397.698	82.81
397.922	86.81
398.147	75.81
398.371	90.81
398.595	87.81
398.82	74.81
399.044	70.81
399.268	84.81
399.492	85.81
399.717	87.81
399.941	97.81
400.165	92.81
400.389	92.81
400.613	98.81
400.837	70.81
401.062	95.81
401.286	76.81
401.51	86.81
401.734	74.81
401.958	84.81
402.182	129.81
402.406	161.81
402.63	120.81
402.854	104.81
403.078	84.81
403.302	88.81
403.526	92.81
403.75	97.81
403.974	91.81
404.198	76.81
404.422	88.81
404.645	72.81
404.869	92.81
405.093	98.81
405.317	106.81
405.541	105.81
405.765	105.81
405.988	115.81
406.212	181.81
406.436	266.81
406.66	159.81
406.883	104.81
407.107	100.81
407.331	106.81
407.555	115.81
407.778	93.81
408.002	90.81
408.226	91.81
408.449	73.81
408.673	88.81
408.896	103.81
409.12	92.81
409.344	81.81
409.567	96.81
409.791	92.81
410.014	95.81
410.238	95.81
410.461	88.81
410.685	76.81
410.908	101.81
411.132	98.81
411.355	98.81
411.578	92.81
411.802	80.81
412.025	89.81
412.249	100.81
412.472	84.81
412.695	108.81
412.919	107.81
413.142	76.81
413.365	85.81
413.589	72.81
413.812	74.81
414.035	87.81
414.258	99.81
414.482	97.81
414.705	72.81
414.928	108.81
415.151	92.81
415.374	74.81
415.597	100.81
415.821	90.81
416.044	92.81
416.267	95.81
416.49	89.81
416.713	85.81
416.936	93.81
417.159	97.81
417.382	80.81
417.605	98.81
417.828	112.81
418.051	82.81
418.274	80.81
418.497	90.81
418.72	82.81
418.943	97.81
419.166	87.81
419.389	85.81
419.611	87.81
419.834	81.81
420.057	98.81
420.28	91.81
420.503	93.81
420.726	97.81
420.948	80.81
421.171	99.81
421.394	89.81
421.617	96.81
421.839	76.81
422.062	99.81
422.285	84.81
422.507	97.81
422.73	103.81
422.953	93.81
423.175	85.81
423.398	92.81
423.621	80.81
423.843	83.81
424.066	88.81
424.288	80.81
424.511	92.81
424.733	95.81
424.956	98.81
425.178	107.81
425.401	103.81
425.623	97.81
425.846	93.81
426.068	85.81
426.291	97.81
426.513	88.81
426.735	80.81
426.958	95.81
427.18	101.81
427.402	138.81
427.625	200.81
427.847	173.81
428.069	165.81
428.292	115.81
428.514	91.81
428.736	88.81
428.958	80.81
429.181	88.81
429.403	95.81
429.625	85.81
429.847	82.81
430.069	115.81
430.292	79.81
430.514	71.81
430.736	80.81
430.958	81.81
431.18	85.81
431.402	84.81
431.624	83.81
431.846	74.81
432.068	69.81
432.29	83.81
432.512	86.81
432.734	85.81
432.956	98.81
433.178	102.81
433.4	85.81
433.622	98.81
433.844	84.81
434.066	76.81
434.287	80.81
434.509	74.81
434.731	84.81
434.953	74.81
435.175	76.81
435.397	82.81
435.618	85.81
435.84	95.81
436.062	105.81
436.284	94.81
436.505	92.81
436.727	92.81
436.949	77.81
437.17	91.81
437.392	72.81
437.614	85.81
437.835	101.81
438.057	132.81
438.278	113.81
438.5	89.81
438.721	128.81
438.943	102.81
439.165	93.81
439.386	87.81
439.608	95.81
439.829	87.81
440.05	120.81
440.272	155.81
440.493	88.81
440.715	89.81
440.936	72.81
441.158	76.81
441.379	83.81
441.6	87.81
441.822	89.81
442.043	97.81
442.264	106.81
442.486	88.81
442.707	89.81
442.928	120.81
443.149	146.81
443.371	135.81
443.592	111.81
443.813	106.81
444.034	93.81
444.255	95.81
444.476	91.81
444.698	88.81
444.919	79.81
445.14	140.81
445.361	119.81
445.582	111.81
445.803	131.81
446.024	144.81
446.245	137.81
446.466	118.81
446.687	102.81
446.908	91.81
447.129	100.81
447.35	99.81
447.571	84.81
447.792	97.81
448.013	87.81
448.234	108.81
448.455	89.81
448.675	114.81
448.896	129.81
449.117	106.81
449.338	100.81
449.559	134.81
449.779	143.81
450	89.81
450.221	88.81
450.442	92.81
450.662	92.81
450.883	115.81
451.104	127.81
451.324	85.81
451.545	88.81
451.766	83.81
451.986	95.81
452.207	82.81
452.428	83.81
452.648	104.81
452.869	101.81
453.089	111.81
453.31	141.81
453.53	97.81
453.751	111.81
453.971	106.81
454.192	133.81
454.412	106.81
454.633	97.81
454.853	91.81
455.073	87.81
455.294	92.81
455.514	91.81
455.734	82.81
455.955	81.81
456.175	89.81
456.395	87.81
456.616	81.81
456.836	97.81
457.056	77.81
457.276	89.81
457.497	87.81
457.717	85.81
457.937	81.81
458.157	84.81
458.377	87.81
458.598	113.81
458.818	147.81
459.038	183.81
459.258	122.81
459.478	87.81
459.698	83.81
459.918	89.81
460.138	95.81
460.358	83.81
460.578	85.81
460.798	85.81
461.018	87.81
461.238	84.81
461.458	84.81
461.678	86.81
461.898	76.81
462.118	82.81
462.338	85.81
462.558	96.81
462.777	91.81
462.997	91.81
463.217	91.81
463.437	95.81
463.657	95.81
463.876	87.81
464.096	79.81
464.316	92.81
464.536	99.81
464.755	100.81
464.975	118.81
465.195	171.81
465.414	189.81
465.634	94.81
465.854	88.81
466.073	84.81
466.293	96.81
466.512	71.81
466.732	88.81
466.951	76.81
467.171	84.81
467.391	103.81
467.61	110.81
467.829	115.81
468.049	236.81
468.268	347.81
468.488	134.81
468.707	105.81
468.927	92.81
469.146	77.81
469.365	92.81
469.585	90.81
469.804	93.81
470.023	96.81
470.243	105.81
470.462	100.81
470.681	98.81
470.901	104.81
471.12	76.81
471.339	81.81
471.558	97.81
471.777	104.81
471.997	137.81
472.216	435.81
472.435	954.81
472.654	277.81
472.873	118.81
473.092	95.81
473.311	96.81
473.53	92.81
473.749	87.81
473.968	104.81
474.187	104.81
474.406	95.81
474.625	88.81
474.844	88.81
475.063	87.81
475.282	82.81
475.501	82.81
475.72	84.81
475.939	82.81
476.158	79.81
476.377	82.81
476.596	81.81
476.814	93.81
477.033	101.81
477.252	85.81
477.471	88.81
477.69	80.81
477.908	72.81
478.127	85.81
478.346	91.81
478.564	99.81
478.783	103.81
479.002	92.81
479.22	100.81
479.439	100.81
479.658	119.81
479.876	101.81
480.095	92.81
480.313	104.81
480.532	121.81
480.751	151.81
480.969	423.81
481.188	1557.81
481.406	1038.81
481.624	200.81
481.843	106.81
482.061	88.81
482.28	104.81
482.498	91.81
482.717	70.81
482.935	89.81
483.153	99.81
483.372	81.81
483.59	80.81
483.808	75.81
484.027	64.81
484.245	90.81
484.463	89.81
484.681	85.81
484.9	100.81
485.118	91.81
485.336	98.81
485.554	103.81
485.772	92.81
485.99	102.81
486.209	108.81
486.427	96.81
486.645	103.81
486.863	125.81
487.081	89.81
487.299	104.81
487.517	102.81
487.735	107.81
487.953	93.81
488.171	96.81
488.389	81.81
488.607	102.81
488.825	85.81
489.043	82.81
489.261	82.81
489.479	100.81
489.696	93.81
489.914	82.81
490.132	79.81
490.35	104.81
490.568	81.81
490.786	79.81
491.003	98.81
491.221	83.81
491.439	82.81
491.657	100.81
491.874	98.81
492.092	87.81
492.31	99.81
492.527	94.81
492.745	80.81
492.963	84.81
493.18	88.81
493.398	95.81
493.615	101.81
493.833	95.81
494.05	99.81
494.268	84.81
494.485	101.81
494.703	94.81
494.92	82.81
495.138	99.81
495.355	97.81
495.573	85.81
495.79	87.81
496.008	104.81
496.225	81.81
496.442	88.81
496.66	99.81
496.877	89.81
497.094	81.81
497.312	84.81
497.529	72.81
497.746	87.81
497.963	85.81
498.181	95.81
498.398	103.81
498.615	112.81
498.832	96.81
499.049	87.81
499.267	88.81
499.484	68.81
499.701	84.81
499.918	91.81
500.135	92.81
500.352	78.81
500.569	82.81
500.786	89.81
501.003	88.81
501.22	80.81
501.437	91.81
501.654	97.81
501.871	113.81
502.088	83.81
502.305	81.81
502.522	83.81
502.739	97.81
502.956	92.81
503.172	76.81
503.389	91.81
503.606	107.81
503.823	105.81
504.04	84.81
504.256	77.81
504.473	71.81
504.69	80.81
504.907	88.81
505.123	77.81
505.34	88.81
505.557	96.81
505.773	89.81
505.99	81.81
506.207	83.81
506.423	83.81
506.64	96.81
506.856	100.81
507.073	94.81
507.289	85.81
507.506	107.81
507.722	117.81
507.939	107.81
508.155	100.81
508.372	85.81
508.588	99.81
508.805	88.81
509.021	99.81
509.238	96.81
509.454	94.81
509.67	106.81
509.887	98.81
510.103	126.81
510.319	206.81
510.536	796.81
510.752	2679.81
510.968	761.81
511.184	152.81
511.401	109.81
511.617	100.81
511.833	100.81
512.049	90.81
512.265	97.81
512.481	77.81
512.698	93.81
512.914	98.81
513.13	81.81
513.346	105.81
513.562	100.81
513.778	101.81
513.994	95.81
514.21	106.81
514.426	114.81
514.642	132.81
514.858	140.81
515.074	194.81
515.29	525.81
515.506	1943.81
