Data from Circ_2013_H10_HRD10591_00007.txt Node
Date: Wed Jan 03 10:04:01 EST 2024
User: Yrep
Spectrometer: HR+D1059
Trigger mode: 1
Integration Time (sec): 1.000000E-1
Scans to average: 1
Electric dark correction enabled: true
Nonlinearity correction enabled: false
Boxcar width: 0
XAxis mode: Wavelengths
Number of Pixels in Spectrum: 2048
>>>>>Begin Spectral Data<<<<<
223.165	-20.81
223.4	-20.81
223.635	-20.81
223.869	-19.81
224.104	-20.81
224.338	-26.81
224.573	-12.81
224.808	-6.81
225.042	-13.81
225.277	-0.81
225.511	-0.81
225.746	2.19
225.98	7.19
226.215	9.19
226.449	17.19
226.683	22.19
226.918	28.19
227.152	37.19
227.387	39.19
227.621	37.19
227.856	38.19
228.09	41.19
228.324	43.19
228.559	59.19
228.793	65.19
229.027	65.19
229.262	78.19
229.496	76.19
229.73	94.19
229.964	102.19
230.199	82.19
230.433	92.19
230.667	75.19
230.901	84.19
231.136	87.19
231.37	79.19
231.604	76.19
231.838	78.19
232.072	72.19
232.306	61.19
232.541	87.19
232.775	83.19
233.009	90.19
233.243	82.19
233.477	77.19
233.711	67.19
233.945	81.19
234.179	97.19
234.413	77.19
234.647	85.19
234.881	70.19
235.115	86.19
235.349	73.19
235.583	70.19
235.817	77.19
236.051	76.19
236.285	73.19
236.519	82.19
236.753	74.19
236.987	77.19
237.221	83.19
237.455	89.19
237.689	68.19
237.922	73.19
238.156	76.19
238.39	76.19
238.624	68.19
238.858	68.19
239.091	79.19
239.325	68.19
239.559	87.19
239.793	87.19
240.027	77.19
240.26	75.19
240.494	78.19
240.728	80.19
240.961	66.19
241.195	74.19
241.429	66.19
241.662	62.19
241.896	66.19
242.13	87.19
242.363	68.19
242.597	76.19
242.83	83.19
243.064	70.19
243.298	89.19
243.531	86.19
243.765	72.19
243.998	62.19
244.232	79.19
244.465	79.19
244.699	91.19
244.932	78.19
245.166	77.19
245.399	55.19
245.633	79.19
245.866	93.19
246.099	52.19
246.333	76.19
246.566	70.19
246.8	80.19
247.033	71.19
247.266	85.19
247.5	75.19
247.733	71.19
247.966	75.19
248.2	83.19
248.433	82.19
248.666	76.19
248.899	78.19
249.133	89.19
249.366	98.19
249.599	99.19
249.832	82.19
250.066	79.19
250.299	84.19
250.532	93.19
250.765	92.19
250.998	83.19
251.231	83.19
251.465	70.19
251.698	78.19
251.931	86.19
252.164	74.19
252.397	75.19
252.63	83.19
252.863	87.19
253.096	70.19
253.329	85.19
253.562	78.19
253.795	81.19
254.028	88.19
254.261	71.19
254.494	90.19
254.727	94.19
254.96	83.19
255.193	75.19
255.426	69.19
255.659	87.19
255.892	90.19
256.124	79.19
256.357	90.19
256.59	84.19
256.823	89.19
257.056	70.19
257.289	78.19
257.521	77.19
257.754	81.19
257.987	94.19
258.22	95.19
258.452	95.19
258.685	94.19
258.918	78.19
259.151	81.19
259.383	71.19
259.616	67.19
259.849	74.19
260.081	84.19
260.314	83.19
260.547	83.19
260.779	72.19
261.012	88.19
261.244	92.19
261.477	80.19
261.71	90.19
261.942	129.19
262.175	135.19
262.407	86.19
262.64	79.19
262.872	90.19
263.105	77.19
263.337	86.19
263.57	92.19
263.802	95.19
264.035	93.19
264.267	79.19
264.499	83.19
264.732	77.19
264.964	81.19
265.197	78.19
265.429	83.19
265.661	81.19
265.894	84.19
266.126	96.19
266.358	78.19
266.591	80.19
266.823	85.19
267.055	78.19
267.287	90.19
267.52	73.19
267.752	76.19
267.984	71.19
268.216	80.19
268.448	90.19
268.681	72.19
268.913	82.19
269.145	83.19
269.377	88.19
269.609	79.19
269.841	98.19
270.073	89.19
270.306	80.19
270.538	104.19
270.77	76.19
271.002	84.19
271.234	71.19
271.466	91.19
271.698	84.19
271.93	76.19
272.162	85.19
272.394	90.19
272.626	87.19
272.858	92.19
273.09	86.19
273.322	88.19
273.553	95.19
273.785	77.19
274.017	83.19
274.249	84.19
274.481	84.19
274.713	78.19
274.945	87.19
275.176	94.19
275.408	83.19
275.64	91.19
275.872	88.19
276.104	92.19
276.335	108.19
276.567	95.19
276.799	134.19
277.031	126.19
277.262	121.19
277.494	105.19
277.726	92.19
277.957	93.19
278.189	79.19
278.421	85.19
278.652	88.19
278.884	92.19
279.115	84.19
279.347	102.19
279.579	97.19
279.81	102.19
280.042	115.19
280.273	137.19
280.505	110.19
280.736	100.19
280.968	77.19
281.199	83.19
281.431	83.19
281.662	93.19
281.894	106.19
282.125	92.19
282.356	118.19
282.588	149.19
282.819	115.19
283.051	92.19
283.282	85.19
283.513	89.19
283.745	80.19
283.976	82.19
284.207	94.19
284.439	89.19
284.67	75.19
284.901	88.19
285.132	91.19
285.364	70.19
285.595	77.19
285.826	93.19
286.057	91.19
286.288	94.19
286.52	79.19
286.751	74.19
286.982	88.19
287.213	87.19
287.444	96.19
287.675	94.19
287.906	86.19
288.138	92.19
288.369	84.19
288.6	108.19
288.831	90.19
289.062	96.19
289.293	91.19
289.524	82.19
289.755	86.19
289.986	89.19
290.217	81.19
290.448	78.19
290.679	77.19
290.91	88.19
291.141	99.19
291.371	95.19
291.602	75.19
291.833	83.19
292.064	86.19
292.295	86.19
292.526	98.19
292.757	85.19
292.987	94.19
293.218	89.19
293.449	83.19
293.68	96.19
293.91	81.19
294.141	90.19
294.372	82.19
294.603	86.19
294.833	95.19
295.064	86.19
295.295	94.19
295.525	77.19
295.756	103.19
295.987	106.19
296.217	144.19
296.448	130.19
296.679	95.19
296.909	91.19
297.14	86.19
297.37	93.19
297.601	93.19
297.831	88.19
298.062	90.19
298.292	80.19
298.523	86.19
298.753	80.19
298.984	78.19
299.214	75.19
299.445	105.19
299.675	84.19
299.905	97.19
300.136	78.19
300.366	83.19
300.597	83.19
300.827	93.19
301.057	93.19
301.288	93.19
301.518	103.19
301.748	92.19
301.979	105.19
302.209	105.19
302.439	83.19
302.669	85.19
302.9	96.19
303.13	93.19
303.36	102.19
303.59	105.19
303.82	115.19
304.051	97.19
304.281	80.19
304.511	105.19
304.741	77.19
304.971	82.19
305.201	81.19
305.431	89.19
305.661	94.19
305.891	75.19
306.121	86.19
306.352	100.19
306.582	110.19
306.812	95.19
307.042	96.19
307.272	100.19
307.502	101.19
307.731	118.19
307.961	91.19
308.191	97.19
308.421	86.19
308.651	93.19
308.881	83.19
309.111	84.19
309.341	90.19
309.571	100.19
309.8	97.19
310.03	101.19
310.26	98.19
310.49	97.19
310.72	102.19
310.949	114.19
311.179	98.19
311.409	104.19
311.639	107.19
311.868	99.19
312.098	89.19
312.328	103.19
312.557	107.19
312.787	106.19
313.017	97.19
313.246	85.19
313.476	86.19
313.706	91.19
313.935	81.19
314.165	98.19
314.394	108.19
314.624	98.19
314.853	96.19
315.083	90.19
315.312	89.19
315.542	91.19
315.771	89.19
316.001	85.19
316.23	75.19
316.46	91.19
316.689	87.19
316.919	106.19
317.148	83.19
317.377	93.19
317.607	92.19
317.836	105.19
318.065	89.19
318.295	92.19
318.524	83.19
318.753	84.19
318.983	85.19
319.212	104.19
319.441	98.19
319.67	100.19
319.9	92.19
320.129	76.19
320.358	90.19
320.587	101.19
320.816	94.19
321.046	102.19
321.275	88.19
321.504	99.19
321.733	93.19
321.962	97.19
322.191	96.19
322.42	116.19
322.649	113.19
322.878	109.19
323.108	113.19
323.337	130.19
323.566	129.19
323.795	169.19
324.024	227.19
324.253	426.19
324.482	912.19
324.71	1867.19
324.939	2428.19
325.168	891.19
325.397	268.19
325.626	167.19
325.855	128.19
326.084	127.19
326.313	121.19
326.542	165.19
326.77	245.19
326.999	485.19
327.228	1028.19
327.457	1895.19
327.686	1533.19
327.914	431.19
328.143	273.19
328.372	291.19
328.6	194.19
328.829	154.19
329.058	159.19
329.287	134.19
329.515	140.19
329.744	143.19
329.972	210.19
330.201	378.19
330.43	522.19
330.658	294.19
330.887	188.19
331.115	151.19
331.344	105.19
331.572	101.19
331.801	115.19
332.03	104.19
332.258	109.19
332.486	109.19
332.715	96.19
332.943	105.19
333.172	113.19
333.4	110.19
333.629	121.19
333.857	152.19
334.085	206.19
334.314	377.19
334.542	666.19
334.771	636.19
334.999	208.19
335.227	123.19
335.455	103.19
335.684	96.19
335.912	106.19
336.14	95.19
336.369	115.19
336.597	90.19
336.825	98.19
337.053	93.19
337.281	79.19
337.51	88.19
337.738	83.19
337.966	102.19
338.194	103.19
338.422	88.19
338.65	89.19
338.878	95.19
339.106	87.19
339.334	100.19
339.562	93.19
339.79	96.19
340.018	107.19
340.246	100.19
340.474	84.19
340.702	92.19
340.93	88.19
341.158	86.19
341.386	103.19
341.614	101.19
341.842	79.19
342.07	89.19
342.298	101.19
342.526	89.19
342.754	77.19
342.981	87.19
343.209	79.19
343.437	87.19
343.665	79.19
343.893	91.19
344.12	78.19
344.348	90.19
344.576	95.19
344.804	76.19
345.031	109.19
345.259	111.19
345.487	95.19
345.714	88.19
345.942	103.19
346.17	86.19
346.397	89.19
346.625	90.19
346.853	104.19
347.08	91.19
347.308	96.19
347.535	94.19
347.763	103.19
347.99	113.19
348.218	98.19
348.445	101.19
348.673	98.19
348.9	76.19
349.128	99.19
349.355	107.19
349.583	107.19
349.81	113.19
350.037	95.19
350.265	84.19
350.492	90.19
350.72	95.19
350.947	98.19
351.174	108.19
351.402	103.19
351.629	113.19
351.856	107.19
352.083	109.19
352.311	116.19
352.538	109.19
352.765	102.19
352.992	102.19
353.22	105.19
353.447	108.19
353.674	104.19
353.901	95.19
354.128	101.19
354.355	86.19
354.583	102.19
354.81	92.19
355.037	104.19
355.264	91.19
355.491	100.19
355.718	92.19
355.945	83.19
356.172	95.19
356.399	98.19
356.626	89.19
356.853	85.19
357.08	90.19
357.307	91.19
357.534	83.19
357.761	93.19
357.988	98.19
358.215	99.19
358.441	109.19
358.668	92.19
358.895	96.19
359.122	91.19
359.349	95.19
359.576	100.19
359.802	115.19
360.029	109.19
360.256	125.19
360.483	107.19
360.709	97.19
360.936	104.19
361.163	83.19
361.39	92.19
361.616	93.19
361.843	89.19
362.07	68.19
362.296	79.19
362.523	92.19
362.749	91.19
362.976	83.19
363.203	82.19
363.429	77.19
363.656	73.19
363.882	84.19
364.109	87.19
364.335	93.19
364.562	94.19
364.788	106.19
365.015	94.19
365.241	107.19
365.468	118.19
365.694	103.19
365.92	100.19
366.147	82.19
366.373	96.19
366.599	92.19
366.826	101.19
367.052	91.19
367.278	83.19
367.505	86.19
367.731	98.19
367.957	88.19
368.184	85.19
368.41	106.19
368.636	106.19
368.862	119.19
369.089	115.19
369.315	89.19
369.541	92.19
369.767	103.19
369.993	102.19
370.219	89.19
370.445	91.19
370.672	79.19
370.898	84.19
371.124	87.19
371.35	85.19
371.576	84.19
371.802	85.19
372.028	86.19
372.254	83.19
372.48	86.19
372.706	88.19
372.932	100.19
373.158	88.19
373.384	101.19
373.61	90.19
373.835	84.19
374.061	85.19
374.287	91.19
374.513	114.19
374.739	91.19
374.965	86.19
375.191	94.19
375.416	72.19
375.642	78.19
375.868	94.19
376.094	95.19
376.319	94.19
376.545	89.19
376.771	89.19
376.997	87.19
377.222	96.19
377.448	98.19
377.674	85.19
377.899	91.19
378.125	97.19
378.35	82.19
378.576	95.19
378.802	87.19
379.027	94.19
379.253	97.19
379.478	101.19
379.704	97.19
379.929	100.19
380.155	79.19
380.38	90.19
380.606	89.19
380.831	99.19
381.057	101.19
381.282	101.19
381.507	87.19
381.733	100.19
381.958	94.19
382.184	96.19
382.409	106.19
382.634	129.19
382.86	108.19
383.085	102.19
383.31	99.19
383.535	107.19
383.761	96.19
383.986	122.19
384.211	107.19
384.436	107.19
384.662	115.19
384.887	102.19
385.112	103.19
385.337	120.19
385.562	110.19
385.787	129.19
386.013	132.19
386.238	126.19
386.463	134.19
386.688	126.19
386.913	122.19
387.138	127.19
387.363	114.19
387.588	111.19
387.813	108.19
388.038	108.19
388.263	133.19
388.488	130.19
388.713	102.19
388.938	101.19
389.163	82.19
389.387	87.19
389.612	100.19
389.837	91.19
390.062	85.19
390.287	91.19
390.512	99.19
390.736	89.19
390.961	92.19
391.186	96.19
391.411	84.19
391.636	98.19
391.86	93.19
392.085	78.19
392.31	86.19
392.534	85.19
392.759	85.19
392.984	99.19
393.208	93.19
393.433	122.19
393.658	115.19
393.882	94.19
394.107	90.19
394.331	94.19
394.556	80.19
394.78	93.19
395.005	105.19
395.229	92.19
395.454	81.19
395.678	81.19
395.903	83.19
396.127	83.19
396.352	82.19
396.576	105.19
396.801	82.19
397.025	97.19
397.249	98.19
397.474	88.19
397.698	76.19
397.922	99.19
398.147	98.19
398.371	85.19
398.595	90.19
398.82	79.19
399.044	82.19
399.268	92.19
399.492	87.19
399.717	96.19
399.941	92.19
400.165	103.19
400.389	82.19
400.613	82.19
400.837	91.19
401.062	86.19
401.286	96.19
401.51	80.19
401.734	75.19
401.958	97.19
402.182	138.19
402.406	161.19
402.63	120.19
402.854	107.19
403.078	93.19
403.302	93.19
403.526	85.19
403.75	95.19
403.974	108.19
404.198	77.19
404.422	98.19
404.645	84.19
404.869	93.19
405.093	100.19
405.317	117.19
405.541	131.19
405.765	96.19
405.988	122.19
406.212	159.19
406.436	234.19
406.66	168.19
406.883	106.19
407.107	105.19
407.331	106.19
407.555	109.19
407.778	94.19
408.002	81.19
408.226	90.19
408.449	86.19
408.673	86.19
408.896	83.19
409.12	93.19
409.344	83.19
409.567	95.19
409.791	75.19
410.014	113.19
410.238	105.19
410.461	88.19
410.685	92.19
410.908	100.19
411.132	114.19
411.355	106.19
411.578	93.19
411.802	90.19
412.025	90.19
412.249	113.19
412.472	121.19
412.695	130.19
412.919	126.19
413.142	93.19
413.365	89.19
413.589	80.19
413.812	71.19
414.035	73.19
414.258	95.19
414.482	90.19
414.705	79.19
414.928	99.19
415.151	114.19
415.374	83.19
415.597	71.19
415.821	98.19
416.044	91.19
416.267	95.19
416.49	95.19
416.713	91.19
416.936	91.19
417.159	106.19
417.382	89.19
417.605	91.19
417.828	105.19
418.051	87.19
418.274	81.19
418.497	82.19
418.72	88.19
418.943	90.19
419.166	78.19
419.389	79.19
419.611	86.19
419.834	100.19
420.057	81.19
420.28	103.19
420.503	89.19
420.726	94.19
420.948	79.19
421.171	99.19
421.394	105.19
421.617	96.19
421.839	99.19
422.062	101.19
422.285	96.19
422.507	97.19
422.73	125.19
422.953	95.19
423.175	88.19
423.398	81.19
423.621	84.19
423.843	88.19
424.066	88.19
424.288	93.19
424.511	82.19
424.733	115.19
424.956	128.19
425.178	116.19
425.401	110.19
425.623	109.19
425.846	95.19
426.068	92.19
426.291	107.19
426.513	98.19
426.735	90.19
426.958	98.19
427.18	109.19
427.402	145.19
427.625	227.19
427.847	183.19
428.069	173.19
428.292	105.19
428.514	95.19
428.736	96.19
428.958	93.19
429.181	74.19
429.403	93.19
429.625	98.19
429.847	85.19
430.069	117.19
430.292	100.19
430.514	79.19
430.736	86.19
430.958	92.19
431.18	84.19
431.402	90.19
431.624	89.19
431.846	99.19
432.068	76.19
432.29	85.19
432.512	88.19
432.734	90.19
432.956	77.19
433.178	86.19
433.4	107.19
433.622	78.19
433.844	86.19
434.066	85.19
434.287	101.19
434.509	84.19
434.731	82.19
434.953	83.19
435.175	96.19
435.397	82.19
435.618	98.19
435.84	101.19
436.062	139.19
436.284	123.19
436.505	109.19
436.727	109.19
436.949	97.19
437.17	84.19
437.392	86.19
437.614	94.19
437.835	108.19
438.057	141.19
438.278	135.19
438.5	109.19
438.721	138.19
438.943	132.19
439.165	97.19
439.386	77.19
439.608	115.19
439.829	115.19
440.05	135.19
440.272	173.19
440.493	105.19
440.715	84.19
440.936	87.19
441.158	70.19
441.379	84.19
441.6	103.19
441.822	99.19
442.043	100.19
442.264	127.19
442.486	99.19
442.707	98.19
442.928	101.19
443.149	136.19
443.371	144.19
443.592	127.19
443.813	129.19
444.034	105.19
444.255	104.19
444.476	97.19
444.698	85.19
444.919	80.19
445.14	127.19
445.361	134.19
445.582	131.19
445.803	167.19
446.024	173.19
446.245	149.19
446.466	124.19
446.687	74.19
446.908	95.19
447.129	91.19
447.35	82.19
447.571	85.19
447.792	98.19
448.013	113.19
448.234	96.19
448.455	112.19
448.675	124.19
448.896	138.19
449.117	90.19
449.338	117.19
449.559	140.19
449.779	155.19
450	96.19
450.221	86.19
450.442	105.19
450.662	98.19
450.883	114.19
451.104	119.19
451.324	92.19
451.545	89.19
451.766	81.19
451.986	99.19
452.207	86.19
452.428	85.19
452.648	98.19
452.869	119.19
453.089	125.19
453.31	133.19
453.53	85.19
453.751	92.19
453.971	119.19
454.192	115.19
454.412	88.19
454.633	92.19
454.853	89.19
455.073	89.19
455.294	98.19
455.514	107.19
455.734	82.19
455.955	97.19
456.175	75.19
456.395	87.19
456.616	88.19
456.836	79.19
457.056	86.19
457.276	90.19
457.497	83.19
457.717	80.19
457.937	87.19
458.157	96.19
458.377	87.19
458.598	118.19
458.818	172.19
459.038	178.19
459.258	142.19
459.478	97.19
459.698	83.19
459.918	90.19
460.138	86.19
460.358	97.19
460.578	87.19
460.798	97.19
461.018	107.19
461.238	84.19
461.458	86.19
461.678	86.19
461.898	80.19
462.118	68.19
462.338	85.19
462.558	90.19
462.777	73.19
462.997	93.19
463.217	83.19
463.437	82.19
463.657	99.19
463.876	88.19
464.096	88.19
464.316	89.19
464.536	106.19
464.755	97.19
464.975	91.19
465.195	185.19
465.414	197.19
465.634	110.19
465.854	79.19
466.073	103.19
466.293	93.19
466.512	90.19
466.732	93.19
466.951	95.19
467.171	86.19
467.391	104.19
467.61	118.19
467.829	130.19
468.049	208.19
468.268	287.19
468.488	115.19
468.707	75.19
468.927	110.19
469.146	86.19
469.365	82.19
469.585	98.19
469.804	96.19
470.023	89.19
470.243	117.19
470.462	106.19
470.681	106.19
470.901	100.19
471.12	93.19
471.339	94.19
471.558	101.19
471.777	104.19
471.997	139.19
472.216	379.19
472.435	787.19
472.654	234.19
472.873	115.19
473.092	90.19
473.311	75.19
473.53	79.19
473.749	85.19
473.968	97.19
474.187	140.19
474.406	105.19
474.625	88.19
474.844	100.19
475.063	93.19
475.282	91.19
475.501	85.19
475.72	104.19
475.939	117.19
476.158	87.19
476.377	83.19
476.596	82.19
476.814	85.19
477.033	93.19
477.252	98.19
477.471	85.19
477.69	78.19
477.908	91.19
478.127	100.19
478.346	94.19
478.564	85.19
478.783	103.19
479.002	105.19
479.22	96.19
479.439	118.19
479.658	109.19
479.876	103.19
480.095	110.19
480.313	114.19
480.532	118.19
480.751	150.19
480.969	370.19
481.188	1325.19
481.406	852.19
481.624	180.19
481.843	119.19
482.061	97.19
482.28	102.19
482.498	83.19
482.717	88.19
482.935	96.19
483.153	83.19
483.372	83.19
483.59	89.19
483.808	85.19
484.027	90.19
484.245	108.19
484.463	107.19
484.681	83.19
484.9	105.19
485.118	97.19
485.336	96.19
485.554	94.19
485.772	101.19
485.99	79.19
486.209	106.19
486.427	99.19
486.645	105.19
486.863	117.19
487.081	95.19
487.299	101.19
487.517	97.19
487.735	87.19
487.953	85.19
488.171	91.19
488.389	92.19
488.607	90.19
488.825	83.19
489.043	93.19
489.261	85.19
489.479	91.19
489.696	87.19
489.914	82.19
490.132	76.19
490.35	98.19
490.568	88.19
490.786	94.19
491.003	84.19
491.221	88.19
491.439	82.19
491.657	94.19
491.874	88.19
492.092	92.19
492.31	99.19
492.527	98.19
492.745	97.19
492.963	92.19
493.18	87.19
493.398	91.19
493.615	105.19
493.833	94.19
494.05	95.19
494.268	100.19
494.485	95.19
494.703	92.19
494.92	77.19
495.138	77.19
495.355	88.19
495.573	97.19
495.79	80.19
496.008	102.19
496.225	90.19
496.442	79.19
496.66	88.19
496.877	77.19
497.094	89.19
497.312	87.19
497.529	73.19
497.746	94.19
497.963	90.19
498.181	92.19
498.398	100.19
498.615	96.19
498.832	96.19
499.049	96.19
499.267	97.19
499.484	84.19
499.701	86.19
499.918	106.19
500.135	93.19
500.352	86.19
500.569	90.19
500.786	85.19
501.003	93.19
501.22	76.19
501.437	79.19
501.654	83.19
501.871	109.19
502.088	75.19
502.305	90.19
502.522	86.19
502.739	90.19
502.956	85.19
503.172	93.19
503.389	92.19
503.606	95.19
503.823	105.19
504.04	95.19
504.256	100.19
504.473	83.19
504.69	90.19
504.907	94.19
505.123	85.19
505.34	88.19
505.557	87.19
505.773	87.19
505.99	94.19
506.207	91.19
506.423	96.19
506.64	79.19
506.856	83.19
507.073	104.19
507.289	98.19
507.506	104.19
507.722	125.19
507.939	106.19
508.155	95.19
508.372	89.19
508.588	87.19
508.805	99.19
509.021	111.19
509.238	99.19
509.454	83.19
509.67	101.19
509.887	97.19
510.103	134.19
510.319	206.19
510.536	728.19
510.752	2313.19
510.968	712.19
511.184	175.19
511.401	109.19
511.617	107.19
511.833	92.19
512.049	95.19
512.265	90.19
512.481	104.19
512.698	96.19
512.914	89.19
513.13	98.19
513.346	93.19
513.562	89.19
513.778	90.19
513.994	100.19
514.21	116.19
514.426	125.19
