Data from Circ_2013_H10_HRD10591_00045.txt Node
Date: Wed Jan 03 10:04:09 EST 2024
User: Yrep
Spectrometer: HR+D1059
Trigger mode: 1
Integration Time (sec): 1.000000E-1
Scans to average: 1
Electric dark correction enabled: true
Nonlinearity correction enabled: false
Boxcar width: 0
XAxis mode: Wavelengths
Number of Pixels in Spectrum: 2048
>>>>>Begin Spectral Data<<<<<
223.165	-26.81
223.4	-26.81
223.635	-26.81
223.869	-3.81
224.104	-19.81
224.338	-21.81
224.573	-2.81
224.808	-24.81
225.042	-5.81
225.277	1.19
225.511	-3.81
225.746	0.19
225.98	18.19
226.215	19.19
226.449	17.19
226.683	19.19
226.918	16.19
227.152	18.19
227.387	39.19
227.621	24.19
227.856	48.19
228.09	54.19
228.324	40.19
228.559	47.19
228.793	50.19
229.027	71.19
229.262	80.19
229.496	75.19
229.73	97.19
229.964	80.19
230.199	81.19
230.433	75.19
230.667	74.19
230.901	76.19
231.136	70.19
231.37	68.19
231.604	64.19
231.838	69.19
232.072	75.19
232.306	58.19
232.541	78.19
232.775	87.19
233.009	88.19
233.243	81.19
233.477	81.19
233.711	80.19
233.945	85.19
234.179	72.19
234.413	75.19
234.647	78.19
234.881	89.19
235.115	85.19
235.349	81.19
235.583	74.19
235.817	75.19
236.051	79.19
236.285	77.19
236.519	84.19
236.753	71.19
236.987	80.19
237.221	78.19
237.455	90.19
237.689	88.19
237.922	72.19
238.156	78.19
238.39	80.19
238.624	67.19
238.858	68.19
239.091	75.19
239.325	73.19
239.559	86.19
239.793	87.19
240.027	70.19
240.26	62.19
240.494	87.19
240.728	86.19
240.961	69.19
241.195	80.19
241.429	67.19
241.662	73.19
241.896	75.19
242.13	70.19
242.363	76.19
242.597	63.19
242.83	68.19
243.064	76.19
243.298	76.19
243.531	84.19
243.765	76.19
243.998	67.19
244.232	79.19
244.465	88.19
244.699	94.19
244.932	69.19
245.166	63.19
245.399	73.19
245.633	67.19
245.866	56.19
246.099	69.19
246.333	77.19
246.566	80.19
246.8	72.19
247.033	69.19
247.266	76.19
247.5	66.19
247.733	92.19
247.966	92.19
248.2	87.19
248.433	71.19
248.666	80.19
248.899	70.19
249.133	76.19
249.366	91.19
249.599	96.19
249.832	84.19
250.066	87.19
250.299	73.19
250.532	80.19
250.765	81.19
250.998	77.19
251.231	91.19
251.465	74.19
251.698	78.19
251.931	89.19
252.164	82.19
252.397	75.19
252.63	67.19
252.863	81.19
253.096	69.19
253.329	74.19
253.562	68.19
253.795	72.19
254.028	78.19
254.261	74.19
254.494	81.19
254.727	85.19
254.96	67.19
255.193	80.19
255.426	81.19
255.659	92.19
255.892	67.19
256.124	87.19
256.357	76.19
256.59	90.19
256.823	83.19
257.056	91.19
257.289	77.19
257.521	78.19
257.754	83.19
257.987	84.19
258.22	88.19
258.452	71.19
258.685	83.19
258.918	85.19
259.151	75.19
259.383	75.19
259.616	91.19
259.849	83.19
260.081	89.19
260.314	77.19
260.547	75.19
260.779	76.19
261.012	88.19
261.244	89.19
261.477	85.19
261.71	75.19
261.942	122.19
262.175	114.19
262.407	96.19
262.64	74.19
262.872	75.19
263.105	69.19
263.337	80.19
263.57	85.19
263.802	81.19
264.035	72.19
264.267	85.19
264.499	68.19
264.732	88.19
264.964	83.19
265.197	74.19
265.429	84.19
265.661	91.19
265.894	69.19
266.126	74.19
266.358	70.19
266.591	82.19
266.823	95.19
267.055	75.19
267.287	74.19
267.52	73.19
267.752	69.19
267.984	94.19
268.216	82.19
268.448	77.19
268.681	91.19
268.913	84.19
269.145	88.19
269.377	95.19
269.609	90.19
269.841	77.19
270.073	81.19
270.306	79.19
270.538	79.19
270.77	77.19
271.002	77.19
271.234	92.19
271.466	88.19
271.698	84.19
271.93	89.19
272.162	80.19
272.394	87.19
272.626	95.19
272.858	76.19
273.09	71.19
273.322	87.19
273.553	103.19
273.785	91.19
274.017	80.19
274.249	88.19
274.481	89.19
274.713	81.19
274.945	83.19
275.176	99.19
275.408	84.19
275.64	88.19
275.872	93.19
276.104	91.19
276.335	86.19
276.567	95.19
276.799	125.19
277.031	129.19
277.262	126.19
277.494	114.19
277.726	107.19
277.957	86.19
278.189	91.19
278.421	84.19
278.652	82.19
278.884	80.19
279.115	85.19
279.347	90.19
279.579	91.19
279.81	94.19
280.042	103.19
280.273	150.19
280.505	116.19
280.736	77.19
280.968	83.19
281.199	92.19
281.431	81.19
281.662	61.19
281.894	91.19
282.125	87.19
282.356	107.19
282.588	137.19
282.819	116.19
283.051	92.19
283.282	95.19
283.513	78.19
283.745	80.19
283.976	82.19
284.207	86.19
284.439	97.19
284.67	77.19
284.901	90.19
285.132	91.19
285.364	83.19
285.595	81.19
285.826	70.19
286.057	81.19
286.288	80.19
286.52	86.19
286.751	88.19
286.982	72.19
287.213	75.19
287.444	75.19
287.675	84.19
287.906	82.19
288.138	95.19
288.369	91.19
288.6	87.19
288.831	96.19
289.062	89.19
289.293	81.19
289.524	86.19
289.755	99.19
289.986	90.19
290.217	93.19
290.448	94.19
290.679	88.19
290.91	86.19
291.141	81.19
291.371	83.19
291.602	76.19
291.833	70.19
292.064	85.19
292.295	79.19
292.526	83.19
292.757	92.19
292.987	83.19
293.218	83.19
293.449	76.19
293.68	80.19
293.91	80.19
294.141	87.19
294.372	75.19
294.603	89.19
294.833	88.19
295.064	86.19
295.295	94.19
295.525	80.19
295.756	101.19
295.987	120.19
296.217	150.19
296.448	122.19
296.679	87.19
296.909	98.19
297.14	90.19
297.37	82.19
297.601	79.19
297.831	79.19
298.062	91.19
298.292	87.19
298.523	87.19
298.753	86.19
298.984	89.19
299.214	89.19
299.445	72.19
299.675	101.19
299.905	92.19
300.136	74.19
300.366	75.19
300.597	98.19
300.827	95.19
301.057	103.19
301.288	111.19
301.518	117.19
301.748	99.19
301.979	102.19
302.209	106.19
302.439	87.19
302.669	82.19
302.9	89.19
303.13	98.19
303.36	107.19
303.59	104.19
303.82	113.19
304.051	97.19
304.281	84.19
304.511	96.19
304.741	92.19
304.971	86.19
305.201	80.19
305.431	100.19
305.661	94.19
305.891	93.19
306.121	111.19
306.352	97.19
306.582	116.19
306.812	89.19
307.042	94.19
307.272	133.19
307.502	132.19
307.731	114.19
307.961	98.19
308.191	84.19
308.421	109.19
308.651	94.19
308.881	102.19
309.111	90.19
309.341	99.19
309.571	106.19
309.8	95.19
310.03	79.19
310.26	122.19
310.49	98.19
310.72	95.19
310.949	117.19
311.179	108.19
311.409	92.19
311.639	89.19
311.868	90.19
312.098	95.19
312.328	90.19
312.557	110.19
312.787	111.19
313.017	122.19
313.246	91.19
313.476	99.19
313.706	96.19
313.935	96.19
314.165	101.19
314.394	104.19
314.624	100.19
314.853	95.19
315.083	98.19
315.312	92.19
315.542	92.19
315.771	84.19
316.001	84.19
316.23	93.19
316.46	85.19
316.689	89.19
316.919	89.19
317.148	74.19
317.377	90.19
317.607	89.19
317.836	95.19
318.065	86.19
318.295	94.19
318.524	97.19
318.753	90.19
318.983	99.19
319.212	96.19
319.441	103.19
319.67	114.19
319.9	90.19
320.129	99.19
320.358	83.19
320.587	86.19
320.816	99.19
321.046	104.19
321.275	92.19
321.504	87.19
321.733	95.19
321.962	95.19
322.191	102.19
322.42	101.19
322.649	106.19
322.878	109.19
323.108	122.19
323.337	125.19
323.566	133.19
323.795	159.19
324.024	220.19
324.253	438.19
324.482	939.19
324.71	1872.19
324.939	2486.19
325.168	900.19
325.397	268.19
325.626	153.19
325.855	134.19
326.084	150.19
326.313	144.19
326.542	173.19
326.77	232.19
326.999	494.19
327.228	990.19
327.457	1848.19
327.686	1464.19
327.914	468.19
328.143	324.19
328.372	363.19
328.6	242.19
328.829	162.19
329.058	151.19
329.287	170.19
329.515	149.19
329.744	178.19
329.972	256.19
330.201	460.19
330.43	698.19
330.658	348.19
330.887	208.19
331.115	138.19
331.344	118.19
331.572	99.19
331.801	103.19
332.03	124.19
332.258	97.19
332.486	99.19
332.715	97.19
332.943	94.19
333.172	124.19
333.4	103.19
333.629	129.19
333.857	156.19
334.085	244.19
334.314	426.19
334.542	828.19
334.771	822.19
334.999	240.19
335.227	115.19
335.455	102.19
335.684	88.19
335.912	94.19
336.14	94.19
336.369	102.19
336.597	96.19
336.825	91.19
337.053	95.19
337.281	97.19
337.51	92.19
337.738	106.19
337.966	111.19
338.194	99.19
338.422	88.19
338.65	105.19
338.878	104.19
339.106	84.19
339.334	94.19
339.562	84.19
339.79	84.19
340.018	105.19
340.246	93.19
340.474	79.19
340.702	89.19
340.93	88.19
341.158	89.19
341.386	87.19
341.614	107.19
341.842	91.19
342.07	94.19
342.298	92.19
342.526	91.19
342.754	87.19
342.981	88.19
343.209	86.19
343.437	103.19
343.665	80.19
343.893	72.19
344.12	101.19
344.348	83.19
344.576	90.19
344.804	96.19
345.031	78.19
345.259	96.19
345.487	105.19
345.714	91.19
345.942	97.19
346.17	97.19
346.397	80.19
346.625	91.19
346.853	94.19
347.08	87.19
347.308	103.19
347.535	95.19
347.763	111.19
347.99	102.19
348.218	107.19
348.445	110.19
348.673	101.19
348.9	98.19
349.128	85.19
349.355	76.19
349.583	88.19
349.81	90.19
350.037	80.19
350.265	89.19
350.492	83.19
350.72	87.19
350.947	111.19
351.174	112.19
351.402	128.19
351.629	98.19
351.856	110.19
352.083	89.19
352.311	108.19
352.538	106.19
352.765	111.19
352.992	132.19
353.22	121.19
353.447	102.19
353.674	106.19
353.901	102.19
354.128	92.19
354.355	98.19
354.583	96.19
354.81	92.19
355.037	93.19
355.264	94.19
355.491	88.19
355.718	80.19
355.945	80.19
356.172	88.19
356.399	93.19
356.626	89.19
356.853	88.19
357.08	90.19
357.307	102.19
357.534	83.19
357.761	95.19
357.988	92.19
358.215	98.19
358.441	82.19
358.668	92.19
358.895	89.19
359.122	99.19
359.349	96.19
359.576	82.19
359.802	94.19
360.029	117.19
360.256	140.19
360.483	105.19
360.709	90.19
360.936	68.19
361.163	98.19
361.39	95.19
361.616	101.19
361.843	86.19
362.07	79.19
362.296	86.19
362.523	98.19
362.749	81.19
362.976	89.19
363.203	90.19
363.429	89.19
363.656	91.19
363.882	97.19
364.109	104.19
364.335	92.19
364.562	87.19
364.788	78.19
365.015	97.19
365.241	104.19
365.468	106.19
365.694	106.19
365.92	90.19
366.147	96.19
366.373	85.19
366.599	94.19
366.826	91.19
367.052	77.19
367.278	85.19
367.505	87.19
367.731	102.19
367.957	98.19
368.184	90.19
368.41	86.19
368.636	111.19
368.862	109.19
369.089	113.19
369.315	90.19
369.541	99.19
369.767	98.19
369.993	82.19
370.219	91.19
370.445	88.19
370.672	88.19
370.898	68.19
371.124	89.19
371.35	87.19
371.576	81.19
371.802	92.19
372.028	97.19
372.254	76.19
372.48	77.19
372.706	85.19
372.932	61.19
373.158	84.19
373.384	88.19
373.61	92.19
373.835	87.19
374.061	98.19
374.287	92.19
374.513	89.19
374.739	91.19
374.965	80.19
375.191	94.19
375.416	94.19
375.642	82.19
375.868	77.19
376.094	98.19
376.319	90.19
376.545	84.19
376.771	87.19
376.997	104.19
377.222	92.19
377.448	92.19
377.674	83.19
377.899	82.19
378.125	97.19
378.35	90.19
378.576	87.19
378.802	86.19
379.027	102.19
379.253	85.19
379.478	82.19
379.704	94.19
379.929	104.19
380.155	86.19
380.38	79.19
380.606	95.19
380.831	82.19
381.057	75.19
381.282	84.19
381.507	84.19
381.733	101.19
381.958	89.19
382.184	102.19
382.409	95.19
382.634	107.19
382.86	96.19
383.085	86.19
383.31	94.19
383.535	105.19
383.761	96.19
383.986	105.19
384.211	80.19
384.436	96.19
384.662	101.19
384.887	82.19
385.112	77.19
385.337	93.19
385.562	98.19
385.787	110.19
386.013	116.19
386.238	115.19
386.463	97.19
386.688	99.19
386.913	91.19
387.138	102.19
387.363	104.19
387.588	91.19
387.813	82.19
388.038	112.19
388.263	124.19
388.488	100.19
388.713	97.19
388.938	91.19
389.163	99.19
389.387	87.19
389.612	76.19
389.837	81.19
390.062	91.19
390.287	97.19
390.512	88.19
390.736	91.19
390.961	74.19
391.186	82.19
391.411	87.19
391.636	78.19
391.86	87.19
392.085	83.19
392.31	81.19
392.534	70.19
392.759	91.19
392.984	85.19
393.208	93.19
393.433	72.19
393.658	93.19
393.882	90.19
394.107	80.19
394.331	92.19
394.556	82.19
394.78	97.19
395.005	81.19
395.229	71.19
395.454	86.19
395.678	100.19
395.903	102.19
396.127	74.19
396.352	81.19
396.576	70.19
396.801	74.19
397.025	97.19
397.249	82.19
397.474	88.19
397.698	90.19
397.922	78.19
398.147	81.19
398.371	89.19
398.595	87.19
398.82	78.19
399.044	80.19
399.268	89.19
399.492	79.19
399.717	91.19
399.941	83.19
400.165	100.19
400.389	93.19
400.613	86.19
400.837	72.19
401.062	95.19
401.286	85.19
401.51	74.19
401.734	101.19
401.958	101.19
402.182	139.19
402.406	178.19
402.63	132.19
402.854	104.19
403.078	92.19
403.302	80.19
403.526	89.19
403.75	84.19
403.974	82.19
404.198	84.19
404.422	85.19
404.645	90.19
404.869	100.19
405.093	99.19
405.317	110.19
405.541	124.19
405.765	107.19
405.988	126.19
406.212	193.19
406.436	276.19
406.66	171.19
406.883	98.19
407.107	102.19
407.331	103.19
407.555	120.19
407.778	98.19
408.002	82.19
408.226	97.19
408.449	91.19
408.673	97.19
408.896	99.19
409.12	99.19
409.344	97.19
409.567	87.19
409.791	89.19
410.014	86.19
410.238	94.19
410.461	81.19
410.685	92.19
410.908	90.19
411.132	104.19
411.355	97.19
411.578	80.19
411.802	84.19
412.025	76.19
412.249	93.19
412.472	103.19
412.695	123.19
412.919	107.19
413.142	75.19
413.365	74.19
413.589	82.19
413.812	99.19
414.035	99.19
414.258	95.19
414.482	83.19
414.705	91.19
414.928	84.19
415.151	80.19
415.374	83.19
415.597	76.19
415.821	81.19
416.044	89.19
416.267	82.19
416.49	86.19
416.713	86.19
416.936	92.19
417.159	75.19
417.382	79.19
417.605	91.19
417.828	105.19
418.051	98.19
418.274	94.19
418.497	88.19
418.72	92.19
418.943	69.19
419.166	79.19
419.389	99.19
419.611	79.19
419.834	89.19
420.057	83.19
420.28	94.19
420.503	94.19
420.726	91.19
420.948	92.19
421.171	99.19
421.394	95.19
421.617	85.19
421.839	77.19
422.062	76.19
422.285	70.19
422.507	90.19
422.73	111.19
422.953	91.19
423.175	92.19
423.398	69.19
423.621	83.19
423.843	90.19
424.066	78.19
424.288	81.19
424.511	73.19
424.733	88.19
424.956	115.19
425.178	107.19
425.401	88.19
425.623	94.19
425.846	87.19
426.068	82.19
426.291	95.19
426.513	80.19
426.735	97.19
426.958	95.19
427.18	104.19
427.402	153.19
427.625	195.19
427.847	185.19
428.069	171.19
428.292	110.19
428.514	83.19
428.736	95.19
428.958	86.19
429.181	75.19
429.403	72.19
429.625	71.19
429.847	94.19
430.069	92.19
430.292	89.19
430.514	91.19
430.736	85.19
430.958	75.19
431.18	60.19
431.402	79.19
431.624	81.19
431.846	87.19
432.068	98.19
432.29	76.19
432.512	82.19
432.734	84.19
432.956	104.19
433.178	103.19
433.4	98.19
433.622	88.19
433.844	83.19
434.066	79.19
434.287	107.19
434.509	76.19
434.731	91.19
434.953	86.19
435.175	97.19
435.397	84.19
435.618	86.19
435.84	83.19
436.062	108.19
436.284	127.19
436.505	110.19
436.727	103.19
436.949	103.19
437.17	96.19
437.392	86.19
437.614	94.19
437.835	104.19
438.057	137.19
438.278	122.19
438.5	99.19
438.721	128.19
438.943	101.19
439.165	84.19
439.386	79.19
439.608	97.19
439.829	96.19
440.05	139.19
440.272	168.19
440.493	86.19
440.715	91.19
440.936	79.19
441.158	99.19
441.379	98.19
441.6	96.19
441.822	100.19
442.043	106.19
442.264	108.19
442.486	102.19
442.707	88.19
442.928	116.19
443.149	155.19
443.371	153.19
443.592	119.19
443.813	122.19
444.034	116.19
444.255	89.19
444.476	70.19
444.698	65.19
444.919	81.19
445.14	133.19
445.361	133.19
445.582	126.19
445.803	148.19
446.024	131.19
446.245	152.19
446.466	115.19
446.687	81.19
446.908	79.19
447.129	100.19
447.35	97.19
447.571	107.19
447.792	101.19
448.013	100.19
448.234	116.19
448.455	112.19
448.675	113.19
448.896	124.19
449.117	101.19
449.338	103.19
449.559	128.19
449.779	137.19
450	86.19
450.221	86.19
450.442	96.19
450.662	98.19
450.883	104.19
451.104	116.19
451.324	98.19
451.545	96.19
451.766	104.19
451.986	92.19
452.207	91.19
452.428	102.19
452.648	105.19
452.869	107.19
453.089	119.19
453.31	108.19
453.53	96.19
453.751	87.19
453.971	99.19
454.192	126.19
454.412	88.19
454.633	77.19
454.853	91.19
455.073	76.19
455.294	73.19
455.514	98.19
455.734	92.19
455.955	86.19
456.175	81.19
456.395	80.19
456.616	79.19
456.836	74.19
457.056	76.19
457.276	83.19
457.497	90.19
457.717	84.19
457.937	91.19
458.157	76.19
458.377	87.19
458.598	121.19
458.818	172.19
459.038	203.19
459.258	126.19
459.478	89.19
459.698	98.19
459.918	66.19
460.138	76.19
460.358	83.19
460.578	78.19
460.798	89.19
461.018	89.19
461.238	87.19
461.458	76.19
461.678	89.19
461.898	82.19
462.118	80.19
462.338	81.19
462.558	75.19
462.777	89.19
462.997	86.19
463.217	89.19
463.437	88.19
463.657	77.19
463.876	82.19
464.096	82.19
464.316	92.19
464.536	103.19
464.755	86.19
464.975	117.19
465.195	207.19
465.414	195.19
465.634	110.19
465.854	86.19
466.073	75.19
466.293	87.19
466.512	92.19
466.732	87.19
466.951	80.19
467.171	90.19
467.391	94.19
467.61	102.19
467.829	135.19
468.049	286.19
468.268	402.19
468.488	147.19
468.707	95.19
468.927	88.19
469.146	81.19
469.365	70.19
469.585	96.19
469.804	99.19
470.023	100.19
470.243	87.19
470.462	106.19
470.681	105.19
470.901	101.19
471.12	97.19
471.339	94.19
471.558	97.19
471.777	92.19
471.997	166.19
472.216	496.19
472.435	1124.19
472.654	321.19
472.873	126.19
473.092	86.19
473.311	92.19
473.53	82.19
473.749	101.19
473.968	91.19
474.187	108.19
474.406	101.19
474.625	82.19
474.844	80.19
475.063	62.19
475.282	91.19
475.501	100.19
475.72	76.19
475.939	85.19
476.158	86.19
476.377	86.19
476.596	92.19
476.814	93.19
477.033	93.19
477.252	91.19
477.471	92.19
477.69	99.19
477.908	70.19
478.127	98.19
478.346	83.19
478.564	81.19
478.783	91.19
479.002	91.19
479.22	103.19
479.439	114.19
479.658	126.19
479.876	86.19
480.095	104.19
480.313	94.19
480.532	116.19
480.751	163.19
480.969	483.19
481.188	1835.19
481.406	1212.19
481.624	214.19
481.843	120.19
482.061	101.19
482.28	91.19
482.498	83.19
482.717	82.19
482.935	83.19
483.153	96.19
483.372	103.19
483.59	90.19
483.808	88.19
484.027	105.19
484.245	79.19
484.463	86.19
484.681	103.19
484.9	84.19
485.118	74.19
485.336	92.19
485.554	82.19
485.772	90.19
485.99	102.19
486.209	126.19
486.427	94.19
486.645	111.19
486.863	119.19
487.081	102.19
487.299	96.19
487.517	76.19
487.735	80.19
487.953	87.19
488.171	84.19
488.389	95.19
488.607	98.19
488.825	91.19
489.043	95.19
489.261	90.19
489.479	84.19
489.696	86.19
489.914	88.19
490.132	80.19
490.35	93.19
490.568	77.19
490.786	91.19
491.003	80.19
491.221	84.19
491.439	89.19
491.657	87.19
491.874	87.19
492.092	72.19
492.31	81.19
492.527	88.19
492.745	104.19
492.963	88.19
493.18	86.19
493.398	80.19
493.615	79.19
493.833	80.19
494.05	79.19
494.268	82.19
494.485	84.19
494.703	88.19
494.92	71.19
495.138	80.19
495.355	69.19
495.573	103.19
495.79	80.19
496.008	104.19
496.225	86.19
496.442	73.19
496.66	100.19
496.877	84.19
497.094	86.19
497.312	81.19
497.529	85.19
497.746	75.19
497.963	90.19
498.181	98.19
498.398	97.19
498.615	98.19
498.832	101.19
499.049	89.19
499.267	91.19
499.484	90.19
499.701	79.19
499.918	77.19
500.135	97.19
500.352	87.19
500.569	86.19
500.786	89.19
501.003	85.19
501.22	84.19
501.437	88.19
501.654	100.19
501.871	120.19
502.088	96.19
502.305	88.19
502.522	74.19
502.739	79.19
502.956	86.19
503.172	95.19
503.389	88.19
503.606	100.19
503.823	110.19
504.04	86.19
504.256	76.19
504.473	80.19
504.69	94.19
504.907	97.19
505.123	90.19
505.34	84.19
505.557	78.19
505.773	96.19
505.99	88.19
506.207	93.19
506.423	89.19
506.64	83.19
506.856	85.19
507.073	80.19
507.289	86.19
507.506	102.19
507.722	100.19
507.939	117.19
508.155	95.19
508.372	92.19
508.588	100.19
508.805	100.19
509.021	94.19
509.238	89.19
509.454	107.19
509.67	104.19
509.887	95.19
510.103	138.19
510.319	213.19
510.536	783.19
510.752	2760.19
510.968	795.19
511.184	171.19
511.401	120.19
511.617	96.19
511.833	86.19
512.049	89.19
512.265	92.19
512.481	73.19
512.698	94.19
512.914	86.19
513.13	88.19
513.346	82.19
513.562	106.19
513.778	99.19
513.994	113.19
514.21	103.19
514.426	126.19
514.642	159.19
514.858	150.19
515.074	191.19
515.29	553.19
515.506	2100.19
