Data from Circ_2013_H10_HRD10591_00096.txt Node
Date: Wed Jan 03 10:04:19 EST 2024
User: Yrep
Spectrometer: HR+D1059
Trigger mode: 1
Integration Time (sec): 1.000000E-1
Scans to average: 1
Electric dark correction enabled: true
Nonlinearity correction enabled: false
Boxcar width: 0
XAxis mode: Wavelengths
Number of Pixels in Spectrum: 2048
>>>>>Begin Spectral Data<<<<<
223.165	-10.88
223.4	-10.88
223.635	-10.88
223.869	-24.88
224.104	-19.88
224.338	-14.88
224.573	-4.88
224.808	-12.88
225.042	-16.88
225.277	-7.88
225.511	-5.88
225.746	9.12
225.98	13.12
226.215	-2.88
226.449	24.12
226.683	19.12
226.918	25.12
227.152	31.12
227.387	38.12
227.621	53.12
227.856	49.12
228.09	39.12
228.324	52.12
228.559	69.12
228.793	62.12
229.027	61.12
229.262	58.12
229.496	63.12
229.73	107.12
229.964	100.12
230.199	82.12
230.433	87.12
230.667	70.12
230.901	92.12
231.136	83.12
231.37	72.12
231.604	73.12
231.838	76.12
232.072	74.12
232.306	72.12
232.541	78.12
232.775	87.12
233.009	76.12
233.243	92.12
233.477	83.12
233.711	79.12
233.945	80.12
234.179	99.12
234.413	88.12
234.647	86.12
234.881	86.12
235.115	87.12
235.349	77.12
235.583	75.12
235.817	79.12
236.051	89.12
236.285	89.12
236.519	77.12
236.753	81.12
236.987	81.12
237.221	102.12
237.455	99.12
237.689	96.12
237.922	80.12
238.156	64.12
238.39	65.12
238.624	73.12
238.858	71.12
239.091	66.12
239.325	90.12
239.559	73.12
239.793	95.12
240.027	99.12
240.26	91.12
240.494	84.12
240.728	72.12
240.961	78.12
241.195	82.12
241.429	77.12
241.662	83.12
241.896	81.12
242.13	86.12
242.363	75.12
242.597	70.12
242.83	90.12
243.064	78.12
243.298	73.12
243.531	82.12
243.765	89.12
243.998	73.12
244.232	84.12
244.465	88.12
244.699	83.12
244.932	82.12
245.166	69.12
245.399	84.12
245.633	79.12
245.866	81.12
246.099	86.12
246.333	94.12
246.566	87.12
246.8	86.12
247.033	89.12
247.266	86.12
247.5	71.12
247.733	96.12
247.966	87.12
248.2	92.12
248.433	65.12
248.666	89.12
248.899	96.12
249.133	96.12
249.366	105.12
249.599	111.12
249.832	90.12
250.066	83.12
250.299	79.12
250.532	88.12
250.765	95.12
250.998	84.12
251.231	96.12
251.465	78.12
251.698	83.12
251.931	81.12
252.164	98.12
252.397	76.12
252.63	76.12
252.863	82.12
253.096	76.12
253.329	80.12
253.562	89.12
253.795	95.12
254.028	74.12
254.261	77.12
254.494	96.12
254.727	88.12
254.96	93.12
255.193	83.12
255.426	81.12
255.659	91.12
255.892	96.12
256.124	95.12
256.357	84.12
256.59	92.12
256.823	92.12
257.056	93.12
257.289	84.12
257.521	94.12
257.754	92.12
257.987	94.12
258.22	98.12
258.452	92.12
258.685	92.12
258.918	74.12
259.151	83.12
259.383	89.12
259.616	93.12
259.849	101.12
260.081	91.12
260.314	88.12
260.547	92.12
260.779	94.12
261.012	110.12
261.244	105.12
261.477	96.12
261.71	110.12
261.942	131.12
262.175	141.12
262.407	120.12
262.64	102.12
262.872	74.12
263.105	91.12
263.337	96.12
263.57	79.12
263.802	89.12
264.035	85.12
264.267	82.12
264.499	82.12
264.732	90.12
264.964	82.12
265.197	88.12
265.429	86.12
265.661	95.12
265.894	77.12
266.126	68.12
266.358	92.12
266.591	82.12
266.823	92.12
267.055	78.12
267.287	72.12
267.52	101.12
267.752	75.12
267.984	79.12
268.216	92.12
268.448	97.12
268.681	88.12
268.913	79.12
269.145	89.12
269.377	91.12
269.609	77.12
269.841	89.12
270.073	88.12
270.306	97.12
270.538	85.12
270.77	103.12
271.002	96.12
271.234	96.12
271.466	74.12
271.698	92.12
271.93	88.12
272.162	91.12
272.394	93.12
272.626	94.12
272.858	94.12
273.09	106.12
273.322	95.12
273.553	104.12
273.785	89.12
274.017	92.12
274.249	89.12
274.481	84.12
274.713	79.12
274.945	97.12
275.176	99.12
275.408	100.12
275.64	121.12
275.872	118.12
276.104	108.12
276.335	96.12
276.567	119.12
276.799	155.12
277.031	182.12
277.262	173.12
277.494	138.12
277.726	92.12
277.957	101.12
278.189	94.12
278.421	80.12
278.652	102.12
278.884	101.12
279.115	89.12
279.347	94.12
279.579	109.12
279.81	112.12
280.042	183.12
280.273	233.12
280.505	162.12
280.736	107.12
280.968	100.12
281.199	97.12
281.431	84.12
281.662	94.12
281.894	82.12
282.125	103.12
282.356	145.12
282.588	184.12
282.819	120.12
283.051	98.12
283.282	96.12
283.513	101.12
283.745	98.12
283.976	105.12
284.207	94.12
284.439	91.12
284.67	85.12
284.901	97.12
285.132	90.12
285.364	105.12
285.595	76.12
285.826	93.12
286.057	89.12
286.288	87.12
286.52	89.12
286.751	87.12
286.982	84.12
287.213	103.12
287.444	91.12
287.675	99.12
287.906	88.12
288.138	95.12
288.369	101.12
288.6	102.12
288.831	89.12
289.062	91.12
289.293	100.12
289.524	95.12
289.755	95.12
289.986	93.12
290.217	108.12
290.448	88.12
290.679	86.12
290.91	100.12
291.141	82.12
291.371	101.12
291.602	97.12
291.833	92.12
292.064	106.12
292.295	87.12
292.526	104.12
292.757	100.12
292.987	93.12
293.218	95.12
293.449	83.12
293.68	92.12
293.91	91.12
294.141	91.12
294.372	92.12
294.603	83.12
294.833	93.12
295.064	85.12
295.295	93.12
295.525	86.12
295.756	103.12
295.987	134.12
296.217	172.12
296.448	157.12
296.679	104.12
296.909	92.12
297.14	93.12
297.37	98.12
297.601	89.12
297.831	84.12
298.062	101.12
298.292	93.12
298.523	91.12
298.753	94.12
298.984	91.12
299.214	112.12
299.445	101.12
299.675	88.12
299.905	107.12
300.136	89.12
300.366	95.12
300.597	84.12
300.827	96.12
301.057	98.12
301.288	120.12
301.518	99.12
301.748	104.12
301.979	107.12
302.209	98.12
302.439	94.12
302.669	96.12
302.9	102.12
303.13	102.12
303.36	121.12
303.59	136.12
303.82	152.12
304.051	100.12
304.281	96.12
304.511	92.12
304.741	79.12
304.971	90.12
305.201	110.12
305.431	91.12
305.661	94.12
305.891	95.12
306.121	96.12
306.352	123.12
306.582	116.12
306.812	122.12
307.042	116.12
307.272	142.12
307.502	165.12
307.731	142.12
307.961	120.12
308.191	106.12
308.421	101.12
308.651	100.12
308.881	106.12
309.111	103.12
309.341	103.12
309.571	97.12
309.8	103.12
310.03	105.12
310.26	105.12
310.49	94.12
310.72	127.12
310.949	121.12
311.179	109.12
311.409	98.12
311.639	120.12
311.868	111.12
312.098	109.12
312.328	100.12
312.557	122.12
312.787	121.12
313.017	132.12
313.246	106.12
313.476	94.12
313.706	102.12
313.935	93.12
314.165	116.12
314.394	132.12
314.624	111.12
314.853	108.12
315.083	97.12
315.312	102.12
315.542	92.12
315.771	90.12
316.001	82.12
316.23	82.12
316.46	91.12
316.689	99.12
316.919	97.12
317.148	102.12
317.377	111.12
317.607	96.12
317.836	94.12
318.065	97.12
318.295	111.12
318.524	90.12
318.753	96.12
318.983	105.12
319.212	124.12
319.441	136.12
319.67	129.12
319.9	104.12
320.129	92.12
320.358	89.12
320.587	99.12
320.816	100.12
321.046	108.12
321.275	114.12
321.504	111.12
321.733	94.12
321.962	109.12
322.191	114.12
322.42	113.12
322.649	121.12
322.878	138.12
323.108	143.12
323.337	160.12
323.566	162.12
323.795	188.12
324.024	264.12
324.253	489.12
324.482	1057.12
324.71	2123.12
324.939	2734.12
325.168	1021.12
325.397	305.12
325.626	166.12
325.855	145.12
326.084	127.12
326.313	152.12
326.542	166.12
326.77	283.12
326.999	555.12
327.228	1097.12
327.457	1946.12
327.686	1586.12
327.914	531.12
328.143	485.12
328.372	616.12
328.6	353.12
328.829	187.12
329.058	204.12
329.287	201.12
329.515	178.12
329.744	241.12
329.972	469.12
330.201	928.12
330.43	1336.12
330.658	628.12
330.887	299.12
331.115	194.12
331.344	140.12
331.572	132.12
331.801	156.12
332.03	143.12
332.258	124.12
332.486	105.12
332.715	108.12
332.943	105.12
333.172	127.12
333.4	145.12
333.629	161.12
333.857	243.12
334.085	435.12
334.314	864.12
334.542	1615.12
334.771	1550.12
334.999	425.12
335.227	166.12
335.455	146.12
335.684	103.12
335.912	116.12
336.14	113.12
336.369	113.12
336.597	118.12
336.825	128.12
337.053	110.12
337.281	103.12
337.51	89.12
337.738	106.12
337.966	108.12
338.194	118.12
338.422	100.12
338.65	103.12
338.878	112.12
339.106	101.12
339.334	94.12
339.562	91.12
339.79	91.12
340.018	94.12
340.246	103.12
340.474	101.12
340.702	97.12
340.93	102.12
341.158	74.12
341.386	101.12
341.614	117.12
341.842	105.12
342.07	93.12
342.298	94.12
342.526	96.12
342.754	92.12
342.981	94.12
343.209	98.12
343.437	100.12
343.665	88.12
343.893	102.12
344.12	96.12
344.348	106.12
344.576	89.12
344.804	82.12
345.031	106.12
345.259	131.12
345.487	102.12
345.714	97.12
345.942	85.12
346.17	100.12
346.397	94.12
346.625	94.12
346.853	89.12
347.08	101.12
347.308	104.12
347.535	103.12
347.763	113.12
347.99	105.12
348.218	137.12
348.445	137.12
348.673	122.12
348.9	101.12
349.128	106.12
349.355	98.12
349.583	91.12
349.81	98.12
350.037	105.12
350.265	92.12
350.492	89.12
350.72	92.12
350.947	121.12
351.174	107.12
351.402	126.12
351.629	122.12
351.856	111.12
352.083	123.12
352.311	113.12
352.538	128.12
352.765	116.12
352.992	108.12
353.22	121.12
353.447	103.12
353.674	103.12
353.901	97.12
354.128	103.12
354.355	117.12
354.583	96.12
354.81	98.12
355.037	85.12
355.264	98.12
355.491	95.12
355.718	93.12
355.945	91.12
356.172	110.12
356.399	97.12
356.626	99.12
356.853	94.12
357.08	84.12
357.307	80.12
357.534	91.12
357.761	98.12
357.988	80.12
358.215	104.12
358.441	82.12
358.668	82.12
358.895	98.12
359.122	97.12
359.349	93.12
359.576	99.12
359.802	133.12
360.029	146.12
360.256	154.12
360.483	133.12
360.709	95.12
360.936	86.12
361.163	104.12
361.39	100.12
361.616	122.12
361.843	100.12
362.07	114.12
362.296	124.12
362.523	111.12
362.749	105.12
362.976	85.12
363.203	107.12
363.429	97.12
363.656	92.12
363.882	103.12
364.109	91.12
364.335	92.12
364.562	92.12
364.788	95.12
365.015	104.12
365.241	125.12
365.468	117.12
365.694	118.12
365.92	106.12
366.147	97.12
366.373	91.12
366.599	87.12
366.826	98.12
367.052	108.12
367.278	97.12
367.505	102.12
367.731	114.12
367.957	105.12
368.184	102.12
368.41	117.12
368.636	134.12
368.862	138.12
369.089	121.12
369.315	105.12
369.541	109.12
369.767	105.12
369.993	103.12
370.219	98.12
370.445	86.12
370.672	98.12
370.898	86.12
371.124	88.12
371.35	94.12
371.576	93.12
371.802	102.12
372.028	97.12
372.254	90.12
372.48	107.12
372.706	92.12
372.932	95.12
373.158	90.12
373.384	98.12
373.61	99.12
373.835	82.12
374.061	88.12
374.287	101.12
374.513	100.12
374.739	87.12
374.965	92.12
375.191	85.12
375.416	83.12
375.642	90.12
375.868	97.12
376.094	99.12
376.319	81.12
376.545	103.12
376.771	93.12
376.997	98.12
377.222	102.12
377.448	101.12
377.674	97.12
377.899	95.12
378.125	92.12
378.35	103.12
378.576	94.12
378.802	78.12
379.027	89.12
379.253	97.12
379.478	86.12
379.704	72.12
379.929	88.12
380.155	94.12
380.38	94.12
380.606	96.12
380.831	103.12
381.057	97.12
381.282	86.12
381.507	105.12
381.733	96.12
381.958	104.12
382.184	93.12
382.409	97.12
382.634	90.12
382.86	94.12
383.085	101.12
383.31	104.12
383.535	89.12
383.761	85.12
383.986	94.12
384.211	98.12
384.436	110.12
384.662	92.12
384.887	85.12
385.112	106.12
385.337	108.12
385.562	106.12
385.787	108.12
386.013	100.12
386.238	109.12
386.463	118.12
386.688	116.12
386.913	97.12
387.138	92.12
387.363	107.12
387.588	94.12
387.813	120.12
388.038	87.12
388.263	114.12
388.488	100.12
388.713	88.12
388.938	97.12
389.163	94.12
389.387	86.12
389.612	96.12
389.837	97.12
390.062	102.12
390.287	90.12
390.512	95.12
390.736	82.12
390.961	94.12
391.186	91.12
391.411	83.12
391.636	104.12
391.86	107.12
392.085	95.12
392.31	105.12
392.534	93.12
392.759	88.12
392.984	91.12
393.208	93.12
393.433	90.12
393.658	91.12
393.882	96.12
394.107	85.12
394.331	94.12
394.556	87.12
394.78	106.12
395.005	91.12
395.229	81.12
395.454	96.12
395.678	93.12
395.903	103.12
396.127	101.12
396.352	93.12
396.576	96.12
396.801	95.12
397.025	89.12
397.249	84.12
397.474	85.12
397.698	86.12
397.922	94.12
398.147	89.12
398.371	94.12
398.595	90.12
398.82	83.12
399.044	102.12
399.268	89.12
399.492	87.12
399.717	87.12
399.941	120.12
400.165	89.12
400.389	99.12
400.613	87.12
400.837	95.12
401.062	101.12
401.286	102.12
401.51	97.12
401.734	97.12
401.958	110.12
402.182	155.12
402.406	202.12
402.63	169.12
402.854	109.12
403.078	80.12
403.302	84.12
403.526	91.12
403.75	88.12
403.974	92.12
404.198	88.12
404.422	104.12
404.645	89.12
404.869	104.12
405.093	116.12
405.317	147.12
405.541	145.12
405.765	124.12
405.988	134.12
406.212	215.12
406.436	310.12
406.66	207.12
406.883	122.12
407.107	119.12
407.331	86.12
407.555	103.12
407.778	103.12
408.002	100.12
408.226	90.12
408.449	85.12
408.673	91.12
408.896	94.12
409.12	103.12
409.344	106.12
409.567	98.12
409.791	105.12
410.014	110.12
410.238	108.12
410.461	97.12
410.685	92.12
410.908	106.12
411.132	118.12
411.355	111.12
411.578	87.12
411.802	90.12
412.025	102.12
412.249	107.12
412.472	117.12
412.695	153.12
412.919	108.12
413.142	97.12
413.365	91.12
413.589	81.12
413.812	86.12
414.035	105.12
414.258	90.12
414.482	90.12
414.705	101.12
414.928	97.12
415.151	91.12
415.374	100.12
415.597	82.12
415.821	93.12
416.044	94.12
416.267	102.12
416.49	94.12
416.713	92.12
416.936	104.12
417.159	101.12
417.382	105.12
417.605	114.12
417.828	126.12
418.051	100.12
418.274	93.12
418.497	95.12
418.72	93.12
418.943	80.12
419.166	100.12
419.389	100.12
419.611	81.12
419.834	96.12
420.057	88.12
420.28	108.12
420.503	81.12
420.726	101.12
420.948	105.12
421.171	102.12
421.394	104.12
421.617	85.12
421.839	74.12
422.062	90.12
422.285	103.12
422.507	94.12
422.73	104.12
422.953	84.12
423.175	82.12
423.398	92.12
423.621	91.12
423.843	94.12
424.066	95.12
424.288	98.12
424.511	98.12
424.733	104.12
424.956	113.12
425.178	121.12
425.401	124.12
425.623	110.12
425.846	100.12
426.068	114.12
426.291	102.12
426.513	81.12
426.735	107.12
426.958	110.12
427.18	126.12
427.402	184.12
427.625	282.12
427.847	248.12
428.069	192.12
428.292	134.12
428.514	104.12
428.736	97.12
428.958	87.12
429.181	93.12
429.403	85.12
429.625	91.12
429.847	103.12
430.069	111.12
430.292	105.12
430.514	88.12
430.736	98.12
430.958	95.12
431.18	82.12
431.402	77.12
431.624	88.12
431.846	103.12
432.068	100.12
432.29	96.12
432.512	92.12
432.734	95.12
432.956	100.12
433.178	98.12
433.4	95.12
433.622	91.12
433.844	96.12
434.066	94.12
434.287	69.12
434.509	98.12
434.731	90.12
434.953	87.12
435.175	103.12
435.397	92.12
435.618	94.12
435.84	111.12
436.062	138.12
436.284	148.12
436.505	123.12
436.727	100.12
436.949	88.12
437.17	86.12
437.392	95.12
437.614	114.12
437.835	132.12
438.057	155.12
438.278	138.12
438.5	128.12
438.721	151.12
438.943	119.12
439.165	108.12
439.386	103.12
439.608	110.12
439.829	135.12
440.05	155.12
440.272	187.12
440.493	116.12
440.715	97.12
440.936	90.12
441.158	90.12
441.379	94.12
441.6	89.12
441.822	100.12
442.043	105.12
442.264	114.12
442.486	116.12
442.707	101.12
442.928	123.12
443.149	188.12
443.371	176.12
443.592	140.12
443.813	137.12
444.034	141.12
444.255	96.12
444.476	91.12
444.698	91.12
444.919	92.12
445.14	129.12
445.361	144.12
445.582	140.12
445.803	194.12
446.024	194.12
446.245	170.12
446.466	132.12
446.687	101.12
446.908	93.12
447.129	91.12
447.35	100.12
447.571	105.12
447.792	107.12
448.013	116.12
448.234	129.12
448.455	120.12
448.675	145.12
448.896	134.12
449.117	115.12
449.338	118.12
449.559	155.12
449.779	158.12
450	105.12
450.221	101.12
450.442	105.12
450.662	111.12
450.883	143.12
451.104	153.12
451.324	120.12
451.545	93.12
451.766	103.12
451.986	92.12
452.207	105.12
452.428	101.12
452.648	108.12
452.869	121.12
453.089	141.12
453.31	146.12
453.53	112.12
453.751	91.12
453.971	120.12
454.192	144.12
454.412	109.12
454.633	102.12
454.853	92.12
455.073	111.12
455.294	99.12
455.514	113.12
455.734	93.12
455.955	95.12
456.175	80.12
456.395	94.12
456.616	94.12
456.836	87.12
457.056	78.12
457.276	90.12
457.497	87.12
457.717	99.12
457.937	74.12
458.157	92.12
458.377	108.12
458.598	133.12
458.818	221.12
459.038	247.12
459.258	151.12
459.478	103.12
459.698	101.12
459.918	101.12
460.138	100.12
460.358	74.12
460.578	86.12
460.798	108.12
461.018	99.12
461.238	82.12
461.458	84.12
461.678	70.12
461.898	84.12
462.118	93.12
462.338	89.12
462.558	91.12
462.777	86.12
462.997	107.12
463.217	116.12
463.437	93.12
463.657	90.12
463.876	92.12
464.096	98.12
464.316	96.12
464.536	106.12
464.755	134.12
464.975	140.12
465.195	261.12
465.414	259.12
465.634	121.12
465.854	100.12
466.073	79.12
466.293	94.12
466.512	93.12
466.732	86.12
466.951	110.12
467.171	104.12
467.391	99.12
467.61	165.12
467.829	199.12
468.049	486.12
468.268	739.12
468.488	217.12
468.707	102.12
468.927	89.12
469.146	92.12
469.365	104.12
469.585	100.12
469.804	102.12
470.023	112.12
470.243	100.12
470.462	128.12
470.681	150.12
470.901	112.12
471.12	98.12
471.339	103.12
471.558	116.12
471.777	160.12
471.997	285.12
472.216	977.12
472.435	2207.12
472.654	526.12
472.873	153.12
473.092	113.12
473.311	103.12
473.53	83.12
473.749	101.12
473.968	105.12
474.187	138.12
474.406	118.12
474.625	97.12
474.844	84.12
475.063	89.12
475.282	96.12
475.501	83.12
475.72	96.12
475.939	91.12
476.158	89.12
476.377	86.12
476.596	105.12
476.814	97.12
477.033	112.12
477.252	108.12
477.471	89.12
477.69	103.12
477.908	93.12
478.127	102.12
478.346	87.12
478.564	106.12
478.783	129.12
479.002	94.12
479.22	112.12
479.439	140.12
479.658	140.12
479.876	124.12
480.095	130.12
480.313	133.12
480.532	157.12
480.751	260.12
480.969	904.12
481.188	3719.12
481.406	2239.12
481.624	344.12
481.843	140.12
482.061	129.12
482.28	98.12
482.498	103.12
482.717	95.12
482.935	105.12
483.153	99.12
483.372	91.12
483.59	99.12
483.808	102.12
484.027	103.12
484.245	113.12
484.463	101.12
484.681	88.12
484.9	92.12
485.118	89.12
485.336	104.12
485.554	97.12
485.772	118.12
485.99	116.12
486.209	101.12
486.427	102.12
486.645	119.12
486.863	130.12
487.081	106.12
487.299	101.12
487.517	79.12
487.735	86.12
487.953	91.12
488.171	118.12
488.389	102.12
488.607	112.12
488.825	88.12
489.043	99.12
489.261	82.12
489.479	100.12
489.696	90.12
489.914	95.12
490.132	91.12
490.35	94.12
490.568	108.12
490.786	101.12
491.003	83.12
491.221	90.12
491.439	94.12
491.657	108.12
491.874	96.12
492.092	101.12
492.31	112.12
492.527	103.12
492.745	99.12
492.963	101.12
493.18	106.12
493.398	95.12
493.615	96.12
493.833	105.12
494.05	100.12
494.268	86.12
494.485	106.12
494.703	91.12
494.92	97.12
495.138	94.12
495.355	101.12
495.573	80.12
495.79	86.12
496.008	90.12
496.225	93.12
496.442	97.12
496.66	99.12
496.877	90.12
497.094	91.12
497.312	88.12
497.529	94.12
497.746	97.12
497.963	91.12
498.181	92.12
498.398	92.12
498.615	111.12
498.832	124.12
499.049	102.12
499.267	107.12
499.484	89.12
499.701	94.12
499.918	99.12
500.135	93.12
500.352	88.12
500.569	100.12
500.786	101.12
501.003	93.12
501.22	108.12
501.437	93.12
501.654	98.12
501.871	131.12
502.088	110.12
502.305	87.12
502.522	91.12
502.739	96.12
502.956	96.12
503.172	82.12
503.389	114.12
503.606	132.12
503.823	104.12
504.04	97.12
504.256	94.12
504.473	100.12
504.69	96.12
504.907	98.12
505.123	81.12
505.34	107.12
505.557	89.12
505.773	92.12
505.99	100.12
506.207	95.12
506.423	97.12
506.64	95.12
506.856	97.12
507.073	94.12
507.289	102.12
507.506	102.12
507.722	139.12
507.939	128.12
508.155	120.12
508.372	100.12
508.588	100.12
508.805	102.12
509.021	100.12
509.238	94.12
509.454	100.12
509.67	98.12
509.887	106.12
510.103	136.12
510.319	239.12
510.536	914.12
510.752	3162.12
510.968	891.12
511.184	193.12
511.401	138.12
511.617	125.12
