Data from Circ_2013_H10_HRD10591_00085.txt Node
Date: Wed Jan 03 10:04:17 EST 2024
User: Yrep
Spectrometer: HR+D1059
Trigger mode: 1
Integration Time (sec): 1.000000E-1
Scans to average: 1
Electric dark correction enabled: true
Nonlinearity correction enabled: false
Boxcar width: 0
XAxis mode: Wavelengths
Number of Pixels in Spectrum: 2048
>>>>>Begin Spectral Data<<<<<
223.165	-10.25
223.4	-10.25
223.635	-10.25
223.869	-19.25
224.104	-22.25
224.338	-7.25
224.573	-11.25
224.808	1.75
225.042	-10.25
225.277	-4.25
225.511	-1.25
225.746	-6.25
225.98	2.75
226.215	3.75
226.449	4.75
226.683	20.75
226.918	26.75
227.152	31.75
227.387	25.75
227.621	43.75
227.856	44.75
228.09	47.75
228.324	38.75
228.559	74.75
228.793	63.75
229.027	59.75
229.262	66.75
229.496	90.75
229.73	98.75
229.964	88.75
230.199	76.75
230.433	79.75
230.667	81.75
230.901	76.75
231.136	81.75
231.37	72.75
231.604	76.75
231.838	93.75
232.072	82.75
232.306	81.75
232.541	77.75
232.775	83.75
233.009	85.75
233.243	82.75
233.477	75.75
233.711	74.75
233.945	77.75
234.179	85.75
234.413	81.75
234.647	85.75
234.881	80.75
235.115	77.75
235.349	85.75
235.583	88.75
235.817	71.75
236.051	71.75
236.285	81.75
236.519	76.75
236.753	76.75
236.987	87.75
237.221	83.75
237.455	83.75
237.689	73.75
237.922	75.75
238.156	80.75
238.39	66.75
238.624	84.75
238.858	81.75
239.091	87.75
239.325	74.75
239.559	91.75
239.793	75.75
240.027	72.75
240.26	70.75
240.494	79.75
240.728	70.75
240.961	78.75
241.195	82.75
241.429	67.75
241.662	76.75
241.896	80.75
242.13	83.75
242.363	72.75
242.597	65.75
242.83	85.75
243.064	61.75
243.298	77.75
243.531	81.75
243.765	73.75
243.998	98.75
244.232	81.75
244.465	96.75
244.699	79.75
244.932	64.75
245.166	88.75
245.399	78.75
245.633	72.75
245.866	81.75
246.099	88.75
246.333	90.75
246.566	82.75
246.8	80.75
247.033	70.75
247.266	73.75
247.5	65.75
247.733	80.75
247.966	80.75
248.2	90.75
248.433	88.75
248.666	83.75
248.899	82.75
249.133	90.75
249.366	96.75
249.599	107.75
249.832	100.75
250.066	77.75
250.299	77.75
250.532	68.75
250.765	76.75
250.998	71.75
251.231	81.75
251.465	82.75
251.698	91.75
251.931	76.75
252.164	84.75
252.397	83.75
252.63	90.75
252.863	77.75
253.096	86.75
253.329	80.75
253.562	88.75
253.795	74.75
254.028	80.75
254.261	75.75
254.494	88.75
254.727	88.75
254.96	86.75
255.193	74.75
255.426	67.75
255.659	71.75
255.892	92.75
256.124	107.75
256.357	84.75
256.59	85.75
256.823	75.75
257.056	89.75
257.289	87.75
257.521	73.75
257.754	93.75
257.987	76.75
258.22	98.75
258.452	99.75
258.685	74.75
258.918	78.75
259.151	80.75
259.383	86.75
259.616	85.75
259.849	61.75
260.081	81.75
260.314	91.75
260.547	99.75
260.779	95.75
261.012	102.75
261.244	90.75
261.477	98.75
261.71	106.75
261.942	146.75
262.175	146.75
262.407	101.75
262.64	83.75
262.872	77.75
263.105	90.75
263.337	87.75
263.57	95.75
263.802	92.75
264.035	75.75
264.267	84.75
264.499	85.75
264.732	85.75
264.964	85.75
265.197	98.75
265.429	77.75
265.661	74.75
265.894	89.75
266.126	87.75
266.358	73.75
266.591	74.75
266.823	82.75
267.055	88.75
267.287	75.75
267.52	93.75
267.752	84.75
267.984	85.75
268.216	106.75
268.448	92.75
268.681	84.75
268.913	81.75
269.145	89.75
269.377	64.75
269.609	69.75
269.841	67.75
270.073	84.75
270.306	87.75
270.538	85.75
270.77	83.75
271.002	74.75
271.234	103.75
271.466	77.75
271.698	93.75
271.93	86.75
272.162	79.75
272.394	69.75
272.626	90.75
272.858	99.75
273.09	78.75
273.322	83.75
273.553	82.75
273.785	85.75
274.017	81.75
274.249	87.75
274.481	85.75
274.713	100.75
274.945	88.75
275.176	88.75
275.408	101.75
275.64	98.75
275.872	105.75
276.104	94.75
276.335	95.75
276.567	114.75
276.799	154.75
277.031	157.75
277.262	167.75
277.494	146.75
277.726	97.75
277.957	99.75
278.189	96.75
278.421	84.75
278.652	96.75
278.884	81.75
279.115	90.75
279.347	80.75
279.579	103.75
279.81	117.75
280.042	143.75
280.273	227.75
280.505	166.75
280.736	85.75
280.968	96.75
281.199	92.75
281.431	79.75
281.662	89.75
281.894	89.75
282.125	114.75
282.356	141.75
282.588	173.75
282.819	132.75
283.051	81.75
283.282	85.75
283.513	90.75
283.745	94.75
283.976	92.75
284.207	95.75
284.439	94.75
284.67	100.75
284.901	80.75
285.132	70.75
285.364	85.75
285.595	82.75
285.826	76.75
286.057	97.75
286.288	81.75
286.52	82.75
286.751	77.75
286.982	99.75
287.213	72.75
287.444	92.75
287.675	101.75
287.906	91.75
288.138	76.75
288.369	99.75
288.6	87.75
288.831	96.75
289.062	77.75
289.293	80.75
289.524	80.75
289.755	82.75
289.986	80.75
290.217	90.75
290.448	87.75
290.679	102.75
290.91	81.75
291.141	73.75
291.371	91.75
291.602	92.75
291.833	87.75
292.064	94.75
292.295	93.75
292.526	90.75
292.757	86.75
292.987	77.75
293.218	81.75
293.449	88.75
293.68	91.75
293.91	97.75
294.141	95.75
294.372	97.75
294.603	78.75
294.833	72.75
295.064	92.75
295.295	103.75
295.525	112.75
295.756	121.75
295.987	129.75
296.217	174.75
296.448	138.75
296.679	96.75
296.909	84.75
297.14	100.75
297.37	105.75
297.601	87.75
297.831	96.75
298.062	95.75
298.292	102.75
298.523	99.75
298.753	98.75
298.984	86.75
299.214	85.75
299.445	103.75
299.675	96.75
299.905	92.75
300.136	83.75
300.366	94.75
300.597	92.75
300.827	85.75
301.057	107.75
301.288	113.75
301.518	106.75
301.748	88.75
301.979	103.75
302.209	94.75
302.439	100.75
302.669	98.75
302.9	93.75
303.13	85.75
303.36	94.75
303.59	136.75
303.82	138.75
304.051	100.75
304.281	95.75
304.511	85.75
304.741	72.75
304.971	79.75
305.201	86.75
305.431	83.75
305.661	94.75
305.891	92.75
306.121	97.75
306.352	114.75
306.582	106.75
306.812	116.75
307.042	121.75
307.272	133.75
307.502	160.75
307.731	151.75
307.961	106.75
308.191	89.75
308.421	107.75
308.651	89.75
308.881	87.75
309.111	104.75
309.341	100.75
309.571	113.75
309.8	99.75
310.03	108.75
310.26	116.75
310.49	115.75
310.72	96.75
310.949	125.75
311.179	111.75
311.409	93.75
311.639	108.75
311.868	101.75
312.098	104.75
312.328	112.75
312.557	122.75
312.787	129.75
313.017	127.75
313.246	98.75
313.476	104.75
313.706	88.75
313.935	105.75
314.165	106.75
314.394	131.75
314.624	112.75
314.853	107.75
315.083	97.75
315.312	89.75
315.542	94.75
315.771	100.75
316.001	90.75
316.23	92.75
316.46	95.75
316.689	99.75
316.919	113.75
317.148	111.75
317.377	105.75
317.607	101.75
317.836	111.75
318.065	99.75
318.295	101.75
318.524	90.75
318.753	95.75
318.983	89.75
319.212	100.75
319.441	126.75
319.67	125.75
319.9	107.75
320.129	111.75
320.358	109.75
320.587	91.75
320.816	113.75
321.046	111.75
321.275	113.75
321.504	92.75
321.733	104.75
321.962	107.75
322.191	103.75
322.42	114.75
322.649	123.75
322.878	141.75
323.108	131.75
323.337	144.75
323.566	162.75
323.795	180.75
324.024	240.75
324.253	465.75
324.482	969.75
324.71	1948.75
324.939	2611.75
325.168	970.75
325.397	297.75
325.626	154.75
325.855	143.75
326.084	145.75
326.313	134.75
326.542	172.75
326.77	250.75
326.999	511.75
327.228	1053.75
327.457	1811.75
327.686	1484.75
327.914	529.75
328.143	480.75
328.372	581.75
328.6	336.75
328.829	177.75
329.058	181.75
329.287	214.75
329.515	167.75
329.744	239.75
329.972	422.75
330.201	839.75
330.43	1205.75
330.658	566.75
330.887	280.75
331.115	188.75
331.344	123.75
331.572	125.75
331.801	138.75
332.03	145.75
332.258	107.75
332.486	107.75
332.715	105.75
332.943	111.75
333.172	103.75
333.4	135.75
333.629	159.75
333.857	231.75
334.085	387.75
334.314	771.75
334.542	1474.75
334.771	1391.75
334.999	385.75
335.227	176.75
335.455	125.75
335.684	108.75
335.912	106.75
336.14	108.75
336.369	115.75
336.597	117.75
336.825	125.75
337.053	103.75
337.281	105.75
337.51	88.75
337.738	91.75
337.966	91.75
338.194	104.75
338.422	111.75
338.65	95.75
338.878	107.75
339.106	95.75
339.334	86.75
339.562	91.75
339.79	103.75
340.018	85.75
340.246	80.75
340.474	90.75
340.702	95.75
340.93	88.75
341.158	100.75
341.386	93.75
341.614	91.75
341.842	92.75
342.07	94.75
342.298	90.75
342.526	84.75
342.754	97.75
342.981	92.75
343.209	89.75
343.437	106.75
343.665	89.75
343.893	85.75
344.12	97.75
344.348	77.75
344.576	100.75
344.804	84.75
345.031	96.75
345.259	119.75
345.487	92.75
345.714	95.75
345.942	97.75
346.17	76.75
346.397	91.75
346.625	88.75
346.853	89.75
347.08	85.75
347.308	79.75
347.535	100.75
347.763	92.75
347.99	93.75
348.218	112.75
348.445	120.75
348.673	119.75
348.9	104.75
349.128	104.75
349.355	91.75
349.583	85.75
349.81	96.75
350.037	97.75
350.265	92.75
350.492	89.75
350.72	108.75
350.947	105.75
351.174	108.75
351.402	138.75
351.629	113.75
351.856	113.75
352.083	117.75
352.311	122.75
352.538	114.75
352.765	136.75
352.992	115.75
353.22	122.75
353.447	116.75
353.674	109.75
353.901	102.75
354.128	84.75
354.355	94.75
354.583	85.75
354.81	98.75
355.037	99.75
355.264	98.75
355.491	91.75
355.718	99.75
355.945	100.75
356.172	81.75
356.399	90.75
356.626	96.75
356.853	90.75
357.08	91.75
357.307	113.75
357.534	96.75
357.761	88.75
357.988	89.75
358.215	86.75
358.441	90.75
358.668	97.75
358.895	84.75
359.122	93.75
359.349	94.75
359.576	115.75
359.802	115.75
360.029	150.75
360.256	157.75
360.483	115.75
360.709	98.75
360.936	106.75
361.163	101.75
361.39	106.75
361.616	104.75
361.843	96.75
362.07	111.75
362.296	100.75
362.523	78.75
362.749	102.75
362.976	92.75
363.203	99.75
363.429	98.75
363.656	101.75
363.882	78.75
364.109	86.75
364.335	91.75
364.562	90.75
364.788	101.75
365.015	100.75
365.241	106.75
365.468	125.75
365.694	126.75
365.92	109.75
366.147	87.75
366.373	87.75
366.599	81.75
366.826	87.75
367.052	90.75
367.278	88.75
367.505	90.75
367.731	104.75
367.957	72.75
368.184	98.75
368.41	109.75
368.636	128.75
368.862	129.75
369.089	137.75
369.315	88.75
369.541	87.75
369.767	95.75
369.993	89.75
370.219	103.75
370.445	83.75
370.672	89.75
370.898	79.75
371.124	90.75
371.35	81.75
371.576	90.75
371.802	102.75
372.028	99.75
372.254	72.75
372.48	70.75
372.706	92.75
372.932	85.75
373.158	87.75
373.384	85.75
373.61	97.75
373.835	90.75
374.061	92.75
374.287	101.75
374.513	100.75
374.739	90.75
374.965	89.75
375.191	98.75
375.416	84.75
375.642	92.75
375.868	89.75
376.094	96.75
376.319	90.75
376.545	90.75
376.771	83.75
376.997	88.75
377.222	96.75
377.448	88.75
377.674	82.75
377.899	95.75
378.125	93.75
378.35	94.75
378.576	89.75
378.802	88.75
379.027	89.75
379.253	88.75
379.478	106.75
379.704	97.75
379.929	87.75
380.155	98.75
380.38	93.75
380.606	75.75
380.831	78.75
381.057	94.75
381.282	95.75
381.507	97.75
381.733	97.75
381.958	103.75
382.184	83.75
382.409	111.75
382.634	105.75
382.86	92.75
383.085	81.75
383.31	88.75
383.535	98.75
383.761	93.75
383.986	99.75
384.211	93.75
384.436	100.75
384.662	98.75
384.887	79.75
385.112	94.75
385.337	104.75
385.562	100.75
385.787	104.75
386.013	103.75
386.238	108.75
386.463	111.75
386.688	95.75
386.913	117.75
387.138	107.75
387.363	80.75
387.588	85.75
387.813	104.75
388.038	95.75
388.263	95.75
388.488	106.75
388.713	85.75
388.938	87.75
389.163	96.75
389.387	94.75
389.612	81.75
389.837	91.75
390.062	94.75
390.287	79.75
390.512	95.75
390.736	78.75
390.961	80.75
391.186	75.75
391.411	104.75
391.636	67.75
391.86	85.75
392.085	98.75
392.31	94.75
392.534	86.75
392.759	82.75
392.984	79.75
393.208	84.75
393.433	82.75
393.658	85.75
393.882	82.75
394.107	89.75
394.331	89.75
394.556	96.75
394.78	84.75
395.005	76.75
395.229	81.75
395.454	88.75
395.678	81.75
395.903	78.75
396.127	93.75
396.352	91.75
396.576	84.75
396.801	95.75
397.025	84.75
397.249	75.75
397.474	86.75
397.698	72.75
397.922	107.75
398.147	91.75
398.371	84.75
398.595	91.75
398.82	74.75
399.044	83.75
399.268	81.75
399.492	74.75
399.717	92.75
399.941	98.75
400.165	96.75
400.389	97.75
400.613	98.75
400.837	71.75
401.062	88.75
401.286	90.75
401.51	99.75
401.734	80.75
401.958	108.75
402.182	159.75
402.406	223.75
402.63	145.75
402.854	106.75
403.078	82.75
403.302	87.75
403.526	95.75
403.75	93.75
403.974	81.75
404.198	83.75
404.422	87.75
404.645	92.75
404.869	108.75
405.093	104.75
405.317	148.75
405.541	138.75
405.765	123.75
405.988	142.75
406.212	249.75
406.436	346.75
406.66	227.75
406.883	115.75
407.107	109.75
407.331	99.75
407.555	93.75
407.778	108.75
408.002	81.75
408.226	82.75
408.449	89.75
408.673	98.75
408.896	95.75
409.12	94.75
409.344	73.75
409.567	79.75
409.791	87.75
410.014	95.75
410.238	84.75
410.461	91.75
410.685	89.75
410.908	93.75
411.132	96.75
411.355	104.75
411.578	90.75
411.802	101.75
412.025	81.75
412.249	97.75
412.472	110.75
412.695	119.75
412.919	92.75
413.142	107.75
413.365	89.75
413.589	90.75
413.812	89.75
414.035	94.75
414.258	102.75
414.482	91.75
414.705	92.75
414.928	86.75
415.151	88.75
415.374	92.75
415.597	83.75
415.821	88.75
416.044	103.75
416.267	80.75
416.49	85.75
416.713	91.75
416.936	93.75
417.159	92.75
417.382	98.75
417.605	93.75
417.828	99.75
418.051	91.75
418.274	96.75
418.497	86.75
418.72	75.75
418.943	83.75
419.166	87.75
419.389	75.75
419.611	86.75
419.834	90.75
420.057	92.75
420.28	107.75
420.503	93.75
420.726	81.75
420.948	101.75
421.171	95.75
421.394	84.75
421.617	81.75
421.839	75.75
422.062	83.75
422.285	83.75
422.507	95.75
422.73	111.75
422.953	85.75
423.175	85.75
423.398	83.75
423.621	76.75
423.843	97.75
424.066	98.75
424.288	93.75
424.511	77.75
424.733	112.75
424.956	138.75
425.178	105.75
425.401	108.75
425.623	108.75
425.846	82.75
426.068	95.75
426.291	93.75
426.513	103.75
426.735	95.75
426.958	111.75
427.18	113.75
427.402	162.75
427.625	264.75
427.847	211.75
428.069	194.75
428.292	128.75
428.514	88.75
428.736	103.75
428.958	95.75
429.181	80.75
429.403	90.75
429.625	84.75
429.847	100.75
430.069	96.75
430.292	103.75
430.514	91.75
430.736	81.75
430.958	85.75
431.18	88.75
431.402	74.75
431.624	97.75
431.846	74.75
432.068	83.75
432.29	87.75
432.512	89.75
432.734	89.75
432.956	93.75
433.178	103.75
433.4	103.75
433.622	102.75
433.844	93.75
434.066	86.75
434.287	84.75
434.509	92.75
434.731	93.75
434.953	73.75
435.175	87.75
435.397	91.75
435.618	79.75
435.84	101.75
436.062	124.75
436.284	117.75
436.505	108.75
436.727	103.75
436.949	92.75
437.17	81.75
437.392	106.75
437.614	98.75
437.835	125.75
438.057	153.75
438.278	117.75
438.5	113.75
438.721	135.75
438.943	111.75
439.165	96.75
439.386	89.75
439.608	92.75
439.829	103.75
440.05	145.75
440.272	178.75
440.493	106.75
440.715	85.75
440.936	96.75
441.158	98.75
441.379	79.75
441.6	98.75
441.822	100.75
442.043	97.75
442.264	107.75
442.486	116.75
442.707	99.75
442.928	112.75
443.149	172.75
443.371	185.75
443.592	141.75
443.813	119.75
444.034	129.75
444.255	99.75
444.476	74.75
444.698	90.75
444.919	87.75
445.14	136.75
445.361	126.75
445.582	127.75
445.803	175.75
446.024	161.75
446.245	145.75
446.466	116.75
446.687	92.75
446.908	97.75
447.129	77.75
447.35	88.75
447.571	85.75
447.792	83.75
448.013	107.75
448.234	128.75
448.455	108.75
448.675	125.75
448.896	123.75
449.117	100.75
449.338	101.75
449.559	126.75
449.779	143.75
450	92.75
450.221	98.75
450.442	87.75
450.662	102.75
450.883	111.75
451.104	147.75
451.324	114.75
451.545	97.75
451.766	91.75
451.986	70.75
452.207	87.75
452.428	87.75
452.648	105.75
452.869	137.75
453.089	150.75
453.31	141.75
453.53	107.75
453.751	98.75
453.971	114.75
454.192	152.75
454.412	108.75
454.633	86.75
454.853	93.75
455.073	96.75
455.294	101.75
455.514	94.75
455.734	95.75
455.955	79.75
456.175	88.75
456.395	65.75
456.616	94.75
456.836	72.75
457.056	95.75
457.276	92.75
457.497	87.75
457.717	85.75
457.937	86.75
458.157	84.75
458.377	105.75
458.598	136.75
458.818	222.75
459.038	251.75
459.258	156.75
459.478	85.75
459.698	104.75
459.918	77.75
460.138	77.75
460.358	90.75
460.578	78.75
460.798	80.75
461.018	88.75
461.238	84.75
461.458	81.75
461.678	82.75
461.898	81.75
462.118	81.75
462.338	74.75
462.558	81.75
462.777	82.75
462.997	87.75
463.217	95.75
463.437	80.75
463.657	86.75
463.876	83.75
464.096	100.75
464.316	100.75
464.536	104.75
464.755	111.75
464.975	125.75
465.195	255.75
465.414	230.75
465.634	101.75
465.854	87.75
466.073	80.75
466.293	96.75
466.512	88.75
466.732	80.75
466.951	76.75
467.171	99.75
467.391	102.75
467.61	151.75
467.829	201.75
468.049	472.75
468.268	707.75
468.488	197.75
468.707	120.75
468.927	102.75
469.146	87.75
469.365	84.75
469.585	87.75
469.804	118.75
470.023	118.75
470.243	114.75
470.462	111.75
470.681	159.75
470.901	101.75
471.12	102.75
471.339	111.75
471.558	116.75
471.777	135.75
471.997	245.75
472.216	887.75
472.435	2023.75
472.654	515.75
472.873	151.75
473.092	98.75
473.311	110.75
473.53	81.75
473.749	91.75
473.968	115.75
474.187	115.75
474.406	108.75
474.625	91.75
474.844	91.75
475.063	80.75
475.282	77.75
475.501	90.75
475.72	92.75
475.939	92.75
476.158	71.75
476.377	90.75
476.596	84.75
476.814	110.75
477.033	98.75
477.252	85.75
477.471	85.75
477.69	91.75
477.908	86.75
478.127	91.75
478.346	90.75
478.564	92.75
478.783	95.75
479.002	101.75
479.22	112.75
479.439	123.75
479.658	133.75
479.876	139.75
480.095	114.75
480.313	132.75
480.532	142.75
480.751	229.75
480.969	810.75
481.188	3402.75
481.406	2069.75
481.624	311.75
481.843	120.75
482.061	109.75
482.28	98.75
482.498	86.75
482.717	91.75
482.935	104.75
483.153	91.75
483.372	95.75
483.59	101.75
483.808	99.75
484.027	90.75
484.245	93.75
484.463	86.75
484.681	87.75
484.9	89.75
485.118	89.75
485.336	113.75
485.554	74.75
485.772	96.75
485.99	90.75
486.209	99.75
486.427	111.75
486.645	136.75
486.863	135.75
487.081	106.75
487.299	93.75
487.517	113.75
487.735	76.75
487.953	81.75
488.171	101.75
488.389	81.75
488.607	103.75
488.825	102.75
489.043	85.75
489.261	81.75
489.479	88.75
489.696	80.75
489.914	95.75
490.132	82.75
490.35	87.75
490.568	95.75
490.786	89.75
491.003	92.75
491.221	85.75
491.439	87.75
491.657	88.75
491.874	94.75
492.092	92.75
492.31	89.75
492.527	96.75
492.745	92.75
492.963	86.75
493.18	88.75
493.398	89.75
493.615	92.75
493.833	84.75
494.05	85.75
494.268	100.75
494.485	99.75
494.703	103.75
494.92	85.75
495.138	93.75
495.355	91.75
495.573	84.75
495.79	85.75
496.008	78.75
496.225	87.75
496.442	73.75
496.66	93.75
496.877	85.75
497.094	104.75
497.312	84.75
497.529	72.75
497.746	97.75
497.963	96.75
498.181	87.75
498.398	92.75
498.615	104.75
498.832	101.75
499.049	81.75
499.267	81.75
499.484	91.75
499.701	86.75
499.918	82.75
500.135	82.75
500.352	73.75
500.569	93.75
500.786	92.75
501.003	81.75
501.22	90.75
501.437	92.75
501.654	108.75
501.871	131.75
502.088	93.75
502.305	77.75
502.522	81.75
502.739	92.75
502.956	78.75
503.172	89.75
503.389	95.75
503.606	123.75
503.823	105.75
504.04	92.75
504.256	91.75
504.473	104.75
504.69	72.75
504.907	87.75
505.123	98.75
505.34	84.75
505.557	77.75
505.773	83.75
505.99	76.75
506.207	84.75
506.423	80.75
506.64	86.75
506.856	89.75
507.073	89.75
507.289	105.75
507.506	101.75
507.722	132.75
507.939	151.75
508.155	104.75
508.372	87.75
508.588	95.75
508.805	83.75
509.021	93.75
509.238	99.75
509.454	92.75
509.67	103.75
509.887	113.75
510.103	136.75
510.319	246.75
510.536	1014.75
510.752	3566.75
510.968	1017.75
511.184	193.75
511.401	139.75
511.617	103.75
511.833	115.75
512.049	94.75
512.265	94.75
512.481	91.75
512.698	94.75
512.914	90.75
513.13	99.75
513.346	100.75
513.562	96.75
513.778	98.75
