Data from Circ_2013_H10_HRD10591_00052.txt Node
Date: Wed Jan 03 10:04:10 EST 2024
User: Yrep
Spectrometer: HR+D1059
Trigger mode: 1
Integration Time (sec): 1.000000E-1
Scans to average: 1
Electric dark correction enabled: true
Nonlinearity correction enabled: false
Boxcar width: 0
XAxis mode: Wavelengths
Number of Pixels in Spectrum: 2048
>>>>>Begin Spectral Data<<<<<
223.165	-19.44
223.4	-19.44
223.635	-19.44
223.869	-21.44
224.104	-24.44
224.338	-15.44
224.573	-24.44
224.808	-13.44
225.042	-6.44
225.277	-0.44
225.511	3.56
225.746	3.56
225.98	13.56
226.215	15.56
226.449	17.56
226.683	19.56
226.918	30.56
227.152	21.56
227.387	39.56
227.621	36.56
227.856	41.56
228.09	43.56
228.324	57.56
228.559	58.56
228.793	50.56
229.027	41.56
229.262	77.56
229.496	83.56
229.73	83.56
229.964	74.56
230.199	79.56
230.433	65.56
230.667	87.56
230.901	68.56
231.136	70.56
231.37	72.56
231.604	82.56
231.838	86.56
232.072	73.56
232.306	91.56
232.541	72.56
232.775	89.56
233.009	68.56
233.243	80.56
233.477	82.56
233.711	82.56
233.945	87.56
234.179	76.56
234.413	85.56
234.647	76.56
234.881	69.56
235.115	81.56
235.349	84.56
235.583	79.56
235.817	80.56
236.051	81.56
236.285	74.56
236.519	79.56
236.753	90.56
236.987	78.56
237.221	80.56
237.455	93.56
237.689	84.56
237.922	67.56
238.156	79.56
238.39	82.56
238.624	81.56
238.858	82.56
239.091	80.56
239.325	77.56
239.559	79.56
239.793	83.56
240.027	75.56
240.26	71.56
240.494	76.56
240.728	80.56
240.961	71.56
241.195	85.56
241.429	74.56
241.662	95.56
241.896	76.56
242.13	77.56
242.363	76.56
242.597	77.56
242.83	79.56
243.064	81.56
243.298	79.56
243.531	77.56
243.765	77.56
243.998	89.56
244.232	77.56
244.465	69.56
244.699	79.56
244.932	71.56
245.166	73.56
245.399	64.56
245.633	84.56
245.866	75.56
246.099	84.56
246.333	68.56
246.566	71.56
246.8	71.56
247.033	76.56
247.266	76.56
247.5	81.56
247.733	79.56
247.966	64.56
248.2	75.56
248.433	79.56
248.666	75.56
248.899	94.56
249.133	94.56
249.366	102.56
249.599	98.56
249.832	77.56
250.066	77.56
250.299	81.56
250.532	74.56
250.765	83.56
250.998	89.56
251.231	58.56
251.465	64.56
251.698	87.56
251.931	87.56
252.164	77.56
252.397	84.56
252.63	74.56
252.863	86.56
253.096	83.56
253.329	76.56
253.562	76.56
253.795	80.56
254.028	84.56
254.261	75.56
254.494	70.56
254.727	67.56
254.96	75.56
255.193	77.56
255.426	83.56
255.659	78.56
255.892	76.56
256.124	88.56
256.357	75.56
256.59	81.56
256.823	83.56
257.056	80.56
257.289	90.56
257.521	88.56
257.754	79.56
257.987	85.56
258.22	99.56
258.452	81.56
258.685	91.56
258.918	80.56
259.151	78.56
259.383	73.56
259.616	82.56
259.849	91.56
260.081	88.56
260.314	95.56
260.547	88.56
260.779	82.56
261.012	95.56
261.244	87.56
261.477	99.56
261.71	94.56
261.942	107.56
262.175	116.56
262.407	96.56
262.64	90.56
262.872	82.56
263.105	91.56
263.337	77.56
263.57	89.56
263.802	81.56
264.035	87.56
264.267	83.56
264.499	89.56
264.732	83.56
264.964	67.56
265.197	77.56
265.429	86.56
265.661	71.56
265.894	103.56
266.126	77.56
266.358	92.56
266.591	77.56
266.823	78.56
267.055	93.56
267.287	85.56
267.52	73.56
267.752	85.56
267.984	81.56
268.216	70.56
268.448	82.56
268.681	83.56
268.913	82.56
269.145	79.56
269.377	69.56
269.609	78.56
269.841	91.56
270.073	93.56
270.306	92.56
270.538	85.56
270.77	75.56
271.002	76.56
271.234	90.56
271.466	84.56
271.698	70.56
271.93	73.56
272.162	84.56
272.394	82.56
272.626	87.56
272.858	74.56
273.09	82.56
273.322	90.56
273.553	81.56
273.785	84.56
274.017	80.56
274.249	85.56
274.481	84.56
274.713	82.56
274.945	83.56
275.176	84.56
275.408	99.56
275.64	100.56
275.872	102.56
276.104	84.56
276.335	87.56
276.567	98.56
276.799	104.56
277.031	137.56
277.262	129.56
277.494	114.56
277.726	94.56
277.957	84.56
278.189	94.56
278.421	86.56
278.652	83.56
278.884	92.56
279.115	87.56
279.347	79.56
279.579	93.56
279.81	103.56
280.042	130.56
280.273	156.56
280.505	114.56
280.736	96.56
280.968	79.56
281.199	76.56
281.431	92.56
281.662	95.56
281.894	95.56
282.125	107.56
282.356	127.56
282.588	148.56
282.819	113.56
283.051	90.56
283.282	86.56
283.513	84.56
283.745	78.56
283.976	76.56
284.207	85.56
284.439	86.56
284.67	88.56
284.901	83.56
285.132	85.56
285.364	81.56
285.595	95.56
285.826	79.56
286.057	95.56
286.288	95.56
286.52	85.56
286.751	93.56
286.982	84.56
287.213	77.56
287.444	94.56
287.675	82.56
287.906	75.56
288.138	97.56
288.369	85.56
288.6	100.56
288.831	88.56
289.062	79.56
289.293	77.56
289.524	71.56
289.755	81.56
289.986	89.56
290.217	80.56
290.448	76.56
290.679	79.56
290.91	86.56
291.141	96.56
291.371	74.56
291.602	91.56
291.833	86.56
292.064	86.56
292.295	86.56
292.526	87.56
292.757	90.56
292.987	86.56
293.218	90.56
293.449	73.56
293.68	91.56
293.91	107.56
294.141	91.56
294.372	82.56
294.603	85.56
294.833	85.56
295.064	85.56
295.295	91.56
295.525	88.56
295.756	94.56
295.987	125.56
296.217	150.56
296.448	142.56
296.679	83.56
296.909	94.56
297.14	88.56
297.37	96.56
297.601	85.56
297.831	76.56
298.062	90.56
298.292	92.56
298.523	100.56
298.753	93.56
298.984	93.56
299.214	84.56
299.445	90.56
299.675	84.56
299.905	97.56
300.136	102.56
300.366	99.56
300.597	93.56
300.827	97.56
301.057	94.56
301.288	106.56
301.518	87.56
301.748	95.56
301.979	97.56
302.209	93.56
302.439	104.56
302.669	83.56
302.9	80.56
303.13	90.56
303.36	94.56
303.59	106.56
303.82	116.56
304.051	111.56
304.281	98.56
304.511	94.56
304.741	89.56
304.971	95.56
305.201	102.56
305.431	87.56
305.661	87.56
305.891	100.56
306.121	101.56
306.352	104.56
306.582	121.56
306.812	102.56
307.042	115.56
307.272	104.56
307.502	121.56
307.731	130.56
307.961	110.56
308.191	82.56
308.421	85.56
308.651	85.56
308.881	95.56
309.111	98.56
309.341	88.56
309.571	107.56
309.8	90.56
310.03	98.56
310.26	91.56
310.49	96.56
310.72	92.56
310.949	101.56
311.179	106.56
311.409	100.56
311.639	122.56
311.868	99.56
312.098	97.56
312.328	86.56
312.557	106.56
312.787	113.56
313.017	96.56
313.246	98.56
313.476	100.56
313.706	103.56
313.935	104.56
314.165	120.56
314.394	119.56
314.624	100.56
314.853	99.56
315.083	87.56
315.312	96.56
315.542	85.56
315.771	102.56
316.001	98.56
316.23	86.56
316.46	91.56
316.689	95.56
316.919	97.56
317.148	94.56
317.377	100.56
317.607	103.56
317.836	98.56
318.065	92.56
318.295	85.56
318.524	84.56
318.753	86.56
318.983	91.56
319.212	87.56
319.441	106.56
319.67	99.56
319.9	105.56
320.129	94.56
320.358	96.56
320.587	97.56
320.816	95.56
321.046	88.56
321.275	106.56
321.504	83.56
321.733	99.56
321.962	102.56
322.191	100.56
322.42	98.56
322.649	105.56
322.878	118.56
323.108	113.56
323.337	129.56
323.566	147.56
323.795	161.56
324.024	229.56
324.253	416.56
324.482	907.56
324.71	1894.56
324.939	2466.56
325.168	923.56
325.397	284.56
325.626	154.56
325.855	129.56
326.084	125.56
326.313	125.56
326.542	166.56
326.77	245.56
326.999	493.56
327.228	994.56
327.457	1786.56
327.686	1465.56
327.914	465.56
328.143	329.56
328.372	373.56
328.6	244.56
328.829	163.56
329.058	139.56
329.287	140.56
329.515	152.56
329.744	181.56
329.972	247.56
330.201	486.56
330.43	713.56
330.658	357.56
330.887	221.56
331.115	145.56
331.344	115.56
331.572	115.56
331.801	123.56
332.03	114.56
332.258	103.56
332.486	85.56
332.715	108.56
332.943	102.56
333.172	111.56
333.4	114.56
333.629	108.56
333.857	151.56
334.085	243.56
334.314	435.56
334.542	808.56
334.771	833.56
334.999	249.56
335.227	130.56
335.455	120.56
335.684	93.56
335.912	93.56
336.14	104.56
336.369	108.56
336.597	101.56
336.825	106.56
337.053	89.56
337.281	95.56
337.51	100.56
337.738	90.56
337.966	86.56
338.194	104.56
338.422	102.56
338.65	95.56
338.878	96.56
339.106	85.56
339.334	97.56
339.562	86.56
339.79	87.56
340.018	83.56
340.246	94.56
340.474	99.56
340.702	85.56
340.93	95.56
341.158	106.56
341.386	93.56
341.614	92.56
341.842	99.56
342.07	77.56
342.298	96.56
342.526	95.56
342.754	94.56
342.981	89.56
343.209	84.56
343.437	102.56
343.665	87.56
343.893	107.56
344.12	82.56
344.348	93.56
344.576	77.56
344.804	85.56
345.031	113.56
345.259	91.56
345.487	87.56
345.714	95.56
345.942	85.56
346.17	94.56
346.397	92.56
346.625	94.56
346.853	100.56
347.08	98.56
347.308	98.56
347.535	99.56
347.763	105.56
347.99	103.56
348.218	95.56
348.445	101.56
348.673	94.56
348.9	100.56
349.128	92.56
349.355	90.56
349.583	85.56
349.81	91.56
350.037	104.56
350.265	99.56
350.492	96.56
350.72	82.56
350.947	101.56
351.174	125.56
351.402	109.56
351.629	109.56
351.856	95.56
352.083	103.56
352.311	119.56
352.538	117.56
352.765	125.56
352.992	115.56
353.22	121.56
353.447	103.56
353.674	113.56
353.901	90.56
354.128	101.56
354.355	106.56
354.583	101.56
354.81	98.56
355.037	118.56
355.264	76.56
355.491	97.56
355.718	91.56
355.945	78.56
356.172	103.56
356.399	103.56
356.626	91.56
356.853	101.56
357.08	101.56
357.307	98.56
357.534	91.56
357.761	85.56
357.988	99.56
358.215	105.56
358.441	94.56
358.668	90.56
358.895	82.56
359.122	94.56
359.349	88.56
359.576	94.56
359.802	105.56
360.029	113.56
360.256	139.56
360.483	103.56
360.709	96.56
360.936	84.56
361.163	91.56
361.39	95.56
361.616	88.56
361.843	85.56
362.07	106.56
362.296	98.56
362.523	86.56
362.749	101.56
362.976	84.56
363.203	104.56
363.429	95.56
363.656	93.56
363.882	90.56
364.109	102.56
364.335	88.56
364.562	100.56
364.788	90.56
365.015	108.56
365.241	105.56
365.468	118.56
365.694	112.56
365.92	90.56
366.147	101.56
366.373	89.56
366.599	89.56
366.826	96.56
367.052	97.56
367.278	107.56
367.505	83.56
367.731	104.56
367.957	98.56
368.184	115.56
368.41	101.56
368.636	117.56
368.862	128.56
369.089	102.56
369.315	102.56
369.541	100.56
369.767	89.56
369.993	88.56
370.219	87.56
370.445	76.56
370.672	88.56
370.898	91.56
371.124	90.56
371.35	89.56
371.576	96.56
371.802	101.56
372.028	97.56
372.254	87.56
372.48	99.56
372.706	83.56
372.932	75.56
373.158	87.56
373.384	79.56
373.61	89.56
373.835	90.56
374.061	87.56
374.287	83.56
374.513	95.56
374.739	85.56
374.965	89.56
375.191	81.56
375.416	85.56
375.642	82.56
375.868	89.56
376.094	98.56
376.319	81.56
376.545	76.56
376.771	91.56
376.997	100.56
377.222	81.56
377.448	92.56
377.674	95.56
377.899	109.56
378.125	93.56
378.35	81.56
378.576	78.56
378.802	99.56
379.027	81.56
379.253	86.56
379.478	79.56
379.704	91.56
379.929	103.56
380.155	84.56
380.38	97.56
380.606	89.56
380.831	97.56
381.057	102.56
381.282	87.56
381.507	96.56
381.733	93.56
381.958	100.56
382.184	114.56
382.409	116.56
382.634	93.56
382.86	102.56
383.085	91.56
383.31	101.56
383.535	98.56
383.761	86.56
383.986	89.56
384.211	106.56
384.436	88.56
384.662	98.56
384.887	106.56
385.112	107.56
385.337	108.56
385.562	102.56
385.787	92.56
386.013	112.56
386.238	130.56
386.463	91.56
386.688	109.56
386.913	92.56
387.138	108.56
387.363	99.56
387.588	110.56
387.813	102.56
388.038	113.56
388.263	105.56
388.488	109.56
388.713	75.56
388.938	93.56
389.163	91.56
389.387	111.56
389.612	83.56
389.837	113.56
390.062	89.56
390.287	77.56
390.512	93.56
390.736	82.56
390.961	100.56
391.186	104.56
391.411	87.56
391.636	89.56
391.86	85.56
392.085	90.56
392.31	75.56
392.534	81.56
392.759	87.56
392.984	93.56
393.208	87.56
393.433	83.56
393.658	79.56
393.882	101.56
394.107	90.56
394.331	94.56
394.556	94.56
394.78	98.56
395.005	86.56
395.229	84.56
395.454	92.56
395.678	80.56
395.903	100.56
396.127	86.56
396.352	81.56
396.576	88.56
396.801	83.56
397.025	91.56
397.249	88.56
397.474	94.56
397.698	87.56
397.922	84.56
398.147	71.56
398.371	93.56
398.595	93.56
398.82	87.56
399.044	84.56
399.268	89.56
399.492	95.56
399.717	94.56
399.941	82.56
400.165	108.56
400.389	98.56
400.613	76.56
400.837	100.56
401.062	96.56
401.286	94.56
401.51	98.56
401.734	92.56
401.958	105.56
402.182	129.56
402.406	180.56
402.63	133.56
402.854	101.56
403.078	105.56
403.302	84.56
403.526	102.56
403.75	88.56
403.974	92.56
404.198	85.56
404.422	78.56
404.645	95.56
404.869	79.56
405.093	108.56
405.317	104.56
405.541	116.56
405.765	117.56
405.988	115.56
406.212	192.56
406.436	286.56
406.66	185.56
406.883	105.56
407.107	102.56
407.331	117.56
407.555	95.56
407.778	89.56
408.002	80.56
408.226	84.56
408.449	118.56
408.673	86.56
408.896	107.56
409.12	106.56
409.344	79.56
409.567	83.56
409.791	98.56
410.014	101.56
410.238	90.56
410.461	102.56
410.685	93.56
410.908	97.56
411.132	107.56
411.355	97.56
411.578	99.56
411.802	90.56
412.025	83.56
412.249	92.56
412.472	112.56
412.695	113.56
412.919	84.56
413.142	103.56
413.365	92.56
413.589	80.56
413.812	84.56
414.035	81.56
414.258	101.56
414.482	95.56
414.705	95.56
414.928	86.56
415.151	99.56
415.374	105.56
415.597	94.56
415.821	77.56
416.044	100.56
416.267	89.56
416.49	86.56
416.713	87.56
416.936	94.56
417.159	100.56
417.382	87.56
417.605	96.56
417.828	103.56
418.051	92.56
418.274	102.56
418.497	103.56
418.72	88.56
418.943	80.56
419.166	85.56
419.389	94.56
419.611	93.56
419.834	98.56
420.057	105.56
420.28	91.56
420.503	94.56
420.726	90.56
420.948	95.56
421.171	93.56
421.394	97.56
421.617	78.56
421.839	91.56
422.062	102.56
422.285	94.56
422.507	93.56
422.73	116.56
422.953	102.56
423.175	114.56
423.398	84.56
423.621	101.56
423.843	101.56
424.066	77.56
424.288	85.56
424.511	85.56
424.733	106.56
424.956	113.56
425.178	106.56
425.401	103.56
425.623	99.56
425.846	101.56
426.068	94.56
426.291	89.56
426.513	84.56
426.735	83.56
426.958	90.56
427.18	102.56
427.402	153.56
427.625	211.56
427.847	183.56
428.069	158.56
428.292	115.56
428.514	98.56
428.736	92.56
428.958	90.56
429.181	73.56
429.403	79.56
429.625	97.56
429.847	91.56
430.069	106.56
430.292	101.56
430.514	82.56
430.736	89.56
430.958	97.56
431.18	94.56
431.402	82.56
431.624	101.56
431.846	86.56
432.068	94.56
432.29	99.56
432.512	79.56
432.734	85.56
432.956	100.56
433.178	89.56
433.4	111.56
433.622	101.56
433.844	97.56
434.066	91.56
434.287	97.56
434.509	95.56
434.731	99.56
434.953	86.56
435.175	78.56
435.397	96.56
435.618	73.56
435.84	98.56
436.062	118.56
436.284	117.56
436.505	97.56
436.727	93.56
436.949	88.56
437.17	93.56
437.392	91.56
437.614	98.56
437.835	116.56
438.057	123.56
438.278	121.56
438.5	117.56
438.721	111.56
438.943	94.56
439.165	103.56
439.386	99.56
439.608	88.56
439.829	101.56
440.05	118.56
440.272	153.56
440.493	99.56
440.715	77.56
440.936	76.56
441.158	95.56
441.379	80.56
441.6	83.56
441.822	90.56
442.043	103.56
442.264	92.56
442.486	89.56
442.707	98.56
442.928	113.56
443.149	154.56
443.371	154.56
443.592	111.56
443.813	112.56
444.034	98.56
444.255	94.56
444.476	74.56
444.698	84.56
444.919	85.56
445.14	142.56
445.361	121.56
445.582	110.56
445.803	148.56
446.024	151.56
446.245	139.56
446.466	122.56
446.687	87.56
446.908	90.56
447.129	82.56
447.35	91.56
447.571	97.56
447.792	98.56
448.013	101.56
448.234	103.56
448.455	105.56
448.675	105.56
448.896	120.56
449.117	109.56
449.338	112.56
449.559	126.56
449.779	129.56
450	94.56
450.221	88.56
450.442	76.56
450.662	95.56
450.883	118.56
451.104	124.56
451.324	86.56
451.545	76.56
451.766	86.56
451.986	85.56
452.207	88.56
452.428	108.56
452.648	94.56
452.869	122.56
453.089	129.56
453.31	134.56
453.53	94.56
453.751	93.56
453.971	107.56
454.192	121.56
454.412	100.56
454.633	92.56
454.853	90.56
455.073	77.56
455.294	77.56
455.514	103.56
455.734	94.56
455.955	88.56
456.175	91.56
456.395	94.56
456.616	85.56
456.836	89.56
457.056	90.56
457.276	85.56
457.497	77.56
457.717	86.56
457.937	80.56
458.157	86.56
458.377	99.56
458.598	115.56
458.818	183.56
459.038	204.56
459.258	130.56
459.478	99.56
459.698	89.56
459.918	87.56
460.138	85.56
460.358	72.56
460.578	99.56
460.798	94.56
461.018	97.56
461.238	75.56
461.458	87.56
461.678	73.56
461.898	80.56
462.118	89.56
462.338	87.56
462.558	83.56
462.777	89.56
462.997	89.56
463.217	90.56
463.437	90.56
463.657	91.56
463.876	91.56
464.096	101.56
464.316	105.56
464.536	98.56
464.755	101.56
464.975	113.56
465.195	185.56
465.414	199.56
465.634	102.56
465.854	87.56
466.073	81.56
466.293	87.56
466.512	85.56
466.732	80.56
466.951	89.56
467.171	94.56
467.391	115.56
467.61	139.56
467.829	162.56
468.049	298.56
468.268	446.56
468.488	153.56
468.707	108.56
468.927	92.56
469.146	86.56
469.365	92.56
469.585	83.56
469.804	101.56
470.023	93.56
470.243	95.56
470.462	113.56
470.681	117.56
470.901	101.56
471.12	93.56
471.339	99.56
471.558	96.56
471.777	112.56
471.997	165.56
472.216	521.56
472.435	1169.56
472.654	329.56
472.873	130.56
473.092	100.56
473.311	93.56
473.53	90.56
473.749	102.56
473.968	102.56
474.187	113.56
474.406	97.56
474.625	79.56
474.844	93.56
475.063	97.56
475.282	89.56
475.501	94.56
475.72	83.56
475.939	71.56
476.158	92.56
476.377	88.56
476.596	83.56
476.814	91.56
477.033	92.56
477.252	97.56
477.471	98.56
477.69	99.56
477.908	72.56
478.127	94.56
478.346	83.56
478.564	103.56
478.783	104.56
479.002	86.56
479.22	101.56
479.439	93.56
479.658	104.56
479.876	109.56
480.095	108.56
480.313	108.56
480.532	104.56
480.751	171.56
480.969	498.56
481.188	1897.56
481.406	1251.56
481.624	229.56
481.843	119.56
482.061	94.56
482.28	80.56
482.498	84.56
482.717	85.56
482.935	86.56
483.153	94.56
483.372	95.56
483.59	101.56
483.808	98.56
484.027	86.56
484.245	100.56
484.463	99.56
484.681	93.56
484.9	95.56
485.118	97.56
485.336	102.56
485.554	88.56
485.772	103.56
485.99	100.56
486.209	114.56
486.427	109.56
486.645	123.56
486.863	125.56
487.081	103.56
487.299	94.56
487.517	93.56
487.735	104.56
487.953	87.56
488.171	101.56
488.389	94.56
488.607	96.56
488.825	102.56
489.043	95.56
489.261	100.56
489.479	83.56
489.696	94.56
489.914	71.56
490.132	97.56
490.35	98.56
490.568	103.56
490.786	94.56
491.003	90.56
491.221	91.56
491.439	88.56
491.657	99.56
491.874	103.56
492.092	81.56
492.31	86.56
492.527	92.56
492.745	108.56
492.963	91.56
493.18	85.56
493.398	90.56
493.615	98.56
493.833	106.56
494.05	101.56
494.268	81.56
494.485	88.56
494.703	87.56
494.92	91.56
495.138	89.56
495.355	85.56
495.573	89.56
495.79	94.56
496.008	95.56
496.225	99.56
496.442	90.56
496.66	98.56
496.877	98.56
497.094	94.56
497.312	89.56
497.529	101.56
497.746	89.56
497.963	86.56
498.181	90.56
498.398	92.56
498.615	115.56
498.832	100.56
499.049	94.56
499.267	86.56
499.484	86.56
499.701	75.56
499.918	83.56
500.135	85.56
500.352	96.56
500.569	74.56
500.786	90.56
501.003	88.56
501.22	97.56
501.437	99.56
501.654	110.56
501.871	139.56
502.088	90.56
502.305	85.56
502.522	79.56
502.739	85.56
502.956	93.56
503.172	94.56
503.389	90.56
503.606	105.56
503.823	111.56
504.04	93.56
504.256	88.56
504.473	82.56
504.69	87.56
504.907	100.56
505.123	100.56
505.34	86.56
505.557	89.56
505.773	78.56
505.99	97.56
506.207	95.56
506.423	92.56
506.64	89.56
506.856	90.56
507.073	94.56
507.289	97.56
507.506	98.56
507.722	129.56
507.939	145.56
508.155	120.56
508.372	99.56
508.588	93.56
508.805	98.56
509.021	90.56
509.238	100.56
509.454	95.56
509.67	106.56
509.887	110.56
510.103	129.56
510.319	215.56
510.536	817.56
510.752	2794.56
510.968	807.56
511.184	181.56
511.401	121.56
511.617	99.56
511.833	104.56
512.049	92.56
512.265	88.56
512.481	99.56
512.698	100.56
512.914	110.56
513.13	90.56
513.346	87.56
513.562	101.56
513.778	98.56
513.994	94.56
514.21	107.56
