Data from Circ_2013_H10_HRD10591_00060.txt Node
Date: Wed Jan 03 10:04:12 EST 2024
User: Yrep
Spectrometer: HR+D1059
Trigger mode: 1
Integration Time (sec): 1.000000E-1
Scans to average: 1
Electric dark correction enabled: true
Nonlinearity correction enabled: false
Boxcar width: 0
XAxis mode: Wavelengths
Number of Pixels in Spectrum: 2048
>>>>>Begin Spectral Data<<<<<
223.165	-28
223.4	-28
223.635	-28
223.869	-20
224.104	-16
224.338	-32
224.573	-10
224.808	-1
225.042	-2
225.277	-1
225.511	7
225.746	6
225.98	5
226.215	16
226.449	11
226.683	16
226.918	21
227.152	28
227.387	25
227.621	28
227.856	55
228.09	41
228.324	46
228.559	43
228.793	77
229.027	64
229.262	63
229.496	68
229.73	95
229.964	89
230.199	67
230.433	73
230.667	85
230.901	77
231.136	90
231.37	88
231.604	87
231.838	84
232.072	92
232.306	71
232.541	83
232.775	92
233.009	81
233.243	80
233.477	85
233.711	81
233.945	80
234.179	89
234.413	79
234.647	81
234.881	93
235.115	89
235.349	73
235.583	76
235.817	82
236.051	86
236.285	77
236.519	79
236.753	75
236.987	89
237.221	84
237.455	79
237.689	75
237.922	88
238.156	69
238.39	89
238.624	68
238.858	90
239.091	77
239.325	79
239.559	80
239.793	80
240.027	88
240.26	82
240.494	72
240.728	79
240.961	66
241.195	83
241.429	77
241.662	73
241.896	75
242.13	75
242.363	71
242.597	89
242.83	68
243.064	94
243.298	76
243.531	77
243.765	91
243.998	76
244.232	89
244.465	91
244.699	91
244.932	84
245.166	78
245.399	85
245.633	81
245.866	87
246.099	82
246.333	77
246.566	86
246.8	73
247.033	79
247.266	80
247.5	83
247.733	87
247.966	92
248.2	77
248.433	93
248.666	82
248.899	84
249.133	87
249.366	112
249.599	101
249.832	88
250.066	79
250.299	86
250.532	76
250.765	97
250.998	76
251.231	82
251.465	88
251.698	93
251.931	83
252.164	83
252.397	80
252.63	73
252.863	84
253.096	87
253.329	80
253.562	75
253.795	83
254.028	86
254.261	76
254.494	75
254.727	79
254.96	91
255.193	81
255.426	79
255.659	77
255.892	96
256.124	93
256.357	85
256.59	84
256.823	75
257.056	84
257.289	87
257.521	86
257.754	79
257.987	91
258.22	80
258.452	84
258.685	80
258.918	100
259.151	74
259.383	84
259.616	81
259.849	92
260.081	79
260.314	84
260.547	85
260.779	94
261.012	91
261.244	87
261.477	91
261.71	111
261.942	119
262.175	124
262.407	90
262.64	101
262.872	88
263.105	73
263.337	100
263.57	92
263.802	93
264.035	92
264.267	81
264.499	85
264.732	77
264.964	73
265.197	85
265.429	72
265.661	94
265.894	91
266.126	94
266.358	79
266.591	88
266.823	80
267.055	85
267.287	77
267.52	91
267.752	83
267.984	80
268.216	88
268.448	77
268.681	97
268.913	91
269.145	83
269.377	90
269.609	84
269.841	87
270.073	91
270.306	79
270.538	83
270.77	83
271.002	79
271.234	82
271.466	100
271.698	76
271.93	90
272.162	86
272.394	84
272.626	96
272.858	86
273.09	70
273.322	79
273.553	78
273.785	86
274.017	90
274.249	87
274.481	89
274.713	89
274.945	93
275.176	95
275.408	83
275.64	109
275.872	107
276.104	87
276.335	103
276.567	102
276.799	113
277.031	132
277.262	138
277.494	131
277.726	96
277.957	94
278.189	81
278.421	90
278.652	88
278.884	85
279.115	89
279.347	83
279.579	100
279.81	123
280.042	140
280.273	187
280.505	148
280.736	101
280.968	84
281.199	92
281.431	85
281.662	84
281.894	88
282.125	105
282.356	131
282.588	150
282.819	139
283.051	93
283.282	100
283.513	99
283.745	81
283.976	86
284.207	79
284.439	90
284.67	89
284.901	92
285.132	91
285.364	85
285.595	94
285.826	92
286.057	96
286.288	86
286.52	91
286.751	64
286.982	73
287.213	67
287.444	90
287.675	88
287.906	101
288.138	92
288.369	86
288.6	94
288.831	85
289.062	100
289.293	85
289.524	96
289.755	85
289.986	89
290.217	80
290.448	86
290.679	90
290.91	85
291.141	91
291.371	84
291.602	95
291.833	99
292.064	107
292.295	88
292.526	90
292.757	85
292.987	78
293.218	80
293.449	84
293.68	86
293.91	88
294.141	93
294.372	95
294.603	77
294.833	94
295.064	78
295.295	89
295.525	94
295.756	108
295.987	138
296.217	158
296.448	143
296.679	88
296.909	83
297.14	102
297.37	94
297.601	83
297.831	95
298.062	84
298.292	99
298.523	110
298.753	91
298.984	90
299.214	89
299.445	89
299.675	98
299.905	93
300.136	85
300.366	93
300.597	87
300.827	95
301.057	91
301.288	102
301.518	111
301.748	99
301.979	95
302.209	97
302.439	89
302.669	91
302.9	84
303.13	87
303.36	105
303.59	126
303.82	130
304.051	105
304.281	80
304.511	90
304.741	103
304.971	103
305.201	93
305.431	85
305.661	89
305.891	97
306.121	105
306.352	108
306.582	97
306.812	113
307.042	103
307.272	132
307.502	137
307.731	132
307.961	110
308.191	99
308.421	82
308.651	88
308.881	96
309.111	91
309.341	95
309.571	88
309.8	98
310.03	94
310.26	92
310.49	92
310.72	96
310.949	119
311.179	110
311.409	100
311.639	102
311.868	103
312.098	99
312.328	105
312.557	109
312.787	113
313.017	117
313.246	97
313.476	83
313.706	82
313.935	119
314.165	108
314.394	108
314.624	97
314.853	106
315.083	95
315.312	85
315.542	82
315.771	90
316.001	105
316.23	98
316.46	78
316.689	97
316.919	103
317.148	108
317.377	95
317.607	104
317.836	101
318.065	96
318.295	106
318.524	89
318.753	102
318.983	112
319.212	98
319.441	99
319.67	114
319.9	87
320.129	99
320.358	91
320.587	99
320.816	106
321.046	118
321.275	87
321.504	88
321.733	98
321.962	91
322.191	88
322.42	106
322.649	111
322.878	123
323.108	128
323.337	155
323.566	156
323.795	195
324.024	238
324.253	475
324.482	1066
324.71	2191
324.939	3013
325.168	1083
325.397	304
325.626	171
325.855	150
326.084	132
326.313	150
326.542	174
326.77	295
326.999	579
327.228	1187
327.457	2202
327.686	1790
327.914	525
328.143	401
328.372	453
328.6	270
328.829	164
329.058	158
329.287	168
329.515	149
329.744	184
329.972	312
330.201	600
330.43	859
330.658	437
330.887	253
331.115	171
331.344	130
331.572	114
331.801	127
332.03	123
332.258	101
332.486	107
332.715	101
332.943	100
333.172	109
333.4	110
333.629	140
333.857	196
334.085	311
334.314	559
334.542	1076
334.771	1063
334.999	307
335.227	151
335.455	127
335.684	108
335.912	130
336.14	105
336.369	109
336.597	103
336.825	116
337.053	80
337.281	100
337.51	105
337.738	84
337.966	91
338.194	111
338.422	90
338.65	104
338.878	101
339.106	104
339.334	107
339.562	98
339.79	78
340.018	94
340.246	88
340.474	88
340.702	96
340.93	86
341.158	77
341.386	94
341.614	91
341.842	93
342.07	101
342.298	98
342.526	93
342.754	78
342.981	82
343.209	87
343.437	99
343.665	88
343.893	83
344.12	86
344.348	91
344.576	89
344.804	91
345.031	99
345.259	91
345.487	98
345.714	107
345.942	92
346.17	100
346.397	100
346.625	94
346.853	91
347.08	93
347.308	108
347.535	110
347.763	104
347.99	111
348.218	103
348.445	108
348.673	97
348.9	103
349.128	95
349.355	99
349.583	86
349.81	103
350.037	91
350.265	97
350.492	87
350.72	97
350.947	116
351.174	124
351.402	116
351.629	103
351.856	101
352.083	109
352.311	109
352.538	100
352.765	108
352.992	137
353.22	118
353.447	106
353.674	106
353.901	99
354.128	99
354.355	98
354.583	87
354.81	103
355.037	95
355.264	95
355.491	106
355.718	90
355.945	102
356.172	94
356.399	93
356.626	96
356.853	101
357.08	87
357.307	81
357.534	93
357.761	86
357.988	84
358.215	92
358.441	94
358.668	83
358.895	92
359.122	98
359.349	93
359.576	94
359.802	102
360.029	123
360.256	134
360.483	108
360.709	98
360.936	102
361.163	105
361.39	101
361.616	109
361.843	100
362.07	89
362.296	89
362.523	90
362.749	100
362.976	92
363.203	107
363.429	79
363.656	105
363.882	79
364.109	95
364.335	98
364.562	95
364.788	84
365.015	95
365.241	95
365.468	130
365.694	116
365.92	107
366.147	91
366.373	101
366.599	95
366.826	101
367.052	93
367.278	90
367.505	97
367.731	89
367.957	114
368.184	104
368.41	107
368.636	111
368.862	109
369.089	115
369.315	98
369.541	86
369.767	94
369.993	84
370.219	90
370.445	79
370.672	86
370.898	94
371.124	88
371.35	84
371.576	83
371.802	89
372.028	104
372.254	108
372.48	91
372.706	84
372.932	89
373.158	84
373.384	88
373.61	92
373.835	91
374.061	98
374.287	99
374.513	96
374.739	89
374.965	80
375.191	102
375.416	83
375.642	106
375.868	99
376.094	100
376.319	99
376.545	99
376.771	81
376.997	94
377.222	100
377.448	82
377.674	79
377.899	102
378.125	79
378.35	87
378.576	87
378.802	96
379.027	87
379.253	84
379.478	84
379.704	91
379.929	89
380.155	99
380.38	108
380.606	94
380.831	84
381.057	98
381.282	109
381.507	90
381.733	94
381.958	94
382.184	104
382.409	99
382.634	104
382.86	108
383.085	99
383.31	95
383.535	89
383.761	101
383.986	105
384.211	100
384.436	95
384.662	103
384.887	96
385.112	105
385.337	105
385.562	100
385.787	96
386.013	109
386.238	104
386.463	118
386.688	103
386.913	89
387.138	97
387.363	100
387.588	99
387.813	90
388.038	111
388.263	109
388.488	104
388.713	87
388.938	90
389.163	93
389.387	91
389.612	110
389.837	97
390.062	107
390.287	90
390.512	75
390.736	93
390.961	91
391.186	91
391.411	110
391.636	105
391.86	70
392.085	67
392.31	86
392.534	88
392.759	94
392.984	83
393.208	77
393.433	100
393.658	89
393.882	77
394.107	83
394.331	79
394.556	85
394.78	84
395.005	79
395.229	93
395.454	84
395.678	93
395.903	70
396.127	73
396.352	84
396.576	83
396.801	96
397.025	85
397.249	80
397.474	93
397.698	92
397.922	77
398.147	74
398.371	75
398.595	103
398.82	72
399.044	86
399.268	94
399.492	87
399.717	90
399.941	90
400.165	91
400.389	94
400.613	91
400.837	89
401.062	94
401.286	98
401.51	94
401.734	95
401.958	109
402.182	141
402.406	192
402.63	146
402.854	103
403.078	109
403.302	101
403.526	83
403.75	84
403.974	80
404.198	87
404.422	96
404.645	94
404.869	104
405.093	111
405.317	122
405.541	119
405.765	91
405.988	138
406.212	213
406.436	280
406.66	195
406.883	116
407.107	95
407.331	118
407.555	114
407.778	107
408.002	99
408.226	101
408.449	87
408.673	103
408.896	94
409.12	91
409.344	90
409.567	94
409.791	99
410.014	103
410.238	86
410.461	87
410.685	99
410.908	99
411.132	107
411.355	107
411.578	93
411.802	107
412.025	90
412.249	115
412.472	111
412.695	130
412.919	110
413.142	94
413.365	89
413.589	97
413.812	80
414.035	84
414.258	94
414.482	85
414.705	90
414.928	88
415.151	81
415.374	78
415.597	100
415.821	98
416.044	85
416.267	93
416.49	93
416.713	94
416.936	100
417.159	86
417.382	89
417.605	97
417.828	112
418.051	91
418.274	101
418.497	94
418.72	86
418.943	91
419.166	81
419.389	87
419.611	87
419.834	107
420.057	99
420.28	90
420.503	85
420.726	94
420.948	97
421.171	111
421.394	103
421.617	111
421.839	95
422.062	104
422.285	94
422.507	103
422.73	114
422.953	101
423.175	79
423.398	85
423.621	94
423.843	97
424.066	88
424.288	100
424.511	91
424.733	107
424.956	102
425.178	104
425.401	106
425.623	96
425.846	96
426.068	98
426.291	98
426.513	93
426.735	97
426.958	95
427.18	115
427.402	154
427.625	232
427.847	218
428.069	195
428.292	110
428.514	90
428.736	100
428.958	95
429.181	96
429.403	93
429.625	92
429.847	103
430.069	114
430.292	99
430.514	86
430.736	82
430.958	96
431.18	92
431.402	96
431.624	93
431.846	70
432.068	76
432.29	86
432.512	100
432.734	88
432.956	86
433.178	110
433.4	100
433.622	100
433.844	92
434.066	92
434.287	85
434.509	80
434.731	99
434.953	92
435.175	99
435.397	98
435.618	92
435.84	105
436.062	131
436.284	126
436.505	112
436.727	96
436.949	85
437.17	98
437.392	68
437.614	88
437.835	107
438.057	115
438.278	140
438.5	122
438.721	127
438.943	126
439.165	91
439.386	93
439.608	95
439.829	111
440.05	132
440.272	164
440.493	115
440.715	86
440.936	99
441.158	91
441.379	105
441.6	88
441.822	94
442.043	93
442.264	109
442.486	122
442.707	115
442.928	119
443.149	165
443.371	172
443.592	130
443.813	141
444.034	114
444.255	88
444.476	91
444.698	91
444.919	92
445.14	124
445.361	134
445.582	141
445.803	161
446.024	165
446.245	175
446.466	116
446.687	95
446.908	91
447.129	81
447.35	92
447.571	93
447.792	91
448.013	108
448.234	108
448.455	134
448.675	150
448.896	152
449.117	116
449.338	102
449.559	136
449.779	156
450	99
450.221	106
450.442	100
450.662	118
450.883	117
451.104	119
451.324	123
451.545	77
451.766	86
451.986	89
452.207	86
452.428	96
452.648	95
452.869	110
453.089	149
453.31	123
453.53	96
453.751	94
453.971	114
454.192	134
454.412	100
454.633	92
454.853	85
455.073	94
455.294	90
455.514	100
455.734	107
455.955	95
456.175	84
456.395	94
456.616	97
456.836	85
457.056	84
457.276	78
457.497	86
457.717	90
457.937	99
458.157	93
458.377	103
458.598	122
458.818	183
459.038	210
459.258	155
459.478	90
459.698	85
459.918	90
460.138	91
460.358	86
460.578	88
460.798	105
461.018	77
461.238	98
461.458	85
461.678	102
461.898	85
462.118	88
462.338	88
462.558	91
462.777	100
462.997	77
463.217	106
463.437	91
463.657	98
463.876	96
464.096	104
464.316	106
464.536	101
464.755	103
464.975	127
465.195	219
465.414	225
465.634	102
465.854	102
466.073	86
466.293	86
466.512	90
466.732	84
466.951	90
467.171	94
467.391	109
467.61	135
467.829	163
468.049	328
468.268	514
468.488	152
468.707	111
468.927	85
469.146	92
469.365	97
469.585	80
469.804	98
470.023	131
470.243	109
470.462	106
470.681	136
470.901	100
471.12	110
471.339	109
471.558	93
471.777	119
471.997	192
472.216	641
472.435	1470
472.654	406
472.873	138
473.092	99
473.311	93
473.53	98
473.749	91
473.968	101
474.187	110
474.406	94
474.625	96
474.844	91
475.063	101
475.282	82
475.501	104
475.72	78
475.939	76
476.158	87
476.377	87
476.596	93
476.814	99
477.033	111
477.252	101
477.471	80
477.69	80
477.908	86
478.127	90
478.346	93
478.564	99
478.783	109
479.002	89
479.22	80
479.439	103
479.658	131
479.876	96
480.095	116
480.313	120
480.532	133
480.751	194
480.969	603
481.188	2386
481.406	1534
481.624	274
481.843	122
482.061	96
482.28	86
482.498	93
482.717	107
482.935	96
483.153	99
483.372	96
483.59	98
483.808	91
484.027	88
484.245	84
484.463	96
484.681	91
484.9	104
485.118	104
485.336	89
485.554	109
485.772	87
485.99	102
486.209	100
486.427	114
486.645	104
486.863	123
487.081	111
487.299	102
487.517	106
487.735	82
487.953	98
488.171	101
488.389	84
488.607	96
488.825	83
489.043	79
489.261	105
489.479	77
489.696	96
489.914	88
490.132	90
490.35	97
490.568	98
490.786	84
491.003	89
491.221	106
491.439	105
491.657	98
491.874	96
492.092	74
492.31	89
492.527	105
492.745	105
492.963	95
493.18	86
493.398	100
493.615	97
493.833	90
494.05	105
494.268	93
494.485	96
494.703	102
494.92	82
495.138	88
495.355	94
495.573	102
495.79	96
496.008	103
496.225	91
496.442	91
496.66	91
496.877	93
497.094	103
497.312	95
497.529	90
497.746	94
497.963	83
498.181	80
498.398	100
498.615	106
498.832	98
499.049	93
499.267	86
499.484	89
499.701	90
499.918	96
500.135	86
500.352	102
500.569	84
500.786	89
501.003	80
501.22	91
501.437	92
501.654	95
501.871	120
502.088	96
502.305	102
502.522	86
502.739	84
502.956	95
503.172	90
503.389	101
503.606	129
503.823	124
504.04	79
504.256	93
504.473	69
504.69	86
504.907	98
505.123	91
505.34	91
505.557	81
505.773	95
505.99	88
506.207	88
506.423	77
506.64	84
506.856	107
507.073	85
507.289	83
507.506	98
507.722	111
507.939	120
508.155	97
508.372	101
508.588	91
508.805	90
509.021	105
509.238	92
509.454	91
509.67	95
509.887	99
510.103	136
510.319	216
510.536	864
510.752	3011
510.968	828
511.184	175
511.401	112
511.617	110
511.833	102
512.049	99
512.265	109
512.481	95
512.698	92
512.914	85
513.13	91
513.346	91
513.562	114
513.778	102
513.994	100
514.21	128
514.426	139
514.642	166
514.858	149
515.074	214
515.29	659
515.506	2262
515.721	832
515.937	190
516.153	131
516.369	127
516.585	97
516.801	85
517.016	106
517.232	79
517.448	98
517.664	101
517.879	94
518.095	89
518.311	90
518.527	107
518.742	87
518.958	104
519.173	96
519.389	101
519.605	108
519.82	106
520.036	113
520.251	136
520.467	123
520.682	122
520.898	111
521.113	127
521.329	139
521.544	268
521.76	794
521.975	3792
522.19	2315
522.406	461
522.621	150
522.836	122
523.052	101
523.267	97
523.482	95
523.698	115
523.913	134
524.128	114
524.343	106
524.559	94
524.774	99
524.989	98
525.204	108
525.419	111
525.634	107
525.849	93
526.064	85
526.28	90
526.495	89
526.71	102
526.925	96
527.14	94
527.355	102
527.57	90
527.785	83
527.999	93
528.214	98
528.429	87
528.644	92
528.859	90
529.074	106
529.289	132
529.503	254
529.718	118
529.933	73
530.148	91
530.363	104
530.577	86
530.792	93
531.007	81
531.221	103
531.436	91
531.651	85
531.865	78
532.08	90
532.295	90
532.509	86
532.724	85
532.938	87
533.153	99
533.367	106
533.582	100
533.796	104
534.011	91
534.225	88
534.44	85
534.654	87
534.868	80
535.083	99
535.297	101
535.511	99
535.726	101
535.94	90
536.154	85
536.369	90
536.583	99
536.797	98
537.011	85
537.225	70
537.44	84
537.654	94
537.868	85
538.082	87
538.296	67
538.51	100
538.724	97
538.938	90
539.153	93
539.367	107
539.581	99
539.795	97
540.009	103
540.222	94
540.436	97
540.65	95
540.864	98
541.078	103
541.292	98
541.506	79
541.72	86
541.934	87
542.147	90
542.361	101
542.575	80
542.789	88
543.002	89
543.216	90
543.43	96
543.644	89
543.857	94
544.071	101
544.285	86
544.498	90
544.712	93
544.925	82
545.139	93
545.352	95
545.566	88
545.779	93
545.993	88
546.206	86
546.42	92
546.633	102
546.847	92
547.06	84
547.274	85
547.487	76
547.7	75
547.914	81
548.127	91
548.34	91
548.554	81
548.767	95
548.98	90
549.193	88
549.407	79
549.62	90
549.833	92
550.046	94
550.259	84
550.473	90
550.686	94
550.899	89
551.112	85
551.325	99
551.538	91
551.751	87
551.964	95
552.177	90
552.39	75
552.603	95
552.816	91
553.029	69
553.242	93
553.455	93
553.667	109
553.88	103
554.093	98
554.306	103
554.519	113
554.732	93
554.944	81
555.157	99
555.37	91
555.583	84
555.795	86
556.008	94
556.221	83
556.433	98
556.646	83
556.859	90
557.071	111
557.284	84
557.496	82
557.709	92
557.921	89
558.134	92
558.346	99
558.559	88
558.771	89
558.984	89
559.196	98
559.409	82
559.621	94
559.833	92
560.046	82
560.258	101
560.47	120
560.683	85
560.895	84
561.107	80
561.32	84
561.532	99
561.744	98
561.956	90
562.168	76
562.381	80
562.593	86
562.805	82
563.017	82
563.229	75
563.441	90
563.653	80
563.865	90
564.077	80
564.289	85
564.501	83
564.713	87
564.925	92
565.137	109
565.349	96
565.561	86
565.773	99
565.985	88
566.197	85
566.408	81
566.62	74
566.832	88
567.044	90
567.255	86
567.467	107
567.679	87
567.891	75
568.102	88
568.314	86
568.526	89
568.737	97
568.949	101
569.161	83
569.372	92
569.584	87
569.795	95
570.007	114
570.218	290
570.43	144
570.641	84
570.853	89
571.064	99
571.276	76
571.487	69
571.698	82
571.91	104
572.121	84
572.333	85
572.544	75
572.755	81
572.966	86
573.178	88
573.389	89
573.6	88
573.811	86
574.023	94
574.234	90
574.445	83
574.656	97
574.867	81
575.078	90
575.289	80
575.501	84
575.712	90
575.923	95
576.134	78
576.345	84
576.556	79
576.767	85
576.978	96
577.188	91
577.399	96
577.61	100
577.821	98
578.032	124
578.243	309
578.454	968
578.665	252
578.875	100
579.086	98
579.297	70
579.508	86
579.718	87
579.929	95
580.14	91
580.35	79
580.561	97
580.772	87
580.982	69
581.193	84
581.403	88
