Data from Circ_2013_H10_HRD10591_00099.txt Node
Date: Wed Jan 03 10:04:20 EST 2024
User: Yrep
Spectrometer: HR+D1059
Trigger mode: 1
Integration Time (sec): 1.000000E-1
Scans to average: 1
Electric dark correction enabled: true
Nonlinearity correction enabled: false
Boxcar width: 0
XAxis mode: Wavelengths
Number of Pixels in Spectrum: 2048
>>>>>Begin Spectral Data<<<<<
223.165	-18.31
223.4	-18.31
223.635	-18.31
223.869	-23.31
224.104	-27.31
224.338	-19.31
224.573	-2.31
224.808	-17.31
225.042	-7.31
225.277	-12.31
225.511	-13.31
225.746	-2.31
225.98	15.69
226.215	10.69
226.449	23.69
226.683	26.69
226.918	33.69
227.152	32.69
227.387	44.69
227.621	44.69
227.856	37.69
228.09	49.69
228.324	58.69
228.559	57.69
228.793	50.69
229.027	52.69
229.262	60.69
229.496	78.69
229.73	91.69
229.964	91.69
230.199	80.69
230.433	82.69
230.667	80.69
230.901	69.69
231.136	76.69
231.37	84.69
231.604	88.69
231.838	89.69
232.072	84.69
232.306	83.69
232.541	77.69
232.775	77.69
233.009	81.69
233.243	63.69
233.477	64.69
233.711	77.69
233.945	88.69
234.179	69.69
234.413	73.69
234.647	77.69
234.881	83.69
235.115	79.69
235.349	98.69
235.583	88.69
235.817	80.69
236.051	90.69
236.285	72.69
236.519	81.69
236.753	73.69
236.987	75.69
237.221	88.69
237.455	82.69
237.689	80.69
237.922	87.69
238.156	82.69
238.39	71.69
238.624	57.69
238.858	76.69
239.091	80.69
239.325	77.69
239.559	89.69
239.793	69.69
240.027	75.69
240.26	60.69
240.494	84.69
240.728	86.69
240.961	87.69
241.195	84.69
241.429	74.69
241.662	72.69
241.896	83.69
242.13	63.69
242.363	74.69
242.597	85.69
242.83	66.69
243.064	75.69
243.298	80.69
243.531	82.69
243.765	78.69
243.998	86.69
244.232	81.69
244.465	69.69
244.699	83.69
244.932	80.69
245.166	67.69
245.399	81.69
245.633	85.69
245.866	71.69
246.099	67.69
246.333	87.69
246.566	72.69
246.8	90.69
247.033	84.69
247.266	82.69
247.5	78.69
247.733	75.69
247.966	76.69
248.2	92.69
248.433	84.69
248.666	76.69
248.899	89.69
249.133	88.69
249.366	100.69
249.599	96.69
249.832	90.69
250.066	69.69
250.299	76.69
250.532	85.69
250.765	82.69
250.998	73.69
251.231	71.69
251.465	82.69
251.698	66.69
251.931	96.69
252.164	80.69
252.397	77.69
252.63	74.69
252.863	68.69
253.096	81.69
253.329	70.69
253.562	65.69
253.795	79.69
254.028	90.69
254.261	78.69
254.494	79.69
254.727	84.69
254.96	87.69
255.193	85.69
255.426	72.69
255.659	83.69
255.892	86.69
256.124	83.69
256.357	78.69
256.59	80.69
256.823	88.69
257.056	82.69
257.289	87.69
257.521	95.69
257.754	90.69
257.987	90.69
258.22	77.69
258.452	79.69
258.685	91.69
258.918	88.69
259.151	76.69
259.383	90.69
259.616	84.69
259.849	87.69
260.081	82.69
260.314	78.69
260.547	88.69
260.779	83.69
261.012	94.69
261.244	92.69
261.477	85.69
261.71	88.69
261.942	111.69
262.175	128.69
262.407	71.69
262.64	92.69
262.872	80.69
263.105	85.69
263.337	91.69
263.57	69.69
263.802	91.69
264.035	83.69
264.267	81.69
264.499	71.69
264.732	80.69
264.964	71.69
265.197	76.69
265.429	84.69
265.661	86.69
265.894	66.69
266.126	78.69
266.358	78.69
266.591	70.69
266.823	83.69
267.055	77.69
267.287	84.69
267.52	88.69
267.752	75.69
267.984	83.69
268.216	90.69
268.448	77.69
268.681	92.69
268.913	77.69
269.145	84.69
269.377	92.69
269.609	90.69
269.841	88.69
270.073	69.69
270.306	94.69
270.538	90.69
270.77	81.69
271.002	85.69
271.234	83.69
271.466	85.69
271.698	88.69
271.93	84.69
272.162	82.69
272.394	84.69
272.626	92.69
272.858	85.69
273.09	88.69
273.322	77.69
273.553	98.69
273.785	97.69
274.017	93.69
274.249	86.69
274.481	81.69
274.713	72.69
274.945	82.69
275.176	99.69
275.408	88.69
275.64	96.69
275.872	108.69
276.104	97.69
276.335	100.69
276.567	107.69
276.799	138.69
277.031	155.69
277.262	150.69
277.494	129.69
277.726	96.69
277.957	88.69
278.189	99.69
278.421	91.69
278.652	82.69
278.884	85.69
279.115	80.69
279.347	83.69
279.579	97.69
279.81	108.69
280.042	150.69
280.273	187.69
280.505	143.69
280.736	99.69
280.968	81.69
281.199	94.69
281.431	86.69
281.662	81.69
281.894	74.69
282.125	98.69
282.356	119.69
282.588	152.69
282.819	132.69
283.051	91.69
283.282	73.69
283.513	85.69
283.745	89.69
283.976	82.69
284.207	87.69
284.439	77.69
284.67	84.69
284.901	92.69
285.132	81.69
285.364	77.69
285.595	90.69
285.826	87.69
286.057	88.69
286.288	84.69
286.52	88.69
286.751	96.69
286.982	92.69
287.213	94.69
287.444	96.69
287.675	86.69
287.906	89.69
288.138	93.69
288.369	107.69
288.6	96.69
288.831	84.69
289.062	75.69
289.293	96.69
289.524	85.69
289.755	71.69
289.986	86.69
290.217	100.69
290.448	85.69
290.679	72.69
290.91	82.69
291.141	92.69
291.371	90.69
291.602	93.69
291.833	84.69
292.064	101.69
292.295	76.69
292.526	99.69
292.757	87.69
292.987	83.69
293.218	90.69
293.449	98.69
293.68	88.69
293.91	87.69
294.141	74.69
294.372	77.69
294.603	99.69
294.833	97.69
295.064	99.69
295.295	87.69
295.525	100.69
295.756	105.69
295.987	121.69
296.217	144.69
296.448	133.69
296.679	90.69
296.909	90.69
297.14	88.69
297.37	84.69
297.601	87.69
297.831	88.69
298.062	95.69
298.292	81.69
298.523	101.69
298.753	89.69
298.984	86.69
299.214	83.69
299.445	85.69
299.675	83.69
299.905	100.69
300.136	94.69
300.366	88.69
300.597	91.69
300.827	82.69
301.057	90.69
301.288	112.69
301.518	86.69
301.748	92.69
301.979	103.69
302.209	92.69
302.439	90.69
302.669	87.69
302.9	74.69
303.13	98.69
303.36	111.69
303.59	111.69
303.82	121.69
304.051	111.69
304.281	75.69
304.511	89.69
304.741	82.69
304.971	77.69
305.201	79.69
305.431	95.69
305.661	84.69
305.891	95.69
306.121	98.69
306.352	97.69
306.582	127.69
306.812	108.69
307.042	107.69
307.272	117.69
307.502	143.69
307.731	144.69
307.961	111.69
308.191	99.69
308.421	91.69
308.651	93.69
308.881	95.69
309.111	85.69
309.341	108.69
309.571	96.69
309.8	84.69
310.03	99.69
310.26	82.69
310.49	106.69
310.72	93.69
310.949	105.69
311.179	101.69
311.409	87.69
311.639	90.69
311.868	110.69
312.098	94.69
312.328	102.69
312.557	120.69
312.787	103.69
313.017	113.69
313.246	84.69
313.476	83.69
313.706	104.69
313.935	104.69
314.165	90.69
314.394	103.69
314.624	89.69
314.853	92.69
315.083	84.69
315.312	93.69
315.542	96.69
315.771	81.69
316.001	94.69
316.23	97.69
316.46	88.69
316.689	95.69
316.919	89.69
317.148	95.69
317.377	88.69
317.607	95.69
317.836	100.69
318.065	91.69
318.295	100.69
318.524	89.69
318.753	92.69
318.983	95.69
319.212	103.69
319.441	107.69
319.67	107.69
319.9	97.69
320.129	89.69
320.358	89.69
320.587	95.69
320.816	92.69
321.046	102.69
321.275	112.69
321.504	90.69
321.733	98.69
321.962	106.69
322.191	88.69
322.42	104.69
322.649	132.69
322.878	121.69
323.108	124.69
323.337	129.69
323.566	137.69
323.795	185.69
324.024	228.69
324.253	438.69
324.482	928.69
324.71	1931.69
324.939	2537.69
325.168	923.69
325.397	276.69
325.626	141.69
325.855	132.69
326.084	136.69
326.313	153.69
326.542	177.69
326.77	249.69
326.999	495.69
327.228	1000.69
327.457	1755.69
327.686	1464.69
327.914	467.69
328.143	401.69
328.372	464.69
328.6	287.69
328.829	135.69
329.058	177.69
329.287	163.69
329.515	149.69
329.744	196.69
329.972	342.69
330.201	685.69
330.43	957.69
330.658	461.69
330.887	237.69
331.115	176.69
331.344	105.69
331.572	106.69
331.801	114.69
332.03	115.69
332.258	107.69
332.486	106.69
332.715	99.69
332.943	116.69
333.172	104.69
333.4	127.69
333.629	134.69
333.857	188.69
334.085	294.69
334.314	604.69
334.542	1173.69
334.771	1147.69
334.999	333.69
335.227	147.69
335.455	108.69
335.684	119.69
335.912	97.69
336.14	100.69
336.369	101.69
336.597	117.69
336.825	115.69
337.053	101.69
337.281	95.69
337.51	98.69
337.738	101.69
337.966	77.69
338.194	104.69
338.422	96.69
338.65	121.69
338.878	109.69
339.106	106.69
339.334	73.69
339.562	83.69
339.79	95.69
340.018	86.69
340.246	100.69
340.474	98.69
340.702	89.69
340.93	91.69
341.158	97.69
341.386	89.69
341.614	94.69
341.842	101.69
342.07	95.69
342.298	96.69
342.526	85.69
342.754	95.69
342.981	90.69
343.209	89.69
343.437	98.69
343.665	89.69
343.893	82.69
344.12	88.69
344.348	82.69
344.576	87.69
344.804	77.69
345.031	95.69
345.259	98.69
345.487	89.69
345.714	99.69
345.942	77.69
346.17	89.69
346.397	97.69
346.625	96.69
346.853	102.69
347.08	86.69
347.308	80.69
347.535	108.69
347.763	109.69
347.99	95.69
348.218	103.69
348.445	113.69
348.673	111.69
348.9	100.69
349.128	86.69
349.355	74.69
349.583	99.69
349.81	99.69
350.037	91.69
350.265	93.69
350.492	89.69
350.72	94.69
350.947	91.69
351.174	102.69
351.402	128.69
351.629	111.69
351.856	115.69
352.083	100.69
352.311	94.69
352.538	110.69
352.765	107.69
352.992	117.69
353.22	115.69
353.447	103.69
353.674	94.69
353.901	77.69
354.128	93.69
354.355	94.69
354.583	99.69
354.81	94.69
355.037	101.69
355.264	106.69
355.491	79.69
355.718	96.69
355.945	97.69
356.172	83.69
356.399	90.69
356.626	112.69
356.853	101.69
357.08	96.69
357.307	95.69
357.534	92.69
357.761	88.69
357.988	103.69
358.215	102.69
358.441	102.69
358.668	90.69
358.895	82.69
359.122	76.69
359.349	100.69
359.576	96.69
359.802	104.69
360.029	128.69
360.256	106.69
360.483	107.69
360.709	94.69
360.936	82.69
361.163	84.69
361.39	84.69
361.616	91.69
361.843	92.69
362.07	101.69
362.296	96.69
362.523	79.69
362.749	96.69
362.976	81.69
363.203	94.69
363.429	90.69
363.656	81.69
363.882	87.69
364.109	90.69
364.335	83.69
364.562	86.69
364.788	93.69
365.015	95.69
365.241	98.69
365.468	100.69
365.694	106.69
365.92	105.69
366.147	83.69
366.373	83.69
366.599	84.69
366.826	89.69
367.052	88.69
367.278	96.69
367.505	104.69
367.731	82.69
367.957	84.69
368.184	85.69
368.41	98.69
368.636	106.69
368.862	98.69
369.089	121.69
369.315	95.69
369.541	89.69
369.767	88.69
369.993	89.69
370.219	98.69
370.445	99.69
370.672	95.69
370.898	72.69
371.124	89.69
371.35	98.69
371.576	87.69
371.802	95.69
372.028	92.69
372.254	83.69
372.48	86.69
372.706	77.69
372.932	77.69
373.158	79.69
373.384	84.69
373.61	85.69
373.835	88.69
374.061	80.69
374.287	89.69
374.513	107.69
374.739	90.69
374.965	86.69
375.191	90.69
375.416	101.69
375.642	90.69
375.868	88.69
376.094	89.69
376.319	85.69
376.545	93.69
376.771	81.69
376.997	85.69
377.222	72.69
377.448	88.69
377.674	76.69
377.899	93.69
378.125	84.69
378.35	89.69
378.576	81.69
378.802	107.69
379.027	91.69
379.253	87.69
379.478	84.69
379.704	92.69
379.929	80.69
380.155	93.69
380.38	87.69
380.606	74.69
380.831	93.69
381.057	93.69
381.282	90.69
381.507	87.69
381.733	89.69
381.958	105.69
382.184	100.69
382.409	95.69
382.634	100.69
382.86	90.69
383.085	101.69
383.31	83.69
383.535	98.69
383.761	89.69
383.986	87.69
384.211	76.69
384.436	75.69
384.662	87.69
384.887	98.69
385.112	90.69
385.337	98.69
385.562	103.69
385.787	108.69
386.013	109.69
386.238	112.69
386.463	110.69
386.688	105.69
386.913	87.69
387.138	85.69
387.363	108.69
387.588	83.69
387.813	95.69
388.038	97.69
388.263	112.69
388.488	99.69
388.713	91.69
388.938	91.69
389.163	88.69
389.387	87.69
389.612	85.69
389.837	96.69
390.062	83.69
390.287	69.69
390.512	97.69
390.736	98.69
390.961	81.69
391.186	93.69
391.411	78.69
391.636	84.69
391.86	80.69
392.085	76.69
392.31	88.69
392.534	92.69
392.759	88.69
392.984	87.69
393.208	87.69
393.433	91.69
393.658	77.69
393.882	86.69
394.107	89.69
394.331	98.69
394.556	92.69
394.78	85.69
395.005	86.69
395.229	93.69
395.454	85.69
395.678	84.69
395.903	91.69
396.127	82.69
396.352	90.69
396.576	73.69
396.801	79.69
397.025	99.69
397.249	87.69
397.474	80.69
397.698	86.69
397.922	87.69
398.147	88.69
398.371	91.69
398.595	86.69
398.82	80.69
399.044	92.69
399.268	79.69
399.492	91.69
399.717	79.69
399.941	83.69
400.165	81.69
400.389	100.69
400.613	85.69
400.837	88.69
401.062	80.69
401.286	80.69
401.51	81.69
401.734	102.69
401.958	86.69
402.182	127.69
402.406	173.69
402.63	130.69
402.854	113.69
403.078	88.69
403.302	86.69
403.526	81.69
403.75	84.69
403.974	82.69
404.198	84.69
404.422	88.69
404.645	82.69
404.869	87.69
405.093	115.69
405.317	131.69
405.541	119.69
405.765	106.69
405.988	121.69
406.212	191.69
406.436	277.69
406.66	192.69
406.883	131.69
407.107	96.69
407.331	91.69
407.555	115.69
407.778	112.69
408.002	94.69
408.226	84.69
408.449	84.69
408.673	96.69
408.896	77.69
409.12	92.69
409.344	85.69
409.567	88.69
409.791	83.69
410.014	94.69
410.238	86.69
410.461	83.69
410.685	95.69
410.908	90.69
411.132	105.69
411.355	106.69
411.578	89.69
411.802	92.69
412.025	87.69
412.249	95.69
412.472	111.69
412.695	125.69
412.919	101.69
413.142	94.69
413.365	85.69
413.589	92.69
413.812	92.69
414.035	89.69
414.258	98.69
414.482	85.69
414.705	88.69
414.928	98.69
415.151	97.69
415.374	97.69
415.597	92.69
415.821	77.69
416.044	88.69
416.267	114.69
416.49	83.69
416.713	94.69
416.936	90.69
417.159	85.69
417.382	90.69
417.605	89.69
417.828	106.69
418.051	98.69
418.274	80.69
418.497	88.69
418.72	85.69
418.943	75.69
419.166	74.69
419.389	88.69
419.611	92.69
419.834	99.69
420.057	77.69
420.28	105.69
420.503	76.69
420.726	80.69
420.948	83.69
421.171	103.69
421.394	80.69
421.617	96.69
421.839	82.69
422.062	99.69
422.285	80.69
422.507	105.69
422.73	96.69
422.953	86.69
423.175	81.69
423.398	87.69
423.621	98.69
423.843	84.69
424.066	89.69
424.288	90.69
424.511	98.69
424.733	88.69
424.956	96.69
425.178	100.69
425.401	97.69
425.623	98.69
425.846	92.69
426.068	98.69
426.291	86.69
426.513	100.69
426.735	92.69
426.958	88.69
427.18	116.69
427.402	156.69
427.625	225.69
427.847	211.69
428.069	187.69
428.292	119.69
428.514	94.69
428.736	77.69
428.958	87.69
429.181	93.69
429.403	83.69
429.625	80.69
429.847	83.69
430.069	99.69
430.292	76.69
430.514	71.69
430.736	74.69
430.958	85.69
431.18	84.69
431.402	84.69
431.624	75.69
431.846	95.69
432.068	80.69
432.29	60.69
432.512	74.69
432.734	96.69
432.956	81.69
433.178	96.69
433.4	92.69
433.622	86.69
433.844	79.69
434.066	91.69
434.287	92.69
434.509	78.69
434.731	85.69
434.953	74.69
435.175	88.69
435.397	79.69
435.618	99.69
435.84	96.69
436.062	113.69
436.284	120.69
436.505	95.69
436.727	103.69
436.949	88.69
437.17	90.69
437.392	86.69
437.614	89.69
437.835	120.69
438.057	133.69
438.278	102.69
438.5	127.69
438.721	133.69
438.943	111.69
439.165	85.69
439.386	89.69
439.608	90.69
439.829	94.69
440.05	145.69
440.272	165.69
440.493	89.69
440.715	93.69
440.936	93.69
441.158	89.69
441.379	96.69
441.6	95.69
441.822	91.69
442.043	89.69
442.264	98.69
442.486	111.69
442.707	96.69
442.928	117.69
443.149	150.69
443.371	153.69
443.592	111.69
443.813	129.69
444.034	117.69
444.255	111.69
444.476	99.69
444.698	95.69
444.919	96.69
445.14	135.69
445.361	136.69
445.582	127.69
445.803	157.69
446.024	179.69
446.245	156.69
446.466	126.69
446.687	95.69
446.908	88.69
447.129	87.69
447.35	86.69
447.571	98.69
447.792	97.69
448.013	93.69
448.234	125.69
448.455	117.69
448.675	113.69
448.896	118.69
449.117	115.69
449.338	118.69
449.559	140.69
449.779	139.69
450	95.69
450.221	94.69
450.442	103.69
450.662	97.69
450.883	124.69
451.104	120.69
451.324	92.69
451.545	73.69
451.766	81.69
451.986	94.69
452.207	83.69
452.428	99.69
452.648	95.69
452.869	103.69
453.089	123.69
453.31	128.69
453.53	89.69
453.751	97.69
453.971	100.69
454.192	120.69
454.412	95.69
454.633	89.69
454.853	78.69
455.073	106.69
455.294	75.69
455.514	95.69
455.734	92.69
455.955	86.69
456.175	70.69
456.395	76.69
456.616	72.69
456.836	80.69
457.056	76.69
457.276	82.69
457.497	79.69
457.717	84.69
457.937	90.69
458.157	78.69
458.377	91.69
458.598	103.69
458.818	168.69
459.038	201.69
459.258	144.69
459.478	82.69
459.698	84.69
459.918	84.69
460.138	93.69
460.358	80.69
460.578	75.69
460.798	75.69
461.018	93.69
461.238	69.69
461.458	80.69
461.678	73.69
461.898	87.69
462.118	63.69
462.338	77.69
462.558	93.69
462.777	84.69
462.997	84.69
463.217	107.69
463.437	87.69
463.657	92.69
463.876	81.69
464.096	76.69
464.316	111.69
464.536	90.69
464.755	99.69
464.975	108.69
465.195	211.69
465.414	203.69
465.634	109.69
465.854	85.69
466.073	86.69
466.293	85.69
466.512	87.69
466.732	81.69
466.951	85.69
467.171	92.69
467.391	106.69
467.61	136.69
467.829	158.69
468.049	382.69
468.268	561.69
468.488	151.69
468.707	109.69
468.927	84.69
469.146	87.69
469.365	97.69
469.585	93.69
469.804	95.69
470.023	100.69
470.243	72.69
470.462	117.69
470.681	134.69
470.901	89.69
471.12	95.69
471.339	102.69
471.558	100.69
471.777	115.69
471.997	200.69
472.216	717.69
472.435	1638.69
472.654	423.69
472.873	146.69
473.092	107.69
473.311	94.69
473.53	85.69
473.749	92.69
473.968	104.69
474.187	117.69
474.406	100.69
474.625	94.69
474.844	99.69
475.063	88.69
475.282	91.69
475.501	93.69
475.72	90.69
475.939	85.69
476.158	82.69
476.377	90.69
476.596	95.69
476.814	99.69
477.033	106.69
477.252	89.69
477.471	85.69
477.69	87.69
477.908	87.69
478.127	102.69
478.346	83.69
478.564	95.69
478.783	107.69
479.002	105.69
479.22	90.69
479.439	113.69
479.658	115.69
479.876	115.69
480.095	108.69
480.313	138.69
480.532	137.69
480.751	220.69
480.969	665.69
481.188	2699.69
481.406	1753.69
481.624	263.69
481.843	116.69
482.061	98.69
482.28	101.69
482.498	84.69
482.717	102.69
482.935	85.69
483.153	81.69
483.372	96.69
483.59	81.69
483.808	97.69
484.027	98.69
484.245	99.69
484.463	93.69
484.681	108.69
484.9	97.69
485.118	94.69
485.336	80.69
485.554	78.69
485.772	95.69
485.99	100.69
486.209	106.69
486.427	108.69
486.645	98.69
486.863	104.69
487.081	90.69
487.299	88.69
487.517	98.69
487.735	92.69
487.953	94.69
488.171	85.69
488.389	95.69
488.607	92.69
488.825	94.69
489.043	81.69
489.261	92.69
489.479	85.69
489.696	98.69
489.914	79.69
490.132	82.69
490.35	88.69
490.568	83.69
490.786	88.69
491.003	93.69
491.221	74.69
491.439	94.69
491.657	72.69
491.874	81.69
492.092	79.69
492.31	89.69
492.527	91.69
492.745	101.69
492.963	101.69
493.18	84.69
493.398	92.69
493.615	103.69
493.833	102.69
494.05	77.69
494.268	83.69
494.485	76.69
494.703	97.69
494.92	85.69
495.138	86.69
495.355	87.69
495.573	90.69
495.79	90.69
496.008	91.69
496.225	83.69
496.442	84.69
496.66	104.69
496.877	88.69
497.094	84.69
497.312	86.69
497.529	103.69
497.746	98.69
497.963	91.69
498.181	104.69
498.398	82.69
498.615	97.69
498.832	102.69
499.049	101.69
499.267	95.69
499.484	85.69
499.701	101.69
499.918	92.69
500.135	108.69
500.352	92.69
500.569	107.69
500.786	89.69
501.003	101.69
501.22	93.69
501.437	108.69
501.654	108.69
501.871	112.69
502.088	87.69
502.305	84.69
502.522	91.69
502.739	98.69
502.956	101.69
503.172	95.69
503.389	94.69
503.606	123.69
503.823	79.69
504.04	93.69
504.256	90.69
504.473	92.69
504.69	85.69
504.907	86.69
505.123	84.69
505.34	81.69
505.557	68.69
505.773	92.69
505.99	88.69
506.207	83.69
506.423	88.69
506.64	84.69
506.856	98.69
507.073	95.69
507.289	93.69
507.506	88.69
507.722	115.69
507.939	126.69
508.155	91.69
508.372	82.69
508.588	97.69
508.805	104.69
509.021	77.69
509.238	100.69
509.454	91.69
509.67	117.69
509.887	111.69
510.103	139.69
510.319	214.69
510.536	792.69
510.752	2739.69
510.968	759.69
511.184	156.69
511.401	127.69
511.617	113.69
511.833	112.69
512.049	96.69
512.265	87.69
512.481	109.69
512.698	101.69
512.914	85.69
513.13	87.69
513.346	87.69
513.562	92.69
513.778	90.69
513.994	104.69
514.21	103.69
514.426	124.69
514.642	155.69
514.858	145.69
