Data from Circ_2013_H10_HRD10591_00063.txt Node
Date: Wed Jan 03 10:04:12 EST 2024
User: Yrep
Spectrometer: HR+D1059
Trigger mode: 1
Integration Time (sec): 1.000000E-1
Scans to average: 1
Electric dark correction enabled: true
Nonlinearity correction enabled: false
Boxcar width: 0
XAxis mode: Wavelengths
Number of Pixels in Spectrum: 2048
>>>>>Begin Spectral Data<<<<<
223.165	-15.38
223.4	-15.38
223.635	-15.38
223.869	-25.38
224.104	-16.38
224.338	-22.38
224.573	-13.38
224.808	-6.38
225.042	-13.38
225.277	-10.38
225.511	-6.38
225.746	-0.38
225.98	8.62
226.215	2.62
226.449	20.62
226.683	32.62
226.918	33.62
227.152	31.62
227.387	36.62
227.621	43.62
227.856	39.62
228.09	47.62
228.324	53.62
228.559	54.62
228.793	75.62
229.027	66.62
229.262	74.62
229.496	80.62
229.73	99.62
229.964	56.62
230.199	67.62
230.433	69.62
230.667	68.62
230.901	87.62
231.136	79.62
231.37	83.62
231.604	77.62
231.838	89.62
232.072	87.62
232.306	84.62
232.541	72.62
232.775	67.62
233.009	77.62
233.243	72.62
233.477	83.62
233.711	84.62
233.945	87.62
234.179	59.62
234.413	74.62
234.647	79.62
234.881	73.62
235.115	73.62
235.349	80.62
235.583	75.62
235.817	68.62
236.051	75.62
236.285	67.62
236.519	73.62
236.753	71.62
236.987	68.62
237.221	76.62
237.455	95.62
237.689	75.62
237.922	81.62
238.156	86.62
238.39	76.62
238.624	78.62
238.858	67.62
239.091	81.62
239.325	85.62
239.559	91.62
239.793	81.62
240.027	68.62
240.26	70.62
240.494	74.62
240.728	81.62
240.961	89.62
241.195	80.62
241.429	77.62
241.662	77.62
241.896	71.62
242.13	74.62
242.363	63.62
242.597	68.62
242.83	79.62
243.064	84.62
243.298	87.62
243.531	75.62
243.765	71.62
243.998	74.62
244.232	78.62
244.465	98.62
244.699	72.62
244.932	79.62
245.166	75.62
245.399	80.62
245.633	79.62
245.866	72.62
246.099	81.62
246.333	88.62
246.566	87.62
246.8	80.62
247.033	83.62
247.266	69.62
247.5	68.62
247.733	77.62
247.966	68.62
248.2	72.62
248.433	75.62
248.666	79.62
248.899	69.62
249.133	87.62
249.366	96.62
249.599	94.62
249.832	91.62
250.066	72.62
250.299	60.62
250.532	90.62
250.765	83.62
250.998	74.62
251.231	80.62
251.465	69.62
251.698	66.62
251.931	70.62
252.164	70.62
252.397	81.62
252.63	88.62
252.863	73.62
253.096	91.62
253.329	83.62
253.562	84.62
253.795	67.62
254.028	79.62
254.261	75.62
254.494	64.62
254.727	92.62
254.96	88.62
255.193	88.62
255.426	104.62
255.659	75.62
255.892	85.62
256.124	63.62
256.357	77.62
256.59	74.62
256.823	90.62
257.056	93.62
257.289	72.62
257.521	82.62
257.754	83.62
257.987	93.62
258.22	82.62
258.452	84.62
258.685	84.62
258.918	85.62
259.151	83.62
259.383	100.62
259.616	89.62
259.849	80.62
260.081	76.62
260.314	75.62
260.547	83.62
260.779	93.62
261.012	86.62
261.244	91.62
261.477	91.62
261.71	89.62
261.942	117.62
262.175	119.62
262.407	102.62
262.64	82.62
262.872	79.62
263.105	83.62
263.337	108.62
263.57	88.62
263.802	81.62
264.035	87.62
264.267	80.62
264.499	77.62
264.732	83.62
264.964	79.62
265.197	72.62
265.429	88.62
265.661	69.62
265.894	79.62
266.126	77.62
266.358	74.62
266.591	75.62
266.823	85.62
267.055	85.62
267.287	83.62
267.52	98.62
267.752	76.62
267.984	80.62
268.216	81.62
268.448	80.62
268.681	88.62
268.913	67.62
269.145	74.62
269.377	77.62
269.609	76.62
269.841	82.62
270.073	77.62
270.306	83.62
270.538	88.62
270.77	88.62
271.002	80.62
271.234	95.62
271.466	80.62
271.698	82.62
271.93	85.62
272.162	77.62
272.394	79.62
272.626	93.62
272.858	83.62
273.09	88.62
273.322	87.62
273.553	86.62
273.785	77.62
274.017	81.62
274.249	76.62
274.481	77.62
274.713	79.62
274.945	91.62
275.176	83.62
275.408	88.62
275.64	82.62
275.872	85.62
276.104	93.62
276.335	86.62
276.567	98.62
276.799	131.62
277.031	142.62
277.262	139.62
277.494	121.62
277.726	80.62
277.957	84.62
278.189	95.62
278.421	75.62
278.652	95.62
278.884	95.62
279.115	93.62
279.347	99.62
279.579	98.62
279.81	105.62
280.042	128.62
280.273	150.62
280.505	100.62
280.736	88.62
280.968	83.62
281.199	71.62
281.431	92.62
281.662	87.62
281.894	99.62
282.125	87.62
282.356	109.62
282.588	132.62
282.819	114.62
283.051	74.62
283.282	84.62
283.513	85.62
283.745	81.62
283.976	85.62
284.207	80.62
284.439	75.62
284.67	84.62
284.901	102.62
285.132	86.62
285.364	65.62
285.595	91.62
285.826	87.62
286.057	88.62
286.288	76.62
286.52	82.62
286.751	76.62
286.982	76.62
287.213	73.62
287.444	80.62
287.675	98.62
287.906	80.62
288.138	91.62
288.369	92.62
288.6	93.62
288.831	92.62
289.062	90.62
289.293	69.62
289.524	94.62
289.755	86.62
289.986	80.62
290.217	89.62
290.448	79.62
290.679	81.62
290.91	89.62
291.141	89.62
291.371	76.62
291.602	85.62
291.833	75.62
292.064	86.62
292.295	86.62
292.526	89.62
292.757	83.62
292.987	77.62
293.218	102.62
293.449	81.62
293.68	91.62
293.91	90.62
294.141	84.62
294.372	81.62
294.603	98.62
294.833	92.62
295.064	86.62
295.295	68.62
295.525	95.62
295.756	92.62
295.987	120.62
296.217	149.62
296.448	120.62
296.679	101.62
296.909	90.62
297.14	93.62
297.37	89.62
297.601	90.62
297.831	100.62
298.062	100.62
298.292	88.62
298.523	87.62
298.753	88.62
298.984	82.62
299.214	84.62
299.445	86.62
299.675	74.62
299.905	98.62
300.136	99.62
300.366	98.62
300.597	94.62
300.827	105.62
301.057	85.62
301.288	117.62
301.518	95.62
301.748	87.62
301.979	111.62
302.209	106.62
302.439	85.62
302.669	87.62
302.9	90.62
303.13	85.62
303.36	81.62
303.59	115.62
303.82	105.62
304.051	87.62
304.281	91.62
304.511	80.62
304.741	100.62
304.971	83.62
305.201	82.62
305.431	98.62
305.661	80.62
305.891	92.62
306.121	88.62
306.352	100.62
306.582	112.62
306.812	107.62
307.042	108.62
307.272	125.62
307.502	128.62
307.731	128.62
307.961	110.62
308.191	84.62
308.421	81.62
308.651	97.62
308.881	94.62
309.111	93.62
309.341	100.62
309.571	109.62
309.8	88.62
310.03	100.62
310.26	112.62
310.49	111.62
310.72	95.62
310.949	108.62
311.179	113.62
311.409	92.62
311.639	97.62
311.868	106.62
312.098	99.62
312.328	112.62
312.557	127.62
312.787	108.62
313.017	108.62
313.246	103.62
313.476	86.62
313.706	88.62
313.935	103.62
314.165	100.62
314.394	97.62
314.624	106.62
314.853	92.62
315.083	103.62
315.312	92.62
315.542	85.62
315.771	83.62
316.001	85.62
316.23	89.62
316.46	90.62
316.689	106.62
316.919	95.62
317.148	98.62
317.377	95.62
317.607	101.62
317.836	92.62
318.065	84.62
318.295	88.62
318.524	87.62
318.753	91.62
318.983	84.62
319.212	93.62
319.441	111.62
319.67	112.62
319.9	95.62
320.129	116.62
320.358	93.62
320.587	104.62
320.816	93.62
321.046	113.62
321.275	72.62
321.504	89.62
321.733	90.62
321.962	107.62
322.191	97.62
322.42	102.62
322.649	108.62
322.878	112.62
323.108	125.62
323.337	124.62
323.566	145.62
323.795	162.62
324.024	233.62
324.253	458.62
324.482	1010.62
324.71	2106.62
324.939	2800.62
325.168	1020.62
325.397	268.62
325.626	162.62
325.855	129.62
326.084	129.62
326.313	141.62
326.542	182.62
326.77	255.62
326.999	532.62
327.228	1125.62
327.457	2033.62
327.686	1644.62
327.914	495.62
328.143	328.62
328.372	369.62
328.6	235.62
328.829	155.62
329.058	168.62
329.287	167.62
329.515	135.62
329.744	177.62
329.972	283.62
330.201	508.62
330.43	711.62
330.658	372.62
330.887	197.62
331.115	127.62
331.344	106.62
331.572	115.62
331.801	122.62
332.03	97.62
332.258	100.62
332.486	105.62
332.715	109.62
332.943	78.62
333.172	107.62
333.4	116.62
333.629	136.62
333.857	165.62
334.085	270.62
334.314	478.62
334.542	873.62
334.771	836.62
334.999	254.62
335.227	133.62
335.455	103.62
335.684	108.62
335.912	106.62
336.14	98.62
336.369	105.62
336.597	100.62
336.825	99.62
337.053	95.62
337.281	103.62
337.51	87.62
337.738	84.62
337.966	105.62
338.194	87.62
338.422	99.62
338.65	90.62
338.878	98.62
339.106	90.62
339.334	77.62
339.562	99.62
339.79	105.62
340.018	80.62
340.246	92.62
340.474	97.62
340.702	88.62
340.93	81.62
341.158	85.62
341.386	98.62
341.614	93.62
341.842	84.62
342.07	92.62
342.298	89.62
342.526	89.62
342.754	88.62
342.981	83.62
343.209	72.62
343.437	100.62
343.665	93.62
343.893	95.62
344.12	92.62
344.348	99.62
344.576	92.62
344.804	89.62
345.031	95.62
345.259	85.62
345.487	95.62
345.714	102.62
345.942	82.62
346.17	90.62
346.397	77.62
346.625	91.62
346.853	107.62
347.08	87.62
347.308	77.62
347.535	107.62
347.763	94.62
347.99	96.62
348.218	102.62
348.445	90.62
348.673	101.62
348.9	102.62
349.128	87.62
349.355	89.62
349.583	76.62
349.81	97.62
350.037	91.62
350.265	102.62
350.492	98.62
350.72	88.62
350.947	95.62
351.174	109.62
351.402	105.62
351.629	106.62
351.856	100.62
352.083	98.62
352.311	123.62
352.538	111.62
352.765	102.62
352.992	103.62
353.22	100.62
353.447	109.62
353.674	104.62
353.901	95.62
354.128	88.62
354.355	83.62
354.583	89.62
354.81	82.62
355.037	97.62
355.264	91.62
355.491	94.62
355.718	98.62
355.945	112.62
356.172	87.62
356.399	102.62
356.626	86.62
356.853	85.62
357.08	81.62
357.307	89.62
357.534	85.62
357.761	88.62
357.988	108.62
358.215	108.62
358.441	85.62
358.668	89.62
358.895	77.62
359.122	89.62
359.349	97.62
359.576	102.62
359.802	85.62
360.029	128.62
360.256	120.62
360.483	92.62
360.709	87.62
360.936	97.62
361.163	111.62
361.39	101.62
361.616	102.62
361.843	88.62
362.07	94.62
362.296	93.62
362.523	95.62
362.749	83.62
362.976	90.62
363.203	94.62
363.429	77.62
363.656	91.62
363.882	77.62
364.109	73.62
364.335	91.62
364.562	97.62
364.788	96.62
365.015	98.62
365.241	97.62
365.468	107.62
365.694	104.62
365.92	101.62
366.147	93.62
366.373	95.62
366.599	97.62
366.826	96.62
367.052	81.62
367.278	97.62
367.505	94.62
367.731	106.62
367.957	115.62
368.184	81.62
368.41	92.62
368.636	107.62
368.862	140.62
369.089	115.62
369.315	92.62
369.541	102.62
369.767	77.62
369.993	97.62
370.219	83.62
370.445	85.62
370.672	88.62
370.898	80.62
371.124	91.62
371.35	93.62
371.576	81.62
371.802	79.62
372.028	84.62
372.254	88.62
372.48	92.62
372.706	88.62
372.932	92.62
373.158	92.62
373.384	99.62
373.61	90.62
373.835	98.62
374.061	84.62
374.287	95.62
374.513	91.62
374.739	93.62
374.965	89.62
375.191	80.62
375.416	74.62
375.642	97.62
375.868	88.62
376.094	79.62
376.319	84.62
376.545	88.62
376.771	88.62
376.997	84.62
377.222	99.62
377.448	85.62
377.674	90.62
377.899	89.62
378.125	95.62
378.35	95.62
378.576	75.62
378.802	87.62
379.027	87.62
379.253	97.62
379.478	99.62
379.704	89.62
379.929	81.62
380.155	86.62
380.38	95.62
380.606	93.62
380.831	98.62
381.057	88.62
381.282	84.62
381.507	94.62
381.733	99.62
381.958	95.62
382.184	100.62
382.409	91.62
382.634	99.62
382.86	119.62
383.085	96.62
383.31	100.62
383.535	98.62
383.761	85.62
383.986	90.62
384.211	91.62
384.436	96.62
384.662	97.62
384.887	104.62
385.112	97.62
385.337	106.62
385.562	90.62
385.787	97.62
386.013	94.62
386.238	113.62
386.463	111.62
386.688	112.62
386.913	88.62
387.138	88.62
387.363	95.62
387.588	108.62
387.813	71.62
388.038	92.62
388.263	90.62
388.488	111.62
388.713	72.62
388.938	100.62
389.163	93.62
389.387	96.62
389.612	87.62
389.837	94.62
390.062	83.62
390.287	86.62
390.512	91.62
390.736	77.62
390.961	88.62
391.186	82.62
391.411	93.62
391.636	75.62
391.86	80.62
392.085	80.62
392.31	86.62
392.534	86.62
392.759	97.62
392.984	100.62
393.208	104.62
393.433	96.62
393.658	101.62
393.882	70.62
394.107	93.62
394.331	87.62
394.556	97.62
394.78	89.62
395.005	82.62
395.229	89.62
395.454	87.62
395.678	85.62
395.903	74.62
396.127	97.62
396.352	87.62
396.576	92.62
396.801	84.62
397.025	90.62
397.249	90.62
397.474	88.62
397.698	94.62
397.922	87.62
398.147	78.62
398.371	91.62
398.595	86.62
398.82	89.62
399.044	82.62
399.268	83.62
399.492	86.62
399.717	87.62
399.941	95.62
400.165	83.62
400.389	90.62
400.613	83.62
400.837	62.62
401.062	95.62
401.286	80.62
401.51	89.62
401.734	82.62
401.958	101.62
402.182	139.62
402.406	177.62
402.63	145.62
402.854	96.62
403.078	90.62
403.302	87.62
403.526	97.62
403.75	103.62
403.974	86.62
404.198	80.62
404.422	97.62
404.645	86.62
404.869	88.62
405.093	101.62
405.317	115.62
405.541	112.62
405.765	112.62
405.988	135.62
406.212	201.62
406.436	276.62
406.66	186.62
406.883	107.62
407.107	84.62
407.331	107.62
407.555	103.62
407.778	101.62
408.002	97.62
408.226	92.62
408.449	93.62
408.673	93.62
408.896	98.62
409.12	90.62
409.344	86.62
409.567	83.62
409.791	96.62
410.014	79.62
410.238	99.62
410.461	93.62
410.685	87.62
410.908	90.62
411.132	100.62
411.355	103.62
411.578	80.62
411.802	75.62
412.025	96.62
412.249	81.62
412.472	96.62
412.695	117.62
412.919	99.62
413.142	88.62
413.365	95.62
413.589	94.62
413.812	93.62
414.035	100.62
414.258	92.62
414.482	71.62
414.705	93.62
414.928	79.62
415.151	79.62
415.374	95.62
415.597	92.62
415.821	96.62
416.044	76.62
416.267	77.62
416.49	82.62
416.713	84.62
416.936	100.62
417.159	88.62
417.382	83.62
417.605	105.62
417.828	108.62
418.051	93.62
418.274	87.62
418.497	86.62
418.72	86.62
418.943	89.62
419.166	88.62
419.389	96.62
419.611	88.62
419.834	76.62
420.057	75.62
420.28	104.62
420.503	93.62
420.726	84.62
420.948	91.62
421.171	101.62
421.394	101.62
421.617	92.62
421.839	91.62
422.062	82.62
422.285	88.62
422.507	98.62
422.73	86.62
422.953	86.62
423.175	93.62
423.398	101.62
423.621	85.62
423.843	90.62
424.066	73.62
424.288	83.62
424.511	102.62
424.733	92.62
424.956	105.62
425.178	92.62
425.401	92.62
425.623	104.62
425.846	90.62
426.068	89.62
426.291	105.62
426.513	94.62
426.735	66.62
426.958	84.62
427.18	107.62
427.402	149.62
427.625	198.62
427.847	175.62
428.069	175.62
428.292	116.62
428.514	99.62
428.736	91.62
428.958	81.62
429.181	100.62
429.403	85.62
429.625	86.62
429.847	88.62
430.069	95.62
430.292	99.62
430.514	74.62
430.736	74.62
430.958	84.62
431.18	86.62
431.402	85.62
431.624	91.62
431.846	78.62
432.068	86.62
432.29	93.62
432.512	83.62
432.734	88.62
432.956	100.62
433.178	100.62
433.4	89.62
433.622	82.62
433.844	75.62
434.066	101.62
434.287	84.62
434.509	92.62
434.731	97.62
434.953	84.62
435.175	84.62
435.397	75.62
435.618	85.62
435.84	99.62
436.062	131.62
436.284	116.62
436.505	112.62
436.727	94.62
436.949	96.62
437.17	78.62
437.392	78.62
437.614	86.62
437.835	114.62
438.057	125.62
438.278	100.62
438.5	101.62
438.721	130.62
438.943	114.62
439.165	89.62
439.386	88.62
439.608	86.62
439.829	103.62
440.05	110.62
440.272	145.62
440.493	92.62
440.715	77.62
440.936	98.62
441.158	82.62
441.379	82.62
441.6	100.62
441.822	88.62
442.043	92.62
442.264	91.62
442.486	95.62
442.707	88.62
442.928	103.62
443.149	145.62
443.371	155.62
443.592	114.62
443.813	90.62
444.034	112.62
444.255	88.62
444.476	82.62
444.698	60.62
444.919	86.62
445.14	123.62
445.361	115.62
445.582	110.62
445.803	152.62
446.024	138.62
446.245	129.62
446.466	115.62
446.687	80.62
446.908	90.62
447.129	75.62
447.35	86.62
447.571	112.62
447.792	93.62
448.013	99.62
448.234	110.62
448.455	108.62
448.675	113.62
448.896	112.62
449.117	98.62
449.338	101.62
449.559	130.62
449.779	161.62
450	79.62
450.221	92.62
450.442	94.62
450.662	106.62
450.883	130.62
451.104	112.62
451.324	95.62
451.545	80.62
451.766	81.62
451.986	99.62
452.207	78.62
452.428	99.62
452.648	94.62
452.869	131.62
453.089	127.62
453.31	119.62
453.53	95.62
453.751	88.62
453.971	97.62
454.192	105.62
454.412	103.62
454.633	88.62
454.853	80.62
455.073	81.62
455.294	77.62
455.514	80.62
455.734	88.62
455.955	84.62
456.175	65.62
456.395	82.62
456.616	77.62
456.836	86.62
457.056	83.62
457.276	80.62
457.497	81.62
457.717	81.62
457.937	96.62
458.157	90.62
458.377	107.62
458.598	106.62
458.818	180.62
459.038	184.62
459.258	134.62
459.478	88.62
459.698	92.62
459.918	90.62
460.138	91.62
460.358	92.62
460.578	85.62
460.798	84.62
461.018	83.62
461.238	84.62
461.458	77.62
461.678	81.62
461.898	74.62
462.118	79.62
462.338	81.62
462.558	89.62
462.777	77.62
462.997	103.62
463.217	100.62
463.437	85.62
463.657	83.62
463.876	98.62
464.096	92.62
464.316	95.62
464.536	85.62
464.755	108.62
464.975	120.62
465.195	193.62
465.414	186.62
465.634	106.62
465.854	90.62
466.073	102.62
466.293	76.62
466.512	91.62
466.732	103.62
466.951	84.62
467.171	100.62
467.391	102.62
467.61	101.62
467.829	152.62
468.049	294.62
468.268	435.62
468.488	151.62
468.707	98.62
468.927	86.62
469.146	98.62
469.365	68.62
469.585	91.62
469.804	94.62
470.023	104.62
470.243	84.62
470.462	110.62
470.681	125.62
470.901	106.62
471.12	92.62
471.339	99.62
471.558	98.62
471.777	117.62
471.997	184.62
472.216	563.62
472.435	1230.62
472.654	339.62
472.873	132.62
473.092	88.62
473.311	98.62
473.53	88.62
473.749	96.62
473.968	102.62
474.187	107.62
474.406	98.62
474.625	97.62
474.844	81.62
475.063	94.62
475.282	84.62
475.501	89.62
475.72	85.62
475.939	90.62
476.158	88.62
476.377	75.62
476.596	94.62
476.814	88.62
477.033	101.62
477.252	88.62
477.471	97.62
477.69	99.62
477.908	90.62
478.127	95.62
478.346	91.62
478.564	94.62
478.783	92.62
479.002	90.62
479.22	99.62
479.439	120.62
479.658	106.62
479.876	104.62
480.095	122.62
480.313	121.62
480.532	117.62
480.751	194.62
480.969	514.62
481.188	2080.62
481.406	1303.62
481.624	224.62
481.843	108.62
482.061	99.62
482.28	88.62
482.498	92.62
482.717	85.62
482.935	81.62
483.153	86.62
483.372	88.62
483.59	85.62
483.808	93.62
484.027	89.62
484.245	83.62
484.463	79.62
484.681	84.62
484.9	83.62
485.118	80.62
485.336	97.62
485.554	101.62
485.772	91.62
485.99	98.62
486.209	95.62
486.427	96.62
486.645	107.62
486.863	110.62
487.081	97.62
487.299	103.62
487.517	95.62
487.735	85.62
487.953	79.62
488.171	94.62
488.389	95.62
488.607	99.62
488.825	87.62
489.043	81.62
489.261	91.62
489.479	88.62
489.696	101.62
489.914	87.62
490.132	83.62
490.35	71.62
490.568	87.62
490.786	105.62
491.003	85.62
491.221	69.62
491.439	88.62
491.657	90.62
491.874	84.62
492.092	91.62
492.31	81.62
492.527	95.62
492.745	91.62
492.963	84.62
493.18	83.62
493.398	97.62
493.615	82.62
493.833	80.62
494.05	86.62
494.268	86.62
494.485	85.62
494.703	104.62
494.92	84.62
495.138	74.62
495.355	85.62
495.573	81.62
495.79	87.62
496.008	87.62
496.225	88.62
496.442	87.62
496.66	93.62
496.877	105.62
497.094	89.62
497.312	77.62
497.529	88.62
497.746	83.62
497.963	82.62
498.181	98.62
498.398	100.62
498.615	91.62
498.832	89.62
499.049	90.62
499.267	85.62
499.484	90.62
499.701	82.62
499.918	96.62
500.135	89.62
500.352	82.62
500.569	84.62
500.786	86.62
501.003	94.62
501.22	89.62
501.437	95.62
501.654	96.62
501.871	109.62
502.088	96.62
502.305	92.62
502.522	80.62
502.739	84.62
502.956	93.62
503.172	90.62
503.389	96.62
503.606	108.62
503.823	100.62
504.04	83.62
504.256	87.62
504.473	77.62
504.69	78.62
504.907	94.62
505.123	72.62
505.34	70.62
505.557	78.62
505.773	79.62
505.99	84.62
506.207	84.62
506.423	92.62
506.64	88.62
506.856	86.62
507.073	92.62
507.289	87.62
507.506	93.62
507.722	108.62
507.939	116.62
508.155	82.62
508.372	86.62
508.588	84.62
508.805	82.62
509.021	88.62
509.238	95.62
509.454	100.62
509.67	107.62
509.887	103.62
510.103	141.62
510.319	222.62
510.536	852.62
510.752	2872.62
510.968	804.62
511.184	162.62
511.401	106.62
511.617	100.62
511.833	82.62
512.049	104.62
512.265	81.62
512.481	92.62
512.698	90.62
512.914	89.62
513.13	90.62
513.346	85.62
513.562	88.62
513.778	108.62
513.994	106.62
514.21	122.62
514.426	139.62
514.642	141.62
514.858	139.62
515.074	197.62
