Data from Circ_2013_H10_HRD10591_00055.txt Node
Date: Wed Jan 03 10:04:11 EST 2024
User: Yrep
Spectrometer: HR+D1059
Trigger mode: 1
Integration Time (sec): 1.000000E-1
Scans to average: 1
Electric dark correction enabled: true
Nonlinearity correction enabled: false
Boxcar width: 0
XAxis mode: Wavelengths
Number of Pixels in Spectrum: 2048
>>>>>Begin Spectral Data<<<<<
223.165	-28.62
223.4	-28.62
223.635	-28.62
223.869	-10.62
224.104	-21.62
224.338	-18.62
224.573	-13.62
224.808	-6.62
225.042	-9.62
225.277	-11.62
225.511	2.38
225.746	6.38
225.98	10.38
226.215	5.38
226.449	25.38
226.683	18.38
226.918	14.38
227.152	38.38
227.387	39.38
227.621	34.38
227.856	32.38
228.09	37.38
228.324	49.38
228.559	70.38
228.793	71.38
229.027	59.38
229.262	73.38
229.496	67.38
229.73	94.38
229.964	84.38
230.199	85.38
230.433	83.38
230.667	68.38
230.901	81.38
231.136	63.38
231.37	87.38
231.604	77.38
231.838	92.38
232.072	76.38
232.306	89.38
232.541	85.38
232.775	79.38
233.009	72.38
233.243	87.38
233.477	79.38
233.711	87.38
233.945	87.38
234.179	88.38
234.413	93.38
234.647	86.38
234.881	68.38
235.115	78.38
235.349	79.38
235.583	79.38
235.817	86.38
236.051	61.38
236.285	76.38
236.519	92.38
236.753	80.38
236.987	86.38
237.221	83.38
237.455	95.38
237.689	91.38
237.922	77.38
238.156	79.38
238.39	87.38
238.624	80.38
238.858	79.38
239.091	77.38
239.325	83.38
239.559	74.38
239.793	83.38
240.027	95.38
240.26	78.38
240.494	71.38
240.728	81.38
240.961	73.38
241.195	65.38
241.429	84.38
241.662	79.38
241.896	65.38
242.13	72.38
242.363	95.38
242.597	80.38
242.83	89.38
243.064	78.38
243.298	72.38
243.531	71.38
243.765	91.38
243.998	84.38
244.232	82.38
244.465	76.38
244.699	80.38
244.932	98.38
245.166	60.38
245.399	80.38
245.633	88.38
245.866	76.38
246.099	86.38
246.333	79.38
246.566	69.38
246.8	69.38
247.033	80.38
247.266	79.38
247.5	76.38
247.733	80.38
247.966	90.38
248.2	87.38
248.433	80.38
248.666	83.38
248.899	85.38
249.133	106.38
249.366	102.38
249.599	112.38
249.832	72.38
250.066	79.38
250.299	79.38
250.532	89.38
250.765	85.38
250.998	93.38
251.231	85.38
251.465	83.38
251.698	103.38
251.931	83.38
252.164	71.38
252.397	81.38
252.63	89.38
252.863	83.38
253.096	91.38
253.329	79.38
253.562	89.38
253.795	79.38
254.028	87.38
254.261	81.38
254.494	92.38
254.727	87.38
254.96	88.38
255.193	77.38
255.426	93.38
255.659	79.38
255.892	77.38
256.124	105.38
256.357	79.38
256.59	76.38
256.823	86.38
257.056	69.38
257.289	86.38
257.521	77.38
257.754	81.38
257.987	78.38
258.22	101.38
258.452	92.38
258.685	91.38
258.918	87.38
259.151	79.38
259.383	94.38
259.616	89.38
259.849	83.38
260.081	89.38
260.314	83.38
260.547	81.38
260.779	88.38
261.012	96.38
261.244	82.38
261.477	105.38
261.71	106.38
261.942	124.38
262.175	141.38
262.407	100.38
262.64	96.38
262.872	86.38
263.105	79.38
263.337	90.38
263.57	96.38
263.802	87.38
264.035	94.38
264.267	88.38
264.499	84.38
264.732	92.38
264.964	80.38
265.197	90.38
265.429	97.38
265.661	95.38
265.894	90.38
266.126	74.38
266.358	79.38
266.591	81.38
266.823	78.38
267.055	87.38
267.287	94.38
267.52	89.38
267.752	74.38
267.984	91.38
268.216	78.38
268.448	92.38
268.681	81.38
268.913	86.38
269.145	86.38
269.377	86.38
269.609	73.38
269.841	78.38
270.073	92.38
270.306	71.38
270.538	84.38
270.77	69.38
271.002	83.38
271.234	79.38
271.466	96.38
271.698	80.38
271.93	87.38
272.162	77.38
272.394	83.38
272.626	92.38
272.858	90.38
273.09	79.38
273.322	86.38
273.553	79.38
273.785	76.38
274.017	89.38
274.249	88.38
274.481	81.38
274.713	89.38
274.945	95.38
275.176	94.38
275.408	88.38
275.64	97.38
275.872	111.38
276.104	96.38
276.335	95.38
276.567	114.38
276.799	131.38
277.031	115.38
277.262	117.38
277.494	103.38
277.726	88.38
277.957	86.38
278.189	115.38
278.421	82.38
278.652	94.38
278.884	107.38
279.115	94.38
279.347	94.38
279.579	92.38
279.81	98.38
280.042	144.38
280.273	150.38
280.505	134.38
280.736	92.38
280.968	94.38
281.199	87.38
281.431	85.38
281.662	92.38
281.894	94.38
282.125	98.38
282.356	118.38
282.588	159.38
282.819	120.38
283.051	83.38
283.282	75.38
283.513	90.38
283.745	84.38
283.976	90.38
284.207	89.38
284.439	92.38
284.67	94.38
284.901	85.38
285.132	83.38
285.364	83.38
285.595	82.38
285.826	91.38
286.057	85.38
286.288	83.38
286.52	81.38
286.751	79.38
286.982	94.38
287.213	78.38
287.444	89.38
287.675	95.38
287.906	80.38
288.138	86.38
288.369	87.38
288.6	89.38
288.831	82.38
289.062	101.38
289.293	76.38
289.524	84.38
289.755	78.38
289.986	94.38
290.217	99.38
290.448	77.38
290.679	83.38
290.91	78.38
291.141	90.38
291.371	89.38
291.602	76.38
291.833	90.38
292.064	87.38
292.295	79.38
292.526	101.38
292.757	81.38
292.987	76.38
293.218	72.38
293.449	81.38
293.68	73.38
293.91	94.38
294.141	101.38
294.372	88.38
294.603	98.38
294.833	95.38
295.064	86.38
295.295	92.38
295.525	84.38
295.756	97.38
295.987	108.38
296.217	138.38
296.448	136.38
296.679	96.38
296.909	95.38
297.14	95.38
297.37	94.38
297.601	91.38
297.831	80.38
298.062	96.38
298.292	89.38
298.523	89.38
298.753	83.38
298.984	91.38
299.214	91.38
299.445	74.38
299.675	104.38
299.905	106.38
300.136	88.38
300.366	90.38
300.597	101.38
300.827	97.38
301.057	101.38
301.288	120.38
301.518	103.38
301.748	98.38
301.979	121.38
302.209	114.38
302.439	93.38
302.669	82.38
302.9	99.38
303.13	105.38
303.36	99.38
303.59	116.38
303.82	114.38
304.051	110.38
304.281	103.38
304.511	98.38
304.741	91.38
304.971	90.38
305.201	89.38
305.431	99.38
305.661	90.38
305.891	108.38
306.121	94.38
306.352	105.38
306.582	102.38
306.812	90.38
307.042	102.38
307.272	116.38
307.502	148.38
307.731	135.38
307.961	107.38
308.191	103.38
308.421	79.38
308.651	85.38
308.881	88.38
309.111	78.38
309.341	101.38
309.571	109.38
309.8	85.38
310.03	103.38
310.26	101.38
310.49	93.38
310.72	97.38
310.949	123.38
311.179	101.38
311.409	108.38
311.639	107.38
311.868	112.38
312.098	97.38
312.328	93.38
312.557	106.38
312.787	107.38
313.017	102.38
313.246	96.38
313.476	91.38
313.706	98.38
313.935	90.38
314.165	104.38
314.394	107.38
314.624	86.38
314.853	102.38
315.083	91.38
315.312	99.38
315.542	86.38
315.771	98.38
316.001	99.38
316.23	95.38
316.46	89.38
316.689	108.38
316.919	107.38
317.148	110.38
317.377	116.38
317.607	92.38
317.836	93.38
318.065	90.38
318.295	83.38
318.524	90.38
318.753	91.38
318.983	90.38
319.212	101.38
319.441	103.38
319.67	112.38
319.9	101.38
320.129	92.38
320.358	101.38
320.587	100.38
320.816	101.38
321.046	105.38
321.275	102.38
321.504	91.38
321.733	97.38
321.962	92.38
322.191	108.38
322.42	117.38
322.649	139.38
322.878	121.38
323.108	125.38
323.337	150.38
323.566	143.38
323.795	151.38
324.024	232.38
324.253	440.38
324.482	913.38
324.71	1877.38
324.939	2535.38
325.168	924.38
325.397	270.38
325.626	160.38
325.855	143.38
326.084	140.38
326.313	140.38
326.542	163.38
326.77	250.38
326.999	498.38
327.228	1019.38
327.457	1851.38
327.686	1486.38
327.914	464.38
328.143	335.38
328.372	384.38
328.6	236.38
328.829	145.38
329.058	167.38
329.287	169.38
329.515	147.38
329.744	172.38
329.972	279.38
330.201	487.38
330.43	722.38
330.658	356.38
330.887	212.38
331.115	164.38
331.344	103.38
331.572	110.38
331.801	118.38
332.03	118.38
332.258	108.38
332.486	90.38
332.715	93.38
332.943	107.38
333.172	106.38
333.4	110.38
333.629	130.38
333.857	171.38
334.085	260.38
334.314	475.38
334.542	914.38
334.771	879.38
334.999	281.38
335.227	137.38
335.455	107.38
335.684	99.38
335.912	107.38
336.14	106.38
336.369	93.38
336.597	105.38
336.825	92.38
337.053	103.38
337.281	93.38
337.51	87.38
337.738	95.38
337.966	101.38
338.194	93.38
338.422	97.38
338.65	98.38
338.878	96.38
339.106	100.38
339.334	93.38
339.562	91.38
339.79	88.38
340.018	86.38
340.246	109.38
340.474	106.38
340.702	103.38
340.93	97.38
341.158	90.38
341.386	102.38
341.614	86.38
341.842	92.38
342.07	106.38
342.298	100.38
342.526	96.38
342.754	101.38
342.981	86.38
343.209	99.38
343.437	96.38
343.665	87.38
343.893	91.38
344.12	80.38
344.348	93.38
344.576	96.38
344.804	91.38
345.031	95.38
345.259	104.38
345.487	96.38
345.714	98.38
345.942	81.38
346.17	87.38
346.397	91.38
346.625	80.38
346.853	101.38
347.08	97.38
347.308	97.38
347.535	102.38
347.763	102.38
347.99	104.38
348.218	95.38
348.445	99.38
348.673	102.38
348.9	99.38
349.128	96.38
349.355	96.38
349.583	100.38
349.81	102.38
350.037	90.38
350.265	106.38
350.492	98.38
350.72	95.38
350.947	114.38
351.174	106.38
351.402	110.38
351.629	109.38
351.856	98.38
352.083	104.38
352.311	111.38
352.538	131.38
352.765	119.38
352.992	110.38
353.22	111.38
353.447	103.38
353.674	94.38
353.901	97.38
354.128	104.38
354.355	90.38
354.583	102.38
354.81	96.38
355.037	88.38
355.264	81.38
355.491	98.38
355.718	88.38
355.945	96.38
356.172	88.38
356.399	91.38
356.626	96.38
356.853	113.38
357.08	86.38
357.307	102.38
357.534	83.38
357.761	102.38
357.988	102.38
358.215	92.38
358.441	102.38
358.668	90.38
358.895	91.38
359.122	91.38
359.349	90.38
359.576	83.38
359.802	107.38
360.029	139.38
360.256	124.38
360.483	106.38
360.709	95.38
360.936	93.38
361.163	87.38
361.39	101.38
361.616	95.38
361.843	84.38
362.07	103.38
362.296	101.38
362.523	102.38
362.749	94.38
362.976	100.38
363.203	86.38
363.429	95.38
363.656	84.38
363.882	79.38
364.109	94.38
364.335	105.38
364.562	95.38
364.788	89.38
365.015	102.38
365.241	116.38
365.468	116.38
365.694	110.38
365.92	110.38
366.147	93.38
366.373	88.38
366.599	90.38
366.826	97.38
367.052	103.38
367.278	103.38
367.505	94.38
367.731	91.38
367.957	102.38
368.184	81.38
368.41	104.38
368.636	122.38
368.862	113.38
369.089	114.38
369.315	104.38
369.541	102.38
369.767	79.38
369.993	95.38
370.219	89.38
370.445	77.38
370.672	94.38
370.898	73.38
371.124	89.38
371.35	93.38
371.576	86.38
371.802	89.38
372.028	98.38
372.254	95.38
372.48	70.38
372.706	82.38
372.932	94.38
373.158	104.38
373.384	103.38
373.61	92.38
373.835	98.38
374.061	82.38
374.287	97.38
374.513	92.38
374.739	95.38
374.965	85.38
375.191	101.38
375.416	89.38
375.642	85.38
375.868	105.38
376.094	96.38
376.319	94.38
376.545	89.38
376.771	91.38
376.997	87.38
377.222	94.38
377.448	84.38
377.674	83.38
377.899	102.38
378.125	91.38
378.35	87.38
378.576	99.38
378.802	106.38
379.027	94.38
379.253	90.38
379.478	90.38
379.704	88.38
379.929	96.38
380.155	93.38
380.38	95.38
380.606	108.38
380.831	97.38
381.057	99.38
381.282	100.38
381.507	83.38
381.733	71.38
381.958	96.38
382.184	112.38
382.409	84.38
382.634	114.38
382.86	100.38
383.085	96.38
383.31	87.38
383.535	102.38
383.761	93.38
383.986	89.38
384.211	88.38
384.436	97.38
384.662	93.38
384.887	99.38
385.112	81.38
385.337	96.38
385.562	103.38
385.787	102.38
386.013	110.38
386.238	112.38
386.463	105.38
386.688	107.38
386.913	112.38
387.138	102.38
387.363	105.38
387.588	104.38
387.813	105.38
388.038	110.38
388.263	128.38
388.488	117.38
388.713	88.38
388.938	99.38
389.163	95.38
389.387	102.38
389.612	99.38
389.837	93.38
390.062	90.38
390.287	92.38
390.512	84.38
390.736	91.38
390.961	90.38
391.186	99.38
391.411	88.38
391.636	81.38
391.86	84.38
392.085	71.38
392.31	87.38
392.534	88.38
392.759	87.38
392.984	75.38
393.208	87.38
393.433	104.38
393.658	90.38
393.882	73.38
394.107	93.38
394.331	76.38
394.556	97.38
394.78	97.38
395.005	99.38
395.229	84.38
395.454	85.38
395.678	86.38
395.903	80.38
396.127	87.38
396.352	83.38
396.576	87.38
396.801	80.38
397.025	92.38
397.249	89.38
397.474	105.38
397.698	82.38
397.922	94.38
398.147	91.38
398.371	83.38
398.595	88.38
398.82	89.38
399.044	101.38
399.268	95.38
399.492	87.38
399.717	102.38
399.941	75.38
400.165	87.38
400.389	87.38
400.613	87.38
400.837	87.38
401.062	95.38
401.286	80.38
401.51	100.38
401.734	88.38
401.958	107.38
402.182	135.38
402.406	181.38
402.63	140.38
402.854	106.38
403.078	90.38
403.302	85.38
403.526	95.38
403.75	94.38
403.974	83.38
404.198	88.38
404.422	101.38
404.645	101.38
404.869	96.38
405.093	101.38
405.317	118.38
405.541	123.38
405.765	108.38
405.988	140.38
406.212	191.38
406.436	301.38
406.66	175.38
406.883	111.38
407.107	91.38
407.331	95.38
407.555	107.38
407.778	108.38
408.002	84.38
408.226	82.38
408.449	92.38
408.673	83.38
408.896	93.38
409.12	104.38
409.344	84.38
409.567	84.38
409.791	98.38
410.014	108.38
410.238	100.38
410.461	91.38
410.685	95.38
410.908	86.38
411.132	107.38
411.355	110.38
411.578	87.38
411.802	93.38
412.025	96.38
412.249	92.38
412.472	104.38
412.695	109.38
412.919	102.38
413.142	98.38
413.365	94.38
413.589	86.38
413.812	89.38
414.035	92.38
414.258	80.38
414.482	93.38
414.705	97.38
414.928	72.38
415.151	101.38
415.374	97.38
415.597	83.38
415.821	89.38
416.044	99.38
416.267	86.38
416.49	92.38
416.713	91.38
416.936	93.38
417.159	86.38
417.382	91.38
417.605	101.38
417.828	105.38
418.051	87.38
418.274	85.38
418.497	103.38
418.72	82.38
418.943	86.38
419.166	91.38
419.389	92.38
419.611	92.38
419.834	84.38
420.057	110.38
420.28	93.38
420.503	78.38
420.726	89.38
420.948	77.38
421.171	91.38
421.394	92.38
421.617	82.38
421.839	97.38
422.062	97.38
422.285	88.38
422.507	88.38
422.73	104.38
422.953	89.38
423.175	94.38
423.398	93.38
423.621	79.38
423.843	90.38
424.066	90.38
424.288	87.38
424.511	82.38
424.733	84.38
424.956	110.38
425.178	83.38
425.401	85.38
425.623	106.38
425.846	93.38
426.068	83.38
426.291	88.38
426.513	110.38
426.735	88.38
426.958	103.38
427.18	121.38
427.402	134.38
427.625	211.38
427.847	193.38
428.069	175.38
428.292	120.38
428.514	85.38
428.736	80.38
428.958	84.38
429.181	85.38
429.403	94.38
429.625	96.38
429.847	105.38
430.069	109.38
430.292	103.38
430.514	90.38
430.736	89.38
430.958	87.38
431.18	73.38
431.402	75.38
431.624	85.38
431.846	79.38
432.068	74.38
432.29	90.38
432.512	83.38
432.734	86.38
432.956	86.38
433.178	101.38
433.4	114.38
433.622	85.38
433.844	89.38
434.066	98.38
434.287	90.38
434.509	75.38
434.731	93.38
434.953	98.38
435.175	79.38
435.397	87.38
435.618	110.38
435.84	108.38
436.062	118.38
436.284	128.38
436.505	93.38
436.727	103.38
436.949	83.38
437.17	81.38
437.392	78.38
437.614	100.38
437.835	118.38
438.057	135.38
438.278	108.38
438.5	106.38
438.721	116.38
438.943	95.38
439.165	103.38
439.386	76.38
439.608	99.38
439.829	104.38
440.05	125.38
440.272	154.38
440.493	107.38
440.715	90.38
440.936	96.38
441.158	104.38
441.379	86.38
441.6	90.38
441.822	94.38
442.043	90.38
442.264	118.38
442.486	119.38
442.707	96.38
442.928	132.38
443.149	160.38
443.371	148.38
443.592	127.38
443.813	99.38
444.034	111.38
444.255	100.38
444.476	86.38
444.698	83.38
444.919	93.38
445.14	118.38
445.361	134.38
445.582	126.38
445.803	159.38
446.024	165.38
446.245	156.38
446.466	118.38
446.687	89.38
446.908	93.38
447.129	88.38
447.35	101.38
447.571	96.38
447.792	89.38
448.013	92.38
448.234	128.38
448.455	109.38
448.675	108.38
448.896	130.38
449.117	96.38
449.338	106.38
449.559	115.38
449.779	143.38
450	84.38
450.221	82.38
450.442	80.38
450.662	93.38
450.883	120.38
451.104	118.38
451.324	101.38
451.545	90.38
451.766	81.38
451.986	93.38
452.207	100.38
452.428	96.38
452.648	96.38
452.869	110.38
453.089	139.38
453.31	132.38
453.53	103.38
453.751	103.38
453.971	117.38
454.192	138.38
454.412	118.38
454.633	97.38
454.853	82.38
455.073	99.38
455.294	101.38
455.514	109.38
455.734	86.38
455.955	82.38
456.175	74.38
456.395	80.38
456.616	78.38
456.836	83.38
457.056	99.38
457.276	87.38
457.497	91.38
457.717	80.38
457.937	89.38
458.157	108.38
458.377	98.38
458.598	115.38
458.818	188.38
459.038	203.38
459.258	143.38
459.478	84.38
459.698	98.38
459.918	87.38
460.138	93.38
460.358	84.38
460.578	99.38
460.798	99.38
461.018	86.38
461.238	89.38
461.458	92.38
461.678	74.38
461.898	80.38
462.118	88.38
462.338	81.38
462.558	99.38
462.777	78.38
462.997	96.38
463.217	99.38
463.437	83.38
463.657	100.38
463.876	96.38
464.096	95.38
464.316	104.38
464.536	92.38
464.755	105.38
464.975	136.38
465.195	225.38
465.414	224.38
465.634	105.38
465.854	89.38
466.073	93.38
466.293	98.38
466.512	91.38
466.732	93.38
466.951	94.38
467.171	118.38
467.391	95.38
467.61	130.38
467.829	150.38
468.049	281.38
468.268	431.38
468.488	157.38
468.707	83.38
468.927	86.38
469.146	88.38
469.365	76.38
469.585	86.38
469.804	95.38
470.023	98.38
470.243	101.38
470.462	115.38
470.681	114.38
470.901	95.38
471.12	105.38
471.339	103.38
471.558	106.38
471.777	126.38
471.997	191.38
472.216	559.38
472.435	1241.38
472.654	345.38
472.873	131.38
473.092	79.38
473.311	95.38
473.53	82.38
473.749	100.38
473.968	85.38
474.187	115.38
474.406	108.38
474.625	94.38
474.844	84.38
475.063	82.38
475.282	92.38
475.501	86.38
475.72	93.38
475.939	83.38
476.158	88.38
476.377	87.38
476.596	98.38
476.814	104.38
477.033	95.38
477.252	91.38
477.471	90.38
477.69	87.38
477.908	85.38
478.127	99.38
478.346	84.38
478.564	94.38
478.783	114.38
479.002	96.38
479.22	104.38
479.439	107.38
479.658	118.38
479.876	95.38
480.095	111.38
480.313	107.38
480.532	132.38
480.751	192.38
480.969	526.38
481.188	2076.38
481.406	1322.38
481.624	230.38
481.843	92.38
482.061	105.38
482.28	92.38
482.498	102.38
482.717	89.38
482.935	99.38
483.153	94.38
483.372	82.38
483.59	68.38
483.808	100.38
484.027	92.38
484.245	106.38
484.463	90.38
484.681	103.38
484.9	95.38
485.118	91.38
485.336	98.38
485.554	103.38
485.772	97.38
485.99	95.38
486.209	100.38
486.427	98.38
486.645	115.38
486.863	115.38
487.081	101.38
487.299	101.38
487.517	90.38
487.735	99.38
487.953	98.38
488.171	99.38
488.389	91.38
488.607	109.38
488.825	93.38
489.043	98.38
489.261	97.38
489.479	89.38
489.696	92.38
489.914	90.38
490.132	86.38
490.35	98.38
490.568	88.38
490.786	82.38
491.003	93.38
491.221	100.38
491.439	90.38
491.657	96.38
491.874	85.38
492.092	87.38
492.31	87.38
492.527	81.38
492.745	85.38
492.963	92.38
493.18	103.38
493.398	87.38
493.615	95.38
493.833	100.38
494.05	107.38
494.268	92.38
494.485	103.38
494.703	85.38
494.92	105.38
495.138	82.38
495.355	87.38
495.573	98.38
495.79	86.38
496.008	105.38
496.225	83.38
496.442	84.38
496.66	103.38
496.877	84.38
497.094	95.38
497.312	84.38
497.529	92.38
497.746	94.38
497.963	107.38
498.181	94.38
498.398	86.38
498.615	111.38
498.832	94.38
499.049	103.38
499.267	86.38
499.484	86.38
499.701	86.38
499.918	96.38
500.135	88.38
500.352	93.38
500.569	93.38
500.786	92.38
501.003	93.38
501.22	77.38
501.437	79.38
501.654	92.38
501.871	104.38
502.088	93.38
502.305	88.38
502.522	105.38
502.739	100.38
502.956	100.38
503.172	94.38
503.389	116.38
503.606	124.38
503.823	109.38
504.04	87.38
504.256	70.38
504.473	108.38
504.69	95.38
504.907	87.38
505.123	86.38
505.34	92.38
505.557	93.38
505.773	81.38
505.99	83.38
506.207	86.38
506.423	82.38
506.64	96.38
506.856	93.38
507.073	90.38
507.289	102.38
507.506	109.38
507.722	128.38
507.939	126.38
508.155	104.38
508.372	93.38
508.588	104.38
508.805	113.38
509.021	114.38
509.238	98.38
509.454	106.38
509.67	100.38
509.887	103.38
510.103	140.38
510.319	235.38
510.536	816.38
510.752	2854.38
510.968	829.38
511.184	174.38
511.401	123.38
511.617	99.38
511.833	103.38
512.049	102.38
512.265	101.38
512.481	104.38
512.698	95.38
512.914	103.38
513.13	102.38
513.346	98.38
513.562	92.38
513.778	95.38
