Data from Circ_2013_H10_HRD10591_00030.txt Node
Date: Wed Jan 03 10:04:06 EST 2024
User: Yrep
Spectrometer: HR+D1059
Trigger mode: 1
Integration Time (sec): 1.000000E-1
Scans to average: 1
Electric dark correction enabled: true
Nonlinearity correction enabled: false
Boxcar width: 0
XAxis mode: Wavelengths
Number of Pixels in Spectrum: 2048
>>>>>Begin Spectral Data<<<<<
223.165	-17.44
223.4	-17.44
223.635	-17.44
223.869	-14.44
224.104	-18.44
224.338	-16.44
224.573	-14.44
224.808	-6.44
225.042	-3.44
225.277	-18.44
225.511	3.56
225.746	-2.44
225.98	1.56
226.215	18.56
226.449	16.56
226.683	23.56
226.918	14.56
227.152	33.56
227.387	34.56
227.621	41.56
227.856	50.56
228.09	42.56
228.324	55.56
228.559	64.56
228.793	67.56
229.027	70.56
229.262	74.56
229.496	83.56
229.73	95.56
229.964	78.56
230.199	66.56
230.433	78.56
230.667	68.56
230.901	79.56
231.136	83.56
231.37	84.56
231.604	85.56
231.838	94.56
232.072	74.56
232.306	87.56
232.541	76.56
232.775	85.56
233.009	88.56
233.243	75.56
233.477	82.56
233.711	100.56
233.945	74.56
234.179	92.56
234.413	78.56
234.647	83.56
234.881	71.56
235.115	74.56
235.349	80.56
235.583	85.56
235.817	88.56
236.051	76.56
236.285	69.56
236.519	79.56
236.753	83.56
236.987	86.56
237.221	89.56
237.455	84.56
237.689	90.56
237.922	83.56
238.156	84.56
238.39	89.56
238.624	92.56
238.858	84.56
239.091	77.56
239.325	88.56
239.559	83.56
239.793	86.56
240.027	76.56
240.26	79.56
240.494	78.56
240.728	58.56
240.961	78.56
241.195	70.56
241.429	87.56
241.662	83.56
241.896	86.56
242.13	80.56
242.363	74.56
242.597	73.56
242.83	77.56
243.064	76.56
243.298	66.56
243.531	77.56
243.765	79.56
243.998	66.56
244.232	74.56
244.465	70.56
244.699	89.56
244.932	74.56
245.166	81.56
245.399	78.56
245.633	84.56
245.866	87.56
246.099	81.56
246.333	84.56
246.566	86.56
246.8	83.56
247.033	93.56
247.266	93.56
247.5	73.56
247.733	82.56
247.966	80.56
248.2	79.56
248.433	75.56
248.666	79.56
248.899	74.56
249.133	77.56
249.366	92.56
249.599	90.56
249.832	75.56
250.066	74.56
250.299	87.56
250.532	88.56
250.765	89.56
250.998	82.56
251.231	86.56
251.465	64.56
251.698	76.56
251.931	75.56
252.164	91.56
252.397	67.56
252.63	84.56
252.863	89.56
253.096	88.56
253.329	72.56
253.562	81.56
253.795	80.56
254.028	80.56
254.261	88.56
254.494	74.56
254.727	86.56
254.96	75.56
255.193	69.56
255.426	77.56
255.659	76.56
255.892	86.56
256.124	90.56
256.357	90.56
256.59	86.56
256.823	78.56
257.056	99.56
257.289	83.56
257.521	84.56
257.754	65.56
257.987	88.56
258.22	79.56
258.452	82.56
258.685	75.56
258.918	78.56
259.151	79.56
259.383	94.56
259.616	88.56
259.849	94.56
260.081	78.56
260.314	89.56
260.547	81.56
260.779	74.56
261.012	90.56
261.244	82.56
261.477	97.56
261.71	103.56
261.942	111.56
262.175	118.56
262.407	104.56
262.64	75.56
262.872	77.56
263.105	80.56
263.337	88.56
263.57	76.56
263.802	91.56
264.035	80.56
264.267	84.56
264.499	81.56
264.732	81.56
264.964	90.56
265.197	90.56
265.429	93.56
265.661	67.56
265.894	80.56
266.126	89.56
266.358	73.56
266.591	90.56
266.823	72.56
267.055	94.56
267.287	98.56
267.52	81.56
267.752	79.56
267.984	84.56
268.216	92.56
268.448	94.56
268.681	93.56
268.913	87.56
269.145	94.56
269.377	100.56
269.609	82.56
269.841	81.56
270.073	81.56
270.306	74.56
270.538	86.56
270.77	91.56
271.002	81.56
271.234	90.56
271.466	102.56
271.698	82.56
271.93	87.56
272.162	79.56
272.394	95.56
272.626	86.56
272.858	87.56
273.09	82.56
273.322	75.56
273.553	91.56
273.785	78.56
274.017	85.56
274.249	87.56
274.481	94.56
274.713	85.56
274.945	92.56
275.176	85.56
275.408	94.56
275.64	104.56
275.872	110.56
276.104	98.56
276.335	97.56
276.567	102.56
276.799	127.56
277.031	129.56
277.262	132.56
277.494	102.56
277.726	84.56
277.957	90.56
278.189	90.56
278.421	82.56
278.652	85.56
278.884	91.56
279.115	78.56
279.347	97.56
279.579	87.56
279.81	93.56
280.042	124.56
280.273	149.56
280.505	132.56
280.736	101.56
280.968	78.56
281.199	86.56
281.431	92.56
281.662	90.56
281.894	96.56
282.125	97.56
282.356	124.56
282.588	156.56
282.819	124.56
283.051	114.56
283.282	93.56
283.513	85.56
283.745	86.56
283.976	87.56
284.207	101.56
284.439	91.56
284.67	75.56
284.901	93.56
285.132	99.56
285.364	94.56
285.595	84.56
285.826	82.56
286.057	95.56
286.288	91.56
286.52	95.56
286.751	79.56
286.982	83.56
287.213	84.56
287.444	94.56
287.675	101.56
287.906	93.56
288.138	86.56
288.369	96.56
288.6	97.56
288.831	90.56
289.062	85.56
289.293	84.56
289.524	78.56
289.755	90.56
289.986	98.56
290.217	93.56
290.448	85.56
290.679	94.56
290.91	98.56
291.141	75.56
291.371	79.56
291.602	102.56
291.833	93.56
292.064	92.56
292.295	87.56
292.526	92.56
292.757	90.56
292.987	78.56
293.218	74.56
293.449	95.56
293.68	76.56
293.91	82.56
294.141	83.56
294.372	82.56
294.603	91.56
294.833	82.56
295.064	82.56
295.295	91.56
295.525	91.56
295.756	107.56
295.987	127.56
296.217	158.56
296.448	153.56
296.679	97.56
296.909	77.56
297.14	93.56
297.37	80.56
297.601	98.56
297.831	79.56
298.062	87.56
298.292	89.56
298.523	95.56
298.753	90.56
298.984	89.56
299.214	92.56
299.445	89.56
299.675	101.56
299.905	104.56
300.136	83.56
300.366	95.56
300.597	87.56
300.827	90.56
301.057	102.56
301.288	103.56
301.518	94.56
301.748	95.56
301.979	105.56
302.209	99.56
302.439	94.56
302.669	100.56
302.9	93.56
303.13	106.56
303.36	98.56
303.59	105.56
303.82	108.56
304.051	108.56
304.281	94.56
304.511	106.56
304.741	92.56
304.971	99.56
305.201	81.56
305.431	86.56
305.661	90.56
305.891	92.56
306.121	98.56
306.352	106.56
306.582	105.56
306.812	99.56
307.042	107.56
307.272	105.56
307.502	133.56
307.731	113.56
307.961	101.56
308.191	88.56
308.421	94.56
308.651	87.56
308.881	97.56
309.111	92.56
309.341	98.56
309.571	98.56
309.8	91.56
310.03	85.56
310.26	85.56
310.49	116.56
310.72	88.56
310.949	102.56
311.179	98.56
311.409	95.56
311.639	93.56
311.868	99.56
312.098	99.56
312.328	102.56
312.557	110.56
312.787	103.56
313.017	97.56
313.246	98.56
313.476	99.56
313.706	90.56
313.935	97.56
314.165	81.56
314.394	117.56
314.624	93.56
314.853	121.56
315.083	107.56
315.312	91.56
315.542	87.56
315.771	103.56
316.001	105.56
316.23	91.56
316.46	103.56
316.689	72.56
316.919	94.56
317.148	106.56
317.377	98.56
317.607	93.56
317.836	96.56
318.065	97.56
318.295	96.56
318.524	99.56
318.753	92.56
318.983	89.56
319.212	106.56
319.441	105.56
319.67	108.56
319.9	89.56
320.129	91.56
320.358	106.56
320.587	87.56
320.816	90.56
321.046	102.56
321.275	97.56
321.504	75.56
321.733	103.56
321.962	95.56
322.191	103.56
322.42	130.56
322.649	127.56
322.878	121.56
323.108	118.56
323.337	119.56
323.566	141.56
323.795	164.56
324.024	216.56
324.253	420.56
324.482	901.56
324.71	1783.56
324.939	2381.56
325.168	882.56
325.397	275.56
325.626	164.56
325.855	140.56
326.084	148.56
326.313	146.56
326.542	149.56
326.77	241.56
326.999	470.56
327.228	963.56
327.457	1788.56
327.686	1433.56
327.914	439.56
328.143	321.56
328.372	354.56
328.6	231.56
328.829	146.56
329.058	170.56
329.287	146.56
329.515	153.56
329.744	156.56
329.972	237.56
330.201	439.56
330.43	635.56
330.658	349.56
330.887	219.56
331.115	165.56
331.344	119.56
331.572	105.56
331.801	116.56
332.03	119.56
332.258	116.56
332.486	88.56
332.715	103.56
332.943	96.56
333.172	112.56
333.4	109.56
333.629	126.56
333.857	172.56
334.085	238.56
334.314	415.56
334.542	778.56
334.771	764.56
334.999	250.56
335.227	133.56
335.455	101.56
335.684	116.56
335.912	100.56
336.14	114.56
336.369	98.56
336.597	111.56
336.825	109.56
337.053	85.56
337.281	94.56
337.51	78.56
337.738	83.56
337.966	74.56
338.194	96.56
338.422	101.56
338.65	101.56
338.878	93.56
339.106	96.56
339.334	101.56
339.562	93.56
339.79	97.56
340.018	98.56
340.246	114.56
340.474	106.56
340.702	104.56
340.93	100.56
341.158	98.56
341.386	100.56
341.614	115.56
341.842	98.56
342.07	95.56
342.298	102.56
342.526	99.56
342.754	79.56
342.981	95.56
343.209	91.56
343.437	93.56
343.665	113.56
343.893	94.56
344.12	95.56
344.348	100.56
344.576	97.56
344.804	99.56
345.031	95.56
345.259	110.56
345.487	106.56
345.714	99.56
345.942	93.56
346.17	91.56
346.397	108.56
346.625	90.56
346.853	90.56
347.08	95.56
347.308	100.56
347.535	99.56
347.763	113.56
347.99	106.56
348.218	99.56
348.445	105.56
348.673	117.56
348.9	99.56
349.128	85.56
349.355	79.56
349.583	100.56
349.81	96.56
350.037	105.56
350.265	84.56
350.492	84.56
350.72	84.56
350.947	113.56
351.174	115.56
351.402	125.56
351.629	108.56
351.856	94.56
352.083	110.56
352.311	116.56
352.538	118.56
352.765	115.56
352.992	100.56
353.22	104.56
353.447	123.56
353.674	111.56
353.901	102.56
354.128	95.56
354.355	81.56
354.583	101.56
354.81	105.56
355.037	117.56
355.264	96.56
355.491	92.56
355.718	98.56
355.945	100.56
356.172	83.56
356.399	97.56
356.626	89.56
356.853	94.56
357.08	75.56
357.307	100.56
357.534	94.56
357.761	103.56
357.988	94.56
358.215	101.56
358.441	84.56
358.668	96.56
358.895	103.56
359.122	93.56
359.349	94.56
359.576	87.56
359.802	104.56
360.029	115.56
360.256	115.56
360.483	105.56
360.709	85.56
360.936	84.56
361.163	91.56
361.39	97.56
361.616	100.56
361.843	86.56
362.07	104.56
362.296	100.56
362.523	78.56
362.749	95.56
362.976	84.56
363.203	88.56
363.429	86.56
363.656	80.56
363.882	87.56
364.109	89.56
364.335	92.56
364.562	93.56
364.788	102.56
365.015	88.56
365.241	111.56
365.468	100.56
365.694	104.56
365.92	100.56
366.147	102.56
366.373	83.56
366.599	93.56
366.826	103.56
367.052	89.56
367.278	81.56
367.505	104.56
367.731	98.56
367.957	100.56
368.184	91.56
368.41	110.56
368.636	117.56
368.862	115.56
369.089	109.56
369.315	81.56
369.541	84.56
369.767	124.56
369.993	88.56
370.219	94.56
370.445	78.56
370.672	101.56
370.898	91.56
371.124	91.56
371.35	88.56
371.576	89.56
371.802	86.56
372.028	92.56
372.254	78.56
372.48	94.56
372.706	90.56
372.932	92.56
373.158	105.56
373.384	86.56
373.61	97.56
373.835	99.56
374.061	87.56
374.287	100.56
374.513	97.56
374.739	85.56
374.965	86.56
375.191	83.56
375.416	79.56
375.642	84.56
375.868	87.56
376.094	89.56
376.319	91.56
376.545	88.56
376.771	90.56
376.997	92.56
377.222	97.56
377.448	77.56
377.674	99.56
377.899	94.56
378.125	88.56
378.35	98.56
378.576	91.56
378.802	97.56
379.027	99.56
379.253	98.56
379.478	80.56
379.704	94.56
379.929	94.56
380.155	83.56
380.38	82.56
380.606	83.56
380.831	102.56
381.057	95.56
381.282	89.56
381.507	90.56
381.733	90.56
381.958	96.56
382.184	100.56
382.409	107.56
382.634	99.56
382.86	106.56
383.085	91.56
383.31	95.56
383.535	102.56
383.761	95.56
383.986	102.56
384.211	105.56
384.436	92.56
384.662	94.56
384.887	100.56
385.112	100.56
385.337	109.56
385.562	99.56
385.787	94.56
386.013	114.56
386.238	114.56
386.463	113.56
386.688	107.56
386.913	113.56
387.138	117.56
387.363	111.56
387.588	101.56
387.813	97.56
388.038	98.56
388.263	131.56
388.488	107.56
388.713	86.56
388.938	92.56
389.163	82.56
389.387	78.56
389.612	90.56
389.837	88.56
390.062	94.56
390.287	95.56
390.512	90.56
390.736	87.56
390.961	92.56
391.186	94.56
391.411	88.56
391.636	100.56
391.86	84.56
392.085	84.56
392.31	91.56
392.534	103.56
392.759	92.56
392.984	82.56
393.208	84.56
393.433	99.56
393.658	81.56
393.882	74.56
394.107	89.56
394.331	84.56
394.556	83.56
394.78	81.56
395.005	91.56
395.229	95.56
395.454	85.56
395.678	78.56
395.903	89.56
396.127	91.56
396.352	86.56
396.576	92.56
396.801	117.56
397.025	89.56
397.249	86.56
397.474	90.56
397.698	97.56
397.922	90.56
398.147	85.56
398.371	90.56
398.595	85.56
398.82	99.56
399.044	83.56
399.268	94.56
399.492	86.56
399.717	74.56
399.941	76.56
400.165	98.56
400.389	83.56
400.613	85.56
400.837	92.56
401.062	95.56
401.286	90.56
401.51	107.56
401.734	91.56
401.958	122.56
402.182	153.56
402.406	194.56
402.63	144.56
402.854	84.56
403.078	87.56
403.302	87.56
403.526	93.56
403.75	97.56
403.974	115.56
404.198	100.56
404.422	86.56
404.645	93.56
404.869	90.56
405.093	98.56
405.317	122.56
405.541	126.56
405.765	109.56
405.988	108.56
406.212	203.56
406.436	273.56
406.66	170.56
406.883	116.56
407.107	93.56
407.331	95.56
407.555	108.56
407.778	106.56
408.002	80.56
408.226	81.56
408.449	87.56
408.673	77.56
408.896	97.56
409.12	108.56
409.344	95.56
409.567	91.56
409.791	92.56
410.014	86.56
410.238	91.56
410.461	87.56
410.685	95.56
410.908	101.56
411.132	91.56
411.355	82.56
411.578	89.56
411.802	83.56
412.025	101.56
412.249	97.56
412.472	107.56
412.695	111.56
412.919	93.56
413.142	85.56
413.365	99.56
413.589	97.56
413.812	92.56
414.035	85.56
414.258	93.56
414.482	88.56
414.705	84.56
414.928	92.56
415.151	94.56
415.374	81.56
415.597	93.56
415.821	94.56
416.044	79.56
416.267	91.56
416.49	99.56
416.713	89.56
416.936	88.56
417.159	95.56
417.382	87.56
417.605	105.56
417.828	106.56
418.051	85.56
418.274	58.56
418.497	89.56
418.72	91.56
418.943	84.56
419.166	71.56
419.389	93.56
419.611	88.56
419.834	84.56
420.057	98.56
420.28	92.56
420.503	65.56
420.726	89.56
420.948	85.56
421.171	80.56
421.394	94.56
421.617	91.56
421.839	93.56
422.062	107.56
422.285	110.56
422.507	92.56
422.73	104.56
422.953	102.56
423.175	88.56
423.398	89.56
423.621	90.56
423.843	83.56
424.066	95.56
424.288	89.56
424.511	93.56
424.733	96.56
424.956	106.56
425.178	90.56
425.401	102.56
425.623	97.56
425.846	94.56
426.068	83.56
426.291	117.56
426.513	97.56
426.735	97.56
426.958	94.56
427.18	102.56
427.402	148.56
427.625	202.56
427.847	185.56
428.069	160.56
428.292	113.56
428.514	93.56
428.736	94.56
428.958	88.56
429.181	80.56
429.403	88.56
429.625	87.56
429.847	93.56
430.069	92.56
430.292	94.56
430.514	91.56
430.736	85.56
430.958	82.56
431.18	86.56
431.402	77.56
431.624	85.56
431.846	81.56
432.068	88.56
432.29	86.56
432.512	87.56
432.734	94.56
432.956	97.56
433.178	87.56
433.4	96.56
433.622	90.56
433.844	87.56
434.066	97.56
434.287	96.56
434.509	103.56
434.731	89.56
434.953	78.56
435.175	90.56
435.397	86.56
435.618	106.56
435.84	113.56
436.062	117.56
436.284	133.56
436.505	113.56
436.727	94.56
436.949	90.56
437.17	86.56
437.392	84.56
437.614	87.56
437.835	111.56
438.057	130.56
438.278	126.56
438.5	100.56
438.721	125.56
438.943	113.56
439.165	99.56
439.386	99.56
439.608	91.56
439.829	102.56
440.05	127.56
440.272	153.56
440.493	119.56
440.715	98.56
440.936	89.56
441.158	99.56
441.379	89.56
441.6	84.56
441.822	94.56
442.043	93.56
442.264	120.56
442.486	115.56
442.707	82.56
442.928	100.56
443.149	150.56
443.371	155.56
443.592	136.56
443.813	116.56
444.034	113.56
444.255	99.56
444.476	87.56
444.698	96.56
444.919	92.56
445.14	141.56
445.361	135.56
445.582	123.56
445.803	155.56
446.024	143.56
446.245	143.56
446.466	125.56
446.687	86.56
446.908	86.56
447.129	84.56
447.35	72.56
447.571	102.56
447.792	94.56
448.013	98.56
448.234	121.56
448.455	97.56
448.675	116.56
448.896	127.56
449.117	106.56
449.338	89.56
449.559	114.56
449.779	145.56
450	100.56
450.221	92.56
450.442	90.56
450.662	110.56
450.883	103.56
451.104	126.56
451.324	99.56
451.545	97.56
451.766	87.56
451.986	94.56
452.207	92.56
452.428	96.56
452.648	102.56
452.869	115.56
453.089	125.56
453.31	136.56
453.53	101.56
453.751	93.56
453.971	97.56
454.192	131.56
454.412	108.56
454.633	81.56
454.853	86.56
455.073	80.56
455.294	88.56
455.514	106.56
455.734	97.56
455.955	76.56
456.175	83.56
456.395	90.56
456.616	77.56
456.836	96.56
457.056	86.56
457.276	91.56
457.497	84.56
457.717	93.56
457.937	91.56
458.157	89.56
458.377	101.56
458.598	124.56
458.818	180.56
459.038	196.56
459.258	144.56
459.478	85.56
459.698	81.56
459.918	76.56
460.138	85.56
460.358	84.56
460.578	91.56
460.798	86.56
461.018	90.56
461.238	78.56
461.458	89.56
461.678	78.56
461.898	89.56
462.118	81.56
462.338	79.56
462.558	80.56
462.777	91.56
462.997	87.56
463.217	84.56
463.437	97.56
463.657	90.56
463.876	89.56
464.096	93.56
464.316	105.56
464.536	106.56
464.755	97.56
464.975	120.56
465.195	196.56
465.414	204.56
465.634	114.56
465.854	95.56
466.073	97.56
466.293	70.56
466.512	86.56
466.732	99.56
466.951	93.56
467.171	94.56
467.391	118.56
467.61	114.56
467.829	153.56
468.049	252.56
468.268	385.56
468.488	138.56
468.707	90.56
468.927	92.56
469.146	89.56
469.365	68.56
469.585	104.56
469.804	98.56
470.023	106.56
470.243	98.56
470.462	115.56
470.681	124.56
470.901	84.56
471.12	96.56
471.339	73.56
471.558	108.56
471.777	105.56
471.997	164.56
472.216	464.56
472.435	1052.56
472.654	318.56
472.873	114.56
473.092	93.56
473.311	87.56
473.53	74.56
473.749	93.56
473.968	103.56
474.187	104.56
474.406	101.56
474.625	86.56
474.844	76.56
475.063	87.56
475.282	80.56
475.501	94.56
475.72	100.56
475.939	94.56
476.158	93.56
476.377	104.56
476.596	82.56
476.814	84.56
477.033	89.56
477.252	89.56
477.471	100.56
477.69	105.56
477.908	91.56
478.127	91.56
478.346	92.56
478.564	98.56
478.783	107.56
479.002	99.56
479.22	103.56
479.439	117.56
479.658	117.56
479.876	96.56
480.095	106.56
480.313	121.56
480.532	117.56
480.751	182.56
480.969	439.56
481.188	1709.56
481.406	1129.56
481.624	216.56
481.843	128.56
482.061	106.56
482.28	90.56
482.498	92.56
482.717	90.56
482.935	86.56
483.153	90.56
483.372	81.56
483.59	96.56
483.808	81.56
484.027	91.56
484.245	71.56
484.463	87.56
484.681	94.56
484.9	92.56
485.118	83.56
485.336	81.56
485.554	98.56
485.772	102.56
485.99	94.56
486.209	93.56
486.427	84.56
486.645	123.56
486.863	107.56
487.081	117.56
487.299	103.56
487.517	110.56
487.735	105.56
487.953	88.56
488.171	96.56
488.389	93.56
488.607	105.56
488.825	98.56
489.043	96.56
489.261	102.56
489.479	91.56
489.696	91.56
489.914	88.56
490.132	89.56
490.35	96.56
490.568	75.56
490.786	95.56
491.003	94.56
491.221	93.56
491.439	95.56
491.657	89.56
491.874	88.56
492.092	91.56
492.31	88.56
492.527	98.56
492.745	90.56
492.963	93.56
493.18	83.56
493.398	98.56
493.615	108.56
493.833	83.56
494.05	80.56
494.268	84.56
494.485	92.56
494.703	89.56
494.92	97.56
495.138	81.56
495.355	86.56
495.573	91.56
495.79	99.56
496.008	82.56
496.225	75.56
496.442	74.56
496.66	84.56
496.877	85.56
497.094	108.56
497.312	78.56
497.529	100.56
497.746	80.56
497.963	88.56
498.181	81.56
498.398	88.56
498.615	130.56
498.832	117.56
499.049	79.56
499.267	87.56
499.484	95.56
499.701	81.56
499.918	84.56
500.135	101.56
500.352	98.56
500.569	100.56
500.786	90.56
501.003	96.56
501.22	92.56
501.437	85.56
501.654	93.56
501.871	115.56
502.088	94.56
502.305	93.56
502.522	93.56
502.739	87.56
502.956	83.56
503.172	91.56
503.389	89.56
503.606	123.56
503.823	104.56
504.04	99.56
504.256	89.56
504.473	94.56
504.69	97.56
504.907	91.56
505.123	79.56
505.34	81.56
505.557	86.56
505.773	98.56
505.99	103.56
506.207	89.56
506.423	79.56
506.64	99.56
506.856	86.56
507.073	95.56
507.289	93.56
507.506	87.56
507.722	128.56
507.939	133.56
508.155	118.56
508.372	95.56
508.588	87.56
508.805	96.56
509.021	99.56
509.238	97.56
509.454	82.56
509.67	107.56
509.887	120.56
510.103	137.56
510.319	231.56
510.536	846.56
510.752	2951.56
510.968	851.56
511.184	181.56
511.401	118.56
511.617	113.56
511.833	89.56
512.049	103.56
512.265	94.56
512.481	91.56
512.698	76.56
512.914	105.56
513.13	89.56
513.346	100.56
513.562	103.56
513.778	104.56
513.994	111.56
514.21	106.56
514.426	149.56
