Data from Circ_2013_H10_HRD10591_00067.txt Node
Date: Wed Jan 03 10:04:13 EST 2024
User: Yrep
Spectrometer: HR+D1059
Trigger mode: 1
Integration Time (sec): 1.000000E-1
Scans to average: 1
Electric dark correction enabled: true
Nonlinearity correction enabled: false
Boxcar width: 0
XAxis mode: Wavelengths
Number of Pixels in Spectrum: 2048
>>>>>Begin Spectral Data<<<<<
223.165	-6.69
223.4	-6.69
223.635	-6.69
223.869	-12.69
224.104	-21.69
224.338	-12.69
224.573	-3.69
224.808	-18.69
225.042	-2.69
225.277	-18.69
225.511	-1.69
225.746	10.31
225.98	-1.69
226.215	17.31
226.449	10.31
226.683	25.31
226.918	18.31
227.152	19.31
227.387	31.31
227.621	36.31
227.856	43.31
228.09	38.31
228.324	41.31
228.559	62.31
228.793	57.31
229.027	73.31
229.262	57.31
229.496	79.31
229.73	105.31
229.964	93.31
230.199	81.31
230.433	73.31
230.667	74.31
230.901	74.31
231.136	71.31
231.37	76.31
231.604	75.31
231.838	90.31
232.072	95.31
232.306	94.31
232.541	80.31
232.775	89.31
233.009	85.31
233.243	75.31
233.477	86.31
233.711	74.31
233.945	83.31
234.179	70.31
234.413	90.31
234.647	66.31
234.881	72.31
235.115	77.31
235.349	89.31
235.583	84.31
235.817	76.31
236.051	89.31
236.285	74.31
236.519	74.31
236.753	82.31
236.987	77.31
237.221	76.31
237.455	95.31
237.689	71.31
237.922	66.31
238.156	71.31
238.39	69.31
238.624	74.31
238.858	72.31
239.091	75.31
239.325	75.31
239.559	92.31
239.793	86.31
240.027	69.31
240.26	71.31
240.494	82.31
240.728	72.31
240.961	84.31
241.195	68.31
241.429	79.31
241.662	89.31
241.896	76.31
242.13	80.31
242.363	87.31
242.597	66.31
242.83	78.31
243.064	86.31
243.298	83.31
243.531	88.31
243.765	91.31
243.998	82.31
244.232	81.31
244.465	85.31
244.699	72.31
244.932	61.31
245.166	77.31
245.399	73.31
245.633	62.31
245.866	78.31
246.099	92.31
246.333	61.31
246.566	84.31
246.8	79.31
247.033	86.31
247.266	73.31
247.5	77.31
247.733	67.31
247.966	86.31
248.2	85.31
248.433	81.31
248.666	79.31
248.899	89.31
249.133	77.31
249.366	103.31
249.599	104.31
249.832	85.31
250.066	79.31
250.299	101.31
250.532	88.31
250.765	89.31
250.998	78.31
251.231	74.31
251.465	92.31
251.698	77.31
251.931	74.31
252.164	77.31
252.397	76.31
252.63	89.31
252.863	72.31
253.096	71.31
253.329	86.31
253.562	68.31
253.795	81.31
254.028	94.31
254.261	81.31
254.494	79.31
254.727	79.31
254.96	96.31
255.193	92.31
255.426	80.31
255.659	86.31
255.892	83.31
256.124	98.31
256.357	81.31
256.59	84.31
256.823	73.31
257.056	81.31
257.289	73.31
257.521	84.31
257.754	81.31
257.987	73.31
258.22	92.31
258.452	82.31
258.685	79.31
258.918	84.31
259.151	94.31
259.383	77.31
259.616	82.31
259.849	82.31
260.081	85.31
260.314	85.31
260.547	90.31
260.779	100.31
261.012	100.31
261.244	109.31
261.477	85.31
261.71	108.31
261.942	125.31
262.175	127.31
262.407	108.31
262.64	72.31
262.872	94.31
263.105	87.31
263.337	81.31
263.57	93.31
263.802	80.31
264.035	99.31
264.267	86.31
264.499	78.31
264.732	78.31
264.964	72.31
265.197	77.31
265.429	81.31
265.661	92.31
265.894	96.31
266.126	91.31
266.358	79.31
266.591	88.31
266.823	81.31
267.055	76.31
267.287	95.31
267.52	84.31
267.752	89.31
267.984	81.31
268.216	93.31
268.448	73.31
268.681	79.31
268.913	84.31
269.145	75.31
269.377	91.31
269.609	76.31
269.841	83.31
270.073	86.31
270.306	86.31
270.538	75.31
270.77	90.31
271.002	89.31
271.234	78.31
271.466	88.31
271.698	101.31
271.93	109.31
272.162	91.31
272.394	96.31
272.626	85.31
272.858	68.31
273.09	83.31
273.322	82.31
273.553	92.31
273.785	93.31
274.017	91.31
274.249	83.31
274.481	93.31
274.713	84.31
274.945	82.31
275.176	75.31
275.408	87.31
275.64	103.31
275.872	103.31
276.104	114.31
276.335	104.31
276.567	96.31
276.799	129.31
277.031	140.31
277.262	130.31
277.494	129.31
277.726	90.31
277.957	96.31
278.189	81.31
278.421	90.31
278.652	90.31
278.884	94.31
279.115	91.31
279.347	84.31
279.579	92.31
279.81	108.31
280.042	146.31
280.273	182.31
280.505	151.31
280.736	98.31
280.968	89.31
281.199	77.31
281.431	81.31
281.662	86.31
281.894	90.31
282.125	101.31
282.356	120.31
282.588	169.31
282.819	123.31
283.051	96.31
283.282	83.31
283.513	79.31
283.745	89.31
283.976	100.31
284.207	91.31
284.439	84.31
284.67	86.31
284.901	78.31
285.132	90.31
285.364	79.31
285.595	81.31
285.826	98.31
286.057	92.31
286.288	91.31
286.52	90.31
286.751	87.31
286.982	84.31
287.213	78.31
287.444	85.31
287.675	102.31
287.906	88.31
288.138	83.31
288.369	100.31
288.6	91.31
288.831	91.31
289.062	90.31
289.293	89.31
289.524	78.31
289.755	85.31
289.986	86.31
290.217	92.31
290.448	87.31
290.679	85.31
290.91	93.31
291.141	85.31
291.371	90.31
291.602	86.31
291.833	87.31
292.064	82.31
292.295	83.31
292.526	92.31
292.757	75.31
292.987	85.31
293.218	87.31
293.449	89.31
293.68	89.31
293.91	80.31
294.141	94.31
294.372	89.31
294.603	75.31
294.833	95.31
295.064	86.31
295.295	81.31
295.525	84.31
295.756	97.31
295.987	118.31
296.217	173.31
296.448	137.31
296.679	102.31
296.909	85.31
297.14	79.31
297.37	90.31
297.601	96.31
297.831	94.31
298.062	93.31
298.292	92.31
298.523	94.31
298.753	79.31
298.984	92.31
299.214	87.31
299.445	90.31
299.675	88.31
299.905	86.31
300.136	92.31
300.366	84.31
300.597	79.31
300.827	105.31
301.057	90.31
301.288	107.31
301.518	93.31
301.748	81.31
301.979	108.31
302.209	104.31
302.439	99.31
302.669	103.31
302.9	76.31
303.13	94.31
303.36	110.31
303.59	130.31
303.82	110.31
304.051	108.31
304.281	82.31
304.511	103.31
304.741	79.31
304.971	94.31
305.201	99.31
305.431	89.31
305.661	91.31
305.891	88.31
306.121	107.31
306.352	95.31
306.582	91.31
306.812	85.31
307.042	93.31
307.272	131.31
307.502	137.31
307.731	126.31
307.961	106.31
308.191	89.31
308.421	98.31
308.651	106.31
308.881	99.31
309.111	102.31
309.341	109.31
309.571	100.31
309.8	105.31
310.03	113.31
310.26	99.31
310.49	90.31
310.72	117.31
310.949	109.31
311.179	99.31
311.409	92.31
311.639	104.31
311.868	116.31
312.098	107.31
312.328	86.31
312.557	98.31
312.787	113.31
313.017	108.31
313.246	94.31
313.476	90.31
313.706	85.31
313.935	112.31
314.165	97.31
314.394	115.31
314.624	107.31
314.853	97.31
315.083	98.31
315.312	93.31
315.542	85.31
315.771	99.31
316.001	95.31
316.23	94.31
316.46	85.31
316.689	99.31
316.919	94.31
317.148	106.31
317.377	103.31
317.607	95.31
317.836	95.31
318.065	104.31
318.295	87.31
318.524	101.31
318.753	90.31
318.983	90.31
319.212	105.31
319.441	102.31
319.67	116.31
319.9	95.31
320.129	99.31
320.358	102.31
320.587	92.31
320.816	109.31
321.046	114.31
321.275	97.31
321.504	96.31
321.733	97.31
321.962	85.31
322.191	109.31
322.42	105.31
322.649	111.31
322.878	118.31
323.108	138.31
323.337	142.31
323.566	134.31
323.795	173.31
324.024	230.31
324.253	469.31
324.482	1001.31
324.71	2042.31
324.939	2716.31
325.168	1015.31
325.397	282.31
325.626	163.31
325.855	143.31
326.084	126.31
326.313	138.31
326.542	158.31
326.77	264.31
326.999	547.31
327.228	1087.31
327.457	2007.31
327.686	1572.31
327.914	492.31
328.143	386.31
328.372	473.31
328.6	259.31
328.829	163.31
329.058	175.31
329.287	181.31
329.515	158.31
329.744	200.31
329.972	342.31
330.201	641.31
330.43	931.31
330.658	453.31
330.887	246.31
331.115	161.31
331.344	133.31
331.572	118.31
331.801	121.31
332.03	121.31
332.258	93.31
332.486	90.31
332.715	106.31
332.943	108.31
333.172	111.31
333.4	128.31
333.629	147.31
333.857	192.31
334.085	315.31
334.314	642.31
334.542	1171.31
334.771	1142.31
334.999	323.31
335.227	153.31
335.455	110.31
335.684	108.31
335.912	112.31
336.14	101.31
336.369	109.31
336.597	98.31
336.825	113.31
337.053	98.31
337.281	106.31
337.51	93.31
337.738	98.31
337.966	86.31
338.194	97.31
338.422	102.31
338.65	94.31
338.878	101.31
339.106	93.31
339.334	90.31
339.562	90.31
339.79	104.31
340.018	97.31
340.246	103.31
340.474	108.31
340.702	83.31
340.93	102.31
341.158	87.31
341.386	110.31
341.614	104.31
341.842	91.31
342.07	84.31
342.298	98.31
342.526	79.31
342.754	87.31
342.981	83.31
343.209	85.31
343.437	97.31
343.665	76.31
343.893	89.31
344.12	83.31
344.348	86.31
344.576	99.31
344.804	95.31
345.031	104.31
345.259	96.31
345.487	103.31
345.714	108.31
345.942	102.31
346.17	93.31
346.397	89.31
346.625	96.31
346.853	100.31
347.08	101.31
347.308	105.31
347.535	99.31
347.763	92.31
347.99	102.31
348.218	108.31
348.445	121.31
348.673	105.31
348.9	103.31
349.128	102.31
349.355	92.31
349.583	84.31
349.81	92.31
350.037	94.31
350.265	101.31
350.492	89.31
350.72	95.31
350.947	102.31
351.174	109.31
351.402	109.31
351.629	106.31
351.856	95.31
352.083	110.31
352.311	114.31
352.538	113.31
352.765	120.31
352.992	132.31
353.22	110.31
353.447	114.31
353.674	108.31
353.901	104.31
354.128	91.31
354.355	103.31
354.583	96.31
354.81	95.31
355.037	107.31
355.264	102.31
355.491	97.31
355.718	94.31
355.945	97.31
356.172	92.31
356.399	93.31
356.626	107.31
356.853	99.31
357.08	78.31
357.307	85.31
357.534	97.31
357.761	108.31
357.988	92.31
358.215	98.31
358.441	86.31
358.668	94.31
358.895	101.31
359.122	97.31
359.349	84.31
359.576	97.31
359.802	110.31
360.029	136.31
360.256	116.31
360.483	96.31
360.709	94.31
360.936	97.31
361.163	94.31
361.39	120.31
361.616	93.31
361.843	89.31
362.07	86.31
362.296	99.31
362.523	98.31
362.749	95.31
362.976	94.31
363.203	80.31
363.429	93.31
363.656	75.31
363.882	91.31
364.109	91.31
364.335	93.31
364.562	94.31
364.788	84.31
365.015	89.31
365.241	107.31
365.468	106.31
365.694	107.31
365.92	91.31
366.147	92.31
366.373	77.31
366.599	100.31
366.826	87.31
367.052	90.31
367.278	89.31
367.505	97.31
367.731	97.31
367.957	99.31
368.184	92.31
368.41	96.31
368.636	129.31
368.862	106.31
369.089	122.31
369.315	87.31
369.541	88.31
369.767	88.31
369.993	104.31
370.219	92.31
370.445	93.31
370.672	91.31
370.898	92.31
371.124	82.31
371.35	98.31
371.576	90.31
371.802	84.31
372.028	81.31
372.254	81.31
372.48	74.31
372.706	94.31
372.932	95.31
373.158	85.31
373.384	85.31
373.61	99.31
373.835	89.31
374.061	94.31
374.287	82.31
374.513	95.31
374.739	93.31
374.965	85.31
375.191	98.31
375.416	88.31
375.642	87.31
375.868	93.31
376.094	96.31
376.319	81.31
376.545	91.31
376.771	86.31
376.997	100.31
377.222	94.31
377.448	102.31
377.674	86.31
377.899	88.31
378.125	93.31
378.35	89.31
378.576	90.31
378.802	94.31
379.027	93.31
379.253	103.31
379.478	95.31
379.704	82.31
379.929	74.31
380.155	93.31
380.38	100.31
380.606	85.31
380.831	95.31
381.057	94.31
381.282	93.31
381.507	101.31
381.733	91.31
381.958	90.31
382.184	103.31
382.409	85.31
382.634	104.31
382.86	86.31
383.085	105.31
383.31	95.31
383.535	102.31
383.761	89.31
383.986	95.31
384.211	102.31
384.436	86.31
384.662	106.31
384.887	101.31
385.112	103.31
385.337	96.31
385.562	117.31
385.787	105.31
386.013	109.31
386.238	118.31
386.463	98.31
386.688	107.31
386.913	95.31
387.138	102.31
387.363	103.31
387.588	110.31
387.813	93.31
388.038	102.31
388.263	96.31
388.488	105.31
388.713	107.31
388.938	104.31
389.163	97.31
389.387	95.31
389.612	83.31
389.837	86.31
390.062	89.31
390.287	90.31
390.512	93.31
390.736	87.31
390.961	94.31
391.186	98.31
391.411	89.31
391.636	90.31
391.86	73.31
392.085	89.31
392.31	88.31
392.534	86.31
392.759	91.31
392.984	84.31
393.208	86.31
393.433	90.31
393.658	87.31
393.882	92.31
394.107	92.31
394.331	73.31
394.556	73.31
394.78	93.31
395.005	89.31
395.229	86.31
395.454	86.31
395.678	85.31
395.903	91.31
396.127	75.31
396.352	87.31
396.576	88.31
396.801	78.31
397.025	85.31
397.249	81.31
397.474	91.31
397.698	95.31
397.922	77.31
398.147	84.31
398.371	77.31
398.595	84.31
398.82	94.31
399.044	89.31
399.268	85.31
399.492	99.31
399.717	99.31
399.941	84.31
400.165	106.31
400.389	98.31
400.613	84.31
400.837	93.31
401.062	86.31
401.286	88.31
401.51	81.31
401.734	96.31
401.958	89.31
402.182	140.31
402.406	189.31
402.63	149.31
402.854	94.31
403.078	74.31
403.302	76.31
403.526	87.31
403.75	98.31
403.974	87.31
404.198	98.31
404.422	93.31
404.645	103.31
404.869	99.31
405.093	115.31
405.317	120.31
405.541	126.31
405.765	101.31
405.988	140.31
406.212	210.31
406.436	294.31
406.66	187.31
406.883	111.31
407.107	103.31
407.331	104.31
407.555	110.31
407.778	95.31
408.002	76.31
408.226	89.31
408.449	89.31
408.673	92.31
408.896	96.31
409.12	99.31
409.344	86.31
409.567	87.31
409.791	90.31
410.014	92.31
410.238	94.31
410.461	102.31
410.685	100.31
410.908	83.31
411.132	109.31
411.355	98.31
411.578	92.31
411.802	86.31
412.025	100.31
412.249	102.31
412.472	106.31
412.695	150.31
412.919	107.31
413.142	87.31
413.365	86.31
413.589	90.31
413.812	76.31
414.035	97.31
414.258	93.31
414.482	94.31
414.705	106.31
414.928	88.31
415.151	85.31
415.374	86.31
415.597	78.31
415.821	80.31
416.044	87.31
416.267	85.31
416.49	109.31
416.713	80.31
416.936	89.31
417.159	76.31
417.382	96.31
417.605	103.31
417.828	102.31
418.051	101.31
418.274	98.31
418.497	95.31
418.72	82.31
418.943	84.31
419.166	87.31
419.389	92.31
419.611	97.31
419.834	97.31
420.057	87.31
420.28	92.31
420.503	96.31
420.726	102.31
420.948	79.31
421.171	96.31
421.394	92.31
421.617	92.31
421.839	104.31
422.062	83.31
422.285	89.31
422.507	92.31
422.73	100.31
422.953	91.31
423.175	85.31
423.398	87.31
423.621	83.31
423.843	92.31
424.066	78.31
424.288	85.31
424.511	101.31
424.733	96.31
424.956	120.31
425.178	99.31
425.401	116.31
425.623	109.31
425.846	103.31
426.068	104.31
426.291	94.31
426.513	90.31
426.735	87.31
426.958	96.31
427.18	102.31
427.402	162.31
427.625	230.31
427.847	216.31
428.069	197.31
428.292	123.31
428.514	101.31
428.736	90.31
428.958	83.31
429.181	92.31
429.403	89.31
429.625	76.31
429.847	100.31
430.069	120.31
430.292	102.31
430.514	79.31
430.736	87.31
430.958	77.31
431.18	96.31
431.402	81.31
431.624	98.31
431.846	88.31
432.068	78.31
432.29	90.31
432.512	89.31
432.734	86.31
432.956	90.31
433.178	87.31
433.4	103.31
433.622	99.31
433.844	91.31
434.066	91.31
434.287	79.31
434.509	94.31
434.731	87.31
434.953	97.31
435.175	90.31
435.397	82.31
435.618	125.31
435.84	104.31
436.062	137.31
436.284	121.31
436.505	127.31
436.727	112.31
436.949	90.31
437.17	90.31
437.392	93.31
437.614	98.31
437.835	125.31
438.057	139.31
438.278	133.31
438.5	109.31
438.721	138.31
438.943	115.31
439.165	111.31
439.386	92.31
439.608	102.31
439.829	108.31
440.05	145.31
440.272	174.31
440.493	102.31
440.715	96.31
440.936	74.31
441.158	84.31
441.379	83.31
441.6	83.31
441.822	100.31
442.043	104.31
442.264	118.31
442.486	111.31
442.707	89.31
442.928	121.31
443.149	157.31
443.371	161.31
443.592	133.31
443.813	129.31
444.034	125.31
444.255	96.31
444.476	81.31
444.698	91.31
444.919	82.31
445.14	138.31
445.361	132.31
445.582	122.31
445.803	163.31
446.024	166.31
446.245	169.31
446.466	121.31
446.687	76.31
446.908	104.31
447.129	99.31
447.35	100.31
447.571	94.31
447.792	113.31
448.013	100.31
448.234	123.31
448.455	99.31
448.675	129.31
448.896	119.31
449.117	107.31
449.338	111.31
449.559	156.31
449.779	151.31
450	100.31
450.221	76.31
450.442	97.31
450.662	110.31
450.883	129.31
451.104	123.31
451.324	102.31
451.545	90.31
451.766	91.31
451.986	103.31
452.207	86.31
452.428	95.31
452.648	108.31
452.869	118.31
453.089	133.31
453.31	130.31
453.53	103.31
453.751	91.31
453.971	113.31
454.192	114.31
454.412	92.31
454.633	96.31
454.853	81.31
455.073	105.31
455.294	70.31
455.514	95.31
455.734	94.31
455.955	86.31
456.175	89.31
456.395	86.31
456.616	76.31
456.836	78.31
457.056	79.31
457.276	93.31
457.497	76.31
457.717	99.31
457.937	87.31
458.157	83.31
458.377	94.31
458.598	133.31
458.818	177.31
459.038	219.31
459.258	131.31
459.478	98.31
459.698	78.31
459.918	76.31
460.138	75.31
460.358	83.31
460.578	89.31
460.798	74.31
461.018	93.31
461.238	79.31
461.458	78.31
461.678	87.31
461.898	91.31
462.118	98.31
462.338	86.31
462.558	88.31
462.777	77.31
462.997	93.31
463.217	104.31
463.437	102.31
463.657	87.31
463.876	94.31
464.096	93.31
464.316	85.31
464.536	95.31
464.755	84.31
464.975	97.31
465.195	203.31
465.414	217.31
465.634	107.31
465.854	94.31
466.073	72.31
466.293	87.31
466.512	78.31
466.732	79.31
466.951	88.31
467.171	99.31
467.391	96.31
467.61	124.31
467.829	178.31
468.049	362.31
468.268	529.31
468.488	173.31
468.707	98.31
468.927	73.31
469.146	81.31
469.365	105.31
469.585	99.31
469.804	114.31
470.023	95.31
470.243	89.31
470.462	93.31
470.681	129.31
470.901	102.31
471.12	108.31
471.339	101.31
471.558	110.31
471.777	120.31
471.997	207.31
472.216	679.31
472.435	1544.31
472.654	417.31
472.873	137.31
473.092	95.31
473.311	114.31
473.53	98.31
473.749	94.31
473.968	102.31
474.187	127.31
474.406	115.31
474.625	84.31
474.844	89.31
475.063	85.31
475.282	78.31
475.501	96.31
475.72	106.31
475.939	87.31
476.158	74.31
476.377	88.31
476.596	93.31
476.814	94.31
477.033	83.31
477.252	91.31
477.471	100.31
477.69	91.31
477.908	99.31
478.127	88.31
478.346	102.31
478.564	92.31
478.783	100.31
479.002	107.31
479.22	98.31
479.439	115.31
479.658	114.31
479.876	111.31
480.095	103.31
480.313	121.31
480.532	139.31
480.751	219.31
480.969	649.31
481.188	2583.31
481.406	1613.31
481.624	269.31
481.843	116.31
482.061	91.31
482.28	87.31
482.498	100.31
482.717	92.31
482.935	92.31
483.153	86.31
483.372	99.31
483.59	98.31
483.808	92.31
484.027	100.31
484.245	102.31
484.463	93.31
484.681	90.31
484.9	94.31
485.118	104.31
485.336	98.31
485.554	89.31
485.772	87.31
485.99	92.31
486.209	99.31
486.427	114.31
486.645	119.31
486.863	128.31
487.081	99.31
487.299	87.31
487.517	76.31
487.735	93.31
487.953	94.31
488.171	93.31
488.389	106.31
488.607	96.31
488.825	83.31
489.043	87.31
489.261	96.31
489.479	91.31
489.696	78.31
489.914	95.31
490.132	90.31
490.35	85.31
490.568	96.31
490.786	100.31
491.003	95.31
491.221	87.31
491.439	106.31
491.657	91.31
491.874	96.31
492.092	98.31
492.31	82.31
492.527	97.31
492.745	110.31
492.963	81.31
493.18	97.31
493.398	108.31
493.615	85.31
493.833	91.31
494.05	114.31
494.268	95.31
494.485	95.31
494.703	84.31
494.92	78.31
495.138	80.31
495.355	77.31
495.573	86.31
495.79	92.31
496.008	86.31
496.225	79.31
496.442	89.31
496.66	99.31
496.877	89.31
497.094	90.31
497.312	93.31
497.529	88.31
497.746	85.31
497.963	98.31
498.181	85.31
498.398	96.31
498.615	119.31
498.832	100.31
499.049	100.31
499.267	93.31
499.484	100.31
499.701	90.31
499.918	93.31
500.135	87.31
500.352	82.31
500.569	91.31
500.786	96.31
501.003	77.31
501.22	99.31
501.437	87.31
501.654	94.31
501.871	111.31
502.088	108.31
502.305	92.31
502.522	107.31
502.739	94.31
502.956	89.31
503.172	92.31
503.389	118.31
503.606	118.31
503.823	88.31
504.04	78.31
504.256	93.31
504.473	93.31
504.69	92.31
504.907	89.31
505.123	103.31
505.34	106.31
505.557	82.31
505.773	84.31
505.99	82.31
506.207	84.31
506.423	80.31
506.64	73.31
506.856	88.31
507.073	98.31
507.289	89.31
507.506	102.31
507.722	117.31
507.939	121.31
508.155	100.31
508.372	113.31
508.588	96.31
508.805	109.31
509.021	95.31
509.238	104.31
509.454	103.31
509.67	94.31
509.887	95.31
510.103	136.31
510.319	220.31
510.536	805.31
510.752	2736.31
510.968	794.31
511.184	172.31
511.401	120.31
511.617	102.31
511.833	118.31
512.049	103.31
512.265	87.31
512.481	102.31
512.698	92.31
512.914	107.31
513.13	98.31
513.346	87.31
513.562	95.31
513.778	105.31
513.994	102.31
