Data from Circ_2013_H10_HRD10591_00097.txt Node
Date: Wed Jan 03 10:04:19 EST 2024
User: Yrep
Spectrometer: HR+D1059
Trigger mode: 1
Integration Time (sec): 1.000000E-1
Scans to average: 1
Electric dark correction enabled: true
Nonlinearity correction enabled: false
Boxcar width: 0
XAxis mode: Wavelengths
Number of Pixels in Spectrum: 2048
>>>>>Begin Spectral Data<<<<<
223.165	-31.5
223.4	-31.5
223.635	-31.5
223.869	-20.5
224.104	-7.5
224.338	-19.5
224.573	-10.5
224.808	-10.5
225.042	-16.5
225.277	9.5
225.511	-1.5
225.746	8.5
225.98	0.5
226.215	19.5
226.449	15.5
226.683	15.5
226.918	24.5
227.152	24.5
227.387	35.5
227.621	28.5
227.856	33.5
228.09	32.5
228.324	54.5
228.559	62.5
228.793	72.5
229.027	78.5
229.262	61.5
229.496	75.5
229.73	87.5
229.964	103.5
230.199	93.5
230.433	84.5
230.667	83.5
230.901	81.5
231.136	85.5
231.37	74.5
231.604	59.5
231.838	83.5
232.072	76.5
232.306	72.5
232.541	81.5
232.775	68.5
233.009	81.5
233.243	78.5
233.477	86.5
233.711	75.5
233.945	86.5
234.179	75.5
234.413	78.5
234.647	75.5
234.881	90.5
235.115	65.5
235.349	74.5
235.583	65.5
235.817	77.5
236.051	72.5
236.285	81.5
236.519	78.5
236.753	74.5
236.987	69.5
237.221	90.5
237.455	95.5
237.689	89.5
237.922	78.5
238.156	76.5
238.39	73.5
238.624	85.5
238.858	83.5
239.091	75.5
239.325	72.5
239.559	77.5
239.793	72.5
240.027	86.5
240.26	84.5
240.494	88.5
240.728	69.5
240.961	83.5
241.195	81.5
241.429	81.5
241.662	56.5
241.896	78.5
242.13	70.5
242.363	74.5
242.597	100.5
242.83	82.5
243.064	78.5
243.298	68.5
243.531	74.5
243.765	68.5
243.998	77.5
244.232	87.5
244.465	88.5
244.699	88.5
244.932	83.5
245.166	76.5
245.399	83.5
245.633	82.5
245.866	88.5
246.099	84.5
246.333	81.5
246.566	71.5
246.8	69.5
247.033	87.5
247.266	86.5
247.5	69.5
247.733	88.5
247.966	84.5
248.2	77.5
248.433	89.5
248.666	62.5
248.899	84.5
249.133	85.5
249.366	95.5
249.599	98.5
249.832	73.5
250.066	96.5
250.299	85.5
250.532	93.5
250.765	70.5
250.998	58.5
251.231	74.5
251.465	80.5
251.698	78.5
251.931	84.5
252.164	88.5
252.397	83.5
252.63	74.5
252.863	73.5
253.096	79.5
253.329	79.5
253.562	68.5
253.795	77.5
254.028	81.5
254.261	85.5
254.494	78.5
254.727	105.5
254.96	95.5
255.193	60.5
255.426	80.5
255.659	85.5
255.892	96.5
256.124	101.5
256.357	92.5
256.59	77.5
256.823	82.5
257.056	83.5
257.289	95.5
257.521	87.5
257.754	85.5
257.987	92.5
258.22	78.5
258.452	101.5
258.685	96.5
258.918	68.5
259.151	84.5
259.383	87.5
259.616	57.5
259.849	72.5
260.081	81.5
260.314	96.5
260.547	91.5
260.779	92.5
261.012	98.5
261.244	99.5
261.477	92.5
261.71	101.5
261.942	115.5
262.175	113.5
262.407	99.5
262.64	88.5
262.872	81.5
263.105	70.5
263.337	107.5
263.57	95.5
263.802	96.5
264.035	66.5
264.267	74.5
264.499	83.5
264.732	74.5
264.964	96.5
265.197	80.5
265.429	86.5
265.661	79.5
265.894	79.5
266.126	80.5
266.358	90.5
266.591	79.5
266.823	85.5
267.055	70.5
267.287	75.5
267.52	67.5
267.752	65.5
267.984	89.5
268.216	89.5
268.448	90.5
268.681	84.5
268.913	86.5
269.145	89.5
269.377	74.5
269.609	84.5
269.841	87.5
270.073	93.5
270.306	88.5
270.538	83.5
270.77	73.5
271.002	76.5
271.234	86.5
271.466	87.5
271.698	89.5
271.93	89.5
272.162	84.5
272.394	82.5
272.626	86.5
272.858	87.5
273.09	90.5
273.322	84.5
273.553	91.5
273.785	87.5
274.017	91.5
274.249	91.5
274.481	84.5
274.713	95.5
274.945	87.5
275.176	79.5
275.408	96.5
275.64	92.5
275.872	111.5
276.104	104.5
276.335	83.5
276.567	103.5
276.799	136.5
277.031	136.5
277.262	141.5
277.494	128.5
277.726	103.5
277.957	99.5
278.189	90.5
278.421	81.5
278.652	73.5
278.884	78.5
279.115	90.5
279.347	98.5
279.579	94.5
279.81	117.5
280.042	174.5
280.273	206.5
280.505	146.5
280.736	92.5
280.968	91.5
281.199	82.5
281.431	90.5
281.662	80.5
281.894	98.5
282.125	114.5
282.356	118.5
282.588	158.5
282.819	112.5
283.051	76.5
283.282	83.5
283.513	69.5
283.745	61.5
283.976	84.5
284.207	78.5
284.439	103.5
284.67	101.5
284.901	78.5
285.132	89.5
285.364	78.5
285.595	83.5
285.826	78.5
286.057	90.5
286.288	92.5
286.52	99.5
286.751	109.5
286.982	96.5
287.213	86.5
287.444	75.5
287.675	88.5
287.906	77.5
288.138	85.5
288.369	93.5
288.6	93.5
288.831	81.5
289.062	96.5
289.293	91.5
289.524	100.5
289.755	79.5
289.986	91.5
290.217	95.5
290.448	72.5
290.679	99.5
290.91	92.5
291.141	67.5
291.371	82.5
291.602	75.5
291.833	81.5
292.064	84.5
292.295	95.5
292.526	87.5
292.757	85.5
292.987	84.5
293.218	73.5
293.449	86.5
293.68	77.5
293.91	93.5
294.141	85.5
294.372	81.5
294.603	80.5
294.833	80.5
295.064	84.5
295.295	89.5
295.525	107.5
295.756	105.5
295.987	116.5
296.217	140.5
296.448	136.5
296.679	102.5
296.909	93.5
297.14	83.5
297.37	96.5
297.601	87.5
297.831	83.5
298.062	90.5
298.292	86.5
298.523	85.5
298.753	86.5
298.984	85.5
299.214	99.5
299.445	88.5
299.675	93.5
299.905	105.5
300.136	100.5
300.366	75.5
300.597	87.5
300.827	93.5
301.057	107.5
301.288	97.5
301.518	83.5
301.748	98.5
301.979	86.5
302.209	88.5
302.439	89.5
302.669	80.5
302.9	90.5
303.13	99.5
303.36	107.5
303.59	114.5
303.82	128.5
304.051	104.5
304.281	94.5
304.511	92.5
304.741	88.5
304.971	86.5
305.201	89.5
305.431	91.5
305.661	94.5
305.891	89.5
306.121	84.5
306.352	109.5
306.582	97.5
306.812	104.5
307.042	105.5
307.272	145.5
307.502	160.5
307.731	132.5
307.961	108.5
308.191	89.5
308.421	103.5
308.651	96.5
308.881	82.5
309.111	89.5
309.341	104.5
309.571	105.5
309.8	99.5
310.03	100.5
310.26	106.5
310.49	105.5
310.72	102.5
310.949	115.5
311.179	102.5
311.409	100.5
311.639	82.5
311.868	114.5
312.098	90.5
312.328	91.5
312.557	95.5
312.787	113.5
313.017	112.5
313.246	99.5
313.476	89.5
313.706	80.5
313.935	94.5
314.165	106.5
314.394	103.5
314.624	88.5
314.853	87.5
315.083	92.5
315.312	88.5
315.542	102.5
315.771	93.5
316.001	100.5
316.23	99.5
316.46	82.5
316.689	94.5
316.919	98.5
317.148	96.5
317.377	106.5
317.607	91.5
317.836	89.5
318.065	81.5
318.295	99.5
318.524	80.5
318.753	93.5
318.983	94.5
319.212	108.5
319.441	117.5
319.67	100.5
319.9	100.5
320.129	84.5
320.358	105.5
320.587	94.5
320.816	112.5
321.046	107.5
321.275	106.5
321.504	98.5
321.733	101.5
321.962	98.5
322.191	104.5
322.42	125.5
322.649	107.5
322.878	108.5
323.108	132.5
323.337	152.5
323.566	137.5
323.795	184.5
324.024	227.5
324.253	472.5
324.482	1039.5
324.71	2131.5
324.939	2873.5
325.168	998.5
325.397	291.5
325.626	180.5
325.855	129.5
326.084	141.5
326.313	130.5
326.542	176.5
326.77	246.5
326.999	544.5
327.228	1170.5
327.457	2169.5
327.686	1737.5
327.914	541.5
328.143	436.5
328.372	526.5
328.6	288.5
328.829	161.5
329.058	170.5
329.287	177.5
329.515	160.5
329.744	209.5
329.972	388.5
330.201	776.5
330.43	1042.5
330.658	501.5
330.887	269.5
331.115	170.5
331.344	120.5
331.572	121.5
331.801	105.5
332.03	120.5
332.258	116.5
332.486	111.5
332.715	113.5
332.943	114.5
333.172	113.5
333.4	121.5
333.629	161.5
333.857	198.5
334.085	359.5
334.314	729.5
334.542	1373.5
334.771	1278.5
334.999	348.5
335.227	166.5
335.455	122.5
335.684	108.5
335.912	91.5
336.14	92.5
336.369	109.5
336.597	103.5
336.825	101.5
337.053	97.5
337.281	86.5
337.51	81.5
337.738	96.5
337.966	96.5
338.194	91.5
338.422	105.5
338.65	96.5
338.878	92.5
339.106	91.5
339.334	104.5
339.562	107.5
339.79	103.5
340.018	94.5
340.246	89.5
340.474	97.5
340.702	99.5
340.93	75.5
341.158	101.5
341.386	109.5
341.614	96.5
341.842	101.5
342.07	92.5
342.298	85.5
342.526	78.5
342.754	83.5
342.981	81.5
343.209	85.5
343.437	76.5
343.665	90.5
343.893	91.5
344.12	91.5
344.348	81.5
344.576	78.5
344.804	92.5
345.031	104.5
345.259	106.5
345.487	96.5
345.714	110.5
345.942	95.5
346.17	93.5
346.397	93.5
346.625	95.5
346.853	105.5
347.08	101.5
347.308	94.5
347.535	90.5
347.763	112.5
347.99	87.5
348.218	108.5
348.445	136.5
348.673	106.5
348.9	105.5
349.128	95.5
349.355	95.5
349.583	99.5
349.81	90.5
350.037	85.5
350.265	105.5
350.492	94.5
350.72	94.5
350.947	114.5
351.174	122.5
351.402	115.5
351.629	118.5
351.856	105.5
352.083	107.5
352.311	104.5
352.538	120.5
352.765	106.5
352.992	102.5
353.22	128.5
353.447	93.5
353.674	94.5
353.901	88.5
354.128	95.5
354.355	98.5
354.583	89.5
354.81	81.5
355.037	95.5
355.264	94.5
355.491	88.5
355.718	91.5
355.945	97.5
356.172	93.5
356.399	99.5
356.626	99.5
356.853	80.5
357.08	86.5
357.307	87.5
357.534	111.5
357.761	107.5
357.988	98.5
358.215	82.5
358.441	75.5
358.668	92.5
358.895	82.5
359.122	93.5
359.349	100.5
359.576	107.5
359.802	103.5
360.029	126.5
360.256	117.5
360.483	100.5
360.709	88.5
360.936	94.5
361.163	82.5
361.39	103.5
361.616	106.5
361.843	96.5
362.07	79.5
362.296	97.5
362.523	92.5
362.749	98.5
362.976	102.5
363.203	92.5
363.429	94.5
363.656	92.5
363.882	96.5
364.109	85.5
364.335	90.5
364.562	88.5
364.788	101.5
365.015	98.5
365.241	103.5
365.468	107.5
365.694	119.5
365.92	100.5
366.147	86.5
366.373	89.5
366.599	93.5
366.826	93.5
367.052	87.5
367.278	82.5
367.505	85.5
367.731	86.5
367.957	96.5
368.184	89.5
368.41	89.5
368.636	126.5
368.862	141.5
369.089	109.5
369.315	80.5
369.541	88.5
369.767	88.5
369.993	100.5
370.219	84.5
370.445	99.5
370.672	90.5
370.898	88.5
371.124	92.5
371.35	81.5
371.576	96.5
371.802	85.5
372.028	98.5
372.254	82.5
372.48	84.5
372.706	100.5
372.932	94.5
373.158	88.5
373.384	94.5
373.61	90.5
373.835	89.5
374.061	81.5
374.287	99.5
374.513	100.5
374.739	101.5
374.965	88.5
375.191	82.5
375.416	86.5
375.642	86.5
375.868	93.5
376.094	84.5
376.319	78.5
376.545	93.5
376.771	90.5
376.997	90.5
377.222	83.5
377.448	105.5
377.674	78.5
377.899	85.5
378.125	91.5
378.35	73.5
378.576	91.5
378.802	76.5
379.027	81.5
379.253	90.5
379.478	91.5
379.704	80.5
379.929	97.5
380.155	83.5
380.38	90.5
380.606	83.5
380.831	86.5
381.057	101.5
381.282	88.5
381.507	106.5
381.733	102.5
381.958	89.5
382.184	92.5
382.409	97.5
382.634	87.5
382.86	91.5
383.085	101.5
383.31	108.5
383.535	101.5
383.761	88.5
383.986	93.5
384.211	94.5
384.436	96.5
384.662	85.5
384.887	98.5
385.112	76.5
385.337	91.5
385.562	92.5
385.787	108.5
386.013	125.5
386.238	114.5
386.463	107.5
386.688	112.5
386.913	85.5
387.138	92.5
387.363	114.5
387.588	77.5
387.813	92.5
388.038	92.5
388.263	105.5
388.488	99.5
388.713	94.5
388.938	83.5
389.163	90.5
389.387	97.5
389.612	82.5
389.837	91.5
390.062	94.5
390.287	82.5
390.512	87.5
390.736	83.5
390.961	76.5
391.186	87.5
391.411	100.5
391.636	82.5
391.86	93.5
392.085	95.5
392.31	89.5
392.534	89.5
392.759	87.5
392.984	92.5
393.208	83.5
393.433	99.5
393.658	91.5
393.882	99.5
394.107	82.5
394.331	86.5
394.556	76.5
394.78	88.5
395.005	90.5
395.229	84.5
395.454	89.5
395.678	85.5
395.903	86.5
396.127	82.5
396.352	92.5
396.576	85.5
396.801	89.5
397.025	69.5
397.249	91.5
397.474	90.5
397.698	85.5
397.922	88.5
398.147	73.5
398.371	96.5
398.595	92.5
398.82	82.5
399.044	84.5
399.268	77.5
399.492	90.5
399.717	88.5
399.941	83.5
400.165	96.5
400.389	97.5
400.613	71.5
400.837	79.5
401.062	91.5
401.286	86.5
401.51	87.5
401.734	88.5
401.958	107.5
402.182	123.5
402.406	181.5
402.63	133.5
402.854	93.5
403.078	82.5
403.302	82.5
403.526	87.5
403.75	84.5
403.974	94.5
404.198	82.5
404.422	76.5
404.645	104.5
404.869	102.5
405.093	121.5
405.317	151.5
405.541	136.5
405.765	105.5
405.988	120.5
406.212	169.5
406.436	255.5
406.66	174.5
406.883	93.5
407.107	86.5
407.331	113.5
407.555	106.5
407.778	103.5
408.002	93.5
408.226	94.5
408.449	88.5
408.673	81.5
408.896	91.5
409.12	109.5
409.344	93.5
409.567	89.5
409.791	97.5
410.014	97.5
410.238	100.5
410.461	98.5
410.685	103.5
410.908	100.5
411.132	105.5
411.355	118.5
411.578	101.5
411.802	86.5
412.025	86.5
412.249	108.5
412.472	107.5
412.695	158.5
412.919	127.5
413.142	93.5
413.365	88.5
413.589	94.5
413.812	85.5
414.035	93.5
414.258	97.5
414.482	109.5
414.705	96.5
414.928	98.5
415.151	74.5
415.374	84.5
415.597	87.5
415.821	90.5
416.044	83.5
416.267	87.5
416.49	94.5
416.713	84.5
416.936	92.5
417.159	91.5
417.382	99.5
417.605	93.5
417.828	105.5
418.051	91.5
418.274	81.5
418.497	85.5
418.72	89.5
418.943	83.5
419.166	84.5
419.389	90.5
419.611	89.5
419.834	82.5
420.057	87.5
420.28	109.5
420.503	97.5
420.726	97.5
420.948	97.5
421.171	116.5
421.394	94.5
421.617	108.5
421.839	88.5
422.062	77.5
422.285	105.5
422.507	92.5
422.73	128.5
422.953	89.5
423.175	83.5
423.398	82.5
423.621	99.5
423.843	68.5
424.066	91.5
424.288	77.5
424.511	107.5
424.733	108.5
424.956	114.5
425.178	105.5
425.401	101.5
425.623	119.5
425.846	95.5
426.068	81.5
426.291	94.5
426.513	83.5
426.735	103.5
426.958	96.5
427.18	124.5
427.402	159.5
427.625	244.5
427.847	223.5
428.069	222.5
428.292	113.5
428.514	86.5
428.736	88.5
428.958	84.5
429.181	93.5
429.403	78.5
429.625	82.5
429.847	105.5
430.069	111.5
430.292	88.5
430.514	83.5
430.736	99.5
430.958	94.5
431.18	66.5
431.402	87.5
431.624	92.5
431.846	81.5
432.068	83.5
432.29	84.5
432.512	100.5
432.734	82.5
432.956	95.5
433.178	74.5
433.4	100.5
433.622	94.5
433.844	84.5
434.066	72.5
434.287	99.5
434.509	73.5
434.731	82.5
434.953	72.5
435.175	103.5
435.397	102.5
435.618	99.5
435.84	125.5
436.062	144.5
436.284	143.5
436.505	115.5
436.727	114.5
436.949	101.5
437.17	84.5
437.392	76.5
437.614	94.5
437.835	119.5
438.057	146.5
438.278	121.5
438.5	110.5
438.721	142.5
438.943	104.5
439.165	82.5
439.386	84.5
439.608	92.5
439.829	94.5
440.05	146.5
440.272	181.5
440.493	113.5
440.715	87.5
440.936	106.5
441.158	95.5
441.379	86.5
441.6	101.5
441.822	109.5
442.043	91.5
442.264	113.5
442.486	107.5
442.707	100.5
442.928	113.5
443.149	155.5
443.371	152.5
443.592	113.5
443.813	120.5
444.034	122.5
444.255	98.5
444.476	81.5
444.698	93.5
444.919	87.5
445.14	141.5
445.361	132.5
445.582	147.5
445.803	169.5
446.024	169.5
446.245	165.5
446.466	121.5
446.687	93.5
446.908	101.5
447.129	96.5
447.35	85.5
447.571	85.5
447.792	79.5
448.013	93.5
448.234	101.5
448.455	99.5
448.675	125.5
448.896	149.5
449.117	119.5
449.338	133.5
449.559	141.5
449.779	163.5
450	106.5
450.221	98.5
450.442	102.5
450.662	98.5
450.883	108.5
451.104	142.5
451.324	103.5
451.545	89.5
451.766	95.5
451.986	78.5
452.207	85.5
452.428	83.5
452.648	101.5
452.869	109.5
453.089	118.5
453.31	133.5
453.53	101.5
453.751	105.5
453.971	126.5
454.192	128.5
454.412	91.5
454.633	104.5
454.853	81.5
455.073	93.5
455.294	102.5
455.514	115.5
455.734	106.5
455.955	95.5
456.175	85.5
456.395	81.5
456.616	94.5
456.836	85.5
457.056	77.5
457.276	70.5
457.497	86.5
457.717	95.5
457.937	74.5
458.157	90.5
458.377	91.5
458.598	114.5
458.818	201.5
459.038	205.5
459.258	142.5
459.478	96.5
459.698	76.5
459.918	86.5
460.138	76.5
460.358	84.5
460.578	89.5
460.798	91.5
461.018	81.5
461.238	78.5
461.458	81.5
461.678	92.5
461.898	84.5
462.118	81.5
462.338	92.5
462.558	78.5
462.777	89.5
462.997	86.5
463.217	94.5
463.437	94.5
463.657	94.5
463.876	91.5
464.096	92.5
464.316	96.5
464.536	91.5
464.755	109.5
464.975	117.5
465.195	189.5
465.414	194.5
465.634	110.5
465.854	116.5
466.073	77.5
466.293	84.5
466.512	96.5
466.732	94.5
466.951	83.5
467.171	105.5
467.391	104.5
467.61	147.5
467.829	172.5
468.049	410.5
468.268	564.5
468.488	164.5
468.707	85.5
468.927	69.5
469.146	91.5
469.365	88.5
469.585	104.5
469.804	99.5
470.023	107.5
470.243	106.5
470.462	112.5
470.681	124.5
470.901	98.5
471.12	101.5
471.339	104.5
471.558	97.5
471.777	140.5
471.997	245.5
472.216	757.5
472.435	1688.5
472.654	459.5
472.873	132.5
473.092	110.5
473.311	92.5
473.53	84.5
473.749	90.5
473.968	109.5
474.187	130.5
474.406	109.5
474.625	100.5
474.844	97.5
475.063	93.5
475.282	78.5
475.501	85.5
475.72	81.5
475.939	76.5
476.158	84.5
476.377	97.5
476.596	96.5
476.814	82.5
477.033	95.5
477.252	92.5
477.471	71.5
477.69	86.5
477.908	89.5
478.127	92.5
478.346	76.5
478.564	100.5
478.783	93.5
479.002	99.5
479.22	107.5
479.439	117.5
479.658	111.5
479.876	86.5
480.095	109.5
480.313	125.5
480.532	142.5
480.751	232.5
480.969	704.5
481.188	3018.5
481.406	1827.5
481.624	283.5
481.843	133.5
482.061	101.5
482.28	99.5
482.498	85.5
482.717	80.5
482.935	102.5
483.153	89.5
483.372	100.5
483.59	91.5
483.808	83.5
484.027	90.5
484.245	92.5
484.463	80.5
484.681	108.5
484.9	90.5
485.118	90.5
485.336	95.5
485.554	90.5
485.772	105.5
485.99	110.5
486.209	105.5
486.427	101.5
486.645	119.5
486.863	121.5
487.081	99.5
487.299	93.5
487.517	98.5
487.735	85.5
487.953	90.5
488.171	101.5
488.389	86.5
488.607	97.5
488.825	100.5
489.043	88.5
489.261	82.5
489.479	101.5
489.696	90.5
489.914	84.5
490.132	79.5
490.35	80.5
490.568	78.5
490.786	92.5
491.003	81.5
491.221	86.5
491.439	93.5
491.657	86.5
491.874	92.5
492.092	102.5
492.31	93.5
492.527	107.5
492.745	92.5
492.963	93.5
493.18	92.5
493.398	84.5
493.615	104.5
493.833	93.5
494.05	98.5
494.268	94.5
494.485	91.5
494.703	78.5
494.92	93.5
495.138	80.5
495.355	89.5
495.573	91.5
495.79	85.5
496.008	82.5
496.225	106.5
496.442	90.5
496.66	97.5
496.877	90.5
497.094	100.5
497.312	92.5
497.529	90.5
497.746	90.5
497.963	91.5
498.181	96.5
498.398	88.5
498.615	109.5
498.832	104.5
499.049	93.5
499.267	81.5
499.484	78.5
499.701	81.5
499.918	94.5
500.135	97.5
500.352	87.5
500.569	82.5
500.786	93.5
501.003	81.5
501.22	93.5
501.437	88.5
501.654	82.5
501.871	114.5
502.088	98.5
502.305	82.5
502.522	95.5
502.739	102.5
502.956	105.5
503.172	96.5
503.389	102.5
503.606	109.5
503.823	111.5
504.04	91.5
504.256	88.5
504.473	77.5
504.69	92.5
504.907	91.5
505.123	92.5
505.34	92.5
505.557	91.5
505.773	92.5
505.99	87.5
506.207	104.5
506.423	86.5
506.64	104.5
506.856	93.5
507.073	85.5
507.289	87.5
507.506	81.5
507.722	119.5
507.939	128.5
508.155	108.5
508.372	96.5
508.588	93.5
508.805	105.5
509.021	95.5
509.238	86.5
509.454	96.5
509.67	97.5
509.887	93.5
510.103	127.5
510.319	208.5
510.536	705.5
510.752	2405.5
510.968	685.5
511.184	161.5
511.401	121.5
511.617	105.5
511.833	109.5
512.049	109.5
512.265	102.5
512.481	104.5
512.698	98.5
512.914	79.5
513.13	100.5
513.346	96.5
513.562	95.5
513.778	90.5
513.994	98.5
514.21	102.5
514.426	120.5
514.642	176.5
514.858	128.5
515.074	196.5
515.29	526.5
515.506	1851.5
515.721	709.5
515.937	182.5
516.153	135.5
516.369	95.5
516.585	98.5
516.801	97.5
517.016	97.5
517.232	95.5
517.448	103.5
517.664	99.5
517.879	94.5
518.095	83.5
518.311	91.5
518.527	99.5
518.742	106.5
518.958	98.5
519.173	92.5
519.389	98.5
519.605	114.5
519.82	98.5
520.036	109.5
520.251	143.5
520.467	120.5
520.682	109.5
520.898	109.5
521.113	139.5
521.329	161.5
521.544	234.5
521.76	716.5
521.975	3129.5
522.19	1941.5
522.406	408.5
522.621	150.5
522.836	110.5
523.052	100.5
523.267	88.5
523.482	88.5
523.698	108.5
523.913	128.5
524.128	124.5
524.343	90.5
524.559	108.5
524.774	97.5
524.989	92.5
525.204	115.5
525.419	111.5
525.634	94.5
525.849	82.5
526.064	84.5
526.28	93.5
526.495	94.5
526.71	87.5
526.925	88.5
527.14	94.5
527.355	85.5
527.57	77.5
527.785	83.5
527.999	85.5
528.214	90.5
528.429	96.5
528.644	93.5
528.859	82.5
529.074	100.5
529.289	138.5
529.503	236.5
529.718	108.5
529.933	78.5
530.148	90.5
530.363	96.5
530.577	89.5
530.792	76.5
531.007	82.5
531.221	92.5
531.436	83.5
531.651	88.5
531.865	94.5
532.08	96.5
532.295	96.5
532.509	86.5
532.724	85.5
532.938	97.5
533.153	92.5
533.367	98.5
