Data from Circ_2013_H10_HRD10591_00043.txt Node
Date: Wed Jan 03 10:04:08 EST 2024
User: Yrep
Spectrometer: HR+D1059
Trigger mode: 1
Integration Time (sec): 1.000000E-1
Scans to average: 1
Electric dark correction enabled: true
Nonlinearity correction enabled: false
Boxcar width: 0
XAxis mode: Wavelengths
Number of Pixels in Spectrum: 2048
>>>>>Begin Spectral Data<<<<<
223.165	-11.69
223.4	-11.69
223.635	-11.69
223.869	-30.69
224.104	-20.69
224.338	-16.69
224.573	-19.69
224.808	-11.69
225.042	-6.69
225.277	-0.69
225.511	3.31
225.746	-4.69
225.98	19.31
226.215	9.31
226.449	10.31
226.683	12.31
226.918	27.31
227.152	41.31
227.387	42.31
227.621	41.31
227.856	46.31
228.09	53.31
228.324	51.31
228.559	69.31
228.793	62.31
229.027	66.31
229.262	71.31
229.496	78.31
229.73	81.31
229.964	105.31
230.199	80.31
230.433	78.31
230.667	73.31
230.901	91.31
231.136	81.31
231.37	73.31
231.604	76.31
231.838	85.31
232.072	81.31
232.306	81.31
232.541	86.31
232.775	84.31
233.009	87.31
233.243	95.31
233.477	88.31
233.711	90.31
233.945	91.31
234.179	88.31
234.413	84.31
234.647	79.31
234.881	76.31
235.115	69.31
235.349	80.31
235.583	89.31
235.817	91.31
236.051	89.31
236.285	80.31
236.519	78.31
236.753	72.31
236.987	86.31
237.221	91.31
237.455	85.31
237.689	89.31
237.922	91.31
238.156	82.31
238.39	76.31
238.624	84.31
238.858	81.31
239.091	77.31
239.325	70.31
239.559	82.31
239.793	82.31
240.027	81.31
240.26	93.31
240.494	77.31
240.728	94.31
240.961	79.31
241.195	70.31
241.429	82.31
241.662	70.31
241.896	80.31
242.13	80.31
242.363	84.31
242.597	86.31
242.83	73.31
243.064	87.31
243.298	91.31
243.531	88.31
243.765	85.31
243.998	72.31
244.232	76.31
244.465	82.31
244.699	86.31
244.932	85.31
245.166	68.31
245.399	74.31
245.633	81.31
245.866	76.31
246.099	69.31
246.333	80.31
246.566	82.31
246.8	78.31
247.033	90.31
247.266	78.31
247.5	71.31
247.733	90.31
247.966	108.31
248.2	91.31
248.433	81.31
248.666	82.31
248.899	85.31
249.133	85.31
249.366	130.31
249.599	105.31
249.832	93.31
250.066	84.31
250.299	82.31
250.532	84.31
250.765	76.31
250.998	86.31
251.231	83.31
251.465	70.31
251.698	81.31
251.931	87.31
252.164	87.31
252.397	81.31
252.63	81.31
252.863	78.31
253.096	83.31
253.329	85.31
253.562	96.31
253.795	94.31
254.028	85.31
254.261	74.31
254.494	84.31
254.727	80.31
254.96	65.31
255.193	71.31
255.426	86.31
255.659	95.31
255.892	88.31
256.124	84.31
256.357	79.31
256.59	89.31
256.823	97.31
257.056	88.31
257.289	96.31
257.521	109.31
257.754	87.31
257.987	98.31
258.22	89.31
258.452	96.31
258.685	78.31
258.918	86.31
259.151	79.31
259.383	95.31
259.616	84.31
259.849	81.31
260.081	77.31
260.314	106.31
260.547	111.31
260.779	91.31
261.012	104.31
261.244	112.31
261.477	84.31
261.71	102.31
261.942	140.31
262.175	159.31
262.407	102.31
262.64	77.31
262.872	93.31
263.105	97.31
263.337	88.31
263.57	90.31
263.802	80.31
264.035	89.31
264.267	86.31
264.499	85.31
264.732	96.31
264.964	75.31
265.197	83.31
265.429	98.31
265.661	86.31
265.894	81.31
266.126	85.31
266.358	96.31
266.591	87.31
266.823	92.31
267.055	83.31
267.287	86.31
267.52	89.31
267.752	93.31
267.984	82.31
268.216	100.31
268.448	84.31
268.681	93.31
268.913	84.31
269.145	84.31
269.377	87.31
269.609	91.31
269.841	89.31
270.073	74.31
270.306	89.31
270.538	89.31
270.77	77.31
271.002	79.31
271.234	84.31
271.466	94.31
271.698	86.31
271.93	91.31
272.162	76.31
272.394	87.31
272.626	96.31
272.858	79.31
273.09	93.31
273.322	84.31
273.553	94.31
273.785	78.31
274.017	88.31
274.249	89.31
274.481	104.31
274.713	90.31
274.945	89.31
275.176	107.31
275.408	98.31
275.64	93.31
275.872	120.31
276.104	107.31
276.335	104.31
276.567	106.31
276.799	140.31
277.031	141.31
277.262	159.31
277.494	145.31
277.726	96.31
277.957	92.31
278.189	93.31
278.421	89.31
278.652	88.31
278.884	97.31
279.115	96.31
279.347	90.31
279.579	106.31
279.81	105.31
280.042	122.31
280.273	196.31
280.505	156.31
280.736	116.31
280.968	86.31
281.199	92.31
281.431	94.31
281.662	88.31
281.894	101.31
282.125	108.31
282.356	129.31
282.588	172.31
282.819	140.31
283.051	87.31
283.282	86.31
283.513	102.31
283.745	83.31
283.976	96.31
284.207	90.31
284.439	97.31
284.67	84.31
284.901	81.31
285.132	93.31
285.364	99.31
285.595	85.31
285.826	92.31
286.057	91.31
286.288	92.31
286.52	86.31
286.751	82.31
286.982	83.31
287.213	87.31
287.444	98.31
287.675	105.31
287.906	96.31
288.138	90.31
288.369	106.31
288.6	88.31
288.831	81.31
289.062	85.31
289.293	82.31
289.524	98.31
289.755	105.31
289.986	103.31
290.217	82.31
290.448	89.31
290.679	87.31
290.91	99.31
291.141	105.31
291.371	93.31
291.602	87.31
291.833	97.31
292.064	81.31
292.295	94.31
292.526	92.31
292.757	104.31
292.987	93.31
293.218	94.31
293.449	99.31
293.68	92.31
293.91	94.31
294.141	95.31
294.372	105.31
294.603	93.31
294.833	86.31
295.064	83.31
295.295	91.31
295.525	99.31
295.756	102.31
295.987	123.31
296.217	174.31
296.448	166.31
296.679	119.31
296.909	104.31
297.14	92.31
297.37	80.31
297.601	81.31
297.831	88.31
298.062	96.31
298.292	94.31
298.523	90.31
298.753	79.31
298.984	91.31
299.214	83.31
299.445	111.31
299.675	89.31
299.905	97.31
300.136	111.31
300.366	95.31
300.597	92.31
300.827	95.31
301.057	106.31
301.288	122.31
301.518	95.31
301.748	91.31
301.979	100.31
302.209	105.31
302.439	99.31
302.669	92.31
302.9	89.31
303.13	93.31
303.36	102.31
303.59	123.31
303.82	134.31
304.051	101.31
304.281	84.31
304.511	96.31
304.741	86.31
304.971	88.31
305.201	93.31
305.431	95.31
305.661	104.31
305.891	104.31
306.121	108.31
306.352	121.31
306.582	120.31
306.812	108.31
307.042	103.31
307.272	117.31
307.502	147.31
307.731	151.31
307.961	129.31
308.191	109.31
308.421	101.31
308.651	103.31
308.881	94.31
309.111	97.31
309.341	112.31
309.571	103.31
309.8	101.31
310.03	100.31
310.26	112.31
310.49	107.31
310.72	120.31
310.949	120.31
311.179	120.31
311.409	101.31
311.639	124.31
311.868	97.31
312.098	92.31
312.328	106.31
312.557	113.31
312.787	109.31
313.017	130.31
313.246	107.31
313.476	99.31
313.706	105.31
313.935	90.31
314.165	104.31
314.394	112.31
314.624	113.31
314.853	113.31
315.083	97.31
315.312	102.31
315.542	87.31
315.771	93.31
316.001	99.31
316.23	89.31
316.46	108.31
316.689	94.31
316.919	104.31
317.148	103.31
317.377	95.31
317.607	106.31
317.836	101.31
318.065	99.31
318.295	92.31
318.524	101.31
318.753	84.31
318.983	104.31
319.212	119.31
319.441	117.31
319.67	122.31
319.9	107.31
320.129	87.31
320.358	99.31
320.587	102.31
320.816	113.31
321.046	125.31
321.275	102.31
321.504	93.31
321.733	109.31
321.962	101.31
322.191	115.31
322.42	121.31
322.649	125.31
322.878	147.31
323.108	144.31
323.337	148.31
323.566	168.31
323.795	188.31
324.024	252.31
324.253	532.31
324.482	1159.31
324.71	2377.31
324.939	3283.31
325.168	1197.31
325.397	327.31
325.626	199.31
325.855	157.31
326.084	142.31
326.313	172.31
326.542	184.31
326.77	295.31
326.999	619.31
327.228	1294.31
327.457	2384.31
327.686	1913.31
327.914	575.31
328.143	438.31
328.372	508.31
328.6	318.31
328.829	185.31
329.058	203.31
329.287	192.31
329.515	160.31
329.744	223.31
329.972	340.31
330.201	664.31
330.43	997.31
330.658	492.31
330.887	285.31
331.115	175.31
331.344	145.31
331.572	127.31
331.801	131.31
332.03	132.31
332.258	108.31
332.486	112.31
332.715	110.31
332.943	116.31
333.172	110.31
333.4	139.31
333.629	158.31
333.857	189.31
334.085	320.31
334.314	607.31
334.542	1176.31
334.771	1186.31
334.999	357.31
335.227	161.31
335.455	132.31
335.684	108.31
335.912	125.31
336.14	115.31
336.369	112.31
336.597	126.31
336.825	128.31
337.053	113.31
337.281	108.31
337.51	82.31
337.738	86.31
337.966	102.31
338.194	102.31
338.422	115.31
338.65	112.31
338.878	101.31
339.106	98.31
339.334	93.31
339.562	89.31
339.79	99.31
340.018	103.31
340.246	102.31
340.474	104.31
340.702	112.31
340.93	79.31
341.158	99.31
341.386	99.31
341.614	109.31
341.842	119.31
342.07	99.31
342.298	101.31
342.526	90.31
342.754	101.31
342.981	93.31
343.209	95.31
343.437	98.31
343.665	74.31
343.893	96.31
344.12	87.31
344.348	96.31
344.576	87.31
344.804	101.31
345.031	98.31
345.259	117.31
345.487	108.31
345.714	99.31
345.942	92.31
346.17	97.31
346.397	93.31
346.625	86.31
346.853	102.31
347.08	103.31
347.308	103.31
347.535	106.31
347.763	118.31
347.99	106.31
348.218	110.31
348.445	112.31
348.673	121.31
348.9	97.31
349.128	96.31
349.355	96.31
349.583	92.31
349.81	87.31
350.037	95.31
350.265	110.31
350.492	114.31
350.72	100.31
350.947	114.31
351.174	129.31
351.402	135.31
351.629	121.31
351.856	104.31
352.083	132.31
352.311	117.31
352.538	144.31
352.765	132.31
352.992	142.31
353.22	120.31
353.447	108.31
353.674	122.31
353.901	93.31
354.128	105.31
354.355	111.31
354.583	108.31
354.81	89.31
355.037	86.31
355.264	102.31
355.491	93.31
355.718	92.31
355.945	92.31
356.172	91.31
356.399	101.31
356.626	95.31
356.853	90.31
357.08	100.31
357.307	89.31
357.534	86.31
357.761	77.31
357.988	90.31
358.215	91.31
358.441	98.31
358.668	89.31
358.895	93.31
359.122	94.31
359.349	103.31
359.576	103.31
359.802	127.31
360.029	150.31
360.256	140.31
360.483	113.31
360.709	93.31
360.936	98.31
361.163	104.31
361.39	113.31
361.616	95.31
361.843	96.31
362.07	100.31
362.296	111.31
362.523	104.31
362.749	96.31
362.976	99.31
363.203	101.31
363.429	86.31
363.656	111.31
363.882	90.31
364.109	108.31
364.335	116.31
364.562	89.31
364.788	103.31
365.015	109.31
365.241	107.31
365.468	115.31
365.694	126.31
365.92	105.31
366.147	92.31
366.373	95.31
366.599	104.31
366.826	93.31
367.052	102.31
367.278	112.31
367.505	93.31
367.731	101.31
367.957	111.31
368.184	102.31
368.41	124.31
368.636	120.31
368.862	128.31
369.089	116.31
369.315	106.31
369.541	97.31
369.767	95.31
369.993	104.31
370.219	99.31
370.445	79.31
370.672	84.31
370.898	102.31
371.124	82.31
371.35	96.31
371.576	81.31
371.802	88.31
372.028	79.31
372.254	85.31
372.48	93.31
372.706	72.31
372.932	93.31
373.158	97.31
373.384	86.31
373.61	98.31
373.835	101.31
374.061	91.31
374.287	102.31
374.513	95.31
374.739	77.31
374.965	90.31
375.191	93.31
375.416	88.31
375.642	95.31
375.868	82.31
376.094	100.31
376.319	101.31
376.545	85.31
376.771	97.31
376.997	90.31
377.222	105.31
377.448	99.31
377.674	88.31
377.899	106.31
378.125	104.31
378.35	92.31
378.576	82.31
378.802	85.31
379.027	90.31
379.253	96.31
379.478	89.31
379.704	111.31
379.929	101.31
380.155	100.31
380.38	100.31
380.606	103.31
380.831	95.31
381.057	104.31
381.282	100.31
381.507	103.31
381.733	101.31
381.958	102.31
382.184	104.31
382.409	107.31
382.634	102.31
382.86	106.31
383.085	109.31
383.31	104.31
383.535	108.31
383.761	108.31
383.986	108.31
384.211	96.31
384.436	89.31
384.662	72.31
384.887	99.31
385.112	107.31
385.337	111.31
385.562	100.31
385.787	113.31
386.013	122.31
386.238	139.31
386.463	118.31
386.688	108.31
386.913	99.31
387.138	105.31
387.363	115.31
387.588	103.31
387.813	97.31
388.038	93.31
388.263	98.31
388.488	105.31
388.713	94.31
388.938	101.31
389.163	98.31
389.387	98.31
389.612	95.31
389.837	89.31
390.062	84.31
390.287	88.31
390.512	97.31
390.736	94.31
390.961	100.31
391.186	104.31
391.411	106.31
391.636	103.31
391.86	93.31
392.085	93.31
392.31	92.31
392.534	86.31
392.759	84.31
392.984	99.31
393.208	102.31
393.433	101.31
393.658	95.31
393.882	72.31
394.107	80.31
394.331	84.31
394.556	83.31
394.78	84.31
395.005	81.31
395.229	85.31
395.454	86.31
395.678	82.31
395.903	103.31
396.127	98.31
396.352	94.31
396.576	101.31
396.801	96.31
397.025	97.31
397.249	83.31
397.474	87.31
397.698	89.31
397.922	87.31
398.147	95.31
398.371	107.31
398.595	98.31
398.82	97.31
399.044	92.31
399.268	101.31
399.492	77.31
399.717	78.31
399.941	84.31
400.165	106.31
400.389	104.31
400.613	100.31
400.837	100.31
401.062	92.31
401.286	91.31
401.51	93.31
401.734	110.31
401.958	125.31
402.182	154.31
402.406	206.31
402.63	153.31
402.854	110.31
403.078	96.31
403.302	100.31
403.526	92.31
403.75	104.31
403.974	92.31
404.198	86.31
404.422	81.31
404.645	83.31
404.869	93.31
405.093	119.31
405.317	130.31
405.541	134.31
405.765	123.31
405.988	155.31
406.212	223.31
406.436	337.31
406.66	225.31
406.883	126.31
407.107	119.31
407.331	107.31
407.555	112.31
407.778	109.31
408.002	101.31
408.226	93.31
408.449	117.31
408.673	90.31
408.896	113.31
409.12	90.31
409.344	104.31
409.567	101.31
409.791	94.31
410.014	98.31
410.238	101.31
410.461	88.31
410.685	96.31
410.908	92.31
411.132	104.31
411.355	110.31
411.578	105.31
411.802	95.31
412.025	89.31
412.249	108.31
412.472	118.31
412.695	141.31
412.919	99.31
413.142	102.31
413.365	102.31
413.589	83.31
413.812	81.31
414.035	104.31
414.258	92.31
414.482	86.31
414.705	101.31
414.928	94.31
415.151	108.31
415.374	93.31
415.597	86.31
415.821	104.31
416.044	94.31
416.267	102.31
416.49	105.31
416.713	92.31
416.936	102.31
417.159	84.31
417.382	100.31
417.605	109.31
417.828	107.31
418.051	94.31
418.274	95.31
418.497	86.31
418.72	81.31
418.943	77.31
419.166	90.31
419.389	87.31
419.611	90.31
419.834	84.31
420.057	97.31
420.28	106.31
420.503	86.31
420.726	88.31
420.948	101.31
421.171	96.31
421.394	99.31
421.617	99.31
421.839	92.31
422.062	93.31
422.285	104.31
422.507	106.31
422.73	105.31
422.953	99.31
423.175	92.31
423.398	91.31
423.621	101.31
423.843	76.31
424.066	94.31
424.288	94.31
424.511	96.31
424.733	105.31
424.956	125.31
425.178	113.31
425.401	110.31
425.623	109.31
425.846	100.31
426.068	94.31
426.291	111.31
426.513	100.31
426.735	93.31
426.958	97.31
427.18	120.31
427.402	168.31
427.625	255.31
427.847	230.31
428.069	204.31
428.292	138.31
428.514	100.31
428.736	103.31
428.958	90.31
429.181	93.31
429.403	79.31
429.625	96.31
429.847	101.31
430.069	111.31
430.292	99.31
430.514	118.31
430.736	82.31
430.958	93.31
431.18	90.31
431.402	99.31
431.624	101.31
431.846	90.31
432.068	87.31
432.29	90.31
432.512	105.31
432.734	88.31
432.956	85.31
433.178	109.31
433.4	111.31
433.622	98.31
433.844	87.31
434.066	86.31
434.287	103.31
434.509	100.31
434.731	98.31
434.953	98.31
435.175	94.31
435.397	101.31
435.618	89.31
435.84	112.31
436.062	142.31
436.284	124.31
436.505	111.31
436.727	100.31
436.949	103.31
437.17	90.31
437.392	81.31
437.614	106.31
437.835	124.31
438.057	154.31
438.278	129.31
438.5	116.31
438.721	154.31
438.943	124.31
439.165	84.31
439.386	96.31
439.608	107.31
439.829	108.31
440.05	162.31
440.272	184.31
440.493	117.31
440.715	104.31
440.936	103.31
441.158	96.31
441.379	104.31
441.6	92.31
441.822	98.31
442.043	109.31
442.264	128.31
442.486	121.31
442.707	109.31
442.928	127.31
443.149	170.31
443.371	183.31
443.592	156.31
443.813	141.31
444.034	119.31
444.255	99.31
444.476	89.31
444.698	105.31
444.919	99.31
445.14	125.31
445.361	145.31
445.582	133.31
445.803	172.31
446.024	189.31
446.245	170.31
446.466	143.31
446.687	101.31
446.908	95.31
447.129	95.31
447.35	105.31
447.571	109.31
447.792	109.31
448.013	96.31
448.234	126.31
448.455	101.31
448.675	118.31
448.896	139.31
449.117	121.31
449.338	121.31
449.559	156.31
449.779	141.31
450	105.31
450.221	93.31
450.442	95.31
450.662	99.31
450.883	129.31
451.104	135.31
451.324	104.31
451.545	97.31
451.766	92.31
451.986	74.31
452.207	90.31
452.428	94.31
452.648	104.31
452.869	121.31
453.089	139.31
453.31	145.31
453.53	103.31
453.751	110.31
453.971	122.31
454.192	142.31
454.412	116.31
454.633	111.31
454.853	92.31
455.073	94.31
455.294	95.31
455.514	112.31
455.734	97.31
455.955	87.31
456.175	97.31
456.395	94.31
456.616	105.31
456.836	81.31
457.056	88.31
457.276	86.31
457.497	85.31
457.717	99.31
457.937	95.31
458.157	103.31
458.377	109.31
458.598	126.31
458.818	216.31
459.038	251.31
459.258	165.31
459.478	98.31
459.698	100.31
459.918	80.31
460.138	81.31
460.358	88.31
460.578	93.31
460.798	102.31
461.018	105.31
461.238	105.31
461.458	91.31
461.678	96.31
461.898	99.31
462.118	94.31
462.338	80.31
462.558	105.31
462.777	91.31
462.997	79.31
463.217	110.31
463.437	98.31
463.657	96.31
463.876	94.31
464.096	102.31
464.316	91.31
464.536	100.31
464.755	110.31
464.975	124.31
465.195	254.31
465.414	266.31
465.634	102.31
465.854	97.31
466.073	91.31
466.293	89.31
466.512	79.31
466.732	84.31
466.951	92.31
467.171	98.31
467.391	112.31
467.61	145.31
467.829	154.31
468.049	369.31
468.268	589.31
468.488	165.31
468.707	100.31
468.927	92.31
469.146	102.31
469.365	103.31
469.585	103.31
469.804	113.31
470.023	97.31
470.243	105.31
470.462	119.31
470.681	138.31
470.901	118.31
471.12	101.31
471.339	112.31
471.558	113.31
471.777	141.31
471.997	210.31
472.216	676.31
472.435	1646.31
472.654	450.31
472.873	149.31
473.092	93.31
473.311	98.31
473.53	80.31
473.749	104.31
473.968	113.31
474.187	110.31
474.406	113.31
474.625	81.31
474.844	107.31
475.063	94.31
475.282	90.31
475.501	85.31
475.72	93.31
475.939	96.31
476.158	96.31
476.377	84.31
476.596	95.31
476.814	95.31
477.033	98.31
477.252	99.31
477.471	108.31
477.69	93.31
477.908	94.31
478.127	96.31
478.346	86.31
478.564	93.31
478.783	116.31
479.002	107.31
479.22	102.31
479.439	111.31
479.658	117.31
479.876	124.31
480.095	111.31
480.313	127.31
480.532	134.31
480.751	197.31
480.969	631.31
481.188	2629.31
481.406	1718.31
481.624	282.31
481.843	134.31
482.061	106.31
482.28	110.31
482.498	101.31
482.717	98.31
482.935	88.31
483.153	97.31
483.372	91.31
483.59	86.31
483.808	100.31
484.027	96.31
484.245	102.31
484.463	111.31
484.681	100.31
484.9	100.31
485.118	98.31
485.336	99.31
485.554	94.31
485.772	86.31
485.99	101.31
486.209	108.31
486.427	112.31
486.645	124.31
486.863	136.31
487.081	97.31
487.299	103.31
487.517	91.31
487.735	92.31
487.953	94.31
488.171	108.31
488.389	96.31
488.607	104.31
488.825	106.31
489.043	99.31
489.261	77.31
489.479	106.31
489.696	98.31
489.914	88.31
490.132	104.31
490.35	104.31
490.568	91.31
490.786	97.31
491.003	98.31
491.221	81.31
491.439	103.31
491.657	111.31
491.874	89.31
492.092	85.31
492.31	97.31
492.527	106.31
492.745	104.31
492.963	89.31
493.18	101.31
493.398	99.31
493.615	97.31
493.833	117.31
494.05	100.31
494.268	81.31
494.485	96.31
494.703	92.31
494.92	101.31
495.138	93.31
495.355	95.31
495.573	88.31
495.79	96.31
496.008	77.31
496.225	95.31
496.442	89.31
496.66	100.31
496.877	101.31
497.094	96.31
497.312	94.31
497.529	98.31
497.746	81.31
497.963	92.31
498.181	103.31
498.398	109.31
498.615	125.31
498.832	121.31
499.049	98.31
499.267	104.31
499.484	93.31
499.701	87.31
499.918	89.31
500.135	101.31
500.352	89.31
500.569	92.31
500.786	94.31
501.003	92.31
501.22	89.31
501.437	104.31
501.654	105.31
501.871	136.31
502.088	100.31
502.305	109.31
502.522	104.31
502.739	89.31
502.956	79.31
503.172	100.31
503.389	109.31
503.606	118.31
503.823	88.31
504.04	86.31
504.256	87.31
504.473	104.31
504.69	91.31
504.907	89.31
505.123	98.31
505.34	96.31
505.557	90.31
505.773	104.31
505.99	93.31
506.207	97.31
506.423	88.31
506.64	104.31
506.856	95.31
507.073	90.31
507.289	95.31
507.506	117.31
507.722	135.31
507.939	138.31
508.155	106.31
508.372	112.31
508.588	101.31
508.805	111.31
509.021	108.31
509.238	116.31
509.454	92.31
509.67	107.31
509.887	112.31
510.103	150.31
510.319	233.31
510.536	905.31
510.752	3327.31
510.968	936.31
511.184	184.31
511.401	136.31
511.617	108.31
