Data from Circ_2013_H10_HRD10591_00066.txt Node
Date: Wed Jan 03 10:04:13 EST 2024
User: Yrep
Spectrometer: HR+D1059
Trigger mode: 1
Integration Time (sec): 1.000000E-1
Scans to average: 1
Electric dark correction enabled: true
Nonlinearity correction enabled: false
Boxcar width: 0
XAxis mode: Wavelengths
Number of Pixels in Spectrum: 2048
>>>>>Begin Spectral Data<<<<<
223.165	0.44
223.4	0.44
223.635	0.44
223.869	-21.56
224.104	-7.56
224.338	-22.56
224.573	-18.56
224.808	-7.56
225.042	-15.56
225.277	-8.56
225.511	-5.56
225.746	1.44
225.98	3.44
226.215	13.44
226.449	11.44
226.683	22.44
226.918	26.44
227.152	28.44
227.387	43.44
227.621	39.44
227.856	35.44
228.09	41.44
228.324	62.44
228.559	52.44
228.793	59.44
229.027	57.44
229.262	78.44
229.496	72.44
229.73	77.44
229.964	81.44
230.199	75.44
230.433	66.44
230.667	78.44
230.901	78.44
231.136	84.44
231.37	78.44
231.604	88.44
231.838	93.44
232.072	79.44
232.306	86.44
232.541	72.44
232.775	79.44
233.009	78.44
233.243	83.44
233.477	77.44
233.711	87.44
233.945	79.44
234.179	89.44
234.413	73.44
234.647	78.44
234.881	76.44
235.115	71.44
235.349	80.44
235.583	59.44
235.817	76.44
236.051	82.44
236.285	68.44
236.519	91.44
236.753	81.44
236.987	71.44
237.221	86.44
237.455	90.44
237.689	81.44
237.922	78.44
238.156	70.44
238.39	72.44
238.624	67.44
238.858	86.44
239.091	80.44
239.325	86.44
239.559	81.44
239.793	69.44
240.027	82.44
240.26	78.44
240.494	77.44
240.728	76.44
240.961	92.44
241.195	87.44
241.429	70.44
241.662	85.44
241.896	68.44
242.13	71.44
242.363	65.44
242.597	78.44
242.83	88.44
243.064	79.44
243.298	83.44
243.531	86.44
243.765	75.44
243.998	68.44
244.232	90.44
244.465	87.44
244.699	68.44
244.932	92.44
245.166	71.44
245.399	68.44
245.633	78.44
245.866	78.44
246.099	72.44
246.333	73.44
246.566	75.44
246.8	68.44
247.033	84.44
247.266	76.44
247.5	90.44
247.733	80.44
247.966	68.44
248.2	81.44
248.433	82.44
248.666	86.44
248.899	81.44
249.133	90.44
249.366	94.44
249.599	94.44
249.832	83.44
250.066	81.44
250.299	77.44
250.532	73.44
250.765	85.44
250.998	82.44
251.231	76.44
251.465	93.44
251.698	77.44
251.931	75.44
252.164	76.44
252.397	84.44
252.63	78.44
252.863	91.44
253.096	73.44
253.329	82.44
253.562	77.44
253.795	78.44
254.028	88.44
254.261	87.44
254.494	83.44
254.727	80.44
254.96	74.44
255.193	89.44
255.426	79.44
255.659	84.44
255.892	88.44
256.124	90.44
256.357	83.44
256.59	66.44
256.823	88.44
257.056	71.44
257.289	91.44
257.521	89.44
257.754	79.44
257.987	78.44
258.22	97.44
258.452	86.44
258.685	78.44
258.918	81.44
259.151	86.44
259.383	85.44
259.616	84.44
259.849	70.44
260.081	94.44
260.314	77.44
260.547	79.44
260.779	88.44
261.012	96.44
261.244	89.44
261.477	105.44
261.71	91.44
261.942	123.44
262.175	142.44
262.407	82.44
262.64	92.44
262.872	73.44
263.105	78.44
263.337	96.44
263.57	83.44
263.802	83.44
264.035	75.44
264.267	66.44
264.499	74.44
264.732	81.44
264.964	85.44
265.197	81.44
265.429	90.44
265.661	74.44
265.894	85.44
266.126	82.44
266.358	81.44
266.591	73.44
266.823	81.44
267.055	82.44
267.287	93.44
267.52	96.44
267.752	76.44
267.984	75.44
268.216	78.44
268.448	89.44
268.681	83.44
268.913	78.44
269.145	83.44
269.377	76.44
269.609	77.44
269.841	70.44
270.073	81.44
270.306	81.44
270.538	89.44
270.77	78.44
271.002	78.44
271.234	82.44
271.466	94.44
271.698	89.44
271.93	82.44
272.162	88.44
272.394	68.44
272.626	77.44
272.858	93.44
273.09	76.44
273.322	75.44
273.553	82.44
273.785	89.44
274.017	86.44
274.249	79.44
274.481	63.44
274.713	87.44
274.945	85.44
275.176	82.44
275.408	82.44
275.64	76.44
275.872	102.44
276.104	83.44
276.335	97.44
276.567	99.44
276.799	124.44
277.031	123.44
277.262	117.44
277.494	103.44
277.726	102.44
277.957	95.44
278.189	94.44
278.421	87.44
278.652	83.44
278.884	93.44
279.115	93.44
279.347	95.44
279.579	96.44
279.81	97.44
280.042	128.44
280.273	157.44
280.505	123.44
280.736	84.44
280.968	85.44
281.199	91.44
281.431	90.44
281.662	94.44
281.894	101.44
282.125	94.44
282.356	124.44
282.588	155.44
282.819	123.44
283.051	93.44
283.282	92.44
283.513	87.44
283.745	72.44
283.976	88.44
284.207	78.44
284.439	94.44
284.67	85.44
284.901	92.44
285.132	87.44
285.364	79.44
285.595	87.44
285.826	85.44
286.057	85.44
286.288	91.44
286.52	94.44
286.751	90.44
286.982	90.44
287.213	91.44
287.444	83.44
287.675	89.44
287.906	90.44
288.138	82.44
288.369	82.44
288.6	74.44
288.831	85.44
289.062	80.44
289.293	90.44
289.524	99.44
289.755	91.44
289.986	79.44
290.217	101.44
290.448	83.44
290.679	89.44
290.91	85.44
291.141	83.44
291.371	100.44
291.602	90.44
291.833	95.44
292.064	73.44
292.295	101.44
292.526	85.44
292.757	94.44
292.987	86.44
293.218	93.44
293.449	86.44
293.68	89.44
293.91	73.44
294.141	74.44
294.372	92.44
294.603	91.44
294.833	96.44
295.064	105.44
295.295	83.44
295.525	82.44
295.756	90.44
295.987	126.44
296.217	146.44
296.448	139.44
296.679	98.44
296.909	82.44
297.14	99.44
297.37	98.44
297.601	93.44
297.831	85.44
298.062	92.44
298.292	85.44
298.523	86.44
298.753	88.44
298.984	81.44
299.214	89.44
299.445	74.44
299.675	96.44
299.905	94.44
300.136	85.44
300.366	90.44
300.597	96.44
300.827	89.44
301.057	97.44
301.288	124.44
301.518	106.44
301.748	94.44
301.979	112.44
302.209	97.44
302.439	89.44
302.669	84.44
302.9	99.44
303.13	98.44
303.36	99.44
303.59	107.44
303.82	120.44
304.051	89.44
304.281	87.44
304.511	87.44
304.741	104.44
304.971	77.44
305.201	85.44
305.431	92.44
305.661	94.44
305.891	93.44
306.121	87.44
306.352	91.44
306.582	106.44
306.812	106.44
307.042	107.44
307.272	109.44
307.502	142.44
307.731	132.44
307.961	118.44
308.191	87.44
308.421	86.44
308.651	82.44
308.881	100.44
309.111	91.44
309.341	94.44
309.571	88.44
309.8	105.44
310.03	99.44
310.26	101.44
310.49	102.44
310.72	96.44
310.949	102.44
311.179	94.44
311.409	106.44
311.639	93.44
311.868	92.44
312.098	98.44
312.328	96.44
312.557	89.44
312.787	113.44
313.017	92.44
313.246	87.44
313.476	98.44
313.706	86.44
313.935	88.44
314.165	98.44
314.394	116.44
314.624	114.44
314.853	103.44
315.083	96.44
315.312	88.44
315.542	92.44
315.771	88.44
316.001	95.44
316.23	84.44
316.46	97.44
316.689	103.44
316.919	92.44
317.148	85.44
317.377	87.44
317.607	93.44
317.836	93.44
318.065	84.44
318.295	85.44
318.524	97.44
318.753	91.44
318.983	105.44
319.212	107.44
319.441	115.44
319.67	128.44
319.9	96.44
320.129	95.44
320.358	103.44
320.587	101.44
320.816	100.44
321.046	88.44
321.275	96.44
321.504	100.44
321.733	94.44
321.962	95.44
322.191	91.44
322.42	104.44
322.649	109.44
322.878	132.44
323.108	109.44
323.337	120.44
323.566	144.44
323.795	164.44
324.024	225.44
324.253	457.44
324.482	960.44
324.71	1988.44
324.939	2624.44
325.168	964.44
325.397	269.44
325.626	158.44
325.855	147.44
326.084	138.44
326.313	131.44
326.542	164.44
326.77	261.44
326.999	513.44
327.228	1030.44
327.457	1981.44
327.686	1580.44
327.914	472.44
328.143	341.44
328.372	373.44
328.6	259.44
328.829	152.44
329.058	146.44
329.287	167.44
329.515	155.44
329.744	166.44
329.972	266.44
330.201	514.44
330.43	737.44
330.658	365.44
330.887	206.44
331.115	179.44
331.344	112.44
331.572	109.44
331.801	116.44
332.03	113.44
332.258	100.44
332.486	105.44
332.715	97.44
332.943	89.44
333.172	104.44
333.4	101.44
333.629	132.44
333.857	170.44
334.085	282.44
334.314	476.44
334.542	913.44
334.771	875.44
334.999	271.44
335.227	129.44
335.455	122.44
335.684	104.44
335.912	105.44
336.14	90.44
336.369	91.44
336.597	98.44
336.825	104.44
337.053	102.44
337.281	92.44
337.51	81.44
337.738	93.44
337.966	89.44
338.194	97.44
338.422	105.44
338.65	103.44
338.878	89.44
339.106	100.44
339.334	94.44
339.562	84.44
339.79	86.44
340.018	96.44
340.246	94.44
340.474	99.44
340.702	102.44
340.93	107.44
341.158	93.44
341.386	95.44
341.614	98.44
341.842	102.44
342.07	87.44
342.298	80.44
342.526	81.44
342.754	85.44
342.981	90.44
343.209	101.44
343.437	98.44
343.665	98.44
343.893	85.44
344.12	98.44
344.348	90.44
344.576	83.44
344.804	90.44
345.031	83.44
345.259	94.44
345.487	93.44
345.714	102.44
345.942	92.44
346.17	98.44
346.397	92.44
346.625	88.44
346.853	84.44
347.08	90.44
347.308	89.44
347.535	109.44
347.763	109.44
347.99	101.44
348.218	113.44
348.445	105.44
348.673	101.44
348.9	107.44
349.128	95.44
349.355	86.44
349.583	84.44
349.81	96.44
350.037	99.44
350.265	102.44
350.492	76.44
350.72	102.44
350.947	94.44
351.174	115.44
351.402	117.44
351.629	113.44
351.856	88.44
352.083	107.44
352.311	104.44
352.538	109.44
352.765	105.44
352.992	128.44
353.22	118.44
353.447	120.44
353.674	98.44
353.901	104.44
354.128	96.44
354.355	90.44
354.583	102.44
354.81	105.44
355.037	100.44
355.264	92.44
355.491	94.44
355.718	104.44
355.945	93.44
356.172	87.44
356.399	84.44
356.626	92.44
356.853	86.44
357.08	102.44
357.307	95.44
357.534	77.44
357.761	95.44
357.988	82.44
358.215	93.44
358.441	83.44
358.668	89.44
358.895	99.44
359.122	97.44
359.349	79.44
359.576	101.44
359.802	100.44
360.029	120.44
360.256	123.44
360.483	108.44
360.709	84.44
360.936	90.44
361.163	90.44
361.39	105.44
361.616	98.44
361.843	102.44
362.07	90.44
362.296	104.44
362.523	102.44
362.749	101.44
362.976	86.44
363.203	104.44
363.429	93.44
363.656	88.44
363.882	91.44
364.109	100.44
364.335	86.44
364.562	98.44
364.788	85.44
365.015	94.44
365.241	105.44
365.468	130.44
365.694	104.44
365.92	109.44
366.147	102.44
366.373	94.44
366.599	96.44
366.826	83.44
367.052	100.44
367.278	85.44
367.505	101.44
367.731	90.44
367.957	90.44
368.184	114.44
368.41	109.44
368.636	107.44
368.862	110.44
369.089	118.44
369.315	105.44
369.541	98.44
369.767	100.44
369.993	78.44
370.219	98.44
370.445	98.44
370.672	74.44
370.898	90.44
371.124	82.44
371.35	84.44
371.576	96.44
371.802	85.44
372.028	86.44
372.254	112.44
372.48	73.44
372.706	71.44
372.932	87.44
373.158	83.44
373.384	89.44
373.61	94.44
373.835	98.44
374.061	80.44
374.287	91.44
374.513	77.44
374.739	96.44
374.965	80.44
375.191	96.44
375.416	78.44
375.642	86.44
375.868	69.44
376.094	93.44
376.319	86.44
376.545	92.44
376.771	94.44
376.997	90.44
377.222	100.44
377.448	89.44
377.674	85.44
377.899	84.44
378.125	99.44
378.35	91.44
378.576	82.44
378.802	95.44
379.027	89.44
379.253	88.44
379.478	81.44
379.704	84.44
379.929	75.44
380.155	95.44
380.38	91.44
380.606	86.44
380.831	100.44
381.057	82.44
381.282	98.44
381.507	91.44
381.733	97.44
381.958	85.44
382.184	92.44
382.409	101.44
382.634	107.44
382.86	96.44
383.085	105.44
383.31	107.44
383.535	102.44
383.761	84.44
383.986	94.44
384.211	95.44
384.436	81.44
384.662	101.44
384.887	96.44
385.112	92.44
385.337	102.44
385.562	87.44
385.787	97.44
386.013	95.44
386.238	107.44
386.463	94.44
386.688	101.44
386.913	98.44
387.138	91.44
387.363	94.44
387.588	92.44
387.813	96.44
388.038	96.44
388.263	96.44
388.488	107.44
388.713	109.44
388.938	99.44
389.163	82.44
389.387	83.44
389.612	84.44
389.837	89.44
390.062	83.44
390.287	95.44
390.512	87.44
390.736	97.44
390.961	92.44
391.186	96.44
391.411	89.44
391.636	82.44
391.86	78.44
392.085	86.44
392.31	98.44
392.534	83.44
392.759	92.44
392.984	99.44
393.208	83.44
393.433	87.44
393.658	91.44
393.882	82.44
394.107	90.44
394.331	86.44
394.556	93.44
394.78	85.44
395.005	92.44
395.229	89.44
395.454	89.44
395.678	76.44
395.903	95.44
396.127	87.44
396.352	81.44
396.576	85.44
396.801	78.44
397.025	79.44
397.249	84.44
397.474	95.44
397.698	87.44
397.922	78.44
398.147	93.44
398.371	78.44
398.595	84.44
398.82	81.44
399.044	79.44
399.268	79.44
399.492	75.44
399.717	83.44
399.941	87.44
400.165	90.44
400.389	86.44
400.613	90.44
400.837	74.44
401.062	87.44
401.286	86.44
401.51	87.44
401.734	98.44
401.958	95.44
402.182	124.44
402.406	170.44
402.63	129.44
402.854	99.44
403.078	89.44
403.302	83.44
403.526	78.44
403.75	68.44
403.974	88.44
404.198	84.44
404.422	86.44
404.645	86.44
404.869	81.44
405.093	115.44
405.317	132.44
405.541	129.44
405.765	114.44
405.988	150.44
406.212	179.44
406.436	273.44
406.66	178.44
406.883	119.44
407.107	102.44
407.331	96.44
407.555	104.44
407.778	93.44
408.002	76.44
408.226	89.44
408.449	83.44
408.673	83.44
408.896	84.44
409.12	91.44
409.344	93.44
409.567	78.44
409.791	104.44
410.014	93.44
410.238	87.44
410.461	82.44
410.685	88.44
410.908	100.44
411.132	106.44
411.355	104.44
411.578	83.44
411.802	82.44
412.025	89.44
412.249	97.44
412.472	108.44
412.695	119.44
412.919	105.44
413.142	84.44
413.365	74.44
413.589	93.44
413.812	87.44
414.035	88.44
414.258	79.44
414.482	91.44
414.705	95.44
414.928	96.44
415.151	91.44
415.374	93.44
415.597	97.44
415.821	87.44
416.044	84.44
416.267	85.44
416.49	83.44
416.713	93.44
416.936	77.44
417.159	96.44
417.382	94.44
417.605	88.44
417.828	96.44
418.051	84.44
418.274	76.44
418.497	76.44
418.72	92.44
418.943	82.44
419.166	93.44
419.389	80.44
419.611	91.44
419.834	84.44
420.057	81.44
420.28	83.44
420.503	93.44
420.726	87.44
420.948	100.44
421.171	93.44
421.394	95.44
421.617	94.44
421.839	93.44
422.062	101.44
422.285	87.44
422.507	101.44
422.73	117.44
422.953	105.44
423.175	93.44
423.398	88.44
423.621	72.44
423.843	86.44
424.066	92.44
424.288	84.44
424.511	95.44
424.733	101.44
424.956	105.44
425.178	121.44
425.401	108.44
425.623	101.44
425.846	96.44
426.068	89.44
426.291	83.44
426.513	84.44
426.735	89.44
426.958	99.44
427.18	112.44
427.402	157.44
427.625	212.44
427.847	173.44
428.069	177.44
428.292	110.44
428.514	88.44
428.736	106.44
428.958	88.44
429.181	80.44
429.403	89.44
429.625	77.44
429.847	90.44
430.069	103.44
430.292	100.44
430.514	90.44
430.736	84.44
430.958	75.44
431.18	78.44
431.402	84.44
431.624	84.44
431.846	86.44
432.068	87.44
432.29	82.44
432.512	85.44
432.734	91.44
432.956	93.44
433.178	103.44
433.4	97.44
433.622	104.44
433.844	90.44
434.066	101.44
434.287	87.44
434.509	92.44
434.731	96.44
434.953	83.44
435.175	88.44
435.397	88.44
435.618	93.44
435.84	101.44
436.062	121.44
436.284	116.44
436.505	88.44
436.727	121.44
436.949	90.44
437.17	86.44
437.392	82.44
437.614	87.44
437.835	108.44
438.057	135.44
438.278	124.44
438.5	122.44
438.721	126.44
438.943	99.44
439.165	84.44
439.386	88.44
439.608	85.44
439.829	98.44
440.05	140.44
440.272	171.44
440.493	119.44
440.715	90.44
440.936	91.44
441.158	96.44
441.379	98.44
441.6	98.44
441.822	107.44
442.043	98.44
442.264	113.44
442.486	101.44
442.707	92.44
442.928	116.44
443.149	157.44
443.371	166.44
443.592	128.44
443.813	123.44
444.034	114.44
444.255	100.44
444.476	96.44
444.698	77.44
444.919	83.44
445.14	125.44
445.361	130.44
445.582	121.44
445.803	160.44
446.024	160.44
446.245	135.44
446.466	107.44
446.687	87.44
446.908	68.44
447.129	76.44
447.35	91.44
447.571	104.44
447.792	100.44
448.013	109.44
448.234	108.44
448.455	104.44
448.675	134.44
448.896	125.44
449.117	95.44
449.338	110.44
449.559	114.44
449.779	126.44
450	87.44
450.221	89.44
450.442	94.44
450.662	92.44
450.883	99.44
451.104	121.44
451.324	99.44
451.545	88.44
451.766	90.44
451.986	84.44
452.207	95.44
452.428	87.44
452.648	94.44
452.869	116.44
453.089	121.44
453.31	137.44
453.53	102.44
453.751	96.44
453.971	101.44
454.192	121.44
454.412	106.44
454.633	84.44
454.853	86.44
455.073	84.44
455.294	90.44
455.514	112.44
455.734	89.44
455.955	92.44
456.175	80.44
456.395	84.44
456.616	91.44
456.836	78.44
457.056	81.44
457.276	82.44
457.497	90.44
457.717	75.44
457.937	88.44
458.157	96.44
458.377	90.44
458.598	104.44
458.818	180.44
459.038	201.44
459.258	117.44
459.478	86.44
459.698	87.44
459.918	81.44
460.138	85.44
460.358	82.44
460.578	97.44
460.798	103.44
461.018	76.44
461.238	93.44
461.458	86.44
461.678	96.44
461.898	84.44
462.118	86.44
462.338	86.44
462.558	96.44
462.777	75.44
462.997	104.44
463.217	95.44
463.437	101.44
463.657	94.44
463.876	72.44
464.096	100.44
464.316	97.44
464.536	103.44
464.755	98.44
464.975	130.44
465.195	198.44
465.414	213.44
465.634	110.44
465.854	93.44
466.073	97.44
466.293	86.44
466.512	97.44
466.732	76.44
466.951	96.44
467.171	92.44
467.391	101.44
467.61	121.44
467.829	150.44
468.049	292.44
468.268	419.44
468.488	160.44
468.707	102.44
468.927	88.44
469.146	89.44
469.365	88.44
469.585	108.44
469.804	94.44
470.023	97.44
470.243	114.44
470.462	108.44
470.681	122.44
470.901	97.44
471.12	80.44
471.339	84.44
471.558	97.44
471.777	107.44
471.997	170.44
472.216	560.44
472.435	1243.44
472.654	343.44
472.873	132.44
473.092	98.44
473.311	90.44
473.53	93.44
473.749	74.44
473.968	90.44
474.187	109.44
474.406	94.44
474.625	95.44
474.844	90.44
475.063	81.44
475.282	90.44
475.501	99.44
475.72	84.44
475.939	90.44
476.158	96.44
476.377	81.44
476.596	96.44
476.814	76.44
477.033	93.44
477.252	90.44
477.471	81.44
477.69	90.44
477.908	93.44
478.127	98.44
478.346	78.44
478.564	80.44
478.783	98.44
479.002	100.44
479.22	97.44
479.439	105.44
479.658	118.44
479.876	115.44
480.095	104.44
480.313	109.44
480.532	121.44
480.751	177.44
480.969	525.44
481.188	2080.44
481.406	1308.44
481.624	246.44
481.843	117.44
482.061	105.44
482.28	101.44
482.498	89.44
482.717	92.44
482.935	107.44
483.153	100.44
483.372	96.44
483.59	87.44
483.808	98.44
484.027	97.44
484.245	80.44
484.463	81.44
484.681	86.44
484.9	96.44
485.118	93.44
485.336	95.44
485.554	95.44
485.772	96.44
485.99	101.44
486.209	94.44
486.427	104.44
486.645	109.44
486.863	119.44
487.081	87.44
487.299	87.44
487.517	83.44
487.735	88.44
487.953	96.44
488.171	94.44
488.389	74.44
488.607	99.44
488.825	92.44
489.043	94.44
489.261	88.44
489.479	90.44
489.696	77.44
489.914	103.44
490.132	71.44
490.35	78.44
490.568	92.44
490.786	98.44
491.003	84.44
491.221	89.44
491.439	100.44
491.657	105.44
491.874	88.44
492.092	91.44
492.31	86.44
492.527	89.44
492.745	74.44
492.963	102.44
493.18	97.44
493.398	91.44
493.615	87.44
493.833	95.44
494.05	79.44
494.268	98.44
494.485	89.44
494.703	81.44
494.92	72.44
495.138	84.44
495.355	88.44
495.573	106.44
495.79	83.44
496.008	90.44
496.225	94.44
496.442	85.44
496.66	91.44
496.877	76.44
497.094	95.44
497.312	83.44
497.529	77.44
497.746	87.44
497.963	93.44
498.181	88.44
498.398	102.44
498.615	117.44
498.832	118.44
499.049	90.44
499.267	85.44
499.484	96.44
499.701	86.44
499.918	93.44
500.135	84.44
500.352	76.44
500.569	94.44
500.786	83.44
501.003	86.44
501.22	85.44
501.437	91.44
501.654	101.44
501.871	112.44
502.088	89.44
502.305	97.44
502.522	106.44
502.739	86.44
502.956	84.44
503.172	98.44
503.389	104.44
503.606	114.44
503.823	110.44
504.04	85.44
504.256	100.44
504.473	83.44
504.69	101.44
504.907	86.44
505.123	96.44
505.34	88.44
505.557	83.44
505.773	67.44
505.99	80.44
506.207	85.44
506.423	88.44
506.64	93.44
506.856	100.44
507.073	86.44
507.289	95.44
507.506	95.44
507.722	132.44
507.939	107.44
508.155	93.44
508.372	93.44
508.588	101.44
508.805	107.44
509.021	103.44
509.238	103.44
509.454	100.44
509.67	113.44
509.887	114.44
510.103	134.44
510.319	206.44
510.536	796.44
510.752	2704.44
510.968	776.44
511.184	170.44
511.401	114.44
511.617	108.44
511.833	101.44
512.049	94.44
512.265	89.44
512.481	99.44
512.698	89.44
512.914	81.44
513.13	100.44
513.346	81.44
513.562	103.44
513.778	98.44
513.994	99.44
514.21	114.44
514.426	137.44
514.642	155.44
514.858	134.44
