Data from Circ_2013_H10_HRD10591_00016.txt Node
Date: Wed Jan 03 10:04:03 EST 2024
User: Yrep
Spectrometer: HR+D1059
Trigger mode: 1
Integration Time (sec): 1.000000E-1
Scans to average: 1
Electric dark correction enabled: true
Nonlinearity correction enabled: false
Boxcar width: 0
XAxis mode: Wavelengths
Number of Pixels in Spectrum: 2048
>>>>>Begin Spectral Data<<<<<
223.165	-25.5
223.4	-25.5
223.635	-25.5
223.869	-15.5
224.104	-12.5
224.338	-19.5
224.573	-2.5
224.808	-8.5
225.042	-8.5
225.277	-14.5
225.511	-0.5
225.746	7.5
225.98	10.5
226.215	9.5
226.449	4.5
226.683	12.5
226.918	33.5
227.152	29.5
227.387	41.5
227.621	46.5
227.856	36.5
228.09	44.5
228.324	53.5
228.559	55.5
228.793	79.5
229.027	64.5
229.262	47.5
229.496	71.5
229.73	99.5
229.964	82.5
230.199	69.5
230.433	81.5
230.667	90.5
230.901	68.5
231.136	83.5
231.37	81.5
231.604	75.5
231.838	58.5
232.072	77.5
232.306	74.5
232.541	79.5
232.775	85.5
233.009	93.5
233.243	82.5
233.477	81.5
233.711	75.5
233.945	85.5
234.179	87.5
234.413	94.5
234.647	79.5
234.881	90.5
235.115	78.5
235.349	95.5
235.583	81.5
235.817	75.5
236.051	65.5
236.285	80.5
236.519	88.5
236.753	79.5
236.987	89.5
237.221	88.5
237.455	83.5
237.689	81.5
237.922	78.5
238.156	86.5
238.39	84.5
238.624	85.5
238.858	75.5
239.091	73.5
239.325	62.5
239.559	83.5
239.793	82.5
240.027	81.5
240.26	68.5
240.494	76.5
240.728	71.5
240.961	66.5
241.195	67.5
241.429	82.5
241.662	69.5
241.896	86.5
242.13	80.5
242.363	79.5
242.597	86.5
242.83	94.5
243.064	78.5
243.298	92.5
243.531	59.5
243.765	94.5
243.998	82.5
244.232	98.5
244.465	89.5
244.699	67.5
244.932	73.5
245.166	86.5
245.399	84.5
245.633	75.5
245.866	79.5
246.099	76.5
246.333	86.5
246.566	66.5
246.8	76.5
247.033	69.5
247.266	82.5
247.5	71.5
247.733	96.5
247.966	103.5
248.2	82.5
248.433	87.5
248.666	95.5
248.899	81.5
249.133	90.5
249.366	95.5
249.599	93.5
249.832	79.5
250.066	80.5
250.299	78.5
250.532	77.5
250.765	75.5
250.998	83.5
251.231	76.5
251.465	79.5
251.698	63.5
251.931	79.5
252.164	81.5
252.397	89.5
252.63	85.5
252.863	74.5
253.096	84.5
253.329	73.5
253.562	78.5
253.795	81.5
254.028	87.5
254.261	89.5
254.494	86.5
254.727	99.5
254.96	80.5
255.193	78.5
255.426	77.5
255.659	84.5
255.892	91.5
256.124	94.5
256.357	82.5
256.59	82.5
256.823	97.5
257.056	88.5
257.289	84.5
257.521	82.5
257.754	79.5
257.987	97.5
258.22	93.5
258.452	89.5
258.685	95.5
258.918	89.5
259.151	93.5
259.383	72.5
259.616	81.5
259.849	98.5
260.081	101.5
260.314	79.5
260.547	70.5
260.779	83.5
261.012	87.5
261.244	97.5
261.477	99.5
261.71	101.5
261.942	107.5
262.175	112.5
262.407	94.5
262.64	76.5
262.872	99.5
263.105	84.5
263.337	77.5
263.57	85.5
263.802	76.5
264.035	97.5
264.267	78.5
264.499	72.5
264.732	87.5
264.964	77.5
265.197	77.5
265.429	92.5
265.661	91.5
265.894	91.5
266.126	84.5
266.358	91.5
266.591	88.5
266.823	87.5
267.055	105.5
267.287	77.5
267.52	84.5
267.752	80.5
267.984	83.5
268.216	72.5
268.448	94.5
268.681	81.5
268.913	80.5
269.145	97.5
269.377	86.5
269.609	79.5
269.841	94.5
270.073	74.5
270.306	85.5
270.538	88.5
270.77	80.5
271.002	86.5
271.234	96.5
271.466	87.5
271.698	106.5
271.93	92.5
272.162	85.5
272.394	85.5
272.626	87.5
272.858	86.5
273.09	70.5
273.322	86.5
273.553	82.5
273.785	84.5
274.017	86.5
274.249	81.5
274.481	101.5
274.713	95.5
274.945	79.5
275.176	84.5
275.408	92.5
275.64	86.5
275.872	99.5
276.104	91.5
276.335	98.5
276.567	91.5
276.799	114.5
277.031	125.5
277.262	117.5
277.494	105.5
277.726	92.5
277.957	81.5
278.189	86.5
278.421	89.5
278.652	93.5
278.884	78.5
279.115	93.5
279.347	85.5
279.579	78.5
279.81	104.5
280.042	129.5
280.273	132.5
280.505	111.5
280.736	105.5
280.968	92.5
281.199	83.5
281.431	95.5
281.662	87.5
281.894	82.5
282.125	96.5
282.356	122.5
282.588	149.5
282.819	129.5
283.051	89.5
283.282	92.5
283.513	83.5
283.745	92.5
283.976	81.5
284.207	88.5
284.439	81.5
284.67	102.5
284.901	80.5
285.132	78.5
285.364	92.5
285.595	87.5
285.826	80.5
286.057	103.5
286.288	78.5
286.52	91.5
286.751	93.5
286.982	95.5
287.213	83.5
287.444	89.5
287.675	88.5
287.906	93.5
288.138	91.5
288.369	87.5
288.6	98.5
288.831	76.5
289.062	91.5
289.293	79.5
289.524	83.5
289.755	72.5
289.986	88.5
290.217	85.5
290.448	89.5
290.679	84.5
290.91	87.5
291.141	97.5
291.371	90.5
291.602	82.5
291.833	64.5
292.064	75.5
292.295	88.5
292.526	89.5
292.757	86.5
292.987	94.5
293.218	92.5
293.449	106.5
293.68	70.5
293.91	102.5
294.141	90.5
294.372	91.5
294.603	93.5
294.833	88.5
295.064	81.5
295.295	93.5
295.525	97.5
295.756	76.5
295.987	119.5
296.217	144.5
296.448	122.5
296.679	105.5
296.909	72.5
297.14	88.5
297.37	80.5
297.601	80.5
297.831	94.5
298.062	94.5
298.292	97.5
298.523	94.5
298.753	92.5
298.984	75.5
299.214	82.5
299.445	85.5
299.675	87.5
299.905	91.5
300.136	91.5
300.366	94.5
300.597	86.5
300.827	94.5
301.057	103.5
301.288	102.5
301.518	102.5
301.748	96.5
301.979	115.5
302.209	111.5
302.439	89.5
302.669	91.5
302.9	96.5
303.13	94.5
303.36	93.5
303.59	100.5
303.82	123.5
304.051	94.5
304.281	86.5
304.511	94.5
304.741	89.5
304.971	77.5
305.201	81.5
305.431	103.5
305.661	103.5
305.891	96.5
306.121	94.5
306.352	107.5
306.582	101.5
306.812	99.5
307.042	88.5
307.272	111.5
307.502	104.5
307.731	103.5
307.961	99.5
308.191	102.5
308.421	93.5
308.651	81.5
308.881	102.5
309.111	84.5
309.341	92.5
309.571	103.5
309.8	97.5
310.03	96.5
310.26	105.5
310.49	97.5
310.72	92.5
310.949	119.5
311.179	110.5
311.409	115.5
311.639	99.5
311.868	104.5
312.098	83.5
312.328	103.5
312.557	108.5
312.787	108.5
313.017	105.5
313.246	99.5
313.476	87.5
313.706	115.5
313.935	97.5
314.165	108.5
314.394	100.5
314.624	103.5
314.853	83.5
315.083	96.5
315.312	93.5
315.542	75.5
315.771	96.5
316.001	94.5
316.23	87.5
316.46	96.5
316.689	96.5
316.919	90.5
317.148	90.5
317.377	100.5
317.607	93.5
317.836	70.5
318.065	87.5
318.295	91.5
318.524	97.5
318.753	92.5
318.983	97.5
319.212	103.5
319.441	129.5
319.67	109.5
319.9	106.5
320.129	92.5
320.358	105.5
320.587	91.5
320.816	101.5
321.046	110.5
321.275	93.5
321.504	93.5
321.733	104.5
321.962	101.5
322.191	100.5
322.42	108.5
322.649	111.5
322.878	119.5
323.108	128.5
323.337	122.5
323.566	141.5
323.795	168.5
324.024	227.5
324.253	424.5
324.482	902.5
324.71	1840.5
324.939	2451.5
325.168	892.5
325.397	263.5
325.626	156.5
325.855	144.5
326.084	141.5
326.313	142.5
326.542	164.5
326.77	225.5
326.999	494.5
327.228	1041.5
327.457	1904.5
327.686	1516.5
327.914	432.5
328.143	280.5
328.372	307.5
328.6	194.5
328.829	133.5
329.058	151.5
329.287	152.5
329.515	135.5
329.744	160.5
329.972	228.5
330.201	356.5
330.43	504.5
330.658	284.5
330.887	166.5
331.115	147.5
331.344	117.5
331.572	107.5
331.801	104.5
332.03	122.5
332.258	99.5
332.486	95.5
332.715	97.5
332.943	105.5
333.172	86.5
333.4	114.5
333.629	115.5
333.857	141.5
334.085	199.5
334.314	351.5
334.542	637.5
334.771	628.5
334.999	222.5
335.227	124.5
335.455	125.5
335.684	110.5
335.912	104.5
336.14	101.5
336.369	102.5
336.597	115.5
336.825	99.5
337.053	112.5
337.281	91.5
337.51	78.5
337.738	107.5
337.966	89.5
338.194	109.5
338.422	114.5
338.65	124.5
338.878	104.5
339.106	105.5
339.334	99.5
339.562	99.5
339.79	101.5
340.018	78.5
340.246	95.5
340.474	105.5
340.702	108.5
340.93	85.5
341.158	108.5
341.386	103.5
341.614	100.5
341.842	104.5
342.07	95.5
342.298	105.5
342.526	93.5
342.754	90.5
342.981	85.5
343.209	102.5
343.437	99.5
343.665	80.5
343.893	90.5
344.12	87.5
344.348	79.5
344.576	86.5
344.804	86.5
345.031	114.5
345.259	89.5
345.487	103.5
345.714	86.5
345.942	80.5
346.17	75.5
346.397	93.5
346.625	108.5
346.853	85.5
347.08	97.5
347.308	76.5
347.535	109.5
347.763	122.5
347.99	104.5
348.218	109.5
348.445	109.5
348.673	90.5
348.9	96.5
349.128	111.5
349.355	106.5
349.583	105.5
349.81	99.5
350.037	94.5
350.265	107.5
350.492	91.5
350.72	101.5
350.947	116.5
351.174	112.5
351.402	115.5
351.629	91.5
351.856	96.5
352.083	105.5
352.311	118.5
352.538	105.5
352.765	103.5
352.992	121.5
353.22	97.5
353.447	114.5
353.674	104.5
353.901	101.5
354.128	88.5
354.355	89.5
354.583	103.5
354.81	103.5
355.037	92.5
355.264	92.5
355.491	86.5
355.718	92.5
355.945	107.5
356.172	105.5
356.399	106.5
356.626	100.5
356.853	102.5
357.08	101.5
357.307	89.5
357.534	94.5
357.761	94.5
357.988	100.5
358.215	107.5
358.441	108.5
358.668	98.5
358.895	91.5
359.122	78.5
359.349	108.5
359.576	100.5
359.802	86.5
360.029	135.5
360.256	122.5
360.483	98.5
360.709	87.5
360.936	96.5
361.163	108.5
361.39	89.5
361.616	104.5
361.843	86.5
362.07	92.5
362.296	101.5
362.523	111.5
362.749	95.5
362.976	95.5
363.203	92.5
363.429	79.5
363.656	87.5
363.882	77.5
364.109	86.5
364.335	93.5
364.562	108.5
364.788	90.5
365.015	114.5
365.241	108.5
365.468	115.5
365.694	115.5
365.92	83.5
366.147	89.5
366.373	91.5
366.599	78.5
366.826	84.5
367.052	100.5
367.278	84.5
367.505	80.5
367.731	99.5
367.957	104.5
368.184	93.5
368.41	96.5
368.636	126.5
368.862	135.5
369.089	110.5
369.315	93.5
369.541	95.5
369.767	100.5
369.993	96.5
370.219	107.5
370.445	107.5
370.672	100.5
370.898	86.5
371.124	101.5
371.35	89.5
371.576	88.5
371.802	91.5
372.028	85.5
372.254	98.5
372.48	80.5
372.706	87.5
372.932	84.5
373.158	77.5
373.384	84.5
373.61	95.5
373.835	88.5
374.061	97.5
374.287	94.5
374.513	91.5
374.739	102.5
374.965	92.5
375.191	91.5
375.416	83.5
375.642	85.5
375.868	89.5
376.094	92.5
376.319	86.5
376.545	105.5
376.771	102.5
376.997	105.5
377.222	91.5
377.448	100.5
377.674	88.5
377.899	107.5
378.125	100.5
378.35	94.5
378.576	94.5
378.802	108.5
379.027	99.5
379.253	86.5
379.478	89.5
379.704	93.5
379.929	84.5
380.155	99.5
380.38	101.5
380.606	101.5
380.831	108.5
381.057	118.5
381.282	82.5
381.507	99.5
381.733	99.5
381.958	91.5
382.184	97.5
382.409	110.5
382.634	108.5
382.86	115.5
383.085	116.5
383.31	104.5
383.535	123.5
383.761	96.5
383.986	101.5
384.211	105.5
384.436	117.5
384.662	115.5
384.887	118.5
385.112	119.5
385.337	128.5
385.562	119.5
385.787	115.5
386.013	115.5
386.238	125.5
386.463	109.5
386.688	124.5
386.913	119.5
387.138	133.5
387.363	117.5
387.588	112.5
387.813	119.5
388.038	126.5
388.263	138.5
388.488	129.5
388.713	103.5
388.938	91.5
389.163	104.5
389.387	107.5
389.612	97.5
389.837	114.5
390.062	98.5
390.287	108.5
390.512	86.5
390.736	99.5
390.961	95.5
391.186	97.5
391.411	90.5
391.636	97.5
391.86	83.5
392.085	114.5
392.31	99.5
392.534	81.5
392.759	81.5
392.984	98.5
393.208	106.5
393.433	111.5
393.658	94.5
393.882	99.5
394.107	93.5
394.331	94.5
394.556	88.5
394.78	93.5
395.005	77.5
395.229	91.5
395.454	94.5
395.678	88.5
395.903	100.5
396.127	98.5
396.352	100.5
396.576	95.5
396.801	100.5
397.025	100.5
397.249	86.5
397.474	91.5
397.698	89.5
397.922	101.5
398.147	78.5
398.371	83.5
398.595	98.5
398.82	90.5
399.044	88.5
399.268	78.5
399.492	90.5
399.717	97.5
399.941	93.5
400.165	93.5
400.389	100.5
400.613	90.5
400.837	88.5
401.062	89.5
401.286	86.5
401.51	87.5
401.734	96.5
401.958	105.5
402.182	128.5
402.406	174.5
402.63	131.5
402.854	118.5
403.078	96.5
403.302	87.5
403.526	98.5
403.75	99.5
403.974	95.5
404.198	91.5
404.422	101.5
404.645	96.5
404.869	85.5
405.093	108.5
405.317	135.5
405.541	114.5
405.765	112.5
405.988	128.5
406.212	188.5
406.436	260.5
406.66	151.5
406.883	107.5
407.107	117.5
407.331	98.5
407.555	115.5
407.778	107.5
408.002	89.5
408.226	104.5
408.449	88.5
408.673	87.5
408.896	87.5
409.12	102.5
409.344	92.5
409.567	82.5
409.791	95.5
410.014	106.5
410.238	91.5
410.461	90.5
410.685	105.5
410.908	94.5
411.132	110.5
411.355	114.5
411.578	101.5
411.802	88.5
412.025	89.5
412.249	95.5
412.472	97.5
412.695	138.5
412.919	107.5
413.142	95.5
413.365	112.5
413.589	88.5
413.812	87.5
414.035	93.5
414.258	81.5
414.482	99.5
414.705	85.5
414.928	89.5
415.151	74.5
415.374	96.5
415.597	96.5
415.821	96.5
416.044	100.5
416.267	95.5
416.49	92.5
416.713	104.5
416.936	90.5
417.159	94.5
417.382	89.5
417.605	100.5
417.828	84.5
418.051	96.5
418.274	87.5
418.497	97.5
418.72	88.5
418.943	79.5
419.166	100.5
419.389	80.5
419.611	106.5
419.834	92.5
420.057	97.5
420.28	81.5
420.503	96.5
420.726	96.5
420.948	95.5
421.171	96.5
421.394	87.5
421.617	103.5
421.839	99.5
422.062	102.5
422.285	94.5
422.507	100.5
422.73	128.5
422.953	89.5
423.175	96.5
423.398	84.5
423.621	88.5
423.843	84.5
424.066	89.5
424.288	87.5
424.511	95.5
424.733	108.5
424.956	103.5
425.178	101.5
425.401	108.5
425.623	104.5
425.846	96.5
426.068	95.5
426.291	91.5
426.513	100.5
426.735	111.5
426.958	109.5
427.18	108.5
427.402	141.5
427.625	202.5
427.847	182.5
428.069	171.5
428.292	106.5
428.514	91.5
428.736	90.5
428.958	84.5
429.181	98.5
429.403	76.5
429.625	83.5
429.847	99.5
430.069	113.5
430.292	100.5
430.514	97.5
430.736	100.5
430.958	86.5
431.18	86.5
431.402	79.5
431.624	101.5
431.846	95.5
432.068	93.5
432.29	98.5
432.512	103.5
432.734	81.5
432.956	79.5
433.178	102.5
433.4	99.5
433.622	102.5
433.844	95.5
434.066	79.5
434.287	96.5
434.509	94.5
434.731	89.5
434.953	83.5
435.175	91.5
435.397	84.5
435.618	95.5
435.84	111.5
436.062	134.5
436.284	133.5
436.505	127.5
436.727	112.5
436.949	96.5
437.17	96.5
437.392	95.5
437.614	88.5
437.835	117.5
438.057	135.5
438.278	125.5
438.5	106.5
438.721	141.5
438.943	99.5
439.165	91.5
439.386	104.5
439.608	101.5
439.829	117.5
440.05	136.5
440.272	164.5
440.493	129.5
440.715	102.5
440.936	87.5
441.158	87.5
441.379	89.5
441.6	96.5
441.822	99.5
442.043	108.5
442.264	112.5
442.486	115.5
442.707	112.5
442.928	121.5
443.149	167.5
443.371	160.5
443.592	122.5
443.813	131.5
444.034	121.5
444.255	98.5
444.476	95.5
444.698	94.5
444.919	84.5
445.14	135.5
445.361	138.5
445.582	135.5
445.803	153.5
446.024	170.5
446.245	160.5
446.466	128.5
446.687	95.5
446.908	97.5
447.129	92.5
447.35	99.5
447.571	108.5
447.792	98.5
448.013	119.5
448.234	115.5
448.455	107.5
448.675	113.5
448.896	144.5
449.117	110.5
449.338	125.5
449.559	149.5
449.779	165.5
450	104.5
450.221	92.5
450.442	106.5
450.662	107.5
450.883	108.5
451.104	121.5
451.324	111.5
451.545	93.5
451.766	106.5
451.986	88.5
452.207	78.5
452.428	94.5
452.648	97.5
452.869	110.5
453.089	109.5
453.31	125.5
453.53	101.5
453.751	97.5
453.971	107.5
454.192	130.5
454.412	113.5
454.633	93.5
454.853	95.5
455.073	96.5
455.294	102.5
455.514	93.5
455.734	88.5
455.955	73.5
456.175	78.5
456.395	84.5
456.616	87.5
456.836	101.5
457.056	105.5
457.276	87.5
457.497	89.5
457.717	86.5
457.937	90.5
458.157	94.5
458.377	82.5
458.598	120.5
458.818	168.5
459.038	185.5
459.258	147.5
459.478	92.5
459.698	101.5
459.918	98.5
460.138	78.5
460.358	77.5
460.578	79.5
460.798	107.5
461.018	112.5
461.238	77.5
461.458	84.5
461.678	87.5
461.898	96.5
462.118	84.5
462.338	81.5
462.558	76.5
462.777	86.5
462.997	83.5
463.217	99.5
463.437	87.5
463.657	78.5
463.876	83.5
464.096	84.5
464.316	100.5
464.536	98.5
464.755	104.5
464.975	101.5
465.195	179.5
465.414	187.5
465.634	111.5
465.854	86.5
466.073	92.5
466.293	90.5
466.512	89.5
466.732	77.5
466.951	92.5
467.171	100.5
467.391	104.5
467.61	124.5
467.829	123.5
468.049	191.5
468.268	291.5
468.488	123.5
468.707	84.5
468.927	87.5
469.146	79.5
469.365	89.5
469.585	99.5
469.804	106.5
470.023	120.5
470.243	102.5
470.462	99.5
470.681	120.5
470.901	103.5
471.12	89.5
471.339	85.5
471.558	93.5
471.777	107.5
471.997	153.5
472.216	360.5
472.435	755.5
472.654	240.5
472.873	121.5
473.092	90.5
473.311	91.5
473.53	94.5
473.749	90.5
473.968	117.5
474.187	145.5
474.406	107.5
474.625	83.5
474.844	68.5
475.063	84.5
475.282	84.5
475.501	102.5
475.72	84.5
475.939	93.5
476.158	98.5
476.377	87.5
476.596	93.5
476.814	85.5
477.033	101.5
477.252	96.5
477.471	82.5
477.69	90.5
477.908	86.5
478.127	82.5
478.346	83.5
478.564	103.5
478.783	100.5
479.002	111.5
479.22	109.5
479.439	110.5
479.658	121.5
479.876	110.5
480.095	86.5
480.313	104.5
480.532	110.5
480.751	154.5
480.969	346.5
481.188	1207.5
481.406	836.5
481.624	168.5
481.843	103.5
482.061	102.5
482.28	105.5
482.498	90.5
482.717	83.5
482.935	79.5
483.153	77.5
483.372	94.5
483.59	95.5
483.808	108.5
484.027	88.5
484.245	81.5
484.463	81.5
484.681	89.5
484.9	76.5
485.118	100.5
485.336	104.5
485.554	104.5
485.772	88.5
485.99	105.5
486.209	98.5
486.427	98.5
486.645	116.5
486.863	103.5
487.081	92.5
487.299	91.5
487.517	90.5
487.735	108.5
487.953	82.5
488.171	104.5
488.389	94.5
488.607	99.5
488.825	96.5
489.043	92.5
489.261	101.5
489.479	87.5
489.696	95.5
489.914	90.5
490.132	96.5
490.35	68.5
490.568	99.5
490.786	86.5
491.003	82.5
491.221	89.5
491.439	105.5
491.657	85.5
491.874	93.5
492.092	92.5
492.31	103.5
492.527	87.5
492.745	105.5
492.963	100.5
493.18	104.5
493.398	95.5
493.615	102.5
493.833	99.5
494.05	99.5
494.268	82.5
494.485	84.5
494.703	104.5
494.92	81.5
495.138	79.5
495.355	84.5
495.573	84.5
495.79	100.5
496.008	99.5
496.225	82.5
496.442	86.5
496.66	105.5
496.877	86.5
497.094	88.5
497.312	89.5
497.529	103.5
497.746	93.5
497.963	96.5
498.181	94.5
498.398	96.5
498.615	101.5
498.832	101.5
499.049	88.5
499.267	93.5
499.484	80.5
499.701	96.5
499.918	83.5
500.135	88.5
500.352	96.5
500.569	96.5
500.786	83.5
501.003	88.5
501.22	89.5
501.437	98.5
501.654	103.5
501.871	112.5
502.088	94.5
502.305	94.5
502.522	89.5
502.739	77.5
502.956	99.5
503.172	81.5
503.389	104.5
503.606	122.5
503.823	88.5
504.04	91.5
504.256	90.5
504.473	88.5
504.69	96.5
504.907	86.5
505.123	102.5
505.34	95.5
505.557	85.5
505.773	87.5
505.99	83.5
506.207	112.5
506.423	103.5
506.64	79.5
506.856	101.5
507.073	98.5
507.289	95.5
507.506	121.5
507.722	109.5
507.939	130.5
508.155	94.5
508.372	87.5
508.588	105.5
508.805	88.5
509.021	79.5
509.238	99.5
509.454	100.5
509.67	108.5
509.887	115.5
510.103	126.5
510.319	194.5
510.536	740.5
510.752	2397.5
510.968	669.5
511.184	159.5
511.401	135.5
511.617	92.5
511.833	89.5
512.049	92.5
512.265	96.5
512.481	101.5
512.698	106.5
512.914	93.5
513.13	105.5
513.346	88.5
513.562	89.5
513.778	100.5
513.994	106.5
514.21	104.5
514.426	127.5
514.642	152.5
514.858	145.5
515.074	172.5
515.29	501.5
515.506	1699.5
515.721	660.5
515.937	195.5
516.153	124.5
516.369	95.5
516.585	101.5
516.801	113.5
517.016	83.5
517.232	88.5
517.448	104.5
517.664	106.5
517.879	99.5
518.095	106.5
518.311	90.5
518.527	112.5
518.742	97.5
518.958	93.5
519.173	103.5
519.389	100.5
519.605	107.5
519.82	102.5
520.036	107.5
520.251	123.5
520.467	133.5
520.682	122.5
520.898	116.5
521.113	110.5
521.329	155.5
521.544	222.5
521.76	624.5
521.975	2819.5
522.19	1774.5
522.406	373.5
522.621	127.5
522.836	98.5
523.052	98.5
523.267	95.5
523.482	99.5
523.698	103.5
523.913	139.5
524.128	130.5
524.343	91.5
524.559	92.5
524.774	86.5
524.989	108.5
525.204	109.5
525.419	93.5
525.634	92.5
525.849	94.5
526.064	87.5
526.28	91.5
526.495	86.5
526.71	103.5
526.925	73.5
527.14	95.5
527.355	85.5
527.57	79.5
527.785	97.5
527.999	87.5
528.214	87.5
528.429	100.5
528.644	89.5
528.859	96.5
529.074	93.5
529.289	131.5
529.503	199.5
529.718	116.5
529.933	105.5
530.148	81.5
530.363	107.5
530.577	90.5
530.792	86.5
531.007	103.5
531.221	93.5
531.436	101.5
531.651	100.5
531.865	93.5
532.08	72.5
532.295	89.5
532.509	88.5
