Data from Circ_2013_H10_HRD10591_00091.txt Node
Date: Wed Jan 03 10:04:18 EST 2024
User: Yrep
Spectrometer: HR+D1059
Trigger mode: 1
Integration Time (sec): 1.000000E-1
Scans to average: 1
Electric dark correction enabled: true
Nonlinearity correction enabled: false
Boxcar width: 0
XAxis mode: Wavelengths
Number of Pixels in Spectrum: 2048
>>>>>Begin Spectral Data<<<<<
223.165	-10.69
223.4	-10.69
223.635	-10.69
223.869	-26.69
224.104	-4.69
224.338	-14.69
224.573	-10.69
224.808	-18.69
225.042	-0.69
225.277	-21.69
225.511	9.31
225.746	10.31
225.98	-7.69
226.215	6.31
226.449	1.31
226.683	33.31
226.918	39.31
227.152	16.31
227.387	39.31
227.621	44.31
227.856	39.31
228.09	58.31
228.324	60.31
228.559	66.31
228.793	75.31
229.027	70.31
229.262	75.31
229.496	86.31
229.73	112.31
229.964	83.31
230.199	72.31
230.433	81.31
230.667	86.31
230.901	88.31
231.136	92.31
231.37	75.31
231.604	91.31
231.838	98.31
232.072	71.31
232.306	82.31
232.541	102.31
232.775	91.31
233.009	80.31
233.243	97.31
233.477	85.31
233.711	103.31
233.945	83.31
234.179	76.31
234.413	77.31
234.647	85.31
234.881	82.31
235.115	82.31
235.349	91.31
235.583	78.31
235.817	81.31
236.051	90.31
236.285	71.31
236.519	63.31
236.753	89.31
236.987	70.31
237.221	81.31
237.455	90.31
237.689	87.31
237.922	82.31
238.156	85.31
238.39	88.31
238.624	83.31
238.858	94.31
239.091	81.31
239.325	79.31
239.559	90.31
239.793	82.31
240.027	77.31
240.26	78.31
240.494	88.31
240.728	93.31
240.961	90.31
241.195	88.31
241.429	96.31
241.662	88.31
241.896	96.31
242.13	65.31
242.363	80.31
242.597	89.31
242.83	93.31
243.064	82.31
243.298	85.31
243.531	77.31
243.765	89.31
243.998	92.31
244.232	93.31
244.465	89.31
244.699	79.31
244.932	86.31
245.166	79.31
245.399	89.31
245.633	89.31
245.866	87.31
246.099	86.31
246.333	71.31
246.566	84.31
246.8	78.31
247.033	97.31
247.266	79.31
247.5	95.31
247.733	95.31
247.966	78.31
248.2	95.31
248.433	77.31
248.666	81.31
248.899	89.31
249.133	82.31
249.366	103.31
249.599	101.31
249.832	98.31
250.066	74.31
250.299	79.31
250.532	91.31
250.765	87.31
250.998	77.31
251.231	85.31
251.465	82.31
251.698	82.31
251.931	90.31
252.164	82.31
252.397	82.31
252.63	80.31
252.863	83.31
253.096	82.31
253.329	94.31
253.562	73.31
253.795	94.31
254.028	86.31
254.261	97.31
254.494	86.31
254.727	77.31
254.96	73.31
255.193	78.31
255.426	97.31
255.659	83.31
255.892	105.31
256.124	87.31
256.357	94.31
256.59	79.31
256.823	89.31
257.056	88.31
257.289	96.31
257.521	83.31
257.754	74.31
257.987	74.31
258.22	90.31
258.452	104.31
258.685	99.31
258.918	83.31
259.151	87.31
259.383	87.31
259.616	90.31
259.849	84.31
260.081	86.31
260.314	84.31
260.547	97.31
260.779	86.31
261.012	90.31
261.244	108.31
261.477	85.31
261.71	107.31
261.942	125.31
262.175	122.31
262.407	84.31
262.64	88.31
262.872	96.31
263.105	77.31
263.337	98.31
263.57	86.31
263.802	91.31
264.035	98.31
264.267	85.31
264.499	90.31
264.732	88.31
264.964	85.31
265.197	87.31
265.429	98.31
265.661	91.31
265.894	85.31
266.126	86.31
266.358	73.31
266.591	75.31
266.823	103.31
267.055	84.31
267.287	102.31
267.52	89.31
267.752	83.31
267.984	86.31
268.216	86.31
268.448	70.31
268.681	90.31
268.913	92.31
269.145	102.31
269.377	76.31
269.609	95.31
269.841	81.31
270.073	89.31
270.306	86.31
270.538	87.31
270.77	80.31
271.002	86.31
271.234	106.31
271.466	105.31
271.698	98.31
271.93	87.31
272.162	90.31
272.394	96.31
272.626	98.31
272.858	93.31
273.09	89.31
273.322	102.31
273.553	94.31
273.785	73.31
274.017	96.31
274.249	85.31
274.481	94.31
274.713	101.31
274.945	95.31
275.176	89.31
275.408	112.31
275.64	106.31
275.872	111.31
276.104	93.31
276.335	97.31
276.567	109.31
276.799	137.31
277.031	153.31
277.262	166.31
277.494	123.31
277.726	103.31
277.957	83.31
278.189	78.31
278.421	86.31
278.652	99.31
278.884	91.31
279.115	100.31
279.347	99.31
279.579	108.31
279.81	119.31
280.042	154.31
280.273	204.31
280.505	161.31
280.736	107.31
280.968	94.31
281.199	95.31
281.431	85.31
281.662	90.31
281.894	103.31
282.125	98.31
282.356	136.31
282.588	157.31
282.819	124.31
283.051	99.31
283.282	84.31
283.513	98.31
283.745	86.31
283.976	100.31
284.207	98.31
284.439	88.31
284.67	95.31
284.901	95.31
285.132	93.31
285.364	94.31
285.595	86.31
285.826	90.31
286.057	96.31
286.288	100.31
286.52	101.31
286.751	92.31
286.982	91.31
287.213	87.31
287.444	108.31
287.675	100.31
287.906	93.31
288.138	99.31
288.369	93.31
288.6	95.31
288.831	106.31
289.062	98.31
289.293	90.31
289.524	96.31
289.755	97.31
289.986	91.31
290.217	100.31
290.448	100.31
290.679	96.31
290.91	87.31
291.141	82.31
291.371	94.31
291.602	103.31
291.833	91.31
292.064	93.31
292.295	95.31
292.526	111.31
292.757	88.31
292.987	92.31
293.218	96.31
293.449	90.31
293.68	95.31
293.91	98.31
294.141	90.31
294.372	98.31
294.603	95.31
294.833	95.31
295.064	99.31
295.295	93.31
295.525	94.31
295.756	97.31
295.987	129.31
296.217	139.31
296.448	133.31
296.679	94.31
296.909	85.31
297.14	85.31
297.37	91.31
297.601	92.31
297.831	89.31
298.062	103.31
298.292	99.31
298.523	104.31
298.753	95.31
298.984	95.31
299.214	94.31
299.445	84.31
299.675	88.31
299.905	90.31
300.136	97.31
300.366	96.31
300.597	98.31
300.827	89.31
301.057	106.31
301.288	120.31
301.518	102.31
301.748	102.31
301.979	103.31
302.209	92.31
302.439	100.31
302.669	92.31
302.9	93.31
303.13	102.31
303.36	100.31
303.59	120.31
303.82	128.31
304.051	109.31
304.281	101.31
304.511	85.31
304.741	102.31
304.971	81.31
305.201	101.31
305.431	108.31
305.661	91.31
305.891	93.31
306.121	99.31
306.352	111.31
306.582	102.31
306.812	98.31
307.042	105.31
307.272	123.31
307.502	149.31
307.731	146.31
307.961	129.31
308.191	100.31
308.421	110.31
308.651	101.31
308.881	104.31
309.111	107.31
309.341	99.31
309.571	108.31
309.8	103.31
310.03	103.31
310.26	113.31
310.49	118.31
310.72	104.31
310.949	121.31
311.179	108.31
311.409	98.31
311.639	114.31
311.868	107.31
312.098	96.31
312.328	116.31
312.557	104.31
312.787	127.31
313.017	122.31
313.246	106.31
313.476	94.31
313.706	107.31
313.935	90.31
314.165	104.31
314.394	102.31
314.624	94.31
314.853	110.31
315.083	96.31
315.312	104.31
315.542	102.31
315.771	90.31
316.001	92.31
316.23	84.31
316.46	87.31
316.689	88.31
316.919	92.31
317.148	102.31
317.377	93.31
317.607	95.31
317.836	111.31
318.065	96.31
318.295	99.31
318.524	97.31
318.753	81.31
318.983	87.31
319.212	98.31
319.441	123.31
319.67	123.31
319.9	97.31
320.129	89.31
320.358	109.31
320.587	97.31
320.816	103.31
321.046	126.31
321.275	101.31
321.504	108.31
321.733	109.31
321.962	111.31
322.191	101.31
322.42	121.31
322.649	116.31
322.878	120.31
323.108	127.31
323.337	131.31
323.566	148.31
323.795	173.31
324.024	222.31
324.253	438.31
324.482	947.31
324.71	1888.31
324.939	2527.31
325.168	931.31
325.397	291.31
325.626	169.31
325.855	129.31
326.084	136.31
326.313	129.31
326.542	176.31
326.77	245.31
326.999	479.31
327.228	966.31
327.457	1815.31
327.686	1475.31
327.914	502.31
328.143	391.31
328.372	494.31
328.6	304.31
328.829	149.31
329.058	171.31
329.287	185.31
329.515	164.31
329.744	195.31
329.972	357.31
330.201	696.31
330.43	985.31
330.658	486.31
330.887	266.31
331.115	174.31
331.344	137.31
331.572	122.31
331.801	124.31
332.03	129.31
332.258	131.31
332.486	112.31
332.715	107.31
332.943	107.31
333.172	103.31
333.4	108.31
333.629	145.31
333.857	193.31
334.085	322.31
334.314	646.31
334.542	1199.31
334.771	1177.31
334.999	334.31
335.227	154.31
335.455	122.31
335.684	114.31
335.912	102.31
336.14	95.31
336.369	118.31
336.597	113.31
336.825	96.31
337.053	109.31
337.281	98.31
337.51	91.31
337.738	120.31
337.966	107.31
338.194	118.31
338.422	113.31
338.65	104.31
338.878	102.31
339.106	81.31
339.334	82.31
339.562	103.31
339.79	95.31
340.018	92.31
340.246	106.31
340.474	105.31
340.702	103.31
340.93	96.31
341.158	99.31
341.386	104.31
341.614	113.31
341.842	105.31
342.07	97.31
342.298	95.31
342.526	102.31
342.754	93.31
342.981	90.31
343.209	99.31
343.437	97.31
343.665	98.31
343.893	97.31
344.12	102.31
344.348	92.31
344.576	106.31
344.804	101.31
345.031	109.31
345.259	106.31
345.487	102.31
345.714	96.31
345.942	100.31
346.17	105.31
346.397	104.31
346.625	95.31
346.853	87.31
347.08	85.31
347.308	92.31
347.535	98.31
347.763	103.31
347.99	96.31
348.218	109.31
348.445	117.31
348.673	100.31
348.9	109.31
349.128	95.31
349.355	96.31
349.583	103.31
349.81	104.31
350.037	101.31
350.265	104.31
350.492	106.31
350.72	107.31
350.947	108.31
351.174	111.31
351.402	112.31
351.629	112.31
351.856	115.31
352.083	117.31
352.311	130.31
352.538	125.31
352.765	106.31
352.992	126.31
353.22	107.31
353.447	100.31
353.674	111.31
353.901	103.31
354.128	97.31
354.355	97.31
354.583	125.31
354.81	113.31
355.037	109.31
355.264	93.31
355.491	105.31
355.718	100.31
355.945	109.31
356.172	101.31
356.399	94.31
356.626	84.31
356.853	113.31
357.08	90.31
357.307	90.31
357.534	109.31
357.761	105.31
357.988	110.31
358.215	92.31
358.441	105.31
358.668	90.31
358.895	92.31
359.122	106.31
359.349	88.31
359.576	99.31
359.802	118.31
360.029	139.31
360.256	132.31
360.483	118.31
360.709	94.31
360.936	90.31
361.163	88.31
361.39	122.31
361.616	125.31
361.843	95.31
362.07	97.31
362.296	100.31
362.523	92.31
362.749	94.31
362.976	103.31
363.203	104.31
363.429	95.31
363.656	95.31
363.882	102.31
364.109	78.31
364.335	100.31
364.562	92.31
364.788	81.31
365.015	87.31
365.241	95.31
365.468	106.31
365.694	122.31
365.92	101.31
366.147	104.31
366.373	94.31
366.599	91.31
366.826	74.31
367.052	93.31
367.278	106.31
367.505	89.31
367.731	94.31
367.957	94.31
368.184	101.31
368.41	101.31
368.636	114.31
368.862	119.31
369.089	112.31
369.315	117.31
369.541	103.31
369.767	105.31
369.993	89.31
370.219	82.31
370.445	95.31
370.672	91.31
370.898	94.31
371.124	80.31
371.35	81.31
371.576	95.31
371.802	87.31
372.028	88.31
372.254	94.31
372.48	106.31
372.706	81.31
372.932	88.31
373.158	105.31
373.384	94.31
373.61	102.31
373.835	105.31
374.061	109.31
374.287	98.31
374.513	91.31
374.739	96.31
374.965	101.31
375.191	95.31
375.416	90.31
375.642	88.31
375.868	93.31
376.094	93.31
376.319	101.31
376.545	91.31
376.771	114.31
376.997	95.31
377.222	107.31
377.448	92.31
377.674	89.31
377.899	89.31
378.125	94.31
378.35	91.31
378.576	77.31
378.802	95.31
379.027	97.31
379.253	103.31
379.478	84.31
379.704	102.31
379.929	108.31
380.155	96.31
380.38	90.31
380.606	92.31
380.831	107.31
381.057	106.31
381.282	100.31
381.507	101.31
381.733	104.31
381.958	97.31
382.184	97.31
382.409	92.31
382.634	96.31
382.86	90.31
383.085	87.31
383.31	101.31
383.535	99.31
383.761	100.31
383.986	105.31
384.211	92.31
384.436	102.31
384.662	95.31
384.887	94.31
385.112	98.31
385.337	107.31
385.562	102.31
385.787	96.31
386.013	107.31
386.238	122.31
386.463	109.31
386.688	99.31
386.913	106.31
387.138	117.31
387.363	106.31
387.588	89.31
387.813	108.31
388.038	101.31
388.263	108.31
388.488	107.31
388.713	95.31
388.938	94.31
389.163	110.31
389.387	96.31
389.612	97.31
389.837	99.31
390.062	83.31
390.287	93.31
390.512	90.31
390.736	99.31
390.961	99.31
391.186	86.31
391.411	87.31
391.636	90.31
391.86	89.31
392.085	93.31
392.31	89.31
392.534	84.31
392.759	91.31
392.984	73.31
393.208	87.31
393.433	102.31
393.658	88.31
393.882	89.31
394.107	91.31
394.331	107.31
394.556	102.31
394.78	91.31
395.005	101.31
395.229	80.31
395.454	89.31
395.678	95.31
395.903	102.31
396.127	104.31
396.352	94.31
396.576	97.31
396.801	92.31
397.025	96.31
397.249	86.31
397.474	78.31
397.698	80.31
397.922	96.31
398.147	100.31
398.371	97.31
398.595	97.31
398.82	89.31
399.044	94.31
399.268	88.31
399.492	90.31
399.717	90.31
399.941	90.31
400.165	98.31
400.389	98.31
400.613	98.31
400.837	95.31
401.062	109.31
401.286	96.31
401.51	90.31
401.734	83.31
401.958	103.31
402.182	141.31
402.406	204.31
402.63	125.31
402.854	91.31
403.078	103.31
403.302	88.31
403.526	90.31
403.75	92.31
403.974	94.31
404.198	103.31
404.422	102.31
404.645	88.31
404.869	108.31
405.093	121.31
405.317	128.31
405.541	123.31
405.765	103.31
405.988	136.31
406.212	194.31
406.436	273.31
406.66	188.31
406.883	97.31
407.107	105.31
407.331	112.31
407.555	109.31
407.778	108.31
408.002	88.31
408.226	90.31
408.449	113.31
408.673	102.31
408.896	88.31
409.12	99.31
409.344	110.31
409.567	89.31
409.791	106.31
410.014	81.31
410.238	103.31
410.461	93.31
410.685	88.31
410.908	107.31
411.132	108.31
411.355	96.31
411.578	102.31
411.802	96.31
412.025	86.31
412.249	100.31
412.472	103.31
412.695	151.31
412.919	106.31
413.142	95.31
413.365	79.31
413.589	89.31
413.812	83.31
414.035	93.31
414.258	93.31
414.482	87.31
414.705	97.31
414.928	86.31
415.151	91.31
415.374	105.31
415.597	88.31
415.821	98.31
416.044	82.31
416.267	93.31
416.49	89.31
416.713	94.31
416.936	101.31
417.159	99.31
417.382	122.31
417.605	97.31
417.828	109.31
418.051	117.31
418.274	92.31
418.497	92.31
418.72	82.31
418.943	102.31
419.166	102.31
419.389	93.31
419.611	102.31
419.834	107.31
420.057	89.31
420.28	80.31
420.503	101.31
420.726	96.31
420.948	83.31
421.171	87.31
421.394	97.31
421.617	95.31
421.839	81.31
422.062	93.31
422.285	93.31
422.507	104.31
422.73	103.31
422.953	89.31
423.175	83.31
423.398	79.31
423.621	85.31
423.843	98.31
424.066	91.31
424.288	84.31
424.511	88.31
424.733	106.31
424.956	111.31
425.178	110.31
425.401	95.31
425.623	97.31
425.846	89.31
426.068	85.31
426.291	92.31
426.513	90.31
426.735	95.31
426.958	101.31
427.18	113.31
427.402	178.31
427.625	210.31
427.847	217.31
428.069	183.31
428.292	119.31
428.514	111.31
428.736	82.31
428.958	92.31
429.181	81.31
429.403	89.31
429.625	97.31
429.847	89.31
430.069	117.31
430.292	102.31
430.514	82.31
430.736	86.31
430.958	94.31
431.18	69.31
431.402	90.31
431.624	91.31
431.846	87.31
432.068	106.31
432.29	85.31
432.512	103.31
432.734	92.31
432.956	81.31
433.178	102.31
433.4	109.31
433.622	97.31
433.844	84.31
434.066	96.31
434.287	92.31
434.509	86.31
434.731	91.31
434.953	88.31
435.175	85.31
435.397	106.31
435.618	84.31
435.84	109.31
436.062	136.31
436.284	113.31
436.505	98.31
436.727	94.31
436.949	96.31
437.17	99.31
437.392	88.31
437.614	91.31
437.835	121.31
438.057	142.31
438.278	111.31
438.5	119.31
438.721	130.31
438.943	110.31
439.165	91.31
439.386	96.31
439.608	99.31
439.829	98.31
440.05	151.31
440.272	181.31
440.493	103.31
440.715	79.31
440.936	86.31
441.158	100.31
441.379	103.31
441.6	87.31
441.822	107.31
442.043	106.31
442.264	107.31
442.486	98.31
442.707	102.31
442.928	136.31
443.149	155.31
443.371	149.31
443.592	134.31
443.813	110.31
444.034	117.31
444.255	90.31
444.476	88.31
444.698	94.31
444.919	86.31
445.14	146.31
445.361	123.31
445.582	130.31
445.803	167.31
446.024	153.31
446.245	165.31
446.466	124.31
446.687	86.31
446.908	83.31
447.129	96.31
447.35	81.31
447.571	101.31
447.792	93.31
448.013	91.31
448.234	118.31
448.455	107.31
448.675	127.31
448.896	133.31
449.117	97.31
449.338	125.31
449.559	133.31
449.779	144.31
450	88.31
450.221	89.31
450.442	95.31
450.662	97.31
450.883	115.31
451.104	123.31
451.324	111.31
451.545	92.31
451.766	92.31
451.986	87.31
452.207	96.31
452.428	98.31
452.648	102.31
452.869	124.31
453.089	138.31
453.31	158.31
453.53	95.31
453.751	114.31
453.971	99.31
454.192	122.31
454.412	103.31
454.633	96.31
454.853	85.31
455.073	87.31
455.294	99.31
455.514	115.31
455.734	88.31
455.955	85.31
456.175	93.31
456.395	87.31
456.616	97.31
456.836	96.31
457.056	90.31
457.276	98.31
457.497	74.31
457.717	92.31
457.937	87.31
458.157	87.31
458.377	105.31
458.598	134.31
458.818	188.31
459.038	202.31
459.258	143.31
459.478	97.31
459.698	80.31
459.918	96.31
460.138	82.31
460.358	90.31
460.578	108.31
460.798	92.31
461.018	107.31
461.238	89.31
461.458	92.31
461.678	101.31
461.898	95.31
462.118	80.31
462.338	80.31
462.558	107.31
462.777	89.31
462.997	97.31
463.217	97.31
463.437	91.31
463.657	104.31
463.876	84.31
464.096	94.31
464.316	92.31
464.536	93.31
464.755	92.31
464.975	128.31
465.195	238.31
465.414	225.31
465.634	98.31
465.854	83.31
466.073	89.31
466.293	93.31
466.512	87.31
466.732	91.31
466.951	91.31
467.171	102.31
467.391	102.31
467.61	140.31
467.829	178.31
468.049	401.31
468.268	557.31
468.488	180.31
468.707	83.31
468.927	92.31
469.146	101.31
469.365	83.31
469.585	85.31
469.804	98.31
470.023	110.31
470.243	114.31
470.462	123.31
470.681	114.31
470.901	101.31
471.12	97.31
471.339	114.31
471.558	103.31
471.777	142.31
471.997	230.31
472.216	763.31
472.435	1633.31
472.654	426.31
472.873	142.31
473.092	94.31
473.311	93.31
473.53	97.31
473.749	88.31
473.968	105.31
474.187	131.31
474.406	105.31
474.625	81.31
474.844	103.31
475.063	97.31
475.282	85.31
475.501	88.31
475.72	97.31
475.939	85.31
476.158	91.31
476.377	95.31
476.596	98.31
476.814	106.31
477.033	80.31
477.252	87.31
477.471	99.31
477.69	86.31
477.908	90.31
478.127	86.31
478.346	94.31
478.564	95.31
478.783	115.31
479.002	93.31
479.22	97.31
479.439	108.31
479.658	142.31
479.876	117.31
480.095	120.31
480.313	123.31
480.532	127.31
480.751	215.31
480.969	681.31
481.188	2741.31
481.406	1743.31
481.624	277.31
481.843	119.31
482.061	95.31
482.28	97.31
482.498	92.31
482.717	85.31
482.935	102.31
483.153	97.31
483.372	91.31
483.59	105.31
483.808	92.31
484.027	96.31
484.245	102.31
484.463	98.31
484.681	95.31
484.9	96.31
485.118	94.31
485.336	95.31
485.554	98.31
485.772	97.31
485.99	90.31
486.209	97.31
486.427	96.31
486.645	131.31
486.863	123.31
487.081	104.31
487.299	95.31
487.517	110.31
487.735	98.31
487.953	86.31
488.171	102.31
488.389	83.31
488.607	100.31
488.825	99.31
489.043	94.31
489.261	105.31
489.479	86.31
489.696	89.31
489.914	87.31
490.132	92.31
490.35	85.31
490.568	107.31
490.786	99.31
491.003	95.31
491.221	101.31
491.439	97.31
491.657	103.31
491.874	93.31
492.092	93.31
492.31	93.31
492.527	110.31
492.745	98.31
492.963	111.31
493.18	98.31
493.398	95.31
493.615	107.31
493.833	75.31
494.05	94.31
494.268	97.31
494.485	88.31
494.703	98.31
494.92	95.31
495.138	100.31
495.355	81.31
495.573	79.31
495.79	88.31
496.008	105.31
496.225	105.31
496.442	106.31
496.66	93.31
496.877	87.31
497.094	94.31
497.312	101.31
497.529	93.31
497.746	86.31
497.963	103.31
498.181	99.31
498.398	94.31
498.615	126.31
498.832	120.31
499.049	91.31
499.267	96.31
499.484	95.31
499.701	90.31
499.918	107.31
500.135	86.31
500.352	93.31
500.569	94.31
500.786	110.31
501.003	86.31
501.22	101.31
501.437	84.31
501.654	93.31
501.871	137.31
502.088	110.31
502.305	98.31
502.522	106.31
502.739	101.31
502.956	76.31
503.172	85.31
503.389	113.31
503.606	115.31
503.823	96.31
504.04	92.31
504.256	92.31
504.473	95.31
504.69	103.31
504.907	102.31
505.123	98.31
505.34	97.31
505.557	107.31
505.773	95.31
505.99	87.31
506.207	88.31
506.423	86.31
506.64	100.31
506.856	92.31
507.073	92.31
507.289	90.31
507.506	101.31
507.722	128.31
507.939	119.31
508.155	97.31
508.372	85.31
508.588	100.31
508.805	96.31
509.021	100.31
509.238	98.31
509.454	112.31
509.67	98.31
509.887	106.31
510.103	133.31
510.319	225.31
510.536	791.31
510.752	2683.31
510.968	766.31
511.184	171.31
511.401	129.31
511.617	113.31
511.833	102.31
512.049	117.31
512.265	93.31
512.481	75.31
