Data from Circ_2013_H10_HRD10591_00089.txt Node
Date: Wed Jan 03 10:04:18 EST 2024
User: Yrep
Spectrometer: HR+D1059
Trigger mode: 1
Integration Time (sec): 1.000000E-1
Scans to average: 1
Electric dark correction enabled: true
Nonlinearity correction enabled: false
Boxcar width: 0
XAxis mode: Wavelengths
Number of Pixels in Spectrum: 2048
>>>>>Begin Spectral Data<<<<<
223.165	-22.25
223.4	-22.25
223.635	-22.25
223.869	-19.25
224.104	-15.25
224.338	-18.25
224.573	-18.25
224.808	-25.25
225.042	-0.25
225.277	0.75
225.511	7.75
225.746	-7.25
225.98	5.75
226.215	2.75
226.449	18.75
226.683	21.75
226.918	39.75
227.152	28.75
227.387	48.75
227.621	32.75
227.856	37.75
228.09	54.75
228.324	63.75
228.559	56.75
228.793	59.75
229.027	72.75
229.262	62.75
229.496	69.75
229.73	91.75
229.964	92.75
230.199	75.75
230.433	72.75
230.667	71.75
230.901	87.75
231.136	68.75
231.37	78.75
231.604	79.75
231.838	85.75
232.072	69.75
232.306	74.75
232.541	67.75
232.775	77.75
233.009	80.75
233.243	81.75
233.477	79.75
233.711	81.75
233.945	78.75
234.179	80.75
234.413	86.75
234.647	84.75
234.881	86.75
235.115	77.75
235.349	80.75
235.583	92.75
235.817	102.75
236.051	63.75
236.285	64.75
236.519	78.75
236.753	89.75
236.987	77.75
237.221	96.75
237.455	94.75
237.689	68.75
237.922	89.75
238.156	79.75
238.39	82.75
238.624	74.75
238.858	84.75
239.091	65.75
239.325	86.75
239.559	85.75
239.793	85.75
240.027	87.75
240.26	86.75
240.494	80.75
240.728	65.75
240.961	87.75
241.195	81.75
241.429	89.75
241.662	69.75
241.896	81.75
242.13	73.75
242.363	89.75
242.597	86.75
242.83	80.75
243.064	72.75
243.298	74.75
243.531	84.75
243.765	79.75
243.998	82.75
244.232	80.75
244.465	81.75
244.699	92.75
244.932	78.75
245.166	84.75
245.399	83.75
245.633	80.75
245.866	85.75
246.099	82.75
246.333	92.75
246.566	71.75
246.8	58.75
247.033	82.75
247.266	81.75
247.5	90.75
247.733	87.75
247.966	86.75
248.2	87.75
248.433	61.75
248.666	79.75
248.899	89.75
249.133	84.75
249.366	106.75
249.599	101.75
249.832	91.75
250.066	88.75
250.299	89.75
250.532	82.75
250.765	88.75
250.998	80.75
251.231	76.75
251.465	85.75
251.698	96.75
251.931	87.75
252.164	77.75
252.397	74.75
252.63	84.75
252.863	75.75
253.096	87.75
253.329	91.75
253.562	74.75
253.795	78.75
254.028	93.75
254.261	88.75
254.494	89.75
254.727	104.75
254.96	84.75
255.193	78.75
255.426	79.75
255.659	84.75
255.892	92.75
256.124	85.75
256.357	79.75
256.59	79.75
256.823	65.75
257.056	82.75
257.289	89.75
257.521	107.75
257.754	73.75
257.987	88.75
258.22	90.75
258.452	79.75
258.685	89.75
258.918	71.75
259.151	78.75
259.383	89.75
259.616	95.75
259.849	85.75
260.081	85.75
260.314	96.75
260.547	90.75
260.779	97.75
261.012	90.75
261.244	89.75
261.477	106.75
261.71	94.75
261.942	112.75
262.175	109.75
262.407	87.75
262.64	89.75
262.872	85.75
263.105	79.75
263.337	93.75
263.57	80.75
263.802	88.75
264.035	90.75
264.267	84.75
264.499	100.75
264.732	89.75
264.964	90.75
265.197	91.75
265.429	82.75
265.661	89.75
265.894	91.75
266.126	85.75
266.358	84.75
266.591	76.75
266.823	92.75
267.055	89.75
267.287	90.75
267.52	91.75
267.752	80.75
267.984	94.75
268.216	91.75
268.448	81.75
268.681	100.75
268.913	83.75
269.145	90.75
269.377	91.75
269.609	91.75
269.841	99.75
270.073	84.75
270.306	80.75
270.538	78.75
270.77	82.75
271.002	95.75
271.234	81.75
271.466	86.75
271.698	89.75
271.93	86.75
272.162	80.75
272.394	81.75
272.626	85.75
272.858	75.75
273.09	78.75
273.322	89.75
273.553	91.75
273.785	93.75
274.017	92.75
274.249	88.75
274.481	103.75
274.713	77.75
274.945	96.75
275.176	90.75
275.408	103.75
275.64	103.75
275.872	109.75
276.104	103.75
276.335	90.75
276.567	119.75
276.799	118.75
277.031	116.75
277.262	145.75
277.494	137.75
277.726	88.75
277.957	90.75
278.189	91.75
278.421	84.75
278.652	86.75
278.884	88.75
279.115	98.75
279.347	87.75
279.579	108.75
279.81	116.75
280.042	141.75
280.273	172.75
280.505	134.75
280.736	93.75
280.968	93.75
281.199	82.75
281.431	81.75
281.662	105.75
281.894	103.75
282.125	92.75
282.356	137.75
282.588	156.75
282.819	121.75
283.051	94.75
283.282	92.75
283.513	93.75
283.745	92.75
283.976	85.75
284.207	75.75
284.439	98.75
284.67	76.75
284.901	116.75
285.132	100.75
285.364	89.75
285.595	86.75
285.826	85.75
286.057	108.75
286.288	96.75
286.52	80.75
286.751	81.75
286.982	101.75
287.213	93.75
287.444	110.75
287.675	86.75
287.906	96.75
288.138	96.75
288.369	85.75
288.6	97.75
288.831	82.75
289.062	87.75
289.293	89.75
289.524	96.75
289.755	90.75
289.986	92.75
290.217	89.75
290.448	95.75
290.679	91.75
290.91	107.75
291.141	102.75
291.371	93.75
291.602	97.75
291.833	85.75
292.064	81.75
292.295	92.75
292.526	97.75
292.757	87.75
292.987	86.75
293.218	89.75
293.449	87.75
293.68	87.75
293.91	79.75
294.141	94.75
294.372	98.75
294.603	103.75
294.833	87.75
295.064	84.75
295.295	89.75
295.525	88.75
295.756	98.75
295.987	118.75
296.217	154.75
296.448	133.75
296.679	91.75
296.909	87.75
297.14	94.75
297.37	79.75
297.601	97.75
297.831	95.75
298.062	105.75
298.292	95.75
298.523	90.75
298.753	97.75
298.984	84.75
299.214	82.75
299.445	95.75
299.675	101.75
299.905	87.75
300.136	91.75
300.366	96.75
300.597	99.75
300.827	96.75
301.057	96.75
301.288	99.75
301.518	85.75
301.748	90.75
301.979	98.75
302.209	101.75
302.439	113.75
302.669	109.75
302.9	102.75
303.13	92.75
303.36	107.75
303.59	120.75
303.82	130.75
304.051	107.75
304.281	92.75
304.511	81.75
304.741	90.75
304.971	108.75
305.201	99.75
305.431	98.75
305.661	100.75
305.891	97.75
306.121	99.75
306.352	96.75
306.582	95.75
306.812	108.75
307.042	106.75
307.272	110.75
307.502	132.75
307.731	137.75
307.961	109.75
308.191	82.75
308.421	106.75
308.651	100.75
308.881	101.75
309.111	77.75
309.341	93.75
309.571	108.75
309.8	92.75
310.03	116.75
310.26	104.75
310.49	106.75
310.72	98.75
310.949	115.75
311.179	121.75
311.409	95.75
311.639	105.75
311.868	98.75
312.098	109.75
312.328	105.75
312.557	109.75
312.787	118.75
313.017	114.75
313.246	108.75
313.476	100.75
313.706	97.75
313.935	86.75
314.165	99.75
314.394	122.75
314.624	105.75
314.853	96.75
315.083	104.75
315.312	96.75
315.542	93.75
315.771	100.75
316.001	88.75
316.23	82.75
316.46	103.75
316.689	103.75
316.919	98.75
317.148	110.75
317.377	99.75
317.607	105.75
317.836	95.75
318.065	97.75
318.295	93.75
318.524	108.75
318.753	109.75
318.983	91.75
319.212	120.75
319.441	104.75
319.67	108.75
319.9	88.75
320.129	100.75
320.358	98.75
320.587	107.75
320.816	115.75
321.046	114.75
321.275	105.75
321.504	102.75
321.733	87.75
321.962	90.75
322.191	94.75
322.42	107.75
322.649	129.75
322.878	124.75
323.108	130.75
323.337	118.75
323.566	167.75
323.795	158.75
324.024	230.75
324.253	465.75
324.482	968.75
324.71	2027.75
324.939	2696.75
325.168	971.75
325.397	289.75
325.626	164.75
325.855	134.75
326.084	134.75
326.313	146.75
326.542	173.75
326.77	255.75
326.999	547.75
327.228	1100.75
327.457	2040.75
327.686	1606.75
327.914	481.75
328.143	361.75
328.372	424.75
328.6	250.75
328.829	157.75
329.058	167.75
329.287	170.75
329.515	147.75
329.744	196.75
329.972	296.75
330.201	574.75
330.43	798.75
330.658	416.75
330.887	219.75
331.115	165.75
331.344	127.75
331.572	117.75
331.801	123.75
332.03	105.75
332.258	100.75
332.486	105.75
332.715	111.75
332.943	108.75
333.172	108.75
333.4	108.75
333.629	142.75
333.857	174.75
334.085	289.75
334.314	538.75
334.542	1016.75
334.771	994.75
334.999	288.75
335.227	116.75
335.455	108.75
335.684	105.75
335.912	103.75
336.14	111.75
336.369	101.75
336.597	120.75
336.825	108.75
337.053	94.75
337.281	108.75
337.51	96.75
337.738	103.75
337.966	87.75
338.194	96.75
338.422	100.75
338.65	85.75
338.878	105.75
339.106	83.75
339.334	103.75
339.562	99.75
339.79	92.75
340.018	102.75
340.246	97.75
340.474	109.75
340.702	111.75
340.93	91.75
341.158	103.75
341.386	92.75
341.614	96.75
341.842	85.75
342.07	106.75
342.298	100.75
342.526	97.75
342.754	90.75
342.981	104.75
343.209	88.75
343.437	93.75
343.665	86.75
343.893	98.75
344.12	89.75
344.348	102.75
344.576	91.75
344.804	95.75
345.031	106.75
345.259	113.75
345.487	108.75
345.714	91.75
345.942	97.75
346.17	105.75
346.397	105.75
346.625	92.75
346.853	96.75
347.08	96.75
347.308	103.75
347.535	104.75
347.763	100.75
347.99	96.75
348.218	106.75
348.445	105.75
348.673	99.75
348.9	118.75
349.128	105.75
349.355	109.75
349.583	101.75
349.81	109.75
350.037	97.75
350.265	101.75
350.492	99.75
350.72	92.75
350.947	92.75
351.174	100.75
351.402	112.75
351.629	104.75
351.856	92.75
352.083	105.75
352.311	121.75
352.538	120.75
352.765	129.75
352.992	119.75
353.22	101.75
353.447	101.75
353.674	109.75
353.901	101.75
354.128	85.75
354.355	89.75
354.583	99.75
354.81	106.75
355.037	84.75
355.264	98.75
355.491	99.75
355.718	103.75
355.945	104.75
356.172	104.75
356.399	105.75
356.626	96.75
356.853	78.75
357.08	92.75
357.307	91.75
357.534	92.75
357.761	98.75
357.988	111.75
358.215	102.75
358.441	103.75
358.668	87.75
358.895	85.75
359.122	84.75
359.349	97.75
359.576	95.75
359.802	107.75
360.029	128.75
360.256	140.75
360.483	102.75
360.709	93.75
360.936	104.75
361.163	88.75
361.39	95.75
361.616	103.75
361.843	85.75
362.07	98.75
362.296	110.75
362.523	103.75
362.749	92.75
362.976	102.75
363.203	111.75
363.429	93.75
363.656	104.75
363.882	81.75
364.109	95.75
364.335	89.75
364.562	93.75
364.788	89.75
365.015	102.75
365.241	93.75
365.468	104.75
365.694	94.75
365.92	100.75
366.147	105.75
366.373	93.75
366.599	87.75
366.826	92.75
367.052	87.75
367.278	100.75
367.505	81.75
367.731	92.75
367.957	95.75
368.184	88.75
368.41	102.75
368.636	113.75
368.862	125.75
369.089	100.75
369.315	89.75
369.541	96.75
369.767	86.75
369.993	99.75
370.219	113.75
370.445	92.75
370.672	85.75
370.898	97.75
371.124	86.75
371.35	91.75
371.576	96.75
371.802	97.75
372.028	85.75
372.254	92.75
372.48	95.75
372.706	92.75
372.932	100.75
373.158	96.75
373.384	88.75
373.61	88.75
373.835	81.75
374.061	82.75
374.287	96.75
374.513	96.75
374.739	89.75
374.965	109.75
375.191	85.75
375.416	86.75
375.642	93.75
375.868	103.75
376.094	86.75
376.319	86.75
376.545	94.75
376.771	88.75
376.997	94.75
377.222	98.75
377.448	103.75
377.674	100.75
377.899	92.75
378.125	95.75
378.35	94.75
378.576	88.75
378.802	94.75
379.027	86.75
379.253	84.75
379.478	99.75
379.704	109.75
379.929	96.75
380.155	99.75
380.38	82.75
380.606	101.75
380.831	88.75
381.057	112.75
381.282	103.75
381.507	89.75
381.733	96.75
381.958	93.75
382.184	105.75
382.409	90.75
382.634	103.75
382.86	100.75
383.085	101.75
383.31	104.75
383.535	86.75
383.761	93.75
383.986	93.75
384.211	92.75
384.436	96.75
384.662	101.75
384.887	95.75
385.112	111.75
385.337	108.75
385.562	93.75
385.787	100.75
386.013	101.75
386.238	109.75
386.463	113.75
386.688	94.75
386.913	106.75
387.138	101.75
387.363	101.75
387.588	111.75
387.813	100.75
388.038	109.75
388.263	111.75
388.488	122.75
388.713	91.75
388.938	102.75
389.163	87.75
389.387	95.75
389.612	94.75
389.837	94.75
390.062	103.75
390.287	86.75
390.512	90.75
390.736	91.75
390.961	78.75
391.186	91.75
391.411	76.75
391.636	92.75
391.86	92.75
392.085	87.75
392.31	83.75
392.534	84.75
392.759	87.75
392.984	88.75
393.208	97.75
393.433	86.75
393.658	83.75
393.882	87.75
394.107	84.75
394.331	98.75
394.556	92.75
394.78	106.75
395.005	93.75
395.229	101.75
395.454	92.75
395.678	93.75
395.903	90.75
396.127	93.75
396.352	97.75
396.576	100.75
396.801	92.75
397.025	96.75
397.249	86.75
397.474	95.75
397.698	93.75
397.922	79.75
398.147	83.75
398.371	93.75
398.595	91.75
398.82	83.75
399.044	76.75
399.268	89.75
399.492	101.75
399.717	88.75
399.941	88.75
400.165	90.75
400.389	95.75
400.613	94.75
400.837	84.75
401.062	94.75
401.286	101.75
401.51	102.75
401.734	102.75
401.958	106.75
402.182	138.75
402.406	182.75
402.63	129.75
402.854	93.75
403.078	94.75
403.302	91.75
403.526	109.75
403.75	75.75
403.974	79.75
404.198	95.75
404.422	97.75
404.645	93.75
404.869	105.75
405.093	128.75
405.317	134.75
405.541	121.75
405.765	119.75
405.988	129.75
406.212	187.75
406.436	252.75
406.66	170.75
406.883	103.75
407.107	97.75
407.331	106.75
407.555	102.75
407.778	118.75
408.002	94.75
408.226	93.75
408.449	82.75
408.673	92.75
408.896	86.75
409.12	116.75
409.344	93.75
409.567	87.75
409.791	103.75
410.014	98.75
410.238	95.75
410.461	101.75
410.685	96.75
410.908	88.75
411.132	103.75
411.355	102.75
411.578	100.75
411.802	89.75
412.025	80.75
412.249	95.75
412.472	108.75
412.695	134.75
412.919	102.75
413.142	99.75
413.365	91.75
413.589	92.75
413.812	98.75
414.035	98.75
414.258	95.75
414.482	104.75
414.705	88.75
414.928	81.75
415.151	103.75
415.374	100.75
415.597	78.75
415.821	88.75
416.044	101.75
416.267	76.75
416.49	91.75
416.713	85.75
416.936	90.75
417.159	86.75
417.382	97.75
417.605	101.75
417.828	100.75
418.051	79.75
418.274	93.75
418.497	85.75
418.72	94.75
418.943	80.75
419.166	93.75
419.389	98.75
419.611	93.75
419.834	90.75
420.057	89.75
420.28	95.75
420.503	82.75
420.726	93.75
420.948	96.75
421.171	100.75
421.394	107.75
421.617	91.75
421.839	96.75
422.062	80.75
422.285	95.75
422.507	92.75
422.73	120.75
422.953	97.75
423.175	91.75
423.398	90.75
423.621	94.75
423.843	113.75
424.066	96.75
424.288	92.75
424.511	89.75
424.733	100.75
424.956	110.75
425.178	101.75
425.401	104.75
425.623	105.75
425.846	90.75
426.068	96.75
426.291	104.75
426.513	94.75
426.735	96.75
426.958	100.75
427.18	118.75
427.402	166.75
427.625	223.75
427.847	206.75
428.069	191.75
428.292	113.75
428.514	99.75
428.736	88.75
428.958	78.75
429.181	73.75
429.403	87.75
429.625	91.75
429.847	89.75
430.069	112.75
430.292	89.75
430.514	101.75
430.736	97.75
430.958	99.75
431.18	79.75
431.402	88.75
431.624	111.75
431.846	88.75
432.068	93.75
432.29	84.75
432.512	87.75
432.734	82.75
432.956	81.75
433.178	107.75
433.4	111.75
433.622	104.75
433.844	93.75
434.066	82.75
434.287	88.75
434.509	92.75
434.731	96.75
434.953	103.75
435.175	93.75
435.397	97.75
435.618	90.75
435.84	108.75
436.062	141.75
436.284	118.75
436.505	103.75
436.727	104.75
436.949	103.75
437.17	96.75
437.392	94.75
437.614	98.75
437.835	109.75
438.057	143.75
438.278	113.75
438.5	118.75
438.721	132.75
438.943	104.75
439.165	97.75
439.386	93.75
439.608	90.75
439.829	117.75
440.05	144.75
440.272	169.75
440.493	102.75
440.715	101.75
440.936	90.75
441.158	78.75
441.379	90.75
441.6	112.75
441.822	94.75
442.043	104.75
442.264	113.75
442.486	106.75
442.707	107.75
442.928	113.75
443.149	152.75
443.371	146.75
443.592	118.75
443.813	124.75
444.034	115.75
444.255	102.75
444.476	91.75
444.698	83.75
444.919	83.75
445.14	145.75
445.361	148.75
445.582	130.75
445.803	164.75
446.024	156.75
446.245	163.75
446.466	141.75
446.687	94.75
446.908	106.75
447.129	108.75
447.35	79.75
447.571	94.75
447.792	103.75
448.013	97.75
448.234	108.75
448.455	108.75
448.675	108.75
448.896	130.75
449.117	105.75
449.338	111.75
449.559	140.75
449.779	138.75
450	108.75
450.221	89.75
450.442	78.75
450.662	93.75
450.883	109.75
451.104	123.75
451.324	120.75
451.545	74.75
451.766	86.75
451.986	101.75
452.207	106.75
452.428	100.75
452.648	106.75
452.869	134.75
453.089	111.75
453.31	127.75
453.53	93.75
453.751	82.75
453.971	109.75
454.192	132.75
454.412	111.75
454.633	85.75
454.853	89.75
455.073	86.75
455.294	111.75
455.514	114.75
455.734	93.75
455.955	88.75
456.175	95.75
456.395	71.75
456.616	77.75
456.836	96.75
457.056	76.75
457.276	86.75
457.497	93.75
457.717	86.75
457.937	98.75
458.157	72.75
458.377	108.75
458.598	121.75
458.818	169.75
459.038	188.75
459.258	136.75
459.478	102.75
459.698	101.75
459.918	96.75
460.138	92.75
460.358	85.75
460.578	79.75
460.798	97.75
461.018	92.75
461.238	92.75
461.458	81.75
461.678	70.75
461.898	86.75
462.118	82.75
462.338	98.75
462.558	91.75
462.777	72.75
462.997	94.75
463.217	112.75
463.437	87.75
463.657	85.75
463.876	94.75
464.096	86.75
464.316	100.75
464.536	87.75
464.755	94.75
464.975	124.75
465.195	183.75
465.414	195.75
465.634	119.75
465.854	103.75
466.073	104.75
466.293	99.75
466.512	95.75
466.732	87.75
466.951	88.75
467.171	91.75
467.391	96.75
467.61	122.75
467.829	160.75
468.049	315.75
468.268	473.75
468.488	144.75
468.707	95.75
468.927	72.75
469.146	84.75
469.365	98.75
469.585	93.75
469.804	104.75
470.023	96.75
470.243	104.75
470.462	116.75
470.681	124.75
470.901	102.75
471.12	105.75
471.339	107.75
471.558	99.75
471.777	114.75
471.997	210.75
472.216	613.75
472.435	1352.75
472.654	384.75
472.873	126.75
473.092	109.75
473.311	89.75
473.53	88.75
473.749	93.75
473.968	101.75
474.187	114.75
474.406	101.75
474.625	102.75
474.844	79.75
475.063	93.75
475.282	103.75
475.501	92.75
475.72	92.75
475.939	89.75
476.158	95.75
476.377	96.75
476.596	81.75
476.814	88.75
477.033	100.75
477.252	80.75
477.471	82.75
477.69	88.75
477.908	92.75
478.127	98.75
478.346	92.75
478.564	89.75
478.783	85.75
479.002	113.75
479.22	106.75
479.439	119.75
479.658	113.75
479.876	124.75
480.095	117.75
480.313	112.75
480.532	125.75
480.751	203.75
480.969	570.75
481.188	2300.75
481.406	1411.75
481.624	236.75
481.843	124.75
482.061	101.75
482.28	94.75
482.498	89.75
482.717	86.75
482.935	82.75
483.153	76.75
483.372	90.75
483.59	91.75
483.808	81.75
484.027	83.75
484.245	87.75
484.463	103.75
484.681	98.75
484.9	90.75
485.118	103.75
485.336	87.75
485.554	95.75
485.772	103.75
485.99	113.75
486.209	103.75
486.427	98.75
486.645	120.75
486.863	125.75
487.081	101.75
487.299	92.75
487.517	99.75
487.735	96.75
487.953	92.75
488.171	98.75
488.389	90.75
488.607	91.75
488.825	94.75
489.043	101.75
489.261	82.75
489.479	90.75
489.696	85.75
489.914	98.75
490.132	79.75
490.35	100.75
490.568	88.75
490.786	105.75
491.003	96.75
491.221	97.75
491.439	80.75
491.657	93.75
491.874	101.75
492.092	105.75
492.31	79.75
492.527	99.75
492.745	108.75
492.963	86.75
493.18	89.75
493.398	84.75
493.615	104.75
493.833	98.75
494.05	87.75
494.268	86.75
494.485	97.75
494.703	93.75
494.92	89.75
495.138	102.75
495.355	89.75
495.573	88.75
495.79	87.75
496.008	87.75
496.225	81.75
496.442	101.75
496.66	85.75
496.877	85.75
497.094	81.75
497.312	82.75
497.529	78.75
497.746	101.75
497.963	103.75
498.181	93.75
498.398	103.75
498.615	124.75
498.832	105.75
499.049	95.75
499.267	77.75
499.484	56.75
499.701	91.75
499.918	100.75
500.135	91.75
500.352	89.75
500.569	93.75
500.786	98.75
501.003	99.75
501.22	93.75
501.437	103.75
501.654	97.75
501.871	107.75
502.088	87.75
502.305	98.75
502.522	88.75
502.739	88.75
502.956	87.75
503.172	85.75
503.389	89.75
503.606	114.75
503.823	97.75
504.04	91.75
504.256	91.75
504.473	74.75
504.69	104.75
504.907	102.75
505.123	82.75
505.34	81.75
505.557	87.75
505.773	95.75
505.99	103.75
506.207	82.75
506.423	93.75
506.64	99.75
506.856	95.75
507.073	83.75
507.289	104.75
507.506	108.75
507.722	132.75
507.939	123.75
508.155	98.75
508.372	82.75
508.588	90.75
508.805	97.75
509.021	94.75
509.238	106.75
509.454	105.75
509.67	95.75
509.887	120.75
510.103	134.75
510.319	223.75
510.536	715.75
510.752	2400.75
510.968	696.75
511.184	178.75
511.401	101.75
511.617	99.75
511.833	111.75
512.049	113.75
512.265	108.75
512.481	96.75
512.698	102.75
512.914	90.75
513.13	90.75
