Data from Circ_2013_H10_HRD10591_00100.txt Node
Date: Wed Jan 03 10:04:20 EST 2024
User: Yrep
Spectrometer: HR+D1059
Trigger mode: 1
Integration Time (sec): 1.000000E-1
Scans to average: 1
Electric dark correction enabled: true
Nonlinearity correction enabled: false
Boxcar width: 0
XAxis mode: Wavelengths
Number of Pixels in Spectrum: 2048
>>>>>Begin Spectral Data<<<<<
223.165	-22.06
223.4	-22.06
223.635	-22.06
223.869	-19.06
224.104	-22.06
224.338	-6.06
224.573	-13.06
224.808	-5.06
225.042	-14.06
225.277	-13.06
225.511	-1.06
225.746	1.94
225.98	6.94
226.215	18.94
226.449	9.94
226.683	22.94
226.918	20.94
227.152	33.94
227.387	44.94
227.621	48.94
227.856	35.94
228.09	44.94
228.324	52.94
228.559	56.94
228.793	73.94
229.027	64.94
229.262	75.94
229.496	54.94
229.73	77.94
229.964	87.94
230.199	88.94
230.433	64.94
230.667	73.94
230.901	75.94
231.136	88.94
231.37	75.94
231.604	85.94
231.838	87.94
232.072	84.94
232.306	81.94
232.541	83.94
232.775	77.94
233.009	68.94
233.243	74.94
233.477	83.94
233.711	72.94
233.945	67.94
234.179	88.94
234.413	84.94
234.647	83.94
234.881	84.94
235.115	70.94
235.349	77.94
235.583	78.94
235.817	76.94
236.051	77.94
236.285	69.94
236.519	76.94
236.753	68.94
236.987	69.94
237.221	89.94
237.455	94.94
237.689	71.94
237.922	75.94
238.156	76.94
238.39	78.94
238.624	77.94
238.858	77.94
239.091	84.94
239.325	76.94
239.559	70.94
239.793	81.94
240.027	99.94
240.26	85.94
240.494	72.94
240.728	66.94
240.961	82.94
241.195	98.94
241.429	84.94
241.662	73.94
241.896	81.94
242.13	81.94
242.363	64.94
242.597	75.94
242.83	80.94
243.064	76.94
243.298	86.94
243.531	65.94
243.765	79.94
243.998	69.94
244.232	72.94
244.465	82.94
244.699	89.94
244.932	76.94
245.166	91.94
245.399	81.94
245.633	84.94
245.866	54.94
246.099	78.94
246.333	74.94
246.566	80.94
246.8	75.94
247.033	79.94
247.266	76.94
247.5	78.94
247.733	81.94
247.966	78.94
248.2	76.94
248.433	81.94
248.666	82.94
248.899	76.94
249.133	74.94
249.366	106.94
249.599	92.94
249.832	82.94
250.066	75.94
250.299	87.94
250.532	91.94
250.765	94.94
250.998	74.94
251.231	86.94
251.465	77.94
251.698	71.94
251.931	88.94
252.164	80.94
252.397	83.94
252.63	75.94
252.863	84.94
253.096	66.94
253.329	83.94
253.562	84.94
253.795	83.94
254.028	81.94
254.261	86.94
254.494	77.94
254.727	82.94
254.96	85.94
255.193	87.94
255.426	75.94
255.659	84.94
255.892	80.94
256.124	103.94
256.357	85.94
256.59	76.94
256.823	63.94
257.056	74.94
257.289	78.94
257.521	86.94
257.754	89.94
257.987	77.94
258.22	84.94
258.452	85.94
258.685	84.94
258.918	78.94
259.151	80.94
259.383	78.94
259.616	83.94
259.849	72.94
260.081	68.94
260.314	75.94
260.547	99.94
260.779	94.94
261.012	102.94
261.244	88.94
261.477	77.94
261.71	101.94
261.942	104.94
262.175	125.94
262.407	80.94
262.64	72.94
262.872	84.94
263.105	74.94
263.337	74.94
263.57	81.94
263.802	86.94
264.035	82.94
264.267	84.94
264.499	83.94
264.732	90.94
264.964	98.94
265.197	79.94
265.429	79.94
265.661	91.94
265.894	69.94
266.126	85.94
266.358	77.94
266.591	81.94
266.823	91.94
267.055	77.94
267.287	74.94
267.52	80.94
267.752	93.94
267.984	89.94
268.216	76.94
268.448	78.94
268.681	78.94
268.913	77.94
269.145	83.94
269.377	88.94
269.609	96.94
269.841	79.94
270.073	85.94
270.306	82.94
270.538	85.94
270.77	76.94
271.002	97.94
271.234	85.94
271.466	86.94
271.698	76.94
271.93	78.94
272.162	79.94
272.394	77.94
272.626	70.94
272.858	89.94
273.09	85.94
273.322	76.94
273.553	98.94
273.785	87.94
274.017	90.94
274.249	89.94
274.481	81.94
274.713	97.94
274.945	86.94
275.176	89.94
275.408	91.94
275.64	102.94
275.872	96.94
276.104	89.94
276.335	97.94
276.567	115.94
276.799	120.94
277.031	139.94
277.262	132.94
277.494	130.94
277.726	87.94
277.957	81.94
278.189	74.94
278.421	85.94
278.652	81.94
278.884	89.94
279.115	87.94
279.347	101.94
279.579	94.94
279.81	114.94
280.042	145.94
280.273	183.94
280.505	157.94
280.736	90.94
280.968	83.94
281.199	80.94
281.431	86.94
281.662	78.94
281.894	83.94
282.125	100.94
282.356	123.94
282.588	142.94
282.819	128.94
283.051	94.94
283.282	94.94
283.513	92.94
283.745	91.94
283.976	84.94
284.207	96.94
284.439	84.94
284.67	78.94
284.901	89.94
285.132	87.94
285.364	88.94
285.595	87.94
285.826	87.94
286.057	89.94
286.288	104.94
286.52	82.94
286.751	88.94
286.982	85.94
287.213	99.94
287.444	96.94
287.675	78.94
287.906	76.94
288.138	80.94
288.369	94.94
288.6	90.94
288.831	92.94
289.062	90.94
289.293	81.94
289.524	75.94
289.755	91.94
289.986	76.94
290.217	87.94
290.448	94.94
290.679	88.94
290.91	89.94
291.141	78.94
291.371	92.94
291.602	85.94
291.833	84.94
292.064	81.94
292.295	81.94
292.526	68.94
292.757	83.94
292.987	84.94
293.218	84.94
293.449	83.94
293.68	90.94
293.91	75.94
294.141	84.94
294.372	87.94
294.603	96.94
294.833	88.94
295.064	85.94
295.295	83.94
295.525	87.94
295.756	104.94
295.987	110.94
296.217	144.94
296.448	130.94
296.679	96.94
296.909	94.94
297.14	88.94
297.37	78.94
297.601	105.94
297.831	81.94
298.062	86.94
298.292	75.94
298.523	79.94
298.753	78.94
298.984	88.94
299.214	90.94
299.445	95.94
299.675	93.94
299.905	80.94
300.136	93.94
300.366	94.94
300.597	89.94
300.827	96.94
301.057	98.94
301.288	100.94
301.518	98.94
301.748	92.94
301.979	105.94
302.209	96.94
302.439	88.94
302.669	89.94
302.9	88.94
303.13	86.94
303.36	99.94
303.59	128.94
303.82	114.94
304.051	89.94
304.281	94.94
304.511	109.94
304.741	86.94
304.971	88.94
305.201	89.94
305.431	90.94
305.661	87.94
305.891	83.94
306.121	105.94
306.352	113.94
306.582	92.94
306.812	109.94
307.042	99.94
307.272	132.94
307.502	139.94
307.731	131.94
307.961	106.94
308.191	91.94
308.421	91.94
308.651	91.94
308.881	84.94
309.111	100.94
309.341	95.94
309.571	96.94
309.8	80.94
310.03	88.94
310.26	99.94
310.49	94.94
310.72	106.94
310.949	102.94
311.179	101.94
311.409	103.94
311.639	87.94
311.868	93.94
312.098	82.94
312.328	90.94
312.557	114.94
312.787	124.94
313.017	101.94
313.246	104.94
313.476	84.94
313.706	92.94
313.935	93.94
314.165	103.94
314.394	110.94
314.624	100.94
314.853	108.94
315.083	103.94
315.312	87.94
315.542	91.94
315.771	84.94
316.001	101.94
316.23	96.94
316.46	81.94
316.689	88.94
316.919	86.94
317.148	94.94
317.377	86.94
317.607	104.94
317.836	88.94
318.065	77.94
318.295	98.94
318.524	85.94
318.753	89.94
318.983	94.94
319.212	101.94
319.441	93.94
319.67	99.94
319.9	97.94
320.129	95.94
320.358	98.94
320.587	97.94
320.816	97.94
321.046	93.94
321.275	113.94
321.504	81.94
321.733	83.94
321.962	105.94
322.191	102.94
322.42	107.94
322.649	93.94
322.878	116.94
323.108	112.94
323.337	122.94
323.566	134.94
323.795	155.94
324.024	233.94
324.253	445.94
324.482	935.94
324.71	1945.94
324.939	2556.94
325.168	911.94
325.397	253.94
325.626	159.94
325.855	130.94
326.084	131.94
326.313	133.94
326.542	173.94
326.77	255.94
326.999	499.94
327.228	1037.94
327.457	1935.94
327.686	1495.94
327.914	471.94
328.143	397.94
328.372	479.94
328.6	270.94
328.829	170.94
329.058	166.94
329.287	167.94
329.515	161.94
329.744	181.94
329.972	341.94
330.201	668.94
330.43	994.94
330.658	446.94
330.887	220.94
331.115	153.94
331.344	107.94
331.572	106.94
331.801	111.94
332.03	114.94
332.258	99.94
332.486	112.94
332.715	104.94
332.943	101.94
333.172	95.94
333.4	126.94
333.629	119.94
333.857	193.94
334.085	320.94
334.314	626.94
334.542	1265.94
334.771	1172.94
334.999	312.94
335.227	146.94
335.455	117.94
335.684	115.94
335.912	108.94
336.14	100.94
336.369	107.94
336.597	98.94
336.825	101.94
337.053	88.94
337.281	99.94
337.51	97.94
337.738	93.94
337.966	96.94
338.194	103.94
338.422	86.94
338.65	96.94
338.878	79.94
339.106	74.94
339.334	102.94
339.562	93.94
339.79	99.94
340.018	84.94
340.246	97.94
340.474	92.94
340.702	84.94
340.93	84.94
341.158	95.94
341.386	92.94
341.614	98.94
341.842	97.94
342.07	97.94
342.298	83.94
342.526	104.94
342.754	98.94
342.981	89.94
343.209	84.94
343.437	92.94
343.665	103.94
343.893	112.94
344.12	91.94
344.348	85.94
344.576	93.94
344.804	83.94
345.031	106.94
345.259	99.94
345.487	98.94
345.714	96.94
345.942	93.94
346.17	79.94
346.397	91.94
346.625	98.94
346.853	85.94
347.08	90.94
347.308	104.94
347.535	104.94
347.763	93.94
347.99	97.94
348.218	104.94
348.445	112.94
348.673	96.94
348.9	91.94
349.128	101.94
349.355	86.94
349.583	99.94
349.81	103.94
350.037	84.94
350.265	88.94
350.492	100.94
350.72	88.94
350.947	91.94
351.174	111.94
351.402	109.94
351.629	86.94
351.856	103.94
352.083	98.94
352.311	98.94
352.538	114.94
352.765	95.94
352.992	97.94
353.22	101.94
353.447	105.94
353.674	118.94
353.901	87.94
354.128	89.94
354.355	109.94
354.583	90.94
354.81	83.94
355.037	96.94
355.264	88.94
355.491	111.94
355.718	86.94
355.945	88.94
356.172	87.94
356.399	94.94
356.626	88.94
356.853	92.94
357.08	93.94
357.307	92.94
357.534	89.94
357.761	100.94
357.988	75.94
358.215	85.94
358.441	86.94
358.668	87.94
358.895	93.94
359.122	88.94
359.349	93.94
359.576	93.94
359.802	90.94
360.029	110.94
360.256	116.94
360.483	98.94
360.709	88.94
360.936	87.94
361.163	91.94
361.39	99.94
361.616	88.94
361.843	76.94
362.07	99.94
362.296	100.94
362.523	89.94
362.749	80.94
362.976	96.94
363.203	102.94
363.429	87.94
363.656	99.94
363.882	84.94
364.109	97.94
364.335	99.94
364.562	105.94
364.788	93.94
365.015	89.94
365.241	94.94
365.468	97.94
365.694	104.94
365.92	95.94
366.147	84.94
366.373	91.94
366.599	102.94
366.826	97.94
367.052	79.94
367.278	101.94
367.505	95.94
367.731	101.94
367.957	91.94
368.184	93.94
368.41	106.94
368.636	128.94
368.862	109.94
369.089	116.94
369.315	98.94
369.541	80.94
369.767	92.94
369.993	87.94
370.219	102.94
370.445	87.94
370.672	93.94
370.898	90.94
371.124	81.94
371.35	89.94
371.576	84.94
371.802	84.94
372.028	97.94
372.254	92.94
372.48	84.94
372.706	77.94
372.932	80.94
373.158	81.94
373.384	105.94
373.61	102.94
373.835	98.94
374.061	77.94
374.287	92.94
374.513	94.94
374.739	86.94
374.965	92.94
375.191	93.94
375.416	88.94
375.642	78.94
375.868	78.94
376.094	77.94
376.319	87.94
376.545	95.94
376.771	82.94
376.997	92.94
377.222	86.94
377.448	92.94
377.674	93.94
377.899	87.94
378.125	75.94
378.35	92.94
378.576	88.94
378.802	77.94
379.027	85.94
379.253	80.94
379.478	84.94
379.704	109.94
379.929	90.94
380.155	107.94
380.38	88.94
380.606	94.94
380.831	89.94
381.057	94.94
381.282	81.94
381.507	99.94
381.733	83.94
381.958	81.94
382.184	82.94
382.409	101.94
382.634	116.94
382.86	94.94
383.085	96.94
383.31	96.94
383.535	92.94
383.761	95.94
383.986	95.94
384.211	81.94
384.436	94.94
384.662	78.94
384.887	88.94
385.112	93.94
385.337	100.94
385.562	105.94
385.787	103.94
386.013	113.94
386.238	122.94
386.463	100.94
386.688	94.94
386.913	89.94
387.138	98.94
387.363	96.94
387.588	93.94
387.813	106.94
388.038	90.94
388.263	101.94
388.488	107.94
388.713	84.94
388.938	93.94
389.163	83.94
389.387	84.94
389.612	93.94
389.837	101.94
390.062	100.94
390.287	83.94
390.512	92.94
390.736	81.94
390.961	97.94
391.186	98.94
391.411	96.94
391.636	96.94
391.86	76.94
392.085	71.94
392.31	82.94
392.534	69.94
392.759	89.94
392.984	75.94
393.208	93.94
393.433	99.94
393.658	97.94
393.882	84.94
394.107	77.94
394.331	79.94
394.556	91.94
394.78	87.94
395.005	80.94
395.229	90.94
395.454	91.94
395.678	84.94
395.903	86.94
396.127	75.94
396.352	85.94
396.576	84.94
396.801	78.94
397.025	73.94
397.249	88.94
397.474	82.94
397.698	93.94
397.922	77.94
398.147	90.94
398.371	90.94
398.595	88.94
398.82	77.94
399.044	92.94
399.268	84.94
399.492	85.94
399.717	70.94
399.941	87.94
400.165	91.94
400.389	83.94
400.613	109.94
400.837	80.94
401.062	83.94
401.286	87.94
401.51	82.94
401.734	76.94
401.958	101.94
402.182	129.94
402.406	160.94
402.63	125.94
402.854	91.94
403.078	82.94
403.302	94.94
403.526	87.94
403.75	82.94
403.974	98.94
404.198	79.94
404.422	91.94
404.645	97.94
404.869	104.94
405.093	102.94
405.317	132.94
405.541	129.94
405.765	103.94
405.988	129.94
406.212	182.94
406.436	253.94
406.66	152.94
406.883	115.94
407.107	96.94
407.331	98.94
407.555	120.94
407.778	104.94
408.002	85.94
408.226	81.94
408.449	87.94
408.673	77.94
408.896	84.94
409.12	109.94
409.344	92.94
409.567	87.94
409.791	71.94
410.014	99.94
410.238	84.94
410.461	105.94
410.685	92.94
410.908	91.94
411.132	102.94
411.355	84.94
411.578	80.94
411.802	94.94
412.025	90.94
412.249	97.94
412.472	114.94
412.695	125.94
412.919	99.94
413.142	92.94
413.365	89.94
413.589	89.94
413.812	82.94
414.035	76.94
414.258	99.94
414.482	101.94
414.705	74.94
414.928	89.94
415.151	82.94
415.374	88.94
415.597	83.94
415.821	91.94
416.044	84.94
416.267	83.94
416.49	92.94
416.713	81.94
416.936	85.94
417.159	101.94
417.382	85.94
417.605	104.94
417.828	104.94
418.051	89.94
418.274	85.94
418.497	86.94
418.72	77.94
418.943	99.94
419.166	93.94
419.389	83.94
419.611	90.94
419.834	82.94
420.057	92.94
420.28	87.94
420.503	86.94
420.726	95.94
420.948	92.94
421.171	109.94
421.394	109.94
421.617	86.94
421.839	89.94
422.062	78.94
422.285	97.94
422.507	95.94
422.73	107.94
422.953	89.94
423.175	94.94
423.398	81.94
423.621	94.94
423.843	95.94
424.066	69.94
424.288	84.94
424.511	97.94
424.733	101.94
424.956	113.94
425.178	104.94
425.401	114.94
425.623	98.94
425.846	85.94
426.068	86.94
426.291	100.94
426.513	99.94
426.735	96.94
426.958	90.94
427.18	118.94
427.402	169.94
427.625	223.94
427.847	208.94
428.069	185.94
428.292	124.94
428.514	96.94
428.736	97.94
428.958	85.94
429.181	86.94
429.403	84.94
429.625	79.94
429.847	89.94
430.069	111.94
430.292	94.94
430.514	72.94
430.736	80.94
430.958	75.94
431.18	80.94
431.402	72.94
431.624	81.94
431.846	76.94
432.068	80.94
432.29	89.94
432.512	89.94
432.734	94.94
432.956	89.94
433.178	93.94
433.4	110.94
433.622	93.94
433.844	92.94
434.066	83.94
434.287	90.94
434.509	76.94
434.731	89.94
434.953	102.94
435.175	82.94
435.397	81.94
435.618	96.94
435.84	100.94
436.062	134.94
436.284	127.94
436.505	100.94
436.727	109.94
436.949	78.94
437.17	81.94
437.392	73.94
437.614	86.94
437.835	115.94
438.057	136.94
438.278	128.94
438.5	112.94
438.721	128.94
438.943	115.94
439.165	76.94
439.386	96.94
439.608	96.94
439.829	107.94
440.05	143.94
440.272	168.94
440.493	112.94
440.715	92.94
440.936	96.94
441.158	92.94
441.379	104.94
441.6	85.94
441.822	96.94
442.043	106.94
442.264	107.94
442.486	101.94
442.707	91.94
442.928	106.94
443.149	159.94
443.371	152.94
443.592	132.94
443.813	145.94
444.034	120.94
444.255	96.94
444.476	87.94
444.698	84.94
444.919	80.94
445.14	132.94
445.361	139.94
445.582	129.94
445.803	165.94
446.024	171.94
446.245	153.94
446.466	120.94
446.687	101.94
446.908	77.94
447.129	100.94
447.35	82.94
447.571	99.94
447.792	78.94
448.013	98.94
448.234	102.94
448.455	113.94
448.675	132.94
448.896	134.94
449.117	102.94
449.338	109.94
449.559	148.94
449.779	142.94
450	93.94
450.221	83.94
450.442	96.94
450.662	88.94
450.883	103.94
451.104	107.94
451.324	95.94
451.545	86.94
451.766	96.94
451.986	82.94
452.207	94.94
452.428	81.94
452.648	84.94
452.869	116.94
453.089	101.94
453.31	114.94
453.53	89.94
453.751	94.94
453.971	109.94
454.192	117.94
454.412	100.94
454.633	82.94
454.853	69.94
455.073	79.94
455.294	96.94
455.514	101.94
455.734	98.94
455.955	77.94
456.175	86.94
456.395	81.94
456.616	81.94
456.836	84.94
457.056	84.94
457.276	82.94
457.497	83.94
457.717	77.94
457.937	77.94
458.157	98.94
458.377	96.94
458.598	121.94
458.818	174.94
459.038	173.94
459.258	140.94
459.478	84.94
459.698	94.94
459.918	77.94
460.138	86.94
460.358	83.94
460.578	78.94
460.798	95.94
461.018	89.94
461.238	81.94
461.458	88.94
461.678	76.94
461.898	82.94
462.118	87.94
462.338	87.94
462.558	92.94
462.777	106.94
462.997	89.94
463.217	86.94
463.437	96.94
463.657	76.94
463.876	85.94
464.096	93.94
464.316	88.94
464.536	100.94
464.755	91.94
464.975	109.94
465.195	191.94
465.414	197.94
465.634	100.94
465.854	96.94
466.073	89.94
466.293	91.94
466.512	91.94
466.732	76.94
466.951	94.94
467.171	87.94
467.391	102.94
467.61	136.94
467.829	152.94
468.049	372.94
468.268	525.94
468.488	165.94
468.707	99.94
468.927	90.94
469.146	86.94
469.365	88.94
469.585	101.94
469.804	89.94
470.023	96.94
470.243	89.94
470.462	101.94
470.681	124.94
470.901	93.94
471.12	89.94
471.339	100.94
471.558	104.94
471.777	134.94
471.997	220.94
472.216	737.94
472.435	1646.94
472.654	427.94
472.873	133.94
473.092	101.94
473.311	103.94
473.53	93.94
473.749	86.94
473.968	110.94
474.187	115.94
474.406	109.94
474.625	85.94
474.844	86.94
475.063	91.94
475.282	82.94
475.501	80.94
475.72	82.94
475.939	86.94
476.158	76.94
476.377	80.94
476.596	92.94
476.814	105.94
477.033	87.94
477.252	95.94
477.471	78.94
477.69	92.94
477.908	93.94
478.127	94.94
478.346	88.94
478.564	84.94
478.783	104.94
479.002	89.94
479.22	86.94
479.439	108.94
479.658	118.94
479.876	103.94
480.095	119.94
480.313	100.94
480.532	136.94
480.751	213.94
480.969	675.94
481.188	2787.94
481.406	1744.94
481.624	276.94
481.843	112.94
482.061	101.94
482.28	88.94
482.498	80.94
482.717	105.94
482.935	91.94
483.153	83.94
483.372	86.94
483.59	98.94
483.808	90.94
484.027	85.94
484.245	93.94
484.463	93.94
484.681	83.94
484.9	98.94
485.118	96.94
485.336	91.94
485.554	108.94
485.772	90.94
485.99	73.94
486.209	117.94
486.427	101.94
486.645	108.94
486.863	111.94
487.081	96.94
487.299	79.94
487.517	82.94
487.735	87.94
487.953	81.94
488.171	85.94
488.389	83.94
488.607	91.94
488.825	94.94
489.043	89.94
489.261	93.94
489.479	85.94
489.696	91.94
489.914	83.94
490.132	85.94
490.35	84.94
490.568	81.94
490.786	93.94
491.003	102.94
491.221	87.94
491.439	95.94
491.657	91.94
491.874	83.94
492.092	91.94
492.31	84.94
492.527	94.94
492.745	79.94
492.963	94.94
493.18	86.94
493.398	86.94
493.615	95.94
493.833	78.94
494.05	85.94
494.268	91.94
494.485	88.94
494.703	87.94
494.92	91.94
495.138	93.94
495.355	86.94
495.573	93.94
495.79	101.94
496.008	87.94
496.225	97.94
496.442	97.94
496.66	81.94
496.877	96.94
497.094	88.94
497.312	94.94
497.529	88.94
497.746	99.94
497.963	79.94
498.181	92.94
498.398	107.94
498.615	110.94
498.832	94.94
499.049	93.94
499.267	90.94
499.484	73.94
499.701	90.94
499.918	84.94
500.135	95.94
500.352	95.94
500.569	95.94
500.786	77.94
501.003	84.94
501.22	86.94
501.437	90.94
501.654	105.94
501.871	100.94
502.088	90.94
502.305	84.94
502.522	90.94
502.739	97.94
502.956	85.94
503.172	102.94
503.389	105.94
503.606	116.94
503.823	108.94
504.04	94.94
504.256	87.94
504.473	82.94
504.69	86.94
504.907	96.94
505.123	84.94
505.34	86.94
505.557	88.94
505.773	78.94
505.99	101.94
506.207	80.94
506.423	95.94
506.64	90.94
506.856	88.94
507.073	89.94
507.289	97.94
507.506	85.94
507.722	125.94
507.939	126.94
508.155	93.94
508.372	78.94
508.588	88.94
508.805	86.94
509.021	107.94
509.238	93.94
509.454	83.94
509.67	112.94
509.887	99.94
510.103	112.94
510.319	209.94
510.536	709.94
510.752	2455.94
510.968	700.94
511.184	167.94
511.401	116.94
511.617	101.94
511.833	108.94
512.049	96.94
512.265	97.94
512.481	77.94
512.698	92.94
512.914	105.94
513.13	97.94
513.346	109.94
513.562	82.94
513.778	82.94
513.994	83.94
514.21	107.94
514.426	117.94
514.642	154.94
514.858	140.94
515.074	176.94
