Data from Circ_2013_H10_HRD10591_00018.txt Node
Date: Wed Jan 03 10:04:03 EST 2024
User: Yrep
Spectrometer: HR+D1059
Trigger mode: 1
Integration Time (sec): 1.000000E-1
Scans to average: 1
Electric dark correction enabled: true
Nonlinearity correction enabled: false
Boxcar width: 0
XAxis mode: Wavelengths
Number of Pixels in Spectrum: 2048
>>>>>Begin Spectral Data<<<<<
223.165	-11.31
223.4	-11.31
223.635	-11.31
223.869	-12.31
224.104	-31.31
224.338	-16.31
224.573	-19.31
224.808	-6.31
225.042	-16.31
225.277	-15.31
225.511	-0.31
225.746	3.69
225.98	8.69
226.215	3.69
226.449	33.69
226.683	14.69
226.918	27.69
227.152	36.69
227.387	27.69
227.621	31.69
227.856	42.69
228.09	51.69
228.324	51.69
228.559	60.69
228.793	63.69
229.027	72.69
229.262	83.69
229.496	64.69
229.73	92.69
229.964	104.69
230.199	79.69
230.433	87.69
230.667	83.69
230.901	77.69
231.136	85.69
231.37	80.69
231.604	77.69
231.838	81.69
232.072	86.69
232.306	95.69
232.541	93.69
232.775	77.69
233.009	72.69
233.243	78.69
233.477	89.69
233.711	92.69
233.945	71.69
234.179	74.69
234.413	89.69
234.647	87.69
234.881	78.69
235.115	84.69
235.349	79.69
235.583	85.69
235.817	67.69
236.051	66.69
236.285	87.69
236.519	68.69
236.753	74.69
236.987	84.69
237.221	84.69
237.455	105.69
237.689	81.69
237.922	76.69
238.156	78.69
238.39	85.69
238.624	77.69
238.858	80.69
239.091	94.69
239.325	76.69
239.559	91.69
239.793	85.69
240.027	79.69
240.26	78.69
240.494	85.69
240.728	86.69
240.961	76.69
241.195	69.69
241.429	91.69
241.662	72.69
241.896	90.69
242.13	81.69
242.363	72.69
242.597	70.69
242.83	89.69
243.064	73.69
243.298	80.69
243.531	74.69
243.765	79.69
243.998	94.69
244.232	88.69
244.465	70.69
244.699	62.69
244.932	85.69
245.166	64.69
245.399	80.69
245.633	70.69
245.866	74.69
246.099	81.69
246.333	83.69
246.566	88.69
246.8	74.69
247.033	75.69
247.266	74.69
247.5	75.69
247.733	80.69
247.966	78.69
248.2	80.69
248.433	88.69
248.666	84.69
248.899	88.69
249.133	92.69
249.366	105.69
249.599	104.69
249.832	79.69
250.066	75.69
250.299	68.69
250.532	85.69
250.765	84.69
250.998	72.69
251.231	72.69
251.465	68.69
251.698	77.69
251.931	102.69
252.164	90.69
252.397	72.69
252.63	96.69
252.863	94.69
253.096	85.69
253.329	84.69
253.562	78.69
253.795	81.69
254.028	82.69
254.261	85.69
254.494	69.69
254.727	96.69
254.96	85.69
255.193	93.69
255.426	94.69
255.659	89.69
255.892	92.69
256.124	87.69
256.357	88.69
256.59	91.69
256.823	81.69
257.056	92.69
257.289	84.69
257.521	85.69
257.754	78.69
257.987	71.69
258.22	87.69
258.452	84.69
258.685	85.69
258.918	83.69
259.151	90.69
259.383	91.69
259.616	75.69
259.849	81.69
260.081	85.69
260.314	73.69
260.547	79.69
260.779	88.69
261.012	91.69
261.244	92.69
261.477	98.69
261.71	119.69
261.942	119.69
262.175	149.69
262.407	98.69
262.64	76.69
262.872	78.69
263.105	80.69
263.337	85.69
263.57	79.69
263.802	87.69
264.035	78.69
264.267	93.69
264.499	88.69
264.732	81.69
264.964	91.69
265.197	80.69
265.429	91.69
265.661	83.69
265.894	76.69
266.126	83.69
266.358	78.69
266.591	85.69
266.823	84.69
267.055	93.69
267.287	82.69
267.52	96.69
267.752	90.69
267.984	86.69
268.216	84.69
268.448	96.69
268.681	86.69
268.913	88.69
269.145	87.69
269.377	92.69
269.609	94.69
269.841	86.69
270.073	92.69
270.306	78.69
270.538	104.69
270.77	91.69
271.002	85.69
271.234	88.69
271.466	92.69
271.698	101.69
271.93	81.69
272.162	90.69
272.394	75.69
272.626	89.69
272.858	90.69
273.09	97.69
273.322	88.69
273.553	101.69
273.785	97.69
274.017	65.69
274.249	93.69
274.481	84.69
274.713	71.69
274.945	91.69
275.176	96.69
275.408	97.69
275.64	100.69
275.872	100.69
276.104	101.69
276.335	93.69
276.567	100.69
276.799	124.69
277.031	140.69
277.262	128.69
277.494	94.69
277.726	107.69
277.957	91.69
278.189	106.69
278.421	92.69
278.652	104.69
278.884	82.69
279.115	90.69
279.347	83.69
279.579	107.69
279.81	96.69
280.042	127.69
280.273	154.69
280.505	123.69
280.736	93.69
280.968	85.69
281.199	100.69
281.431	87.69
281.662	85.69
281.894	102.69
282.125	106.69
282.356	142.69
282.588	168.69
282.819	141.69
283.051	96.69
283.282	97.69
283.513	89.69
283.745	81.69
283.976	92.69
284.207	89.69
284.439	84.69
284.67	80.69
284.901	85.69
285.132	86.69
285.364	71.69
285.595	91.69
285.826	95.69
286.057	84.69
286.288	71.69
286.52	87.69
286.751	80.69
286.982	85.69
287.213	101.69
287.444	92.69
287.675	101.69
287.906	74.69
288.138	96.69
288.369	104.69
288.6	107.69
288.831	97.69
289.062	117.69
289.293	101.69
289.524	78.69
289.755	85.69
289.986	99.69
290.217	82.69
290.448	85.69
290.679	81.69
290.91	79.69
291.141	92.69
291.371	83.69
291.602	83.69
291.833	88.69
292.064	93.69
292.295	80.69
292.526	96.69
292.757	89.69
292.987	89.69
293.218	87.69
293.449	98.69
293.68	92.69
293.91	80.69
294.141	94.69
294.372	93.69
294.603	99.69
294.833	96.69
295.064	93.69
295.295	97.69
295.525	89.69
295.756	95.69
295.987	140.69
296.217	149.69
296.448	145.69
296.679	99.69
296.909	87.69
297.14	95.69
297.37	100.69
297.601	94.69
297.831	97.69
298.062	94.69
298.292	102.69
298.523	93.69
298.753	91.69
298.984	99.69
299.214	94.69
299.445	87.69
299.675	95.69
299.905	100.69
300.136	96.69
300.366	86.69
300.597	111.69
300.827	90.69
301.057	98.69
301.288	117.69
301.518	97.69
301.748	97.69
301.979	111.69
302.209	111.69
302.439	101.69
302.669	103.69
302.9	79.69
303.13	99.69
303.36	96.69
303.59	126.69
303.82	136.69
304.051	111.69
304.281	100.69
304.511	81.69
304.741	99.69
304.971	100.69
305.201	88.69
305.431	81.69
305.661	81.69
305.891	105.69
306.121	107.69
306.352	112.69
306.582	115.69
306.812	90.69
307.042	92.69
307.272	109.69
307.502	125.69
307.731	124.69
307.961	100.69
308.191	96.69
308.421	95.69
308.651	82.69
308.881	91.69
309.111	101.69
309.341	88.69
309.571	94.69
309.8	88.69
310.03	108.69
310.26	99.69
310.49	107.69
310.72	108.69
310.949	111.69
311.179	123.69
311.409	95.69
311.639	94.69
311.868	91.69
312.098	97.69
312.328	93.69
312.557	118.69
312.787	106.69
313.017	119.69
313.246	90.69
313.476	103.69
313.706	100.69
313.935	95.69
314.165	111.69
314.394	118.69
314.624	116.69
314.853	111.69
315.083	102.69
315.312	100.69
315.542	96.69
315.771	91.69
316.001	96.69
316.23	94.69
316.46	86.69
316.689	92.69
316.919	81.69
317.148	91.69
317.377	109.69
317.607	96.69
317.836	94.69
318.065	100.69
318.295	94.69
318.524	95.69
318.753	109.69
318.983	99.69
319.212	95.69
319.441	97.69
319.67	132.69
319.9	102.69
320.129	106.69
320.358	102.69
320.587	94.69
320.816	102.69
321.046	108.69
321.275	110.69
321.504	100.69
321.733	93.69
321.962	94.69
322.191	101.69
322.42	115.69
322.649	112.69
322.878	125.69
323.108	120.69
323.337	142.69
323.566	144.69
323.795	171.69
324.024	243.69
324.253	448.69
324.482	996.69
324.71	1987.69
324.939	2673.69
325.168	1006.69
325.397	281.69
325.626	168.69
325.855	142.69
326.084	154.69
326.313	146.69
326.542	177.69
326.77	249.69
326.999	513.69
327.228	1082.69
327.457	1937.69
327.686	1565.69
327.914	476.69
328.143	323.69
328.372	382.69
328.6	253.69
328.829	164.69
329.058	176.69
329.287	179.69
329.515	135.69
329.744	177.69
329.972	253.69
330.201	464.69
330.43	665.69
330.658	377.69
330.887	251.69
331.115	173.69
331.344	104.69
331.572	106.69
331.801	121.69
332.03	107.69
332.258	101.69
332.486	99.69
332.715	91.69
332.943	97.69
333.172	119.69
333.4	112.69
333.629	141.69
333.857	172.69
334.085	247.69
334.314	429.69
334.542	812.69
334.771	807.69
334.999	256.69
335.227	163.69
335.455	115.69
335.684	101.69
335.912	93.69
336.14	100.69
336.369	116.69
336.597	112.69
336.825	100.69
337.053	86.69
337.281	97.69
337.51	92.69
337.738	86.69
337.966	108.69
338.194	93.69
338.422	104.69
338.65	106.69
338.878	97.69
339.106	95.69
339.334	105.69
339.562	82.69
339.79	87.69
340.018	92.69
340.246	95.69
340.474	97.69
340.702	111.69
340.93	93.69
341.158	92.69
341.386	105.69
341.614	92.69
341.842	85.69
342.07	97.69
342.298	89.69
342.526	89.69
342.754	84.69
342.981	90.69
343.209	81.69
343.437	104.69
343.665	89.69
343.893	92.69
344.12	89.69
344.348	86.69
344.576	96.69
344.804	79.69
345.031	107.69
345.259	100.69
345.487	113.69
345.714	107.69
345.942	89.69
346.17	103.69
346.397	107.69
346.625	104.69
346.853	94.69
347.08	95.69
347.308	100.69
347.535	101.69
347.763	112.69
347.99	109.69
348.218	102.69
348.445	124.69
348.673	91.69
348.9	104.69
349.128	105.69
349.355	91.69
349.583	95.69
349.81	97.69
350.037	88.69
350.265	104.69
350.492	116.69
350.72	99.69
350.947	110.69
351.174	115.69
351.402	137.69
351.629	105.69
351.856	111.69
352.083	115.69
352.311	117.69
352.538	133.69
352.765	122.69
352.992	124.69
353.22	128.69
353.447	116.69
353.674	101.69
353.901	88.69
354.128	99.69
354.355	95.69
354.583	99.69
354.81	109.69
355.037	106.69
355.264	100.69
355.491	91.69
355.718	81.69
355.945	87.69
356.172	84.69
356.399	94.69
356.626	95.69
356.853	89.69
357.08	94.69
357.307	93.69
357.534	80.69
357.761	94.69
357.988	108.69
358.215	108.69
358.441	95.69
358.668	98.69
358.895	94.69
359.122	100.69
359.349	98.69
359.576	95.69
359.802	120.69
360.029	133.69
360.256	149.69
360.483	125.69
360.709	93.69
360.936	99.69
361.163	97.69
361.39	99.69
361.616	97.69
361.843	106.69
362.07	94.69
362.296	105.69
362.523	99.69
362.749	85.69
362.976	98.69
363.203	109.69
363.429	100.69
363.656	103.69
363.882	97.69
364.109	106.69
364.335	94.69
364.562	93.69
364.788	86.69
365.015	91.69
365.241	114.69
365.468	108.69
365.694	133.69
365.92	108.69
366.147	110.69
366.373	97.69
366.599	96.69
366.826	100.69
367.052	91.69
367.278	104.69
367.505	88.69
367.731	112.69
367.957	100.69
368.184	99.69
368.41	105.69
368.636	137.69
368.862	112.69
369.089	119.69
369.315	94.69
369.541	85.69
369.767	93.69
369.993	105.69
370.219	95.69
370.445	78.69
370.672	81.69
370.898	97.69
371.124	85.69
371.35	103.69
371.576	89.69
371.802	92.69
372.028	84.69
372.254	88.69
372.48	97.69
372.706	77.69
372.932	89.69
373.158	84.69
373.384	84.69
373.61	99.69
373.835	87.69
374.061	94.69
374.287	107.69
374.513	107.69
374.739	99.69
374.965	87.69
375.191	94.69
375.416	86.69
375.642	94.69
375.868	104.69
376.094	84.69
376.319	91.69
376.545	83.69
376.771	90.69
376.997	91.69
377.222	100.69
377.448	102.69
377.674	100.69
377.899	111.69
378.125	101.69
378.35	100.69
378.576	110.69
378.802	95.69
379.027	97.69
379.253	98.69
379.478	100.69
379.704	101.69
379.929	80.69
380.155	92.69
380.38	88.69
380.606	114.69
380.831	115.69
381.057	120.69
381.282	93.69
381.507	95.69
381.733	104.69
381.958	104.69
382.184	92.69
382.409	103.69
382.634	102.69
382.86	104.69
383.085	101.69
383.31	101.69
383.535	101.69
383.761	102.69
383.986	111.69
384.211	94.69
384.436	97.69
384.662	104.69
384.887	115.69
385.112	111.69
385.337	130.69
385.562	125.69
385.787	104.69
386.013	122.69
386.238	112.69
386.463	122.69
386.688	116.69
386.913	121.69
387.138	125.69
387.363	120.69
387.588	100.69
387.813	110.69
388.038	110.69
388.263	116.69
388.488	117.69
388.713	106.69
388.938	117.69
389.163	110.69
389.387	87.69
389.612	101.69
389.837	93.69
390.062	93.69
390.287	100.69
390.512	89.69
390.736	92.69
390.961	97.69
391.186	85.69
391.411	85.69
391.636	93.69
391.86	84.69
392.085	88.69
392.31	81.69
392.534	82.69
392.759	81.69
392.984	91.69
393.208	104.69
393.433	117.69
393.658	97.69
393.882	78.69
394.107	86.69
394.331	93.69
394.556	91.69
394.78	93.69
395.005	69.69
395.229	81.69
395.454	82.69
395.678	88.69
395.903	91.69
396.127	78.69
396.352	90.69
396.576	93.69
396.801	96.69
397.025	102.69
397.249	98.69
397.474	87.69
397.698	103.69
397.922	86.69
398.147	87.69
398.371	92.69
398.595	93.69
398.82	87.69
399.044	83.69
399.268	78.69
399.492	83.69
399.717	75.69
399.941	86.69
400.165	106.69
400.389	106.69
400.613	104.69
400.837	90.69
401.062	79.69
401.286	87.69
401.51	85.69
401.734	92.69
401.958	112.69
402.182	135.69
402.406	182.69
402.63	151.69
402.854	104.69
403.078	105.69
403.302	92.69
403.526	96.69
403.75	70.69
403.974	89.69
404.198	79.69
404.422	91.69
404.645	94.69
404.869	96.69
405.093	103.69
405.317	122.69
405.541	119.69
405.765	115.69
405.988	145.69
406.212	215.69
406.436	315.69
406.66	204.69
406.883	119.69
407.107	110.69
407.331	113.69
407.555	106.69
407.778	124.69
408.002	89.69
408.226	99.69
408.449	102.69
408.673	100.69
408.896	95.69
409.12	98.69
409.344	92.69
409.567	106.69
409.791	96.69
410.014	104.69
410.238	86.69
410.461	94.69
410.685	111.69
410.908	94.69
411.132	116.69
411.355	110.69
411.578	103.69
411.802	79.69
412.025	78.69
412.249	104.69
412.472	118.69
412.695	132.69
412.919	113.69
413.142	85.69
413.365	89.69
413.589	99.69
413.812	92.69
414.035	99.69
414.258	88.69
414.482	91.69
414.705	77.69
414.928	97.69
415.151	83.69
415.374	87.69
415.597	99.69
415.821	84.69
416.044	99.69
416.267	92.69
416.49	100.69
416.713	90.69
416.936	102.69
417.159	89.69
417.382	87.69
417.605	108.69
417.828	83.69
418.051	99.69
418.274	103.69
418.497	91.69
418.72	69.69
418.943	101.69
419.166	98.69
419.389	85.69
419.611	101.69
419.834	85.69
420.057	89.69
420.28	94.69
420.503	94.69
420.726	95.69
420.948	89.69
421.171	103.69
421.394	111.69
421.617	95.69
421.839	90.69
422.062	94.69
422.285	91.69
422.507	100.69
422.73	92.69
422.953	103.69
423.175	96.69
423.398	89.69
423.621	97.69
423.843	94.69
424.066	102.69
424.288	77.69
424.511	115.69
424.733	115.69
424.956	110.69
425.178	101.69
425.401	104.69
425.623	86.69
425.846	100.69
426.068	107.69
426.291	102.69
426.513	108.69
426.735	93.69
426.958	112.69
427.18	122.69
427.402	172.69
427.625	238.69
427.847	216.69
428.069	181.69
428.292	110.69
428.514	100.69
428.736	85.69
428.958	91.69
429.181	99.69
429.403	89.69
429.625	99.69
429.847	110.69
430.069	116.69
430.292	99.69
430.514	89.69
430.736	91.69
430.958	89.69
431.18	93.69
431.402	92.69
431.624	85.69
431.846	80.69
432.068	83.69
432.29	85.69
432.512	87.69
432.734	82.69
432.956	85.69
433.178	105.69
433.4	109.69
433.622	91.69
433.844	93.69
434.066	94.69
434.287	95.69
434.509	96.69
434.731	91.69
434.953	86.69
435.175	84.69
435.397	91.69
435.618	98.69
435.84	109.69
436.062	136.69
436.284	129.69
436.505	107.69
436.727	99.69
436.949	92.69
437.17	98.69
437.392	100.69
437.614	96.69
437.835	122.69
438.057	146.69
438.278	122.69
438.5	133.69
438.721	136.69
438.943	120.69
439.165	91.69
439.386	82.69
439.608	100.69
439.829	111.69
440.05	150.69
440.272	185.69
440.493	117.69
440.715	98.69
440.936	90.69
441.158	85.69
441.379	97.69
441.6	100.69
441.822	106.69
442.043	96.69
442.264	123.69
442.486	131.69
442.707	98.69
442.928	127.69
443.149	157.69
443.371	160.69
443.592	129.69
443.813	131.69
444.034	117.69
444.255	78.69
444.476	75.69
444.698	74.69
444.919	85.69
445.14	139.69
445.361	123.69
445.582	133.69
445.803	164.69
446.024	166.69
446.245	162.69
446.466	120.69
446.687	86.69
446.908	99.69
447.129	89.69
447.35	81.69
447.571	104.69
447.792	84.69
448.013	114.69
448.234	125.69
448.455	105.69
448.675	108.69
448.896	136.69
449.117	102.69
449.338	95.69
449.559	152.69
449.779	122.69
450	94.69
450.221	92.69
450.442	92.69
450.662	106.69
450.883	135.69
451.104	128.69
451.324	117.69
451.545	98.69
451.766	90.69
451.986	89.69
452.207	94.69
452.428	104.69
452.648	100.69
452.869	112.69
453.089	137.69
453.31	133.69
453.53	104.69
453.751	94.69
453.971	135.69
454.192	138.69
454.412	94.69
454.633	88.69
454.853	80.69
455.073	86.69
455.294	98.69
455.514	108.69
455.734	93.69
455.955	80.69
456.175	93.69
456.395	78.69
456.616	80.69
456.836	93.69
457.056	78.69
457.276	87.69
457.497	97.69
457.717	81.69
457.937	102.69
458.157	103.69
458.377	92.69
458.598	137.69
458.818	205.69
459.038	218.69
459.258	158.69
459.478	114.69
459.698	85.69
459.918	88.69
460.138	94.69
460.358	80.69
460.578	87.69
460.798	103.69
461.018	101.69
461.238	87.69
461.458	85.69
461.678	85.69
461.898	82.69
462.118	85.69
462.338	73.69
462.558	85.69
462.777	88.69
462.997	90.69
463.217	101.69
463.437	92.69
463.657	102.69
463.876	94.69
464.096	102.69
464.316	100.69
464.536	96.69
464.755	95.69
464.975	122.69
465.195	241.69
465.414	225.69
465.634	103.69
465.854	82.69
466.073	91.69
466.293	89.69
466.512	88.69
466.732	95.69
466.951	108.69
467.171	100.69
467.391	101.69
467.61	141.69
467.829	145.69
468.049	246.69
468.268	387.69
468.488	137.69
468.707	95.69
468.927	100.69
469.146	78.69
469.365	97.69
469.585	97.69
469.804	97.69
470.023	98.69
470.243	106.69
470.462	120.69
470.681	147.69
470.901	92.69
471.12	87.69
471.339	96.69
471.558	105.69
471.777	102.69
471.997	171.69
472.216	480.69
472.435	1068.69
472.654	305.69
472.873	145.69
473.092	103.69
473.311	83.69
473.53	99.69
473.749	69.69
473.968	87.69
474.187	112.69
474.406	102.69
474.625	91.69
474.844	91.69
475.063	88.69
475.282	79.69
475.501	68.69
475.72	91.69
475.939	83.69
476.158	79.69
476.377	95.69
476.596	91.69
476.814	90.69
477.033	96.69
477.252	94.69
477.471	84.69
477.69	92.69
477.908	104.69
478.127	94.69
478.346	94.69
478.564	90.69
478.783	101.69
479.002	99.69
479.22	108.69
479.439	104.69
479.658	122.69
479.876	119.69
480.095	110.69
480.313	115.69
480.532	121.69
480.751	156.69
480.969	437.69
481.188	1673.69
481.406	1109.69
481.624	216.69
481.843	104.69
482.061	100.69
482.28	92.69
482.498	97.69
482.717	90.69
482.935	95.69
483.153	96.69
483.372	87.69
483.59	94.69
483.808	98.69
484.027	83.69
484.245	88.69
484.463	115.69
484.681	99.69
484.9	99.69
485.118	95.69
485.336	90.69
485.554	110.69
485.772	98.69
485.99	105.69
486.209	116.69
486.427	95.69
486.645	125.69
486.863	127.69
487.081	100.69
487.299	107.69
487.517	96.69
487.735	103.69
487.953	101.69
488.171	111.69
488.389	110.69
488.607	112.69
488.825	102.69
489.043	83.69
489.261	89.69
489.479	83.69
489.696	73.69
489.914	98.69
490.132	96.69
490.35	84.69
490.568	79.69
490.786	88.69
491.003	91.69
491.221	80.69
491.439	90.69
491.657	100.69
491.874	97.69
492.092	83.69
492.31	102.69
492.527	100.69
492.745	84.69
492.963	102.69
493.18	88.69
493.398	89.69
493.615	96.69
493.833	96.69
494.05	102.69
494.268	88.69
494.485	92.69
494.703	91.69
494.92	102.69
495.138	97.69
495.355	84.69
495.573	85.69
495.79	92.69
496.008	104.69
496.225	82.69
496.442	79.69
496.66	104.69
496.877	78.69
497.094	86.69
497.312	78.69
497.529	85.69
497.746	96.69
497.963	94.69
498.181	106.69
498.398	101.69
498.615	137.69
498.832	119.69
499.049	79.69
499.267	95.69
499.484	93.69
499.701	81.69
499.918	96.69
500.135	88.69
500.352	94.69
500.569	101.69
500.786	113.69
501.003	94.69
501.22	78.69
501.437	87.69
501.654	94.69
501.871	119.69
502.088	96.69
502.305	93.69
502.522	78.69
502.739	75.69
502.956	88.69
503.172	102.69
503.389	93.69
503.606	124.69
503.823	90.69
504.04	90.69
504.256	95.69
504.473	101.69
504.69	87.69
504.907	92.69
505.123	101.69
505.34	90.69
505.557	90.69
505.773	95.69
505.99	87.69
506.207	75.69
506.423	85.69
506.64	84.69
506.856	88.69
507.073	95.69
507.289	100.69
507.506	102.69
507.722	131.69
507.939	134.69
508.155	118.69
508.372	103.69
508.588	87.69
508.805	89.69
509.021	89.69
509.238	87.69
509.454	105.69
509.67	87.69
509.887	137.69
510.103	142.69
510.319	224.69
510.536	868.69
510.752	3073.69
510.968	854.69
511.184	193.69
511.401	138.69
511.617	109.69
511.833	110.69
512.049	94.69
512.265	107.69
512.481	92.69
512.698	104.69
512.914	105.69
