Data from Circ_2013_H10_HRD10591_00072.txt Node
Date: Wed Jan 03 10:04:14 EST 2024
User: Yrep
Spectrometer: HR+D1059
Trigger mode: 1
Integration Time (sec): 1.000000E-1
Scans to average: 1
Electric dark correction enabled: true
Nonlinearity correction enabled: false
Boxcar width: 0
XAxis mode: Wavelengths
Number of Pixels in Spectrum: 2048
>>>>>Begin Spectral Data<<<<<
223.165	-20.75
223.4	-20.75
223.635	-20.75
223.869	-15.75
224.104	-12.75
224.338	-11.75
224.573	-10.75
224.808	-11.75
225.042	-23.75
225.277	-5.75
225.511	-12.75
225.746	5.25
225.98	-1.75
226.215	6.25
226.449	26.25
226.683	19.25
226.918	33.25
227.152	37.25
227.387	38.25
227.621	39.25
227.856	30.25
228.09	40.25
228.324	52.25
228.559	46.25
228.793	60.25
229.027	63.25
229.262	63.25
229.496	78.25
229.73	102.25
229.964	96.25
230.199	65.25
230.433	74.25
230.667	89.25
230.901	88.25
231.136	86.25
231.37	86.25
231.604	78.25
231.838	62.25
232.072	70.25
232.306	87.25
232.541	95.25
232.775	71.25
233.009	83.25
233.243	70.25
233.477	91.25
233.711	77.25
233.945	100.25
234.179	81.25
234.413	70.25
234.647	76.25
234.881	91.25
235.115	85.25
235.349	72.25
235.583	76.25
235.817	88.25
236.051	79.25
236.285	81.25
236.519	72.25
236.753	86.25
236.987	78.25
237.221	84.25
237.455	80.25
237.689	72.25
237.922	88.25
238.156	76.25
238.39	77.25
238.624	83.25
238.858	83.25
239.091	86.25
239.325	92.25
239.559	86.25
239.793	71.25
240.027	75.25
240.26	96.25
240.494	77.25
240.728	91.25
240.961	77.25
241.195	86.25
241.429	77.25
241.662	66.25
241.896	82.25
242.13	78.25
242.363	71.25
242.597	79.25
242.83	68.25
243.064	74.25
243.298	85.25
243.531	80.25
243.765	77.25
243.998	75.25
244.232	76.25
244.465	87.25
244.699	85.25
244.932	92.25
245.166	92.25
245.399	85.25
245.633	71.25
245.866	79.25
246.099	72.25
246.333	69.25
246.566	75.25
246.8	88.25
247.033	76.25
247.266	90.25
247.5	75.25
247.733	80.25
247.966	75.25
248.2	79.25
248.433	80.25
248.666	83.25
248.899	92.25
249.133	90.25
249.366	100.25
249.599	105.25
249.832	103.25
250.066	80.25
250.299	90.25
250.532	88.25
250.765	95.25
250.998	92.25
251.231	65.25
251.465	84.25
251.698	74.25
251.931	84.25
252.164	84.25
252.397	76.25
252.63	84.25
252.863	70.25
253.096	70.25
253.329	79.25
253.562	75.25
253.795	84.25
254.028	74.25
254.261	79.25
254.494	84.25
254.727	85.25
254.96	84.25
255.193	83.25
255.426	74.25
255.659	78.25
255.892	81.25
256.124	85.25
256.357	91.25
256.59	77.25
256.823	84.25
257.056	80.25
257.289	76.25
257.521	92.25
257.754	94.25
257.987	69.25
258.22	79.25
258.452	69.25
258.685	80.25
258.918	80.25
259.151	83.25
259.383	96.25
259.616	96.25
259.849	89.25
260.081	99.25
260.314	70.25
260.547	76.25
260.779	88.25
261.012	91.25
261.244	98.25
261.477	93.25
261.71	95.25
261.942	140.25
262.175	119.25
262.407	97.25
262.64	85.25
262.872	88.25
263.105	88.25
263.337	78.25
263.57	81.25
263.802	88.25
264.035	67.25
264.267	74.25
264.499	80.25
264.732	74.25
264.964	93.25
265.197	77.25
265.429	79.25
265.661	79.25
265.894	90.25
266.126	80.25
266.358	93.25
266.591	85.25
266.823	84.25
267.055	78.25
267.287	85.25
267.52	91.25
267.752	83.25
267.984	71.25
268.216	86.25
268.448	82.25
268.681	88.25
268.913	75.25
269.145	74.25
269.377	70.25
269.609	90.25
269.841	78.25
270.073	85.25
270.306	84.25
270.538	98.25
270.77	67.25
271.002	70.25
271.234	85.25
271.466	98.25
271.698	91.25
271.93	91.25
272.162	96.25
272.394	101.25
272.626	84.25
272.858	80.25
273.09	83.25
273.322	96.25
273.553	82.25
273.785	85.25
274.017	85.25
274.249	91.25
274.481	84.25
274.713	89.25
274.945	95.25
275.176	100.25
275.408	83.25
275.64	92.25
275.872	103.25
276.104	107.25
276.335	87.25
276.567	114.25
276.799	131.25
277.031	140.25
277.262	149.25
277.494	124.25
277.726	82.25
277.957	84.25
278.189	80.25
278.421	85.25
278.652	89.25
278.884	105.25
279.115	92.25
279.347	102.25
279.579	87.25
279.81	105.25
280.042	133.25
280.273	206.25
280.505	136.25
280.736	100.25
280.968	102.25
281.199	86.25
281.431	85.25
281.662	79.25
281.894	89.25
282.125	95.25
282.356	127.25
282.588	172.25
282.819	132.25
283.051	98.25
283.282	84.25
283.513	97.25
283.745	86.25
283.976	103.25
284.207	69.25
284.439	75.25
284.67	80.25
284.901	91.25
285.132	100.25
285.364	99.25
285.595	83.25
285.826	87.25
286.057	85.25
286.288	96.25
286.52	72.25
286.751	86.25
286.982	86.25
287.213	89.25
287.444	88.25
287.675	102.25
287.906	93.25
288.138	79.25
288.369	97.25
288.6	85.25
288.831	86.25
289.062	86.25
289.293	107.25
289.524	95.25
289.755	91.25
289.986	87.25
290.217	92.25
290.448	90.25
290.679	83.25
290.91	84.25
291.141	95.25
291.371	93.25
291.602	78.25
291.833	89.25
292.064	79.25
292.295	86.25
292.526	89.25
292.757	91.25
292.987	96.25
293.218	88.25
293.449	81.25
293.68	98.25
293.91	103.25
294.141	82.25
294.372	107.25
294.603	86.25
294.833	100.25
295.064	79.25
295.295	94.25
295.525	100.25
295.756	107.25
295.987	133.25
296.217	157.25
296.448	149.25
296.679	101.25
296.909	90.25
297.14	97.25
297.37	102.25
297.601	93.25
297.831	82.25
298.062	84.25
298.292	97.25
298.523	86.25
298.753	103.25
298.984	86.25
299.214	77.25
299.445	82.25
299.675	84.25
299.905	84.25
300.136	101.25
300.366	97.25
300.597	96.25
300.827	94.25
301.057	99.25
301.288	111.25
301.518	103.25
301.748	94.25
301.979	113.25
302.209	103.25
302.439	99.25
302.669	97.25
302.9	79.25
303.13	97.25
303.36	115.25
303.59	118.25
303.82	133.25
304.051	104.25
304.281	88.25
304.511	99.25
304.741	79.25
304.971	90.25
305.201	101.25
305.431	86.25
305.661	75.25
305.891	84.25
306.121	91.25
306.352	100.25
306.582	110.25
306.812	107.25
307.042	103.25
307.272	127.25
307.502	144.25
307.731	120.25
307.961	119.25
308.191	92.25
308.421	91.25
308.651	101.25
308.881	101.25
309.111	102.25
309.341	99.25
309.571	109.25
309.8	90.25
310.03	96.25
310.26	100.25
310.49	100.25
310.72	104.25
310.949	118.25
311.179	118.25
311.409	97.25
311.639	87.25
311.868	102.25
312.098	100.25
312.328	100.25
312.557	106.25
312.787	113.25
313.017	104.25
313.246	114.25
313.476	98.25
313.706	97.25
313.935	104.25
314.165	100.25
314.394	105.25
314.624	106.25
314.853	117.25
315.083	100.25
315.312	105.25
315.542	84.25
315.771	114.25
316.001	79.25
316.23	113.25
316.46	96.25
316.689	94.25
316.919	105.25
317.148	102.25
317.377	93.25
317.607	98.25
317.836	95.25
318.065	96.25
318.295	87.25
318.524	100.25
318.753	91.25
318.983	94.25
319.212	111.25
319.441	124.25
319.67	114.25
319.9	92.25
320.129	85.25
320.358	99.25
320.587	103.25
320.816	110.25
321.046	104.25
321.275	106.25
321.504	102.25
321.733	101.25
321.962	100.25
322.191	121.25
322.42	121.25
322.649	115.25
322.878	125.25
323.108	143.25
323.337	136.25
323.566	172.25
323.795	187.25
324.024	234.25
324.253	486.25
324.482	1010.25
324.71	2166.25
324.939	2821.25
325.168	1000.25
325.397	276.25
325.626	163.25
325.855	138.25
326.084	129.25
326.313	142.25
326.542	184.25
326.77	274.25
326.999	565.25
327.228	1132.25
327.457	2077.25
327.686	1672.25
327.914	517.25
328.143	414.25
328.372	455.25
328.6	289.25
328.829	170.25
329.058	180.25
329.287	170.25
329.515	167.25
329.744	214.25
329.972	371.25
330.201	670.25
330.43	959.25
330.658	447.25
330.887	244.25
331.115	173.25
331.344	118.25
331.572	111.25
331.801	124.25
332.03	148.25
332.258	116.25
332.486	107.25
332.715	104.25
332.943	108.25
333.172	121.25
333.4	118.25
333.629	128.25
333.857	191.25
334.085	330.25
334.314	653.25
334.542	1198.25
334.771	1158.25
334.999	309.25
335.227	158.25
335.455	110.25
335.684	105.25
335.912	95.25
336.14	113.25
336.369	112.25
336.597	119.25
336.825	106.25
337.053	105.25
337.281	80.25
337.51	96.25
337.738	93.25
337.966	88.25
338.194	89.25
338.422	108.25
338.65	101.25
338.878	104.25
339.106	94.25
339.334	79.25
339.562	94.25
339.79	86.25
340.018	93.25
340.246	106.25
340.474	109.25
340.702	87.25
340.93	104.25
341.158	103.25
341.386	104.25
341.614	109.25
341.842	93.25
342.07	88.25
342.298	95.25
342.526	93.25
342.754	99.25
342.981	96.25
343.209	88.25
343.437	99.25
343.665	92.25
343.893	87.25
344.12	94.25
344.348	82.25
344.576	106.25
344.804	108.25
345.031	112.25
345.259	117.25
345.487	97.25
345.714	101.25
345.942	88.25
346.17	81.25
346.397	96.25
346.625	92.25
346.853	90.25
347.08	107.25
347.308	104.25
347.535	107.25
347.763	102.25
347.99	108.25
348.218	95.25
348.445	112.25
348.673	107.25
348.9	95.25
349.128	109.25
349.355	94.25
349.583	103.25
349.81	94.25
350.037	106.25
350.265	94.25
350.492	91.25
350.72	123.25
350.947	100.25
351.174	107.25
351.402	127.25
351.629	124.25
351.856	118.25
352.083	123.25
352.311	105.25
352.538	120.25
352.765	128.25
352.992	126.25
353.22	131.25
353.447	107.25
353.674	102.25
353.901	107.25
354.128	98.25
354.355	90.25
354.583	94.25
354.81	97.25
355.037	97.25
355.264	94.25
355.491	106.25
355.718	92.25
355.945	89.25
356.172	91.25
356.399	102.25
356.626	91.25
356.853	91.25
357.08	79.25
357.307	88.25
357.534	93.25
357.761	93.25
357.988	104.25
358.215	93.25
358.441	90.25
358.668	90.25
358.895	94.25
359.122	96.25
359.349	86.25
359.576	92.25
359.802	121.25
360.029	127.25
360.256	142.25
360.483	119.25
360.709	96.25
360.936	93.25
361.163	88.25
361.39	105.25
361.616	110.25
361.843	96.25
362.07	103.25
362.296	107.25
362.523	105.25
362.749	112.25
362.976	97.25
363.203	101.25
363.429	96.25
363.656	98.25
363.882	100.25
364.109	89.25
364.335	98.25
364.562	87.25
364.788	114.25
365.015	99.25
365.241	110.25
365.468	111.25
365.694	116.25
365.92	101.25
366.147	106.25
366.373	91.25
366.599	104.25
366.826	94.25
367.052	80.25
367.278	75.25
367.505	90.25
367.731	96.25
367.957	89.25
368.184	91.25
368.41	107.25
368.636	117.25
368.862	124.25
369.089	111.25
369.315	86.25
369.541	93.25
369.767	90.25
369.993	86.25
370.219	86.25
370.445	98.25
370.672	83.25
370.898	90.25
371.124	94.25
371.35	101.25
371.576	89.25
371.802	94.25
372.028	95.25
372.254	87.25
372.48	84.25
372.706	77.25
372.932	85.25
373.158	87.25
373.384	102.25
373.61	106.25
373.835	92.25
374.061	86.25
374.287	87.25
374.513	99.25
374.739	85.25
374.965	78.25
375.191	83.25
375.416	90.25
375.642	87.25
375.868	91.25
376.094	90.25
376.319	82.25
376.545	95.25
376.771	79.25
376.997	94.25
377.222	95.25
377.448	79.25
377.674	103.25
377.899	85.25
378.125	79.25
378.35	67.25
378.576	92.25
378.802	90.25
379.027	90.25
379.253	82.25
379.478	80.25
379.704	87.25
379.929	95.25
380.155	96.25
380.38	96.25
380.606	80.25
380.831	103.25
381.057	99.25
381.282	80.25
381.507	103.25
381.733	85.25
381.958	96.25
382.184	96.25
382.409	90.25
382.634	103.25
382.86	84.25
383.085	89.25
383.31	96.25
383.535	95.25
383.761	98.25
383.986	101.25
384.211	97.25
384.436	85.25
384.662	106.25
384.887	107.25
385.112	102.25
385.337	103.25
385.562	115.25
385.787	97.25
386.013	108.25
386.238	123.25
386.463	104.25
386.688	98.25
386.913	95.25
387.138	105.25
387.363	87.25
387.588	102.25
387.813	82.25
388.038	79.25
388.263	99.25
388.488	101.25
388.713	94.25
388.938	88.25
389.163	85.25
389.387	95.25
389.612	83.25
389.837	83.25
390.062	101.25
390.287	90.25
390.512	102.25
390.736	98.25
390.961	99.25
391.186	111.25
391.411	99.25
391.636	86.25
391.86	78.25
392.085	79.25
392.31	87.25
392.534	85.25
392.759	86.25
392.984	93.25
393.208	107.25
393.433	89.25
393.658	78.25
393.882	79.25
394.107	87.25
394.331	97.25
394.556	94.25
394.78	87.25
395.005	87.25
395.229	85.25
395.454	81.25
395.678	87.25
395.903	87.25
396.127	105.25
396.352	96.25
396.576	77.25
396.801	87.25
397.025	80.25
397.249	72.25
397.474	85.25
397.698	82.25
397.922	85.25
398.147	81.25
398.371	85.25
398.595	88.25
398.82	93.25
399.044	99.25
399.268	90.25
399.492	96.25
399.717	86.25
399.941	84.25
400.165	103.25
400.389	111.25
400.613	94.25
400.837	85.25
401.062	87.25
401.286	105.25
401.51	86.25
401.734	98.25
401.958	112.25
402.182	154.25
402.406	205.25
402.63	139.25
402.854	122.25
403.078	101.25
403.302	84.25
403.526	100.25
403.75	89.25
403.974	89.25
404.198	102.25
404.422	99.25
404.645	101.25
404.869	102.25
405.093	117.25
405.317	132.25
405.541	134.25
405.765	110.25
405.988	124.25
406.212	201.25
406.436	287.25
406.66	190.25
406.883	116.25
407.107	95.25
407.331	106.25
407.555	109.25
407.778	105.25
408.002	106.25
408.226	103.25
408.449	83.25
408.673	89.25
408.896	91.25
409.12	92.25
409.344	87.25
409.567	92.25
409.791	99.25
410.014	89.25
410.238	86.25
410.461	89.25
410.685	98.25
410.908	90.25
411.132	114.25
411.355	103.25
411.578	97.25
411.802	108.25
412.025	91.25
412.249	105.25
412.472	110.25
412.695	121.25
412.919	116.25
413.142	96.25
413.365	91.25
413.589	83.25
413.812	102.25
414.035	94.25
414.258	84.25
414.482	85.25
414.705	94.25
414.928	90.25
415.151	86.25
415.374	100.25
415.597	87.25
415.821	87.25
416.044	95.25
416.267	83.25
416.49	76.25
416.713	100.25
416.936	97.25
417.159	86.25
417.382	73.25
417.605	93.25
417.828	96.25
418.051	95.25
418.274	91.25
418.497	86.25
418.72	82.25
418.943	93.25
419.166	82.25
419.389	92.25
419.611	90.25
419.834	70.25
420.057	89.25
420.28	94.25
420.503	88.25
420.726	97.25
420.948	87.25
421.171	94.25
421.394	95.25
421.617	69.25
421.839	86.25
422.062	86.25
422.285	83.25
422.507	79.25
422.73	111.25
422.953	100.25
423.175	100.25
423.398	95.25
423.621	95.25
423.843	96.25
424.066	82.25
424.288	94.25
424.511	101.25
424.733	91.25
424.956	132.25
425.178	111.25
425.401	114.25
425.623	92.25
425.846	91.25
426.068	108.25
426.291	87.25
426.513	99.25
426.735	93.25
426.958	105.25
427.18	118.25
427.402	172.25
427.625	246.25
427.847	212.25
428.069	195.25
428.292	101.25
428.514	96.25
428.736	84.25
428.958	82.25
429.181	88.25
429.403	98.25
429.625	83.25
429.847	97.25
430.069	113.25
430.292	104.25
430.514	85.25
430.736	86.25
430.958	95.25
431.18	80.25
431.402	70.25
431.624	76.25
431.846	85.25
432.068	92.25
432.29	88.25
432.512	76.25
432.734	80.25
432.956	91.25
433.178	106.25
433.4	104.25
433.622	106.25
433.844	101.25
434.066	91.25
434.287	102.25
434.509	88.25
434.731	86.25
434.953	93.25
435.175	95.25
435.397	94.25
435.618	104.25
435.84	104.25
436.062	137.25
436.284	130.25
436.505	108.25
436.727	109.25
436.949	100.25
437.17	99.25
437.392	92.25
437.614	90.25
437.835	130.25
438.057	138.25
438.278	115.25
438.5	128.25
438.721	135.25
438.943	95.25
439.165	98.25
439.386	94.25
439.608	90.25
439.829	105.25
440.05	149.25
440.272	172.25
440.493	114.25
440.715	98.25
440.936	87.25
441.158	82.25
441.379	91.25
441.6	89.25
441.822	96.25
442.043	101.25
442.264	107.25
442.486	119.25
442.707	84.25
442.928	109.25
443.149	153.25
443.371	163.25
443.592	132.25
443.813	127.25
444.034	127.25
444.255	90.25
444.476	84.25
444.698	88.25
444.919	89.25
445.14	147.25
445.361	138.25
445.582	134.25
445.803	170.25
446.024	165.25
446.245	162.25
446.466	136.25
446.687	89.25
446.908	91.25
447.129	86.25
447.35	91.25
447.571	107.25
447.792	102.25
448.013	103.25
448.234	134.25
448.455	107.25
448.675	133.25
448.896	139.25
449.117	106.25
449.338	106.25
449.559	147.25
449.779	158.25
450	81.25
450.221	99.25
450.442	88.25
450.662	109.25
450.883	125.25
451.104	128.25
451.324	118.25
451.545	94.25
451.766	94.25
451.986	83.25
452.207	87.25
452.428	89.25
452.648	100.25
452.869	113.25
453.089	131.25
453.31	130.25
453.53	116.25
453.751	100.25
453.971	117.25
454.192	140.25
454.412	109.25
454.633	95.25
454.853	92.25
455.073	92.25
455.294	91.25
455.514	126.25
455.734	93.25
455.955	82.25
456.175	90.25
456.395	79.25
456.616	91.25
456.836	91.25
457.056	98.25
457.276	74.25
457.497	98.25
457.717	99.25
457.937	74.25
458.157	95.25
458.377	102.25
458.598	116.25
458.818	195.25
459.038	222.25
459.258	155.25
459.478	81.25
459.698	93.25
459.918	91.25
460.138	80.25
460.358	96.25
460.578	90.25
460.798	87.25
461.018	94.25
461.238	92.25
461.458	88.25
461.678	94.25
461.898	92.25
462.118	101.25
462.338	91.25
462.558	100.25
462.777	90.25
462.997	100.25
463.217	113.25
463.437	95.25
463.657	86.25
463.876	86.25
464.096	90.25
464.316	101.25
464.536	107.25
464.755	103.25
464.975	130.25
465.195	242.25
465.414	226.25
465.634	127.25
465.854	94.25
466.073	105.25
466.293	86.25
466.512	91.25
466.732	89.25
466.951	86.25
467.171	105.25
467.391	102.25
467.61	125.25
467.829	157.25
468.049	354.25
468.268	534.25
468.488	166.25
468.707	110.25
468.927	91.25
469.146	112.25
469.365	93.25
469.585	86.25
469.804	104.25
470.023	95.25
470.243	112.25
470.462	114.25
470.681	137.25
470.901	109.25
471.12	99.25
471.339	100.25
471.558	95.25
471.777	115.25
471.997	227.25
472.216	680.25
472.435	1560.25
472.654	409.25
472.873	136.25
473.092	108.25
473.311	88.25
473.53	95.25
473.749	92.25
473.968	108.25
474.187	121.25
474.406	118.25
474.625	92.25
474.844	99.25
475.063	85.25
475.282	83.25
475.501	76.25
475.72	94.25
475.939	100.25
476.158	100.25
476.377	92.25
476.596	112.25
476.814	102.25
477.033	108.25
477.252	93.25
477.471	100.25
477.69	98.25
477.908	90.25
478.127	91.25
478.346	84.25
478.564	107.25
478.783	104.25
479.002	97.25
479.22	99.25
479.439	119.25
479.658	116.25
479.876	119.25
480.095	116.25
480.313	133.25
480.532	142.25
480.751	206.25
480.969	661.25
481.188	2666.25
481.406	1656.25
481.624	277.25
481.843	129.25
482.061	102.25
482.28	100.25
482.498	94.25
482.717	86.25
482.935	90.25
483.153	83.25
483.372	75.25
483.59	96.25
483.808	87.25
484.027	84.25
484.245	105.25
484.463	110.25
484.681	94.25
484.9	89.25
485.118	108.25
485.336	89.25
485.554	89.25
485.772	106.25
485.99	107.25
486.209	105.25
486.427	105.25
486.645	118.25
486.863	121.25
487.081	96.25
487.299	84.25
487.517	99.25
487.735	95.25
487.953	93.25
488.171	88.25
488.389	99.25
488.607	104.25
488.825	91.25
489.043	89.25
489.261	103.25
489.479	97.25
489.696	90.25
489.914	90.25
490.132	81.25
490.35	85.25
490.568	102.25
490.786	94.25
491.003	95.25
491.221	108.25
491.439	104.25
491.657	93.25
491.874	88.25
492.092	107.25
492.31	91.25
492.527	98.25
492.745	88.25
492.963	97.25
493.18	97.25
493.398	92.25
493.615	96.25
493.833	109.25
494.05	102.25
494.268	88.25
494.485	92.25
494.703	100.25
494.92	87.25
495.138	100.25
495.355	94.25
495.573	84.25
495.79	88.25
496.008	101.25
496.225	83.25
496.442	94.25
496.66	87.25
496.877	92.25
497.094	86.25
497.312	80.25
497.529	103.25
497.746	85.25
497.963	98.25
498.181	106.25
498.398	85.25
498.615	116.25
498.832	128.25
499.049	99.25
499.267	115.25
499.484	85.25
499.701	102.25
499.918	85.25
500.135	66.25
500.352	87.25
500.569	90.25
500.786	85.25
501.003	94.25
501.22	91.25
501.437	85.25
501.654	99.25
501.871	136.25
502.088	104.25
502.305	103.25
502.522	102.25
502.739	94.25
502.956	75.25
503.172	83.25
503.389	90.25
503.606	103.25
503.823	106.25
504.04	90.25
504.256	86.25
504.473	87.25
504.69	90.25
504.907	75.25
505.123	92.25
505.34	98.25
505.557	102.25
505.773	92.25
505.99	97.25
506.207	104.25
506.423	95.25
506.64	93.25
506.856	97.25
507.073	94.25
507.289	94.25
507.506	107.25
507.722	130.25
507.939	148.25
508.155	100.25
508.372	108.25
508.588	104.25
508.805	105.25
509.021	82.25
509.238	100.25
509.454	99.25
509.67	108.25
509.887	114.25
510.103	144.25
510.319	247.25
510.536	866.25
510.752	2874.25
510.968	823.25
511.184	171.25
511.401	138.25
511.617	119.25
511.833	116.25
512.049	107.25
512.265	95.25
512.481	93.25
512.698	98.25
512.914	84.25
