Data from Circ_2013_H10_HRD10591_00053.txt Node
Date: Wed Jan 03 10:04:10 EST 2024
User: Yrep
Spectrometer: HR+D1059
Trigger mode: 1
Integration Time (sec): 1.000000E-1
Scans to average: 1
Electric dark correction enabled: true
Nonlinearity correction enabled: false
Boxcar width: 0
XAxis mode: Wavelengths
Number of Pixels in Spectrum: 2048
>>>>>Begin Spectral Data<<<<<
223.165	-16.12
223.4	-16.12
223.635	-16.12
223.869	-22.12
224.104	-21.12
224.338	-12.12
224.573	0.88
224.808	-12.12
225.042	-5.12
225.277	-3.12
225.511	-9.12
225.746	4.88
225.98	8.88
226.215	5.88
226.449	21.88
226.683	5.88
226.918	27.88
227.152	24.88
227.387	35.88
227.621	37.88
227.856	58.88
228.09	35.88
228.324	44.88
228.559	53.88
228.793	49.88
229.027	63.88
229.262	71.88
229.496	65.88
229.73	97.88
229.964	93.88
230.199	76.88
230.433	64.88
230.667	75.88
230.901	92.88
231.136	73.88
231.37	81.88
231.604	90.88
231.838	76.88
232.072	81.88
232.306	90.88
232.541	81.88
232.775	79.88
233.009	83.88
233.243	93.88
233.477	85.88
233.711	79.88
233.945	76.88
234.179	71.88
234.413	67.88
234.647	81.88
234.881	89.88
235.115	82.88
235.349	84.88
235.583	81.88
235.817	65.88
236.051	66.88
236.285	75.88
236.519	71.88
236.753	83.88
236.987	75.88
237.221	94.88
237.455	90.88
237.689	88.88
237.922	70.88
238.156	89.88
238.39	67.88
238.624	67.88
238.858	60.88
239.091	77.88
239.325	77.88
239.559	87.88
239.793	85.88
240.027	73.88
240.26	76.88
240.494	83.88
240.728	64.88
240.961	72.88
241.195	82.88
241.429	77.88
241.662	76.88
241.896	89.88
242.13	61.88
242.363	70.88
242.597	71.88
242.83	70.88
243.064	77.88
243.298	81.88
243.531	76.88
243.765	67.88
243.998	82.88
244.232	96.88
244.465	84.88
244.699	68.88
244.932	69.88
245.166	83.88
245.399	90.88
245.633	87.88
245.866	80.88
246.099	81.88
246.333	73.88
246.566	72.88
246.8	79.88
247.033	77.88
247.266	77.88
247.5	76.88
247.733	78.88
247.966	90.88
248.2	82.88
248.433	73.88
248.666	77.88
248.899	86.88
249.133	90.88
249.366	87.88
249.599	100.88
249.832	84.88
250.066	85.88
250.299	95.88
250.532	103.88
250.765	71.88
250.998	81.88
251.231	85.88
251.465	82.88
251.698	80.88
251.931	81.88
252.164	69.88
252.397	64.88
252.63	84.88
252.863	76.88
253.096	86.88
253.329	72.88
253.562	67.88
253.795	80.88
254.028	91.88
254.261	88.88
254.494	82.88
254.727	79.88
254.96	89.88
255.193	77.88
255.426	79.88
255.659	82.88
255.892	85.88
256.124	79.88
256.357	97.88
256.59	77.88
256.823	76.88
257.056	77.88
257.289	83.88
257.521	87.88
257.754	81.88
257.987	87.88
258.22	78.88
258.452	84.88
258.685	99.88
258.918	97.88
259.151	85.88
259.383	83.88
259.616	71.88
259.849	86.88
260.081	80.88
260.314	83.88
260.547	81.88
260.779	82.88
261.012	90.88
261.244	94.88
261.477	96.88
261.71	93.88
261.942	114.88
262.175	135.88
262.407	103.88
262.64	77.88
262.872	72.88
263.105	83.88
263.337	95.88
263.57	91.88
263.802	84.88
264.035	79.88
264.267	86.88
264.499	58.88
264.732	98.88
264.964	74.88
265.197	89.88
265.429	93.88
265.661	79.88
265.894	77.88
266.126	84.88
266.358	85.88
266.591	85.88
266.823	94.88
267.055	85.88
267.287	82.88
267.52	87.88
267.752	83.88
267.984	87.88
268.216	86.88
268.448	83.88
268.681	82.88
268.913	96.88
269.145	97.88
269.377	79.88
269.609	81.88
269.841	81.88
270.073	77.88
270.306	74.88
270.538	77.88
270.77	77.88
271.002	80.88
271.234	98.88
271.466	90.88
271.698	79.88
271.93	79.88
272.162	72.88
272.394	92.88
272.626	93.88
272.858	78.88
273.09	84.88
273.322	70.88
273.553	77.88
273.785	64.88
274.017	87.88
274.249	85.88
274.481	89.88
274.713	82.88
274.945	83.88
275.176	84.88
275.408	90.88
275.64	115.88
275.872	108.88
276.104	83.88
276.335	81.88
276.567	111.88
276.799	145.88
277.031	163.88
277.262	155.88
277.494	138.88
277.726	94.88
277.957	74.88
278.189	85.88
278.421	85.88
278.652	101.88
278.884	103.88
279.115	81.88
279.347	78.88
279.579	88.88
279.81	118.88
280.042	161.88
280.273	219.88
280.505	141.88
280.736	102.88
280.968	87.88
281.199	98.88
281.431	88.88
281.662	91.88
281.894	74.88
282.125	98.88
282.356	133.88
282.588	174.88
282.819	137.88
283.051	99.88
283.282	91.88
283.513	94.88
283.745	101.88
283.976	90.88
284.207	89.88
284.439	95.88
284.67	86.88
284.901	83.88
285.132	83.88
285.364	87.88
285.595	72.88
285.826	79.88
286.057	87.88
286.288	70.88
286.52	91.88
286.751	82.88
286.982	103.88
287.213	83.88
287.444	85.88
287.675	81.88
287.906	100.88
288.138	83.88
288.369	90.88
288.6	91.88
288.831	89.88
289.062	92.88
289.293	89.88
289.524	80.88
289.755	83.88
289.986	79.88
290.217	93.88
290.448	72.88
290.679	75.88
290.91	98.88
291.141	96.88
291.371	92.88
291.602	84.88
291.833	91.88
292.064	81.88
292.295	94.88
292.526	96.88
292.757	98.88
292.987	86.88
293.218	81.88
293.449	97.88
293.68	81.88
293.91	93.88
294.141	87.88
294.372	85.88
294.603	93.88
294.833	105.88
295.064	97.88
295.295	91.88
295.525	103.88
295.756	89.88
295.987	128.88
296.217	156.88
296.448	150.88
296.679	102.88
296.909	91.88
297.14	88.88
297.37	89.88
297.601	88.88
297.831	81.88
298.062	92.88
298.292	93.88
298.523	96.88
298.753	89.88
298.984	103.88
299.214	93.88
299.445	99.88
299.675	96.88
299.905	96.88
300.136	92.88
300.366	91.88
300.597	91.88
300.827	80.88
301.057	98.88
301.288	101.88
301.518	102.88
301.748	100.88
301.979	107.88
302.209	103.88
302.439	92.88
302.669	91.88
302.9	96.88
303.13	99.88
303.36	125.88
303.59	121.88
303.82	129.88
304.051	94.88
304.281	98.88
304.511	85.88
304.741	88.88
304.971	86.88
305.201	89.88
305.431	106.88
305.661	89.88
305.891	92.88
306.121	97.88
306.352	105.88
306.582	124.88
306.812	106.88
307.042	97.88
307.272	137.88
307.502	136.88
307.731	138.88
307.961	112.88
308.191	96.88
308.421	97.88
308.651	91.88
308.881	98.88
309.111	111.88
309.341	109.88
309.571	125.88
309.8	109.88
310.03	108.88
310.26	109.88
310.49	99.88
310.72	96.88
310.949	115.88
311.179	126.88
311.409	93.88
311.639	117.88
311.868	104.88
312.098	107.88
312.328	110.88
312.557	128.88
312.787	102.88
313.017	134.88
313.246	90.88
313.476	84.88
313.706	91.88
313.935	106.88
314.165	115.88
314.394	116.88
314.624	103.88
314.853	103.88
315.083	96.88
315.312	85.88
315.542	90.88
315.771	91.88
316.001	98.88
316.23	84.88
316.46	98.88
316.689	94.88
316.919	106.88
317.148	106.88
317.377	96.88
317.607	90.88
317.836	92.88
318.065	101.88
318.295	92.88
318.524	95.88
318.753	89.88
318.983	92.88
319.212	106.88
319.441	118.88
319.67	108.88
319.9	82.88
320.129	82.88
320.358	92.88
320.587	98.88
320.816	113.88
321.046	135.88
321.275	110.88
321.504	96.88
321.733	90.88
321.962	117.88
322.191	102.88
322.42	105.88
322.649	132.88
322.878	124.88
323.108	131.88
323.337	145.88
323.566	137.88
323.795	175.88
324.024	263.88
324.253	529.88
324.482	1104.88
324.71	2320.88
324.939	3168.88
325.168	1137.88
325.397	305.88
325.626	167.88
325.855	147.88
326.084	148.88
326.313	152.88
326.542	170.88
326.77	304.88
326.999	609.88
327.228	1240.88
327.457	2276.88
327.686	1837.88
327.914	573.88
328.143	459.88
328.372	552.88
328.6	336.88
328.829	163.88
329.058	194.88
329.287	205.88
329.515	177.88
329.744	230.88
329.972	399.88
330.201	789.88
330.43	1152.88
330.658	558.88
330.887	271.88
331.115	179.88
331.344	120.88
331.572	133.88
331.801	130.88
332.03	105.88
332.258	105.88
332.486	105.88
332.715	94.88
332.943	103.88
333.172	100.88
333.4	120.88
333.629	169.88
333.857	219.88
334.085	388.88
334.314	767.88
334.542	1475.88
334.771	1357.88
334.999	372.88
335.227	168.88
335.455	117.88
335.684	109.88
335.912	119.88
336.14	96.88
336.369	105.88
336.597	97.88
336.825	102.88
337.053	90.88
337.281	80.88
337.51	89.88
337.738	90.88
337.966	92.88
338.194	100.88
338.422	118.88
338.65	96.88
338.878	84.88
339.106	105.88
339.334	102.88
339.562	85.88
339.79	87.88
340.018	95.88
340.246	101.88
340.474	105.88
340.702	93.88
340.93	103.88
341.158	108.88
341.386	88.88
341.614	98.88
341.842	100.88
342.07	86.88
342.298	110.88
342.526	93.88
342.754	95.88
342.981	92.88
343.209	100.88
343.437	86.88
343.665	87.88
343.893	92.88
344.12	92.88
344.348	83.88
344.576	89.88
344.804	103.88
345.031	104.88
345.259	105.88
345.487	93.88
345.714	100.88
345.942	91.88
346.17	117.88
346.397	91.88
346.625	96.88
346.853	97.88
347.08	91.88
347.308	107.88
347.535	109.88
347.763	112.88
347.99	113.88
348.218	112.88
348.445	98.88
348.673	103.88
348.9	101.88
349.128	109.88
349.355	76.88
349.583	95.88
349.81	96.88
350.037	85.88
350.265	87.88
350.492	93.88
350.72	91.88
350.947	113.88
351.174	114.88
351.402	127.88
351.629	102.88
351.856	116.88
352.083	127.88
352.311	127.88
352.538	125.88
352.765	136.88
352.992	123.88
353.22	100.88
353.447	118.88
353.674	111.88
353.901	97.88
354.128	88.88
354.355	98.88
354.583	98.88
354.81	106.88
355.037	97.88
355.264	100.88
355.491	93.88
355.718	92.88
355.945	101.88
356.172	70.88
356.399	92.88
356.626	81.88
356.853	71.88
357.08	92.88
357.307	81.88
357.534	90.88
357.761	83.88
357.988	96.88
358.215	90.88
358.441	77.88
358.668	91.88
358.895	86.88
359.122	91.88
359.349	100.88
359.576	89.88
359.802	122.88
360.029	146.88
360.256	152.88
360.483	111.88
360.709	88.88
360.936	94.88
361.163	95.88
361.39	108.88
361.616	102.88
361.843	113.88
362.07	113.88
362.296	108.88
362.523	98.88
362.749	99.88
362.976	101.88
363.203	93.88
363.429	91.88
363.656	97.88
363.882	84.88
364.109	91.88
364.335	107.88
364.562	99.88
364.788	88.88
365.015	111.88
365.241	97.88
365.468	131.88
365.694	118.88
365.92	108.88
366.147	82.88
366.373	78.88
366.599	77.88
366.826	85.88
367.052	82.88
367.278	103.88
367.505	87.88
367.731	93.88
367.957	89.88
368.184	100.88
368.41	104.88
368.636	131.88
368.862	147.88
369.089	128.88
369.315	94.88
369.541	83.88
369.767	86.88
369.993	103.88
370.219	92.88
370.445	98.88
370.672	83.88
370.898	75.88
371.124	96.88
371.35	76.88
371.576	96.88
371.802	86.88
372.028	82.88
372.254	83.88
372.48	89.88
372.706	87.88
372.932	83.88
373.158	95.88
373.384	82.88
373.61	90.88
373.835	102.88
374.061	84.88
374.287	109.88
374.513	81.88
374.739	101.88
374.965	89.88
375.191	102.88
375.416	95.88
375.642	73.88
375.868	90.88
376.094	97.88
376.319	96.88
376.545	85.88
376.771	82.88
376.997	104.88
377.222	89.88
377.448	91.88
377.674	98.88
377.899	82.88
378.125	92.88
378.35	86.88
378.576	82.88
378.802	79.88
379.027	93.88
379.253	81.88
379.478	89.88
379.704	109.88
379.929	88.88
380.155	106.88
380.38	99.88
380.606	91.88
380.831	98.88
381.057	99.88
381.282	91.88
381.507	89.88
381.733	91.88
381.958	93.88
382.184	95.88
382.409	91.88
382.634	110.88
382.86	92.88
383.085	92.88
383.31	99.88
383.535	87.88
383.761	79.88
383.986	84.88
384.211	85.88
384.436	86.88
384.662	88.88
384.887	84.88
385.112	99.88
385.337	113.88
385.562	93.88
385.787	97.88
386.013	103.88
386.238	115.88
386.463	115.88
386.688	117.88
386.913	103.88
387.138	98.88
387.363	102.88
387.588	93.88
387.813	86.88
388.038	94.88
388.263	118.88
388.488	108.88
388.713	96.88
388.938	90.88
389.163	96.88
389.387	85.88
389.612	98.88
389.837	99.88
390.062	86.88
390.287	81.88
390.512	92.88
390.736	90.88
390.961	86.88
391.186	85.88
391.411	73.88
391.636	77.88
391.86	86.88
392.085	92.88
392.31	90.88
392.534	87.88
392.759	92.88
392.984	88.88
393.208	79.88
393.433	100.88
393.658	92.88
393.882	88.88
394.107	81.88
394.331	80.88
394.556	82.88
394.78	91.88
395.005	90.88
395.229	74.88
395.454	90.88
395.678	86.88
395.903	90.88
396.127	87.88
396.352	87.88
396.576	83.88
396.801	90.88
397.025	91.88
397.249	79.88
397.474	96.88
397.698	100.88
397.922	91.88
398.147	86.88
398.371	77.88
398.595	74.88
398.82	78.88
399.044	87.88
399.268	67.88
399.492	80.88
399.717	84.88
399.941	84.88
400.165	110.88
400.389	91.88
400.613	88.88
400.837	77.88
401.062	89.88
401.286	87.88
401.51	94.88
401.734	96.88
401.958	111.88
402.182	140.88
402.406	195.88
402.63	154.88
402.854	95.88
403.078	96.88
403.302	104.88
403.526	92.88
403.75	92.88
403.974	94.88
404.198	101.88
404.422	93.88
404.645	92.88
404.869	95.88
405.093	110.88
405.317	139.88
405.541	145.88
405.765	105.88
405.988	134.88
406.212	200.88
406.436	313.88
406.66	213.88
406.883	119.88
407.107	108.88
407.331	102.88
407.555	90.88
407.778	103.88
408.002	105.88
408.226	88.88
408.449	96.88
408.673	93.88
408.896	104.88
409.12	99.88
409.344	83.88
409.567	83.88
409.791	90.88
410.014	89.88
410.238	90.88
410.461	81.88
410.685	96.88
410.908	87.88
411.132	101.88
411.355	108.88
411.578	90.88
411.802	88.88
412.025	96.88
412.249	87.88
412.472	113.88
412.695	133.88
412.919	96.88
413.142	87.88
413.365	93.88
413.589	90.88
413.812	76.88
414.035	90.88
414.258	83.88
414.482	96.88
414.705	90.88
414.928	92.88
415.151	97.88
415.374	97.88
415.597	96.88
415.821	89.88
416.044	82.88
416.267	90.88
416.49	82.88
416.713	80.88
416.936	90.88
417.159	91.88
417.382	90.88
417.605	103.88
417.828	106.88
418.051	89.88
418.274	90.88
418.497	87.88
418.72	82.88
418.943	84.88
419.166	87.88
419.389	104.88
419.611	102.88
419.834	82.88
420.057	88.88
420.28	102.88
420.503	77.88
420.726	92.88
420.948	99.88
421.171	91.88
421.394	103.88
421.617	83.88
421.839	76.88
422.062	83.88
422.285	83.88
422.507	86.88
422.73	99.88
422.953	112.88
423.175	95.88
423.398	85.88
423.621	94.88
423.843	82.88
424.066	88.88
424.288	97.88
424.511	97.88
424.733	116.88
424.956	104.88
425.178	103.88
425.401	111.88
425.623	100.88
425.846	75.88
426.068	94.88
426.291	99.88
426.513	85.88
426.735	103.88
426.958	107.88
427.18	113.88
427.402	171.88
427.625	251.88
427.847	234.88
428.069	215.88
428.292	117.88
428.514	106.88
428.736	82.88
428.958	99.88
429.181	86.88
429.403	87.88
429.625	84.88
429.847	97.88
430.069	106.88
430.292	84.88
430.514	94.88
430.736	83.88
430.958	89.88
431.18	81.88
431.402	92.88
431.624	93.88
431.846	83.88
432.068	82.88
432.29	94.88
432.512	93.88
432.734	93.88
432.956	98.88
433.178	95.88
433.4	102.88
433.622	96.88
433.844	94.88
434.066	86.88
434.287	86.88
434.509	85.88
434.731	81.88
434.953	75.88
435.175	91.88
435.397	102.88
435.618	101.88
435.84	124.88
436.062	139.88
436.284	135.88
436.505	109.88
436.727	111.88
436.949	85.88
437.17	79.88
437.392	77.88
437.614	105.88
437.835	119.88
438.057	154.88
438.278	133.88
438.5	135.88
438.721	133.88
438.943	116.88
439.165	99.88
439.386	100.88
439.608	93.88
439.829	98.88
440.05	152.88
440.272	195.88
440.493	121.88
440.715	81.88
440.936	93.88
441.158	84.88
441.379	96.88
441.6	83.88
441.822	110.88
442.043	104.88
442.264	127.88
442.486	113.88
442.707	118.88
442.928	126.88
443.149	169.88
443.371	177.88
443.592	129.88
443.813	108.88
444.034	105.88
444.255	87.88
444.476	87.88
444.698	90.88
444.919	94.88
445.14	127.88
445.361	132.88
445.582	140.88
445.803	198.88
446.024	203.88
446.245	174.88
446.466	115.88
446.687	82.88
446.908	86.88
447.129	83.88
447.35	94.88
447.571	88.88
447.792	101.88
448.013	100.88
448.234	114.88
448.455	114.88
448.675	129.88
448.896	139.88
449.117	97.88
449.338	101.88
449.559	144.88
449.779	154.88
450	98.88
450.221	91.88
450.442	103.88
450.662	118.88
450.883	119.88
451.104	128.88
451.324	115.88
451.545	105.88
451.766	92.88
451.986	83.88
452.207	79.88
452.428	100.88
452.648	101.88
452.869	113.88
453.089	148.88
453.31	149.88
453.53	108.88
453.751	102.88
453.971	114.88
454.192	145.88
454.412	101.88
454.633	79.88
454.853	84.88
455.073	83.88
455.294	100.88
455.514	121.88
455.734	105.88
455.955	86.88
456.175	85.88
456.395	79.88
456.616	84.88
456.836	72.88
457.056	75.88
457.276	90.88
457.497	81.88
457.717	85.88
457.937	87.88
458.157	84.88
458.377	91.88
458.598	121.88
458.818	220.88
459.038	238.88
459.258	157.88
459.478	84.88
459.698	74.88
459.918	86.88
460.138	72.88
460.358	71.88
460.578	75.88
460.798	105.88
461.018	102.88
461.238	91.88
461.458	81.88
461.678	75.88
461.898	83.88
462.118	83.88
462.338	83.88
462.558	79.88
462.777	80.88
462.997	96.88
463.217	91.88
463.437	103.88
463.657	89.88
463.876	58.88
464.096	86.88
464.316	100.88
464.536	111.88
464.755	115.88
464.975	131.88
465.195	242.88
465.414	240.88
465.634	115.88
465.854	77.88
466.073	91.88
466.293	96.88
466.512	82.88
466.732	98.88
466.951	101.88
467.171	104.88
467.391	109.88
467.61	141.88
467.829	169.88
468.049	393.88
468.268	608.88
468.488	187.88
468.707	101.88
468.927	93.88
469.146	81.88
469.365	80.88
469.585	87.88
469.804	110.88
470.023	100.88
470.243	101.88
470.462	111.88
470.681	130.88
470.901	87.88
471.12	93.88
471.339	103.88
471.558	99.88
471.777	143.88
471.997	236.88
472.216	820.88
472.435	1872.88
472.654	471.88
472.873	126.88
473.092	107.88
473.311	83.88
473.53	65.88
473.749	86.88
473.968	98.88
474.187	117.88
474.406	111.88
474.625	92.88
474.844	90.88
475.063	84.88
475.282	83.88
475.501	76.88
475.72	91.88
475.939	85.88
476.158	83.88
476.377	91.88
476.596	103.88
476.814	92.88
477.033	97.88
477.252	87.88
477.471	91.88
477.69	88.88
477.908	87.88
478.127	108.88
478.346	105.88
478.564	95.88
478.783	124.88
479.002	77.88
479.22	112.88
479.439	123.88
479.658	132.88
479.876	127.88
480.095	116.88
480.313	130.88
480.532	150.88
480.751	226.88
480.969	757.88
481.188	3104.88
481.406	1930.88
481.624	307.88
481.843	137.88
482.061	95.88
482.28	93.88
482.498	95.88
482.717	94.88
482.935	88.88
483.153	89.88
483.372	85.88
483.59	88.88
483.808	96.88
484.027	98.88
484.245	95.88
484.463	95.88
484.681	89.88
484.9	82.88
485.118	96.88
485.336	80.88
485.554	96.88
485.772	92.88
485.99	109.88
486.209	100.88
486.427	88.88
486.645	114.88
486.863	112.88
487.081	93.88
487.299	86.88
487.517	88.88
487.735	81.88
487.953	93.88
488.171	92.88
488.389	92.88
488.607	100.88
488.825	88.88
489.043	86.88
489.261	95.88
489.479	92.88
489.696	82.88
489.914	85.88
490.132	81.88
490.35	85.88
490.568	82.88
490.786	77.88
491.003	99.88
491.221	101.88
491.439	97.88
491.657	91.88
491.874	98.88
492.092	104.88
492.31	75.88
492.527	102.88
492.745	91.88
492.963	98.88
493.18	89.88
493.398	87.88
493.615	82.88
493.833	86.88
494.05	88.88
494.268	90.88
494.485	83.88
494.703	93.88
494.92	98.88
495.138	93.88
495.355	80.88
495.573	90.88
495.79	104.88
496.008	108.88
496.225	99.88
496.442	77.88
496.66	104.88
496.877	106.88
497.094	90.88
497.312	98.88
497.529	97.88
497.746	80.88
497.963	105.88
498.181	88.88
498.398	113.88
498.615	110.88
498.832	105.88
499.049	95.88
499.267	92.88
499.484	89.88
499.701	88.88
499.918	91.88
500.135	95.88
500.352	77.88
500.569	92.88
500.786	100.88
501.003	77.88
501.22	80.88
501.437	88.88
501.654	88.88
501.871	116.88
502.088	86.88
502.305	87.88
502.522	84.88
502.739	80.88
502.956	83.88
503.172	100.88
503.389	102.88
503.606	126.88
503.823	108.88
504.04	95.88
504.256	87.88
504.473	99.88
504.69	101.88
504.907	83.88
505.123	94.88
505.34	84.88
505.557	82.88
505.773	92.88
505.99	83.88
506.207	88.88
506.423	79.88
506.64	83.88
506.856	98.88
507.073	80.88
507.289	79.88
507.506	119.88
507.722	125.88
507.939	115.88
508.155	101.88
508.372	91.88
508.588	101.88
508.805	95.88
509.021	80.88
509.238	102.88
509.454	98.88
509.67	92.88
509.887	108.88
510.103	141.88
510.319	231.88
510.536	915.88
510.752	3208.88
510.968	891.88
511.184	194.88
511.401	120.88
511.617	116.88
511.833	114.88
512.049	93.88
512.265	94.88
512.481	93.88
512.698	84.88
512.914	84.88
513.13	90.88
513.346	84.88
513.562	95.88
513.778	98.88
