Data from Circ_2013_H10_HRD10591_00068.txt Node
Date: Wed Jan 03 10:04:13 EST 2024
User: Yrep
Spectrometer: HR+D1059
Trigger mode: 1
Integration Time (sec): 1.000000E-1
Scans to average: 1
Electric dark correction enabled: true
Nonlinearity correction enabled: false
Boxcar width: 0
XAxis mode: Wavelengths
Number of Pixels in Spectrum: 2048
>>>>>Begin Spectral Data<<<<<
223.165	-9.25
223.4	-9.25
223.635	-9.25
223.869	-10.25
224.104	-16.25
224.338	-8.25
224.573	-6.25
224.808	-21.25
225.042	-18.25
225.277	-4.25
225.511	-6.25
225.746	11.75
225.98	13.75
226.215	10.75
226.449	-2.25
226.683	21.75
226.918	13.75
227.152	30.75
227.387	42.75
227.621	39.75
227.856	38.75
228.09	52.75
228.324	41.75
228.559	53.75
228.793	60.75
229.027	48.75
229.262	76.75
229.496	72.75
229.73	88.75
229.964	84.75
230.199	67.75
230.433	69.75
230.667	65.75
230.901	83.75
231.136	75.75
231.37	80.75
231.604	76.75
231.838	85.75
232.072	73.75
232.306	75.75
232.541	91.75
232.775	73.75
233.009	86.75
233.243	103.75
233.477	77.75
233.711	80.75
233.945	83.75
234.179	77.75
234.413	74.75
234.647	83.75
234.881	84.75
235.115	73.75
235.349	65.75
235.583	69.75
235.817	81.75
236.051	72.75
236.285	78.75
236.519	85.75
236.753	72.75
236.987	73.75
237.221	86.75
237.455	78.75
237.689	62.75
237.922	77.75
238.156	71.75
238.39	76.75
238.624	78.75
238.858	79.75
239.091	67.75
239.325	72.75
239.559	81.75
239.793	56.75
240.027	80.75
240.26	81.75
240.494	76.75
240.728	81.75
240.961	62.75
241.195	68.75
241.429	82.75
241.662	72.75
241.896	69.75
242.13	68.75
242.363	67.75
242.597	75.75
242.83	76.75
243.064	72.75
243.298	83.75
243.531	76.75
243.765	67.75
243.998	83.75
244.232	75.75
244.465	74.75
244.699	66.75
244.932	83.75
245.166	66.75
245.399	80.75
245.633	76.75
245.866	81.75
246.099	63.75
246.333	66.75
246.566	87.75
246.8	85.75
247.033	72.75
247.266	73.75
247.5	88.75
247.733	79.75
247.966	75.75
248.2	82.75
248.433	74.75
248.666	72.75
248.899	88.75
249.133	83.75
249.366	102.75
249.599	96.75
249.832	86.75
250.066	79.75
250.299	77.75
250.532	89.75
250.765	78.75
250.998	72.75
251.231	88.75
251.465	82.75
251.698	81.75
251.931	85.75
252.164	77.75
252.397	79.75
252.63	83.75
252.863	80.75
253.096	71.75
253.329	86.75
253.562	80.75
253.795	83.75
254.028	78.75
254.261	75.75
254.494	72.75
254.727	88.75
254.96	83.75
255.193	83.75
255.426	66.75
255.659	79.75
255.892	96.75
256.124	81.75
256.357	73.75
256.59	83.75
256.823	72.75
257.056	80.75
257.289	74.75
257.521	81.75
257.754	83.75
257.987	68.75
258.22	86.75
258.452	85.75
258.685	84.75
258.918	75.75
259.151	78.75
259.383	86.75
259.616	77.75
259.849	76.75
260.081	80.75
260.314	92.75
260.547	80.75
260.779	66.75
261.012	90.75
261.244	92.75
261.477	91.75
261.71	105.75
261.942	103.75
262.175	121.75
262.407	82.75
262.64	92.75
262.872	93.75
263.105	78.75
263.337	73.75
263.57	73.75
263.802	81.75
264.035	83.75
264.267	84.75
264.499	73.75
264.732	64.75
264.964	80.75
265.197	73.75
265.429	81.75
265.661	85.75
265.894	77.75
266.126	77.75
266.358	84.75
266.591	61.75
266.823	76.75
267.055	85.75
267.287	93.75
267.52	76.75
267.752	70.75
267.984	68.75
268.216	92.75
268.448	82.75
268.681	92.75
268.913	73.75
269.145	89.75
269.377	89.75
269.609	74.75
269.841	88.75
270.073	76.75
270.306	89.75
270.538	86.75
270.77	77.75
271.002	63.75
271.234	77.75
271.466	72.75
271.698	79.75
271.93	81.75
272.162	85.75
272.394	76.75
272.626	88.75
272.858	85.75
273.09	79.75
273.322	77.75
273.553	97.75
273.785	84.75
274.017	81.75
274.249	76.75
274.481	78.75
274.713	88.75
274.945	84.75
275.176	97.75
275.408	90.75
275.64	99.75
275.872	96.75
276.104	86.75
276.335	100.75
276.567	97.75
276.799	115.75
277.031	111.75
277.262	123.75
277.494	113.75
277.726	95.75
277.957	93.75
278.189	81.75
278.421	86.75
278.652	77.75
278.884	72.75
279.115	81.75
279.347	87.75
279.579	79.75
279.81	95.75
280.042	119.75
280.273	135.75
280.505	109.75
280.736	77.75
280.968	92.75
281.199	92.75
281.431	81.75
281.662	85.75
281.894	88.75
282.125	96.75
282.356	103.75
282.588	134.75
282.819	98.75
283.051	92.75
283.282	89.75
283.513	85.75
283.745	63.75
283.976	93.75
284.207	88.75
284.439	70.75
284.67	80.75
284.901	92.75
285.132	91.75
285.364	96.75
285.595	84.75
285.826	90.75
286.057	87.75
286.288	84.75
286.52	76.75
286.751	76.75
286.982	77.75
287.213	82.75
287.444	86.75
287.675	84.75
287.906	91.75
288.138	91.75
288.369	92.75
288.6	81.75
288.831	73.75
289.062	90.75
289.293	78.75
289.524	75.75
289.755	93.75
289.986	102.75
290.217	84.75
290.448	80.75
290.679	74.75
290.91	79.75
291.141	89.75
291.371	84.75
291.602	80.75
291.833	96.75
292.064	71.75
292.295	81.75
292.526	86.75
292.757	99.75
292.987	88.75
293.218	83.75
293.449	88.75
293.68	77.75
293.91	93.75
294.141	92.75
294.372	90.75
294.603	79.75
294.833	80.75
295.064	92.75
295.295	73.75
295.525	82.75
295.756	109.75
295.987	115.75
296.217	137.75
296.448	132.75
296.679	77.75
296.909	80.75
297.14	83.75
297.37	91.75
297.601	67.75
297.831	89.75
298.062	84.75
298.292	83.75
298.523	89.75
298.753	77.75
298.984	93.75
299.214	96.75
299.445	90.75
299.675	94.75
299.905	89.75
300.136	86.75
300.366	81.75
300.597	86.75
300.827	84.75
301.057	102.75
301.288	101.75
301.518	98.75
301.748	85.75
301.979	107.75
302.209	93.75
302.439	90.75
302.669	83.75
302.9	98.75
303.13	94.75
303.36	86.75
303.59	112.75
303.82	106.75
304.051	102.75
304.281	79.75
304.511	85.75
304.741	90.75
304.971	72.75
305.201	74.75
305.431	79.75
305.661	78.75
305.891	84.75
306.121	89.75
306.352	86.75
306.582	90.75
306.812	90.75
307.042	94.75
307.272	111.75
307.502	122.75
307.731	115.75
307.961	90.75
308.191	99.75
308.421	67.75
308.651	95.75
308.881	102.75
309.111	83.75
309.341	89.75
309.571	87.75
309.8	90.75
310.03	85.75
310.26	98.75
310.49	89.75
310.72	107.75
310.949	111.75
311.179	97.75
311.409	105.75
311.639	89.75
311.868	99.75
312.098	78.75
312.328	98.75
312.557	112.75
312.787	91.75
313.017	93.75
313.246	77.75
313.476	78.75
313.706	104.75
313.935	91.75
314.165	90.75
314.394	103.75
314.624	95.75
314.853	97.75
315.083	99.75
315.312	99.75
315.542	100.75
315.771	93.75
316.001	83.75
316.23	91.75
316.46	93.75
316.689	95.75
316.919	89.75
317.148	83.75
317.377	88.75
317.607	101.75
317.836	83.75
318.065	87.75
318.295	85.75
318.524	81.75
318.753	98.75
318.983	84.75
319.212	97.75
319.441	104.75
319.67	94.75
319.9	90.75
320.129	84.75
320.358	88.75
320.587	99.75
320.816	103.75
321.046	91.75
321.275	89.75
321.504	99.75
321.733	90.75
321.962	86.75
322.191	112.75
322.42	104.75
322.649	103.75
322.878	121.75
323.108	117.75
323.337	116.75
323.566	140.75
323.795	159.75
324.024	213.75
324.253	415.75
324.482	879.75
324.71	1868.75
324.939	2481.75
325.168	927.75
325.397	247.75
325.626	155.75
325.855	137.75
326.084	129.75
326.313	134.75
326.542	162.75
326.77	245.75
326.999	488.75
327.228	1016.75
327.457	1865.75
327.686	1528.75
327.914	435.75
328.143	341.75
328.372	339.75
328.6	228.75
328.829	142.75
329.058	138.75
329.287	151.75
329.515	141.75
329.744	168.75
329.972	259.75
330.201	467.75
330.43	680.75
330.658	344.75
330.887	193.75
331.115	135.75
331.344	106.75
331.572	107.75
331.801	100.75
332.03	103.75
332.258	82.75
332.486	82.75
332.715	91.75
332.943	111.75
333.172	98.75
333.4	104.75
333.629	127.75
333.857	170.75
334.085	245.75
334.314	434.75
334.542	815.75
334.771	802.75
334.999	250.75
335.227	130.75
335.455	115.75
335.684	115.75
335.912	91.75
336.14	92.75
336.369	97.75
336.597	106.75
336.825	107.75
337.053	104.75
337.281	97.75
337.51	91.75
337.738	100.75
337.966	89.75
338.194	102.75
338.422	98.75
338.65	96.75
338.878	103.75
339.106	98.75
339.334	83.75
339.562	88.75
339.79	74.75
340.018	94.75
340.246	93.75
340.474	88.75
340.702	103.75
340.93	98.75
341.158	100.75
341.386	101.75
341.614	85.75
341.842	88.75
342.07	85.75
342.298	92.75
342.526	98.75
342.754	89.75
342.981	94.75
343.209	98.75
343.437	90.75
343.665	87.75
343.893	83.75
344.12	89.75
344.348	81.75
344.576	82.75
344.804	74.75
345.031	85.75
345.259	87.75
345.487	89.75
345.714	81.75
345.942	86.75
346.17	97.75
346.397	100.75
346.625	97.75
346.853	85.75
347.08	90.75
347.308	98.75
347.535	102.75
347.763	101.75
347.99	100.75
348.218	107.75
348.445	101.75
348.673	99.75
348.9	91.75
349.128	83.75
349.355	99.75
349.583	81.75
349.81	93.75
350.037	96.75
350.265	91.75
350.492	87.75
350.72	93.75
350.947	94.75
351.174	96.75
351.402	105.75
351.629	104.75
351.856	102.75
352.083	99.75
352.311	111.75
352.538	122.75
352.765	123.75
352.992	108.75
353.22	98.75
353.447	100.75
353.674	106.75
353.901	95.75
354.128	96.75
354.355	96.75
354.583	82.75
354.81	92.75
355.037	95.75
355.264	85.75
355.491	96.75
355.718	84.75
355.945	92.75
356.172	97.75
356.399	88.75
356.626	99.75
356.853	84.75
357.08	80.75
357.307	97.75
357.534	88.75
357.761	79.75
357.988	89.75
358.215	94.75
358.441	98.75
358.668	79.75
358.895	84.75
359.122	83.75
359.349	102.75
359.576	103.75
359.802	98.75
360.029	115.75
360.256	122.75
360.483	117.75
360.709	84.75
360.936	88.75
361.163	93.75
361.39	98.75
361.616	91.75
361.843	99.75
362.07	91.75
362.296	103.75
362.523	91.75
362.749	86.75
362.976	87.75
363.203	99.75
363.429	88.75
363.656	86.75
363.882	98.75
364.109	86.75
364.335	84.75
364.562	88.75
364.788	82.75
365.015	87.75
365.241	90.75
365.468	95.75
365.694	104.75
365.92	103.75
366.147	85.75
366.373	88.75
366.599	76.75
366.826	83.75
367.052	85.75
367.278	88.75
367.505	81.75
367.731	85.75
367.957	89.75
368.184	86.75
368.41	79.75
368.636	124.75
368.862	115.75
369.089	92.75
369.315	98.75
369.541	95.75
369.767	79.75
369.993	86.75
370.219	93.75
370.445	85.75
370.672	88.75
370.898	92.75
371.124	74.75
371.35	81.75
371.576	89.75
371.802	80.75
372.028	96.75
372.254	68.75
372.48	80.75
372.706	88.75
372.932	101.75
373.158	87.75
373.384	89.75
373.61	83.75
373.835	97.75
374.061	88.75
374.287	76.75
374.513	91.75
374.739	102.75
374.965	79.75
375.191	68.75
375.416	86.75
375.642	95.75
375.868	76.75
376.094	69.75
376.319	84.75
376.545	88.75
376.771	88.75
376.997	84.75
377.222	79.75
377.448	74.75
377.674	98.75
377.899	96.75
378.125	83.75
378.35	92.75
378.576	76.75
378.802	88.75
379.027	89.75
379.253	90.75
379.478	86.75
379.704	88.75
379.929	87.75
380.155	96.75
380.38	77.75
380.606	89.75
380.831	92.75
381.057	91.75
381.282	100.75
381.507	92.75
381.733	92.75
381.958	91.75
382.184	72.75
382.409	103.75
382.634	83.75
382.86	99.75
383.085	115.75
383.31	101.75
383.535	89.75
383.761	91.75
383.986	91.75
384.211	100.75
384.436	84.75
384.662	85.75
384.887	92.75
385.112	90.75
385.337	97.75
385.562	90.75
385.787	99.75
386.013	106.75
386.238	116.75
386.463	113.75
386.688	95.75
386.913	90.75
387.138	99.75
387.363	99.75
387.588	88.75
387.813	97.75
388.038	90.75
388.263	97.75
388.488	106.75
388.713	92.75
388.938	93.75
389.163	92.75
389.387	84.75
389.612	89.75
389.837	77.75
390.062	94.75
390.287	84.75
390.512	92.75
390.736	104.75
390.961	104.75
391.186	95.75
391.411	101.75
391.636	95.75
391.86	87.75
392.085	72.75
392.31	79.75
392.534	93.75
392.759	83.75
392.984	69.75
393.208	91.75
393.433	88.75
393.658	85.75
393.882	95.75
394.107	84.75
394.331	89.75
394.556	74.75
394.78	90.75
395.005	93.75
395.229	77.75
395.454	86.75
395.678	98.75
395.903	85.75
396.127	99.75
396.352	73.75
396.576	82.75
396.801	81.75
397.025	76.75
397.249	73.75
397.474	76.75
397.698	98.75
397.922	71.75
398.147	80.75
398.371	90.75
398.595	84.75
398.82	72.75
399.044	83.75
399.268	83.75
399.492	97.75
399.717	92.75
399.941	81.75
400.165	92.75
400.389	103.75
400.613	89.75
400.837	104.75
401.062	105.75
401.286	93.75
401.51	100.75
401.734	83.75
401.958	112.75
402.182	145.75
402.406	169.75
402.63	129.75
402.854	89.75
403.078	90.75
403.302	82.75
403.526	82.75
403.75	93.75
403.974	91.75
404.198	91.75
404.422	89.75
404.645	73.75
404.869	85.75
405.093	102.75
405.317	106.75
405.541	114.75
405.765	115.75
405.988	121.75
406.212	177.75
406.436	265.75
406.66	170.75
406.883	109.75
407.107	95.75
407.331	94.75
407.555	109.75
407.778	82.75
408.002	95.75
408.226	93.75
408.449	79.75
408.673	90.75
408.896	85.75
409.12	99.75
409.344	92.75
409.567	84.75
409.791	88.75
410.014	108.75
410.238	98.75
410.461	96.75
410.685	92.75
410.908	79.75
411.132	104.75
411.355	93.75
411.578	93.75
411.802	94.75
412.025	88.75
412.249	115.75
412.472	106.75
412.695	119.75
412.919	92.75
413.142	73.75
413.365	86.75
413.589	92.75
413.812	82.75
414.035	85.75
414.258	80.75
414.482	76.75
414.705	98.75
414.928	85.75
415.151	88.75
415.374	86.75
415.597	83.75
415.821	85.75
416.044	90.75
416.267	94.75
416.49	74.75
416.713	82.75
416.936	95.75
417.159	80.75
417.382	91.75
417.605	101.75
417.828	90.75
418.051	99.75
418.274	87.75
418.497	88.75
418.72	91.75
418.943	72.75
419.166	85.75
419.389	84.75
419.611	86.75
419.834	88.75
420.057	79.75
420.28	83.75
420.503	99.75
420.726	73.75
420.948	84.75
421.171	85.75
421.394	99.75
421.617	98.75
421.839	90.75
422.062	73.75
422.285	93.75
422.507	89.75
422.73	87.75
422.953	82.75
423.175	90.75
423.398	83.75
423.621	95.75
423.843	84.75
424.066	82.75
424.288	83.75
424.511	85.75
424.733	96.75
424.956	99.75
425.178	98.75
425.401	99.75
425.623	90.75
425.846	86.75
426.068	101.75
426.291	93.75
426.513	76.75
426.735	82.75
426.958	87.75
427.18	99.75
427.402	150.75
427.625	189.75
427.847	175.75
428.069	184.75
428.292	121.75
428.514	86.75
428.736	79.75
428.958	76.75
429.181	82.75
429.403	75.75
429.625	82.75
429.847	92.75
430.069	95.75
430.292	87.75
430.514	76.75
430.736	86.75
430.958	74.75
431.18	98.75
431.402	99.75
431.624	90.75
431.846	79.75
432.068	88.75
432.29	87.75
432.512	80.75
432.734	90.75
432.956	89.75
433.178	101.75
433.4	104.75
433.622	93.75
433.844	82.75
434.066	86.75
434.287	82.75
434.509	91.75
434.731	83.75
434.953	90.75
435.175	68.75
435.397	98.75
435.618	80.75
435.84	88.75
436.062	116.75
436.284	120.75
436.505	108.75
436.727	100.75
436.949	77.75
437.17	82.75
437.392	84.75
437.614	103.75
437.835	106.75
438.057	115.75
438.278	123.75
438.5	97.75
438.721	122.75
438.943	90.75
439.165	106.75
439.386	96.75
439.608	98.75
439.829	93.75
440.05	129.75
440.272	153.75
440.493	120.75
440.715	100.75
440.936	84.75
441.158	87.75
441.379	81.75
441.6	97.75
441.822	89.75
442.043	88.75
442.264	97.75
442.486	106.75
442.707	83.75
442.928	126.75
443.149	134.75
443.371	145.75
443.592	109.75
443.813	91.75
444.034	99.75
444.255	85.75
444.476	75.75
444.698	98.75
444.919	93.75
445.14	132.75
445.361	107.75
445.582	111.75
445.803	139.75
446.024	147.75
446.245	141.75
446.466	121.75
446.687	85.75
446.908	88.75
447.129	101.75
447.35	73.75
447.571	101.75
447.792	88.75
448.013	93.75
448.234	119.75
448.455	100.75
448.675	116.75
448.896	106.75
449.117	108.75
449.338	95.75
449.559	142.75
449.779	137.75
450	107.75
450.221	91.75
450.442	93.75
450.662	94.75
450.883	102.75
451.104	111.75
451.324	77.75
451.545	77.75
451.766	93.75
451.986	78.75
452.207	75.75
452.428	104.75
452.648	89.75
452.869	106.75
453.089	122.75
453.31	124.75
453.53	100.75
453.751	96.75
453.971	107.75
454.192	116.75
454.412	97.75
454.633	96.75
454.853	98.75
455.073	90.75
455.294	84.75
455.514	94.75
455.734	79.75
455.955	92.75
456.175	87.75
456.395	82.75
456.616	81.75
456.836	76.75
457.056	85.75
457.276	94.75
457.497	86.75
457.717	94.75
457.937	82.75
458.157	69.75
458.377	90.75
458.598	122.75
458.818	162.75
459.038	171.75
459.258	136.75
459.478	89.75
459.698	84.75
459.918	89.75
460.138	90.75
460.358	86.75
460.578	90.75
460.798	98.75
461.018	95.75
461.238	71.75
461.458	76.75
461.678	78.75
461.898	83.75
462.118	82.75
462.338	84.75
462.558	94.75
462.777	88.75
462.997	90.75
463.217	118.75
463.437	91.75
463.657	94.75
463.876	95.75
464.096	79.75
464.316	92.75
464.536	91.75
464.755	83.75
464.975	91.75
465.195	182.75
465.414	177.75
465.634	88.75
465.854	93.75
466.073	95.75
466.293	80.75
466.512	81.75
466.732	85.75
466.951	91.75
467.171	90.75
467.391	94.75
467.61	114.75
467.829	132.75
468.049	273.75
468.268	399.75
468.488	125.75
468.707	93.75
468.927	89.75
469.146	86.75
469.365	76.75
469.585	103.75
469.804	92.75
470.023	96.75
470.243	83.75
470.462	91.75
470.681	115.75
470.901	90.75
471.12	80.75
471.339	94.75
471.558	95.75
471.777	113.75
471.997	188.75
472.216	519.75
472.435	1081.75
472.654	321.75
472.873	114.75
473.092	104.75
473.311	72.75
473.53	88.75
473.749	94.75
473.968	96.75
474.187	107.75
474.406	101.75
474.625	90.75
474.844	101.75
475.063	79.75
475.282	88.75
475.501	85.75
475.72	102.75
475.939	93.75
476.158	86.75
476.377	80.75
476.596	100.75
476.814	108.75
477.033	97.75
477.252	90.75
477.471	86.75
477.69	90.75
477.908	85.75
478.127	90.75
478.346	95.75
478.564	89.75
478.783	88.75
479.002	81.75
479.22	90.75
479.439	104.75
479.658	114.75
479.876	97.75
480.095	119.75
480.313	95.75
480.532	122.75
480.751	189.75
480.969	509.75
481.188	1860.75
481.406	1197.75
481.624	220.75
481.843	110.75
482.061	98.75
482.28	92.75
482.498	84.75
482.717	86.75
482.935	94.75
483.153	91.75
483.372	90.75
483.59	80.75
483.808	84.75
484.027	96.75
484.245	99.75
484.463	92.75
484.681	88.75
484.9	94.75
485.118	86.75
485.336	81.75
485.554	111.75
485.772	92.75
485.99	100.75
486.209	89.75
486.427	94.75
486.645	95.75
486.863	106.75
487.081	100.75
487.299	85.75
487.517	84.75
487.735	99.75
487.953	82.75
488.171	101.75
488.389	96.75
488.607	104.75
488.825	90.75
489.043	85.75
489.261	89.75
489.479	86.75
489.696	83.75
489.914	79.75
490.132	78.75
490.35	74.75
490.568	74.75
490.786	82.75
491.003	95.75
491.221	94.75
491.439	95.75
491.657	91.75
491.874	92.75
492.092	97.75
492.31	97.75
492.527	77.75
492.745	80.75
492.963	88.75
493.18	94.75
493.398	99.75
493.615	99.75
493.833	88.75
494.05	66.75
494.268	88.75
494.485	83.75
494.703	85.75
494.92	99.75
495.138	81.75
495.355	76.75
495.573	81.75
495.79	77.75
496.008	94.75
496.225	98.75
496.442	86.75
496.66	91.75
496.877	86.75
497.094	84.75
497.312	91.75
497.529	99.75
497.746	82.75
497.963	84.75
498.181	82.75
498.398	87.75
498.615	106.75
498.832	98.75
499.049	103.75
499.267	98.75
499.484	82.75
499.701	79.75
499.918	84.75
500.135	103.75
500.352	91.75
500.569	92.75
500.786	80.75
501.003	94.75
501.22	93.75
501.437	95.75
501.654	74.75
501.871	95.75
502.088	91.75
502.305	84.75
502.522	87.75
502.739	87.75
502.956	99.75
503.172	81.75
503.389	91.75
503.606	116.75
503.823	94.75
504.04	99.75
504.256	86.75
504.473	89.75
504.69	87.75
504.907	89.75
505.123	73.75
505.34	90.75
505.557	84.75
505.773	88.75
505.99	96.75
506.207	84.75
506.423	91.75
506.64	103.75
506.856	76.75
507.073	95.75
507.289	85.75
507.506	85.75
507.722	97.75
507.939	99.75
508.155	89.75
508.372	87.75
508.588	91.75
508.805	81.75
509.021	98.75
509.238	87.75
509.454	84.75
509.67	107.75
509.887	98.75
510.103	112.75
510.319	200.75
510.536	699.75
510.752	2404.75
510.968	709.75
511.184	149.75
511.401	133.75
511.617	90.75
511.833	88.75
512.049	96.75
512.265	93.75
512.481	94.75
512.698	90.75
512.914	85.75
513.13	88.75
513.346	94.75
513.562	81.75
513.778	97.75
513.994	91.75
514.21	105.75
514.426	121.75
514.642	123.75
514.858	132.75
515.074	179.75
515.29	474.75
515.506	1724.75
515.721	662.75
515.937	164.75
