Data from Circ_2013_H10_HRD10591_00059.txt Node
Date: Wed Jan 03 10:04:12 EST 2024
User: Yrep
Spectrometer: HR+D1059
Trigger mode: 1
Integration Time (sec): 1.000000E-1
Scans to average: 1
Electric dark correction enabled: true
Nonlinearity correction enabled: false
Boxcar width: 0
XAxis mode: Wavelengths
Number of Pixels in Spectrum: 2048
>>>>>Begin Spectral Data<<<<<
223.165	-25.38
223.4	-25.38
223.635	-25.38
223.869	-22.38
224.104	-17.38
224.338	-20.38
224.573	-28.38
224.808	-17.38
225.042	-3.38
225.277	3.62
225.511	2.62
225.746	5.62
225.98	-0.38
226.215	10.62
226.449	30.62
226.683	26.62
226.918	24.62
227.152	30.62
227.387	31.62
227.621	41.62
227.856	30.62
228.09	38.62
228.324	43.62
228.559	41.62
228.793	67.62
229.027	71.62
229.262	69.62
229.496	88.62
229.73	98.62
229.964	86.62
230.199	80.62
230.433	84.62
230.667	75.62
230.901	72.62
231.136	70.62
231.37	72.62
231.604	84.62
231.838	84.62
232.072	80.62
232.306	85.62
232.541	88.62
232.775	83.62
233.009	78.62
233.243	86.62
233.477	81.62
233.711	80.62
233.945	88.62
234.179	66.62
234.413	76.62
234.647	85.62
234.881	75.62
235.115	80.62
235.349	65.62
235.583	79.62
235.817	87.62
236.051	86.62
236.285	73.62
236.519	72.62
236.753	83.62
236.987	84.62
237.221	77.62
237.455	83.62
237.689	76.62
237.922	75.62
238.156	74.62
238.39	59.62
238.624	71.62
238.858	80.62
239.091	81.62
239.325	82.62
239.559	76.62
239.793	67.62
240.027	73.62
240.26	69.62
240.494	70.62
240.728	70.62
240.961	69.62
241.195	80.62
241.429	69.62
241.662	70.62
241.896	81.62
242.13	73.62
242.363	72.62
242.597	74.62
242.83	70.62
243.064	73.62
243.298	88.62
243.531	74.62
243.765	79.62
243.998	66.62
244.232	95.62
244.465	88.62
244.699	79.62
244.932	74.62
245.166	80.62
245.399	73.62
245.633	73.62
245.866	67.62
246.099	66.62
246.333	82.62
246.566	65.62
246.8	87.62
247.033	72.62
247.266	69.62
247.5	86.62
247.733	78.62
247.966	70.62
248.2	86.62
248.433	78.62
248.666	77.62
248.899	83.62
249.133	87.62
249.366	87.62
249.599	91.62
249.832	87.62
250.066	78.62
250.299	76.62
250.532	97.62
250.765	74.62
250.998	69.62
251.231	94.62
251.465	81.62
251.698	63.62
251.931	98.62
252.164	66.62
252.397	75.62
252.63	76.62
252.863	65.62
253.096	76.62
253.329	81.62
253.562	84.62
253.795	82.62
254.028	79.62
254.261	68.62
254.494	83.62
254.727	88.62
254.96	85.62
255.193	80.62
255.426	82.62
255.659	86.62
255.892	84.62
256.124	91.62
256.357	80.62
256.59	99.62
256.823	81.62
257.056	86.62
257.289	96.62
257.521	85.62
257.754	82.62
257.987	80.62
258.22	81.62
258.452	80.62
258.685	92.62
258.918	75.62
259.151	78.62
259.383	79.62
259.616	83.62
259.849	91.62
260.081	84.62
260.314	78.62
260.547	76.62
260.779	100.62
261.012	91.62
261.244	85.62
261.477	70.62
261.71	97.62
261.942	111.62
262.175	133.62
262.407	105.62
262.64	83.62
262.872	81.62
263.105	66.62
263.337	90.62
263.57	80.62
263.802	79.62
264.035	85.62
264.267	80.62
264.499	74.62
264.732	82.62
264.964	80.62
265.197	73.62
265.429	86.62
265.661	88.62
265.894	83.62
266.126	86.62
266.358	74.62
266.591	83.62
266.823	81.62
267.055	76.62
267.287	63.62
267.52	77.62
267.752	78.62
267.984	76.62
268.216	76.62
268.448	94.62
268.681	75.62
268.913	82.62
269.145	74.62
269.377	76.62
269.609	86.62
269.841	100.62
270.073	81.62
270.306	84.62
270.538	75.62
270.77	79.62
271.002	80.62
271.234	95.62
271.466	88.62
271.698	87.62
271.93	79.62
272.162	88.62
272.394	104.62
272.626	89.62
272.858	78.62
273.09	63.62
273.322	78.62
273.553	76.62
273.785	83.62
274.017	92.62
274.249	83.62
274.481	86.62
274.713	89.62
274.945	90.62
275.176	86.62
275.408	82.62
275.64	95.62
275.872	92.62
276.104	112.62
276.335	83.62
276.567	90.62
276.799	124.62
277.031	141.62
277.262	156.62
277.494	123.62
277.726	84.62
277.957	96.62
278.189	81.62
278.421	80.62
278.652	86.62
278.884	89.62
279.115	97.62
279.347	91.62
279.579	106.62
279.81	96.62
280.042	159.62
280.273	185.62
280.505	144.62
280.736	93.62
280.968	92.62
281.199	82.62
281.431	92.62
281.662	76.62
281.894	81.62
282.125	111.62
282.356	132.62
282.588	161.62
282.819	129.62
283.051	92.62
283.282	79.62
283.513	101.62
283.745	87.62
283.976	97.62
284.207	84.62
284.439	87.62
284.67	94.62
284.901	69.62
285.132	77.62
285.364	77.62
285.595	89.62
285.826	78.62
286.057	92.62
286.288	101.62
286.52	76.62
286.751	82.62
286.982	73.62
287.213	76.62
287.444	70.62
287.675	77.62
287.906	96.62
288.138	92.62
288.369	92.62
288.6	98.62
288.831	85.62
289.062	88.62
289.293	99.62
289.524	82.62
289.755	76.62
289.986	92.62
290.217	74.62
290.448	84.62
290.679	91.62
290.91	91.62
291.141	90.62
291.371	89.62
291.602	86.62
291.833	91.62
292.064	94.62
292.295	91.62
292.526	100.62
292.757	107.62
292.987	82.62
293.218	78.62
293.449	82.62
293.68	92.62
293.91	92.62
294.141	89.62
294.372	95.62
294.603	92.62
294.833	84.62
295.064	81.62
295.295	93.62
295.525	105.62
295.756	101.62
295.987	118.62
296.217	169.62
296.448	132.62
296.679	85.62
296.909	74.62
297.14	78.62
297.37	99.62
297.601	94.62
297.831	77.62
298.062	101.62
298.292	87.62
298.523	73.62
298.753	83.62
298.984	76.62
299.214	85.62
299.445	77.62
299.675	91.62
299.905	97.62
300.136	91.62
300.366	92.62
300.597	97.62
300.827	87.62
301.057	91.62
301.288	101.62
301.518	97.62
301.748	84.62
301.979	114.62
302.209	98.62
302.439	104.62
302.669	89.62
302.9	91.62
303.13	91.62
303.36	94.62
303.59	118.62
303.82	130.62
304.051	108.62
304.281	96.62
304.511	99.62
304.741	96.62
304.971	92.62
305.201	101.62
305.431	93.62
305.661	80.62
305.891	86.62
306.121	105.62
306.352	116.62
306.582	106.62
306.812	95.62
307.042	103.62
307.272	118.62
307.502	132.62
307.731	134.62
307.961	105.62
308.191	95.62
308.421	87.62
308.651	80.62
308.881	97.62
309.111	94.62
309.341	87.62
309.571	93.62
309.8	95.62
310.03	104.62
310.26	102.62
310.49	88.62
310.72	99.62
310.949	104.62
311.179	98.62
311.409	88.62
311.639	77.62
311.868	99.62
312.098	82.62
312.328	93.62
312.557	103.62
312.787	112.62
313.017	100.62
313.246	108.62
313.476	86.62
313.706	86.62
313.935	91.62
314.165	86.62
314.394	99.62
314.624	99.62
314.853	104.62
315.083	93.62
315.312	90.62
315.542	96.62
315.771	85.62
316.001	95.62
316.23	87.62
316.46	84.62
316.689	81.62
316.919	86.62
317.148	85.62
317.377	103.62
317.607	102.62
317.836	94.62
318.065	92.62
318.295	91.62
318.524	92.62
318.753	84.62
318.983	103.62
319.212	110.62
319.441	118.62
319.67	102.62
319.9	98.62
320.129	102.62
320.358	89.62
320.587	110.62
320.816	110.62
321.046	92.62
321.275	94.62
321.504	95.62
321.733	97.62
321.962	86.62
322.191	92.62
322.42	88.62
322.649	114.62
322.878	117.62
323.108	102.62
323.337	130.62
323.566	140.62
323.795	161.62
324.024	217.62
324.253	432.62
324.482	932.62
324.71	1840.62
324.939	2466.62
325.168	924.62
325.397	274.62
325.626	154.62
325.855	123.62
326.084	132.62
326.313	146.62
326.542	159.62
326.77	244.62
326.999	510.62
327.228	997.62
327.457	1794.62
327.686	1470.62
327.914	466.62
328.143	372.62
328.372	427.62
328.6	274.62
328.829	151.62
329.058	154.62
329.287	178.62
329.515	146.62
329.744	192.62
329.972	295.62
330.201	578.62
330.43	899.62
330.658	425.62
330.887	244.62
331.115	169.62
331.344	111.62
331.572	119.62
331.801	118.62
332.03	107.62
332.258	93.62
332.486	76.62
332.715	91.62
332.943	99.62
333.172	116.62
333.4	116.62
333.629	128.62
333.857	167.62
334.085	262.62
334.314	502.62
334.542	1051.62
334.771	1023.62
334.999	281.62
335.227	136.62
335.455	114.62
335.684	97.62
335.912	90.62
336.14	103.62
336.369	105.62
336.597	105.62
336.825	97.62
337.053	90.62
337.281	90.62
337.51	97.62
337.738	103.62
337.966	95.62
338.194	96.62
338.422	108.62
338.65	89.62
338.878	84.62
339.106	90.62
339.334	80.62
339.562	86.62
339.79	95.62
340.018	76.62
340.246	80.62
340.474	84.62
340.702	104.62
340.93	88.62
341.158	98.62
341.386	96.62
341.614	96.62
341.842	97.62
342.07	79.62
342.298	95.62
342.526	85.62
342.754	83.62
342.981	96.62
343.209	89.62
343.437	105.62
343.665	90.62
343.893	97.62
344.12	88.62
344.348	84.62
344.576	85.62
344.804	96.62
345.031	100.62
345.259	89.62
345.487	95.62
345.714	87.62
345.942	92.62
346.17	87.62
346.397	92.62
346.625	89.62
346.853	72.62
347.08	74.62
347.308	106.62
347.535	96.62
347.763	90.62
347.99	94.62
348.218	98.62
348.445	104.62
348.673	105.62
348.9	83.62
349.128	112.62
349.355	96.62
349.583	97.62
349.81	91.62
350.037	84.62
350.265	80.62
350.492	102.62
350.72	105.62
350.947	98.62
351.174	111.62
351.402	114.62
351.629	112.62
351.856	98.62
352.083	99.62
352.311	101.62
352.538	119.62
352.765	125.62
352.992	113.62
353.22	113.62
353.447	99.62
353.674	101.62
353.901	84.62
354.128	88.62
354.355	93.62
354.583	109.62
354.81	97.62
355.037	97.62
355.264	105.62
355.491	88.62
355.718	86.62
355.945	86.62
356.172	80.62
356.399	90.62
356.626	90.62
356.853	85.62
357.08	89.62
357.307	89.62
357.534	84.62
357.761	76.62
357.988	83.62
358.215	87.62
358.441	92.62
358.668	76.62
358.895	83.62
359.122	81.62
359.349	91.62
359.576	102.62
359.802	104.62
360.029	107.62
360.256	116.62
360.483	111.62
360.709	103.62
360.936	95.62
361.163	87.62
361.39	98.62
361.616	75.62
361.843	87.62
362.07	96.62
362.296	100.62
362.523	93.62
362.749	101.62
362.976	101.62
363.203	92.62
363.429	87.62
363.656	76.62
363.882	81.62
364.109	90.62
364.335	102.62
364.562	85.62
364.788	101.62
365.015	100.62
365.241	110.62
365.468	102.62
365.694	122.62
365.92	98.62
366.147	86.62
366.373	99.62
366.599	106.62
366.826	91.62
367.052	92.62
367.278	89.62
367.505	87.62
367.731	88.62
367.957	92.62
368.184	96.62
368.41	105.62
368.636	122.62
368.862	106.62
369.089	113.62
369.315	110.62
369.541	89.62
369.767	94.62
369.993	90.62
370.219	91.62
370.445	84.62
370.672	94.62
370.898	86.62
371.124	84.62
371.35	88.62
371.576	85.62
371.802	83.62
372.028	84.62
372.254	91.62
372.48	96.62
372.706	98.62
372.932	86.62
373.158	80.62
373.384	103.62
373.61	90.62
373.835	91.62
374.061	81.62
374.287	90.62
374.513	90.62
374.739	87.62
374.965	89.62
375.191	83.62
375.416	100.62
375.642	91.62
375.868	91.62
376.094	87.62
376.319	93.62
376.545	89.62
376.771	90.62
376.997	81.62
377.222	75.62
377.448	68.62
377.674	80.62
377.899	84.62
378.125	84.62
378.35	88.62
378.576	81.62
378.802	86.62
379.027	84.62
379.253	86.62
379.478	88.62
379.704	80.62
379.929	83.62
380.155	94.62
380.38	91.62
380.606	77.62
380.831	88.62
381.057	94.62
381.282	87.62
381.507	97.62
381.733	85.62
381.958	98.62
382.184	99.62
382.409	94.62
382.634	90.62
382.86	98.62
383.085	98.62
383.31	76.62
383.535	88.62
383.761	97.62
383.986	104.62
384.211	90.62
384.436	97.62
384.662	96.62
384.887	95.62
385.112	84.62
385.337	86.62
385.562	89.62
385.787	97.62
386.013	103.62
386.238	107.62
386.463	109.62
386.688	104.62
386.913	76.62
387.138	80.62
387.363	103.62
387.588	100.62
387.813	90.62
388.038	82.62
388.263	118.62
388.488	113.62
388.713	76.62
388.938	92.62
389.163	83.62
389.387	86.62
389.612	96.62
389.837	76.62
390.062	83.62
390.287	84.62
390.512	79.62
390.736	92.62
390.961	99.62
391.186	83.62
391.411	91.62
391.636	91.62
391.86	99.62
392.085	75.62
392.31	78.62
392.534	86.62
392.759	91.62
392.984	83.62
393.208	76.62
393.433	94.62
393.658	83.62
393.882	75.62
394.107	78.62
394.331	106.62
394.556	94.62
394.78	80.62
395.005	82.62
395.229	83.62
395.454	98.62
395.678	76.62
395.903	89.62
396.127	82.62
396.352	91.62
396.576	86.62
396.801	93.62
397.025	90.62
397.249	75.62
397.474	88.62
397.698	93.62
397.922	78.62
398.147	97.62
398.371	71.62
398.595	87.62
398.82	75.62
399.044	80.62
399.268	83.62
399.492	79.62
399.717	99.62
399.941	92.62
400.165	93.62
400.389	89.62
400.613	83.62
400.837	88.62
401.062	97.62
401.286	72.62
401.51	93.62
401.734	94.62
401.958	105.62
402.182	146.62
402.406	202.62
402.63	120.62
402.854	99.62
403.078	111.62
403.302	84.62
403.526	84.62
403.75	96.62
403.974	93.62
404.198	94.62
404.422	90.62
404.645	99.62
404.869	104.62
405.093	110.62
405.317	122.62
405.541	124.62
405.765	110.62
405.988	134.62
406.212	204.62
406.436	273.62
406.66	179.62
406.883	92.62
407.107	102.62
407.331	101.62
407.555	91.62
407.778	103.62
408.002	90.62
408.226	89.62
408.449	99.62
408.673	98.62
408.896	93.62
409.12	93.62
409.344	88.62
409.567	81.62
409.791	96.62
410.014	93.62
410.238	86.62
410.461	88.62
410.685	90.62
410.908	100.62
411.132	106.62
411.355	98.62
411.578	86.62
411.802	82.62
412.025	91.62
412.249	84.62
412.472	91.62
412.695	110.62
412.919	101.62
413.142	83.62
413.365	83.62
413.589	90.62
413.812	81.62
414.035	98.62
414.258	84.62
414.482	85.62
414.705	78.62
414.928	83.62
415.151	86.62
415.374	91.62
415.597	91.62
415.821	95.62
416.044	84.62
416.267	76.62
416.49	78.62
416.713	88.62
416.936	92.62
417.159	69.62
417.382	81.62
417.605	98.62
417.828	98.62
418.051	102.62
418.274	90.62
418.497	89.62
418.72	87.62
418.943	84.62
419.166	85.62
419.389	84.62
419.611	97.62
419.834	87.62
420.057	81.62
420.28	92.62
420.503	95.62
420.726	92.62
420.948	87.62
421.171	96.62
421.394	92.62
421.617	90.62
421.839	88.62
422.062	85.62
422.285	75.62
422.507	95.62
422.73	100.62
422.953	94.62
423.175	72.62
423.398	82.62
423.621	76.62
423.843	75.62
424.066	82.62
424.288	104.62
424.511	95.62
424.733	84.62
424.956	111.62
425.178	97.62
425.401	88.62
425.623	115.62
425.846	86.62
426.068	92.62
426.291	97.62
426.513	84.62
426.735	91.62
426.958	94.62
427.18	98.62
427.402	144.62
427.625	212.62
427.847	192.62
428.069	161.62
428.292	118.62
428.514	85.62
428.736	82.62
428.958	74.62
429.181	84.62
429.403	102.62
429.625	80.62
429.847	99.62
430.069	124.62
430.292	97.62
430.514	78.62
430.736	92.62
430.958	97.62
431.18	78.62
431.402	81.62
431.624	100.62
431.846	86.62
432.068	81.62
432.29	90.62
432.512	79.62
432.734	79.62
432.956	81.62
433.178	78.62
433.4	91.62
433.622	91.62
433.844	91.62
434.066	99.62
434.287	92.62
434.509	71.62
434.731	85.62
434.953	83.62
435.175	83.62
435.397	78.62
435.618	90.62
435.84	90.62
436.062	143.62
436.284	101.62
436.505	83.62
436.727	80.62
436.949	94.62
437.17	72.62
437.392	81.62
437.614	99.62
437.835	115.62
438.057	135.62
438.278	107.62
438.5	101.62
438.721	120.62
438.943	104.62
439.165	91.62
439.386	80.62
439.608	88.62
439.829	100.62
440.05	124.62
440.272	162.62
440.493	107.62
440.715	87.62
440.936	84.62
441.158	87.62
441.379	82.62
441.6	101.62
441.822	92.62
442.043	86.62
442.264	104.62
442.486	116.62
442.707	90.62
442.928	113.62
443.149	166.62
443.371	157.62
443.592	127.62
443.813	118.62
444.034	111.62
444.255	90.62
444.476	78.62
444.698	99.62
444.919	93.62
445.14	123.62
445.361	112.62
445.582	128.62
445.803	158.62
446.024	151.62
446.245	150.62
446.466	122.62
446.687	85.62
446.908	86.62
447.129	87.62
447.35	78.62
447.571	98.62
447.792	94.62
448.013	93.62
448.234	117.62
448.455	97.62
448.675	113.62
448.896	114.62
449.117	99.62
449.338	116.62
449.559	122.62
449.779	134.62
450	98.62
450.221	79.62
450.442	86.62
450.662	83.62
450.883	122.62
451.104	131.62
451.324	106.62
451.545	83.62
451.766	74.62
451.986	79.62
452.207	73.62
452.428	87.62
452.648	109.62
452.869	129.62
453.089	128.62
453.31	129.62
453.53	100.62
453.751	88.62
453.971	91.62
454.192	115.62
454.412	82.62
454.633	78.62
454.853	77.62
455.073	79.62
455.294	97.62
455.514	98.62
455.734	81.62
455.955	81.62
456.175	94.62
456.395	98.62
456.616	84.62
456.836	81.62
457.056	91.62
457.276	90.62
457.497	74.62
457.717	81.62
457.937	70.62
458.157	75.62
458.377	97.62
458.598	115.62
458.818	177.62
459.038	200.62
459.258	130.62
459.478	102.62
459.698	79.62
459.918	87.62
460.138	86.62
460.358	82.62
460.578	91.62
460.798	74.62
461.018	79.62
461.238	91.62
461.458	63.62
461.678	92.62
461.898	80.62
462.118	80.62
462.338	84.62
462.558	90.62
462.777	93.62
462.997	86.62
463.217	110.62
463.437	87.62
463.657	98.62
463.876	88.62
464.096	82.62
464.316	103.62
464.536	89.62
464.755	84.62
464.975	111.62
465.195	208.62
465.414	195.62
465.634	104.62
465.854	84.62
466.073	83.62
466.293	88.62
466.512	81.62
466.732	71.62
466.951	80.62
467.171	95.62
467.391	104.62
467.61	122.62
467.829	161.62
468.049	335.62
468.268	530.62
468.488	162.62
468.707	93.62
468.927	91.62
469.146	103.62
469.365	89.62
469.585	81.62
469.804	88.62
470.023	122.62
470.243	95.62
470.462	110.62
470.681	128.62
470.901	101.62
471.12	99.62
471.339	79.62
471.558	96.62
471.777	110.62
471.997	184.62
472.216	657.62
472.435	1488.62
472.654	398.62
472.873	128.62
473.092	96.62
473.311	86.62
473.53	74.62
473.749	87.62
473.968	103.62
474.187	105.62
474.406	97.62
474.625	94.62
474.844	75.62
475.063	82.62
475.282	84.62
475.501	87.62
475.72	94.62
475.939	93.62
476.158	85.62
476.377	94.62
476.596	93.62
476.814	88.62
477.033	106.62
477.252	93.62
477.471	90.62
477.69	92.62
477.908	90.62
478.127	81.62
478.346	66.62
478.564	90.62
478.783	91.62
479.002	96.62
479.22	88.62
479.439	112.62
479.658	118.62
479.876	110.62
480.095	105.62
480.313	120.62
480.532	126.62
480.751	178.62
480.969	566.62
481.188	2444.62
481.406	1562.62
481.624	256.62
481.843	120.62
482.061	102.62
482.28	82.62
482.498	75.62
482.717	84.62
482.935	108.62
483.153	95.62
483.372	81.62
483.59	79.62
483.808	105.62
484.027	97.62
484.245	75.62
484.463	75.62
484.681	98.62
484.9	77.62
485.118	101.62
485.336	96.62
485.554	94.62
485.772	98.62
485.99	89.62
486.209	115.62
486.427	95.62
486.645	112.62
486.863	113.62
487.081	105.62
487.299	105.62
487.517	97.62
487.735	79.62
487.953	89.62
488.171	87.62
488.389	105.62
488.607	99.62
488.825	85.62
489.043	84.62
489.261	83.62
489.479	82.62
489.696	86.62
489.914	102.62
490.132	79.62
490.35	90.62
490.568	76.62
490.786	85.62
491.003	86.62
491.221	87.62
491.439	96.62
491.657	81.62
491.874	74.62
492.092	79.62
492.31	94.62
492.527	84.62
492.745	97.62
492.963	85.62
493.18	83.62
493.398	95.62
493.615	86.62
493.833	91.62
494.05	95.62
494.268	80.62
494.485	93.62
494.703	75.62
494.92	96.62
495.138	88.62
495.355	93.62
495.573	89.62
495.79	76.62
496.008	92.62
496.225	84.62
496.442	99.62
496.66	88.62
496.877	76.62
497.094	88.62
497.312	83.62
497.529	89.62
497.746	102.62
497.963	80.62
498.181	87.62
498.398	79.62
498.615	102.62
498.832	101.62
499.049	91.62
499.267	78.62
499.484	83.62
499.701	86.62
499.918	84.62
500.135	65.62
500.352	78.62
500.569	90.62
500.786	102.62
501.003	92.62
501.22	96.62
501.437	87.62
501.654	102.62
501.871	117.62
502.088	104.62
502.305	88.62
502.522	68.62
502.739	75.62
502.956	91.62
503.172	68.62
503.389	104.62
503.606	114.62
503.823	91.62
504.04	99.62
504.256	93.62
504.473	82.62
504.69	89.62
504.907	83.62
505.123	73.62
505.34	98.62
505.557	95.62
505.773	80.62
505.99	93.62
506.207	90.62
506.423	76.62
506.64	88.62
506.856	83.62
507.073	98.62
507.289	92.62
507.506	102.62
507.722	94.62
507.939	104.62
508.155	99.62
508.372	88.62
508.588	92.62
508.805	96.62
509.021	108.62
509.238	86.62
509.454	95.62
509.67	91.62
509.887	103.62
510.103	122.62
510.319	221.62
510.536	803.62
510.752	2859.62
510.968	793.62
511.184	169.62
511.401	122.62
511.617	103.62
511.833	95.62
512.049	81.62
512.265	80.62
512.481	93.62
512.698	94.62
512.914	75.62
513.13	83.62
513.346	90.62
513.562	91.62
513.778	90.62
513.994	98.62
514.21	116.62
514.426	122.62
514.642	152.62
514.858	141.62
515.074	208.62
515.29	577.62
