Data from Circ_2013_H10_HRD10591_00083.txt Node
Date: Wed Jan 03 10:04:16 EST 2024
User: Yrep
Spectrometer: HR+D1059
Trigger mode: 1
Integration Time (sec): 1.000000E-1
Scans to average: 1
Electric dark correction enabled: true
Nonlinearity correction enabled: false
Boxcar width: 0
XAxis mode: Wavelengths
Number of Pixels in Spectrum: 2048
>>>>>Begin Spectral Data<<<<<
223.165	-20.75
223.4	-20.75
223.635	-20.75
223.869	-14.75
224.104	-22.75
224.338	-24.75
224.573	-15.75
224.808	-1.75
225.042	-1.75
225.277	-2.75
225.511	-1.75
225.746	-2.75
225.98	1.25
226.215	3.25
226.449	13.25
226.683	14.25
226.918	32.25
227.152	45.25
227.387	36.25
227.621	43.25
227.856	57.25
228.09	46.25
228.324	52.25
228.559	48.25
228.793	47.25
229.027	63.25
229.262	68.25
229.496	81.25
229.73	94.25
229.964	102.25
230.199	78.25
230.433	79.25
230.667	84.25
230.901	76.25
231.136	69.25
231.37	91.25
231.604	77.25
231.838	72.25
232.072	72.25
232.306	83.25
232.541	78.25
232.775	86.25
233.009	75.25
233.243	79.25
233.477	82.25
233.711	80.25
233.945	83.25
234.179	77.25
234.413	90.25
234.647	92.25
234.881	88.25
235.115	97.25
235.349	71.25
235.583	88.25
235.817	73.25
236.051	77.25
236.285	79.25
236.519	77.25
236.753	87.25
236.987	80.25
237.221	95.25
237.455	95.25
237.689	73.25
237.922	72.25
238.156	87.25
238.39	77.25
238.624	85.25
238.858	73.25
239.091	91.25
239.325	86.25
239.559	75.25
239.793	88.25
240.027	87.25
240.26	78.25
240.494	90.25
240.728	89.25
240.961	85.25
241.195	87.25
241.429	67.25
241.662	73.25
241.896	77.25
242.13	68.25
242.363	81.25
242.597	71.25
242.83	69.25
243.064	92.25
243.298	83.25
243.531	88.25
243.765	85.25
243.998	79.25
244.232	76.25
244.465	92.25
244.699	101.25
244.932	84.25
245.166	91.25
245.399	92.25
245.633	88.25
245.866	88.25
246.099	82.25
246.333	81.25
246.566	76.25
246.8	80.25
247.033	77.25
247.266	89.25
247.5	71.25
247.733	84.25
247.966	77.25
248.2	91.25
248.433	75.25
248.666	78.25
248.899	86.25
249.133	87.25
249.366	95.25
249.599	95.25
249.832	80.25
250.066	73.25
250.299	83.25
250.532	97.25
250.765	92.25
250.998	79.25
251.231	72.25
251.465	70.25
251.698	76.25
251.931	88.25
252.164	77.25
252.397	98.25
252.63	64.25
252.863	86.25
253.096	82.25
253.329	89.25
253.562	87.25
253.795	91.25
254.028	94.25
254.261	80.25
254.494	88.25
254.727	86.25
254.96	77.25
255.193	87.25
255.426	87.25
255.659	93.25
255.892	79.25
256.124	104.25
256.357	87.25
256.59	88.25
256.823	89.25
257.056	82.25
257.289	79.25
257.521	93.25
257.754	84.25
257.987	71.25
258.22	90.25
258.452	102.25
258.685	89.25
258.918	104.25
259.151	93.25
259.383	101.25
259.616	87.25
259.849	83.25
260.081	84.25
260.314	77.25
260.547	83.25
260.779	101.25
261.012	101.25
261.244	110.25
261.477	96.25
261.71	116.25
261.942	138.25
262.175	143.25
262.407	100.25
262.64	87.25
262.872	86.25
263.105	81.25
263.337	104.25
263.57	80.25
263.802	87.25
264.035	92.25
264.267	83.25
264.499	81.25
264.732	77.25
264.964	88.25
265.197	80.25
265.429	91.25
265.661	97.25
265.894	73.25
266.126	94.25
266.358	86.25
266.591	89.25
266.823	77.25
267.055	78.25
267.287	81.25
267.52	78.25
267.752	95.25
267.984	86.25
268.216	82.25
268.448	90.25
268.681	96.25
268.913	95.25
269.145	75.25
269.377	83.25
269.609	80.25
269.841	85.25
270.073	71.25
270.306	95.25
270.538	81.25
270.77	79.25
271.002	84.25
271.234	79.25
271.466	101.25
271.698	105.25
271.93	88.25
272.162	87.25
272.394	97.25
272.626	79.25
272.858	92.25
273.09	70.25
273.322	85.25
273.553	85.25
273.785	83.25
274.017	80.25
274.249	83.25
274.481	88.25
274.713	90.25
274.945	95.25
275.176	101.25
275.408	112.25
275.64	102.25
275.872	104.25
276.104	95.25
276.335	101.25
276.567	121.25
276.799	130.25
277.031	148.25
277.262	164.25
277.494	141.25
277.726	112.25
277.957	102.25
278.189	96.25
278.421	100.25
278.652	89.25
278.884	86.25
279.115	89.25
279.347	105.25
279.579	98.25
279.81	120.25
280.042	166.25
280.273	219.25
280.505	147.25
280.736	103.25
280.968	99.25
281.199	96.25
281.431	92.25
281.662	80.25
281.894	92.25
282.125	105.25
282.356	134.25
282.588	170.25
282.819	128.25
283.051	102.25
283.282	91.25
283.513	87.25
283.745	81.25
283.976	81.25
284.207	78.25
284.439	76.25
284.67	79.25
284.901	105.25
285.132	79.25
285.364	99.25
285.595	100.25
285.826	99.25
286.057	94.25
286.288	91.25
286.52	95.25
286.751	96.25
286.982	92.25
287.213	94.25
287.444	83.25
287.675	76.25
287.906	95.25
288.138	96.25
288.369	108.25
288.6	94.25
288.831	79.25
289.062	96.25
289.293	81.25
289.524	103.25
289.755	93.25
289.986	85.25
290.217	86.25
290.448	95.25
290.679	94.25
290.91	111.25
291.141	98.25
291.371	81.25
291.602	88.25
291.833	92.25
292.064	81.25
292.295	74.25
292.526	84.25
292.757	81.25
292.987	110.25
293.218	93.25
293.449	83.25
293.68	96.25
293.91	107.25
294.141	101.25
294.372	98.25
294.603	96.25
294.833	88.25
295.064	91.25
295.295	90.25
295.525	86.25
295.756	115.25
295.987	123.25
296.217	159.25
296.448	127.25
296.679	96.25
296.909	94.25
297.14	87.25
297.37	91.25
297.601	93.25
297.831	99.25
298.062	88.25
298.292	84.25
298.523	87.25
298.753	91.25
298.984	89.25
299.214	88.25
299.445	93.25
299.675	112.25
299.905	97.25
300.136	91.25
300.366	95.25
300.597	89.25
300.827	105.25
301.057	110.25
301.288	101.25
301.518	117.25
301.748	105.25
301.979	106.25
302.209	108.25
302.439	105.25
302.669	108.25
302.9	95.25
303.13	95.25
303.36	97.25
303.59	122.25
303.82	137.25
304.051	107.25
304.281	105.25
304.511	93.25
304.741	84.25
304.971	118.25
305.201	108.25
305.431	93.25
305.661	95.25
305.891	97.25
306.121	95.25
306.352	109.25
306.582	108.25
306.812	99.25
307.042	109.25
307.272	134.25
307.502	173.25
307.731	138.25
307.961	119.25
308.191	101.25
308.421	91.25
308.651	103.25
308.881	97.25
309.111	104.25
309.341	99.25
309.571	91.25
309.8	82.25
310.03	116.25
310.26	120.25
310.49	93.25
310.72	98.25
310.949	119.25
311.179	107.25
311.409	86.25
311.639	91.25
311.868	96.25
312.098	90.25
312.328	93.25
312.557	112.25
312.787	101.25
313.017	115.25
313.246	96.25
313.476	110.25
313.706	77.25
313.935	100.25
314.165	133.25
314.394	116.25
314.624	115.25
314.853	95.25
315.083	103.25
315.312	91.25
315.542	79.25
315.771	93.25
316.001	104.25
316.23	101.25
316.46	92.25
316.689	96.25
316.919	106.25
317.148	110.25
317.377	106.25
317.607	104.25
317.836	119.25
318.065	94.25
318.295	87.25
318.524	94.25
318.753	104.25
318.983	103.25
319.212	115.25
319.441	126.25
319.67	119.25
319.9	108.25
320.129	97.25
320.358	101.25
320.587	105.25
320.816	99.25
321.046	117.25
321.275	100.25
321.504	105.25
321.733	93.25
321.962	119.25
322.191	114.25
322.42	121.25
322.649	119.25
322.878	131.25
323.108	144.25
323.337	162.25
323.566	155.25
323.795	185.25
324.024	276.25
324.253	527.25
324.482	1179.25
324.71	2511.25
324.939	3328.25
325.168	1183.25
325.397	314.25
325.626	185.25
325.855	147.25
326.084	137.25
326.313	169.25
326.542	196.25
326.77	312.25
326.999	653.25
327.228	1332.25
327.457	2557.25
327.686	2000.25
327.914	583.25
328.143	463.25
328.372	544.25
328.6	334.25
328.829	173.25
329.058	180.25
329.287	202.25
329.515	185.25
329.744	221.25
329.972	428.25
330.201	815.25
330.43	1126.25
330.658	551.25
330.887	261.25
331.115	190.25
331.344	133.25
331.572	139.25
331.801	138.25
332.03	130.25
332.258	117.25
332.486	120.25
332.715	108.25
332.943	119.25
333.172	126.25
333.4	133.25
333.629	157.25
333.857	220.25
334.085	369.25
334.314	775.25
334.542	1470.25
334.771	1407.25
334.999	371.25
335.227	157.25
335.455	131.25
335.684	119.25
335.912	111.25
336.14	105.25
336.369	82.25
336.597	112.25
336.825	116.25
337.053	101.25
337.281	115.25
337.51	102.25
337.738	103.25
337.966	91.25
338.194	103.25
338.422	96.25
338.65	98.25
338.878	88.25
339.106	92.25
339.334	86.25
339.562	97.25
339.79	101.25
340.018	95.25
340.246	103.25
340.474	103.25
340.702	102.25
340.93	91.25
341.158	95.25
341.386	121.25
341.614	115.25
341.842	104.25
342.07	101.25
342.298	94.25
342.526	91.25
342.754	93.25
342.981	98.25
343.209	95.25
343.437	104.25
343.665	85.25
343.893	96.25
344.12	102.25
344.348	105.25
344.576	101.25
344.804	101.25
345.031	97.25
345.259	120.25
345.487	105.25
345.714	101.25
345.942	108.25
346.17	93.25
346.397	92.25
346.625	95.25
346.853	111.25
347.08	99.25
347.308	123.25
347.535	96.25
347.763	106.25
347.99	109.25
348.218	123.25
348.445	132.25
348.673	112.25
348.9	100.25
349.128	97.25
349.355	103.25
349.583	110.25
349.81	107.25
350.037	107.25
350.265	107.25
350.492	116.25
350.72	96.25
350.947	119.25
351.174	115.25
351.402	104.25
351.629	117.25
351.856	108.25
352.083	111.25
352.311	117.25
352.538	131.25
352.765	124.25
352.992	124.25
353.22	111.25
353.447	110.25
353.674	101.25
353.901	104.25
354.128	93.25
354.355	105.25
354.583	101.25
354.81	87.25
355.037	102.25
355.264	86.25
355.491	104.25
355.718	98.25
355.945	104.25
356.172	110.25
356.399	89.25
356.626	90.25
356.853	93.25
357.08	85.25
357.307	87.25
357.534	86.25
357.761	97.25
357.988	98.25
358.215	96.25
358.441	88.25
358.668	94.25
358.895	87.25
359.122	81.25
359.349	103.25
359.576	103.25
359.802	121.25
360.029	149.25
360.256	137.25
360.483	119.25
360.709	75.25
360.936	96.25
361.163	108.25
361.39	108.25
361.616	101.25
361.843	112.25
362.07	98.25
362.296	112.25
362.523	105.25
362.749	116.25
362.976	100.25
363.203	89.25
363.429	97.25
363.656	87.25
363.882	78.25
364.109	89.25
364.335	82.25
364.562	87.25
364.788	97.25
365.015	104.25
365.241	120.25
365.468	116.25
365.694	124.25
365.92	116.25
366.147	109.25
366.373	93.25
366.599	103.25
366.826	93.25
367.052	91.25
367.278	79.25
367.505	91.25
367.731	103.25
367.957	100.25
368.184	91.25
368.41	99.25
368.636	110.25
368.862	145.25
369.089	128.25
369.315	80.25
369.541	95.25
369.767	87.25
369.993	104.25
370.219	87.25
370.445	97.25
370.672	93.25
370.898	89.25
371.124	87.25
371.35	104.25
371.576	93.25
371.802	88.25
372.028	81.25
372.254	93.25
372.48	91.25
372.706	94.25
372.932	81.25
373.158	82.25
373.384	96.25
373.61	91.25
373.835	96.25
374.061	95.25
374.287	100.25
374.513	96.25
374.739	86.25
374.965	93.25
375.191	102.25
375.416	106.25
375.642	100.25
375.868	91.25
376.094	100.25
376.319	97.25
376.545	87.25
376.771	95.25
376.997	92.25
377.222	97.25
377.448	106.25
377.674	90.25
377.899	95.25
378.125	113.25
378.35	90.25
378.576	97.25
378.802	92.25
379.027	99.25
379.253	105.25
379.478	92.25
379.704	101.25
379.929	99.25
380.155	95.25
380.38	94.25
380.606	92.25
380.831	94.25
381.057	94.25
381.282	96.25
381.507	100.25
381.733	100.25
381.958	104.25
382.184	102.25
382.409	103.25
382.634	106.25
382.86	109.25
383.085	99.25
383.31	102.25
383.535	108.25
383.761	96.25
383.986	108.25
384.211	111.25
384.436	95.25
384.662	89.25
384.887	95.25
385.112	103.25
385.337	87.25
385.562	110.25
385.787	103.25
386.013	102.25
386.238	115.25
386.463	111.25
386.688	110.25
386.913	90.25
387.138	115.25
387.363	97.25
387.588	99.25
387.813	103.25
388.038	101.25
388.263	120.25
388.488	101.25
388.713	91.25
388.938	102.25
389.163	101.25
389.387	99.25
389.612	97.25
389.837	87.25
390.062	90.25
390.287	95.25
390.512	93.25
390.736	83.25
390.961	96.25
391.186	93.25
391.411	95.25
391.636	92.25
391.86	86.25
392.085	94.25
392.31	83.25
392.534	94.25
392.759	90.25
392.984	92.25
393.208	87.25
393.433	92.25
393.658	84.25
393.882	93.25
394.107	103.25
394.331	82.25
394.556	89.25
394.78	94.25
395.005	90.25
395.229	85.25
395.454	84.25
395.678	100.25
395.903	87.25
396.127	78.25
396.352	83.25
396.576	95.25
396.801	94.25
397.025	90.25
397.249	98.25
397.474	94.25
397.698	91.25
397.922	96.25
398.147	93.25
398.371	91.25
398.595	98.25
398.82	95.25
399.044	107.25
399.268	88.25
399.492	87.25
399.717	99.25
399.941	97.25
400.165	103.25
400.389	95.25
400.613	93.25
400.837	94.25
401.062	93.25
401.286	106.25
401.51	84.25
401.734	91.25
401.958	115.25
402.182	149.25
402.406	187.25
402.63	154.25
402.854	106.25
403.078	98.25
403.302	86.25
403.526	89.25
403.75	99.25
403.974	80.25
404.198	102.25
404.422	106.25
404.645	91.25
404.869	108.25
405.093	126.25
405.317	139.25
405.541	140.25
405.765	126.25
405.988	122.25
406.212	216.25
406.436	280.25
406.66	201.25
406.883	132.25
407.107	105.25
407.331	103.25
407.555	102.25
407.778	127.25
408.002	93.25
408.226	79.25
408.449	103.25
408.673	102.25
408.896	90.25
409.12	107.25
409.344	91.25
409.567	87.25
409.791	105.25
410.014	106.25
410.238	94.25
410.461	97.25
410.685	97.25
410.908	101.25
411.132	103.25
411.355	108.25
411.578	108.25
411.802	96.25
412.025	97.25
412.249	118.25
412.472	123.25
412.695	147.25
412.919	119.25
413.142	96.25
413.365	96.25
413.589	102.25
413.812	85.25
414.035	90.25
414.258	86.25
414.482	89.25
414.705	89.25
414.928	95.25
415.151	102.25
415.374	93.25
415.597	98.25
415.821	89.25
416.044	95.25
416.267	87.25
416.49	107.25
416.713	91.25
416.936	100.25
417.159	93.25
417.382	103.25
417.605	91.25
417.828	116.25
418.051	115.25
418.274	106.25
418.497	98.25
418.72	83.25
418.943	88.25
419.166	95.25
419.389	105.25
419.611	89.25
419.834	102.25
420.057	100.25
420.28	93.25
420.503	99.25
420.726	92.25
420.948	90.25
421.171	99.25
421.394	117.25
421.617	106.25
421.839	93.25
422.062	91.25
422.285	97.25
422.507	107.25
422.73	115.25
422.953	97.25
423.175	77.25
423.398	86.25
423.621	93.25
423.843	92.25
424.066	84.25
424.288	100.25
424.511	101.25
424.733	102.25
424.956	122.25
425.178	110.25
425.401	105.25
425.623	99.25
425.846	110.25
426.068	96.25
426.291	116.25
426.513	100.25
426.735	104.25
426.958	113.25
427.18	126.25
427.402	193.25
427.625	277.25
427.847	249.25
428.069	216.25
428.292	133.25
428.514	102.25
428.736	83.25
428.958	86.25
429.181	82.25
429.403	88.25
429.625	91.25
429.847	109.25
430.069	113.25
430.292	111.25
430.514	75.25
430.736	90.25
430.958	90.25
431.18	100.25
431.402	86.25
431.624	90.25
431.846	89.25
432.068	92.25
432.29	88.25
432.512	93.25
432.734	92.25
432.956	93.25
433.178	107.25
433.4	102.25
433.622	92.25
433.844	86.25
434.066	90.25
434.287	99.25
434.509	97.25
434.731	93.25
434.953	112.25
435.175	82.25
435.397	94.25
435.618	99.25
435.84	123.25
436.062	149.25
436.284	154.25
436.505	108.25
436.727	133.25
436.949	93.25
437.17	103.25
437.392	94.25
437.614	97.25
437.835	127.25
438.057	142.25
438.278	144.25
438.5	122.25
438.721	157.25
438.943	117.25
439.165	93.25
439.386	95.25
439.608	106.25
439.829	123.25
440.05	175.25
440.272	193.25
440.493	125.25
440.715	89.25
440.936	99.25
441.158	93.25
441.379	82.25
441.6	85.25
441.822	100.25
442.043	111.25
442.264	144.25
442.486	113.25
442.707	112.25
442.928	112.25
443.149	163.25
443.371	166.25
443.592	142.25
443.813	138.25
444.034	139.25
444.255	97.25
444.476	88.25
444.698	99.25
444.919	99.25
445.14	131.25
445.361	145.25
445.582	151.25
445.803	204.25
446.024	192.25
446.245	172.25
446.466	159.25
446.687	113.25
446.908	86.25
447.129	104.25
447.35	90.25
447.571	103.25
447.792	106.25
448.013	117.25
448.234	124.25
448.455	106.25
448.675	144.25
448.896	156.25
449.117	116.25
449.338	124.25
449.559	152.25
449.779	168.25
450	119.25
450.221	79.25
450.442	82.25
450.662	106.25
450.883	126.25
451.104	136.25
451.324	103.25
451.545	92.25
451.766	102.25
451.986	85.25
452.207	98.25
452.428	78.25
452.648	95.25
452.869	120.25
453.089	140.25
453.31	148.25
453.53	113.25
453.751	111.25
453.971	126.25
454.192	135.25
454.412	93.25
454.633	100.25
454.853	99.25
455.073	102.25
455.294	94.25
455.514	119.25
455.734	91.25
455.955	99.25
456.175	89.25
456.395	83.25
456.616	87.25
456.836	96.25
457.056	101.25
457.276	89.25
457.497	78.25
457.717	92.25
457.937	89.25
458.157	102.25
458.377	94.25
458.598	131.25
458.818	205.25
459.038	216.25
459.258	143.25
459.478	102.25
459.698	86.25
459.918	97.25
460.138	88.25
460.358	76.25
460.578	81.25
460.798	87.25
461.018	103.25
461.238	72.25
461.458	82.25
461.678	75.25
461.898	88.25
462.118	74.25
462.338	94.25
462.558	97.25
462.777	91.25
462.997	90.25
463.217	106.25
463.437	87.25
463.657	88.25
463.876	92.25
464.096	121.25
464.316	104.25
464.536	111.25
464.755	99.25
464.975	127.25
465.195	243.25
465.414	219.25
465.634	112.25
465.854	102.25
466.073	91.25
466.293	87.25
466.512	98.25
466.732	94.25
466.951	95.25
467.171	89.25
467.391	102.25
467.61	143.25
467.829	175.25
468.049	427.25
468.268	613.25
468.488	180.25
468.707	117.25
468.927	94.25
469.146	87.25
469.365	96.25
469.585	92.25
469.804	92.25
470.023	114.25
470.243	100.25
470.462	105.25
470.681	144.25
470.901	120.25
471.12	105.25
471.339	105.25
471.558	111.25
471.777	137.25
471.997	239.25
472.216	831.25
472.435	1859.25
472.654	458.25
472.873	155.25
473.092	85.25
473.311	112.25
473.53	104.25
473.749	111.25
473.968	106.25
474.187	133.25
474.406	115.25
474.625	91.25
474.844	101.25
475.063	90.25
475.282	93.25
475.501	80.25
475.72	101.25
475.939	92.25
476.158	82.25
476.377	100.25
476.596	98.25
476.814	103.25
477.033	112.25
477.252	101.25
477.471	83.25
477.69	93.25
477.908	85.25
478.127	89.25
478.346	90.25
478.564	101.25
478.783	102.25
479.002	104.25
479.22	115.25
479.439	131.25
479.658	124.25
479.876	117.25
480.095	113.25
480.313	121.25
480.532	144.25
480.751	247.25
480.969	767.25
481.188	3221.25
481.406	1963.25
481.624	308.25
481.843	127.25
482.061	100.25
482.28	95.25
482.498	87.25
482.717	92.25
482.935	96.25
483.153	102.25
483.372	95.25
483.59	88.25
483.808	96.25
484.027	89.25
484.245	84.25
484.463	95.25
484.681	101.25
484.9	86.25
485.118	95.25
485.336	98.25
485.554	86.25
485.772	101.25
485.99	101.25
486.209	103.25
486.427	117.25
486.645	121.25
486.863	133.25
487.081	110.25
487.299	94.25
487.517	97.25
487.735	101.25
487.953	85.25
488.171	100.25
488.389	94.25
488.607	106.25
488.825	99.25
489.043	85.25
489.261	80.25
489.479	78.25
489.696	102.25
489.914	84.25
490.132	90.25
490.35	91.25
490.568	92.25
490.786	105.25
491.003	87.25
491.221	107.25
491.439	88.25
491.657	89.25
491.874	98.25
492.092	109.25
492.31	93.25
492.527	101.25
492.745	99.25
492.963	95.25
493.18	79.25
493.398	87.25
493.615	92.25
493.833	97.25
494.05	85.25
494.268	78.25
494.485	94.25
494.703	96.25
494.92	86.25
495.138	100.25
495.355	96.25
495.573	87.25
495.79	89.25
496.008	88.25
496.225	83.25
496.442	94.25
496.66	91.25
496.877	91.25
497.094	90.25
497.312	90.25
497.529	93.25
497.746	105.25
497.963	102.25
498.181	89.25
498.398	99.25
498.615	130.25
498.832	115.25
499.049	91.25
499.267	98.25
499.484	91.25
499.701	91.25
499.918	83.25
500.135	103.25
500.352	96.25
500.569	84.25
500.786	98.25
501.003	96.25
501.22	92.25
501.437	86.25
501.654	104.25
501.871	133.25
502.088	90.25
502.305	84.25
502.522	89.25
502.739	94.25
502.956	83.25
503.172	96.25
503.389	113.25
503.606	136.25
503.823	112.25
504.04	107.25
504.256	96.25
504.473	101.25
504.69	78.25
504.907	100.25
505.123	82.25
505.34	91.25
505.557	92.25
505.773	90.25
505.99	96.25
506.207	81.25
506.423	95.25
506.64	87.25
506.856	92.25
507.073	95.25
507.289	99.25
507.506	115.25
507.722	116.25
507.939	145.25
508.155	95.25
508.372	91.25
508.588	89.25
508.805	99.25
509.021	98.25
509.238	95.25
509.454	104.25
509.67	106.25
509.887	101.25
510.103	143.25
510.319	232.25
510.536	829.25
510.752	2819.25
510.968	795.25
511.184	183.25
511.401	131.25
511.617	97.25
511.833	104.25
512.049	107.25
