Data from Circ_2013_H10_HRD10591_00069.txt Node
Date: Wed Jan 03 10:04:14 EST 2024
User: Yrep
Spectrometer: HR+D1059
Trigger mode: 1
Integration Time (sec): 1.000000E-1
Scans to average: 1
Electric dark correction enabled: true
Nonlinearity correction enabled: false
Boxcar width: 0
XAxis mode: Wavelengths
Number of Pixels in Spectrum: 2048
>>>>>Begin Spectral Data<<<<<
223.165	-9.56
223.4	-9.56
223.635	-9.56
223.869	-22.56
224.104	-25.56
224.338	-20.56
224.573	-29.56
224.808	-16.56
225.042	-8.56
225.277	-3.56
225.511	3.44
225.746	11.44
225.98	13.44
226.215	20.44
226.449	17.44
226.683	15.44
226.918	28.44
227.152	26.44
227.387	33.44
227.621	33.44
227.856	43.44
228.09	42.44
228.324	41.44
228.559	47.44
228.793	56.44
229.027	60.44
229.262	77.44
229.496	66.44
229.73	88.44
229.964	86.44
230.199	67.44
230.433	73.44
230.667	83.44
230.901	78.44
231.136	83.44
231.37	71.44
231.604	77.44
231.838	78.44
232.072	82.44
232.306	83.44
232.541	77.44
232.775	84.44
233.009	87.44
233.243	90.44
233.477	91.44
233.711	82.44
233.945	84.44
234.179	75.44
234.413	74.44
234.647	79.44
234.881	83.44
235.115	81.44
235.349	95.44
235.583	79.44
235.817	90.44
236.051	78.44
236.285	71.44
236.519	84.44
236.753	82.44
236.987	82.44
237.221	92.44
237.455	90.44
237.689	76.44
237.922	59.44
238.156	66.44
238.39	80.44
238.624	62.44
238.858	69.44
239.091	72.44
239.325	71.44
239.559	84.44
239.793	84.44
240.027	78.44
240.26	71.44
240.494	79.44
240.728	74.44
240.961	73.44
241.195	87.44
241.429	63.44
241.662	61.44
241.896	62.44
242.13	76.44
242.363	73.44
242.597	72.44
242.83	89.44
243.064	89.44
243.298	69.44
243.531	72.44
243.765	78.44
243.998	94.44
244.232	91.44
244.465	90.44
244.699	91.44
244.932	82.44
245.166	68.44
245.399	76.44
245.633	79.44
245.866	74.44
246.099	78.44
246.333	89.44
246.566	71.44
246.8	82.44
247.033	86.44
247.266	79.44
247.5	78.44
247.733	70.44
247.966	74.44
248.2	83.44
248.433	76.44
248.666	78.44
248.899	76.44
249.133	95.44
249.366	117.44
249.599	104.44
249.832	77.44
250.066	96.44
250.299	97.44
250.532	85.44
250.765	79.44
250.998	92.44
251.231	91.44
251.465	77.44
251.698	86.44
251.931	68.44
252.164	86.44
252.397	77.44
252.63	85.44
252.863	81.44
253.096	74.44
253.329	76.44
253.562	76.44
253.795	72.44
254.028	79.44
254.261	80.44
254.494	79.44
254.727	83.44
254.96	76.44
255.193	71.44
255.426	69.44
255.659	68.44
255.892	90.44
256.124	90.44
256.357	87.44
256.59	76.44
256.823	83.44
257.056	78.44
257.289	67.44
257.521	81.44
257.754	97.44
257.987	85.44
258.22	91.44
258.452	95.44
258.685	80.44
258.918	98.44
259.151	90.44
259.383	82.44
259.616	94.44
259.849	81.44
260.081	70.44
260.314	95.44
260.547	97.44
260.779	89.44
261.012	86.44
261.244	96.44
261.477	93.44
261.71	109.44
261.942	121.44
262.175	124.44
262.407	93.44
262.64	87.44
262.872	92.44
263.105	84.44
263.337	78.44
263.57	87.44
263.802	77.44
264.035	85.44
264.267	74.44
264.499	68.44
264.732	79.44
264.964	72.44
265.197	77.44
265.429	76.44
265.661	91.44
265.894	86.44
266.126	106.44
266.358	78.44
266.591	89.44
266.823	76.44
267.055	85.44
267.287	84.44
267.52	71.44
267.752	82.44
267.984	90.44
268.216	102.44
268.448	95.44
268.681	80.44
268.913	87.44
269.145	80.44
269.377	69.44
269.609	100.44
269.841	106.44
270.073	91.44
270.306	91.44
270.538	97.44
270.77	79.44
271.002	88.44
271.234	92.44
271.466	87.44
271.698	103.44
271.93	92.44
272.162	90.44
272.394	98.44
272.626	102.44
272.858	90.44
273.09	89.44
273.322	72.44
273.553	83.44
273.785	91.44
274.017	77.44
274.249	88.44
274.481	74.44
274.713	86.44
274.945	90.44
275.176	93.44
275.408	103.44
275.64	99.44
275.872	92.44
276.104	106.44
276.335	98.44
276.567	121.44
276.799	141.44
277.031	139.44
277.262	157.44
277.494	123.44
277.726	86.44
277.957	92.44
278.189	103.44
278.421	78.44
278.652	90.44
278.884	88.44
279.115	101.44
279.347	81.44
279.579	94.44
279.81	109.44
280.042	151.44
280.273	202.44
280.505	141.44
280.736	97.44
280.968	100.44
281.199	102.44
281.431	87.44
281.662	93.44
281.894	87.44
282.125	98.44
282.356	145.44
282.588	157.44
282.819	126.44
283.051	93.44
283.282	92.44
283.513	86.44
283.745	80.44
283.976	85.44
284.207	73.44
284.439	79.44
284.67	82.44
284.901	88.44
285.132	94.44
285.364	90.44
285.595	87.44
285.826	88.44
286.057	90.44
286.288	93.44
286.52	83.44
286.751	91.44
286.982	100.44
287.213	64.44
287.444	86.44
287.675	85.44
287.906	92.44
288.138	91.44
288.369	101.44
288.6	105.44
288.831	99.44
289.062	90.44
289.293	91.44
289.524	90.44
289.755	107.44
289.986	86.44
290.217	86.44
290.448	89.44
290.679	90.44
290.91	101.44
291.141	86.44
291.371	81.44
291.602	90.44
291.833	93.44
292.064	77.44
292.295	91.44
292.526	95.44
292.757	75.44
292.987	83.44
293.218	98.44
293.449	77.44
293.68	98.44
293.91	98.44
294.141	78.44
294.372	81.44
294.603	87.44
294.833	88.44
295.064	99.44
295.295	92.44
295.525	78.44
295.756	102.44
295.987	106.44
296.217	167.44
296.448	141.44
296.679	86.44
296.909	104.44
297.14	67.44
297.37	75.44
297.601	97.44
297.831	78.44
298.062	109.44
298.292	76.44
298.523	73.44
298.753	88.44
298.984	96.44
299.214	91.44
299.445	97.44
299.675	100.44
299.905	90.44
300.136	97.44
300.366	98.44
300.597	99.44
300.827	97.44
301.057	104.44
301.288	105.44
301.518	94.44
301.748	104.44
301.979	100.44
302.209	107.44
302.439	108.44
302.669	95.44
302.9	92.44
303.13	93.44
303.36	108.44
303.59	118.44
303.82	131.44
304.051	104.44
304.281	83.44
304.511	75.44
304.741	82.44
304.971	93.44
305.201	93.44
305.431	98.44
305.661	83.44
305.891	88.44
306.121	88.44
306.352	103.44
306.582	131.44
306.812	115.44
307.042	89.44
307.272	131.44
307.502	133.44
307.731	131.44
307.961	111.44
308.191	94.44
308.421	83.44
308.651	88.44
308.881	105.44
309.111	94.44
309.341	91.44
309.571	103.44
309.8	104.44
310.03	87.44
310.26	119.44
310.49	102.44
310.72	107.44
310.949	110.44
311.179	107.44
311.409	89.44
311.639	90.44
311.868	119.44
312.098	88.44
312.328	104.44
312.557	115.44
312.787	119.44
313.017	102.44
313.246	99.44
313.476	93.44
313.706	97.44
313.935	95.44
314.165	104.44
314.394	118.44
314.624	118.44
314.853	97.44
315.083	99.44
315.312	85.44
315.542	92.44
315.771	89.44
316.001	85.44
316.23	92.44
316.46	97.44
316.689	93.44
316.919	91.44
317.148	99.44
317.377	97.44
317.607	115.44
317.836	117.44
318.065	102.44
318.295	94.44
318.524	89.44
318.753	91.44
318.983	106.44
319.212	108.44
319.441	109.44
319.67	110.44
319.9	109.44
320.129	107.44
320.358	98.44
320.587	99.44
320.816	108.44
321.046	105.44
321.275	101.44
321.504	91.44
321.733	91.44
321.962	103.44
322.191	103.44
322.42	103.44
322.649	112.44
322.878	127.44
323.108	130.44
323.337	134.44
323.566	157.44
323.795	182.44
324.024	225.44
324.253	478.44
324.482	1008.44
324.71	2109.44
324.939	2727.44
325.168	995.44
325.397	293.44
325.626	170.44
325.855	145.44
326.084	151.44
326.313	141.44
326.542	168.44
326.77	249.44
326.999	524.44
327.228	1113.44
327.457	1999.44
327.686	1583.44
327.914	514.44
328.143	396.44
328.372	479.44
328.6	293.44
328.829	167.44
329.058	180.44
329.287	192.44
329.515	177.44
329.744	197.44
329.972	353.44
330.201	645.44
330.43	963.44
330.658	464.44
330.887	245.44
331.115	180.44
331.344	127.44
331.572	132.44
331.801	125.44
332.03	124.44
332.258	121.44
332.486	89.44
332.715	101.44
332.943	103.44
333.172	102.44
333.4	124.44
333.629	147.44
333.857	176.44
334.085	318.44
334.314	632.44
334.542	1229.44
334.771	1153.44
334.999	338.44
335.227	163.44
335.455	135.44
335.684	106.44
335.912	105.44
336.14	95.44
336.369	100.44
336.597	100.44
336.825	90.44
337.053	83.44
337.281	111.44
337.51	101.44
337.738	103.44
337.966	98.44
338.194	119.44
338.422	88.44
338.65	88.44
338.878	90.44
339.106	91.44
339.334	85.44
339.562	86.44
339.79	87.44
340.018	94.44
340.246	98.44
340.474	103.44
340.702	93.44
340.93	80.44
341.158	110.44
341.386	108.44
341.614	99.44
341.842	91.44
342.07	98.44
342.298	103.44
342.526	87.44
342.754	90.44
342.981	97.44
343.209	95.44
343.437	97.44
343.665	88.44
343.893	81.44
344.12	95.44
344.348	83.44
344.576	107.44
344.804	96.44
345.031	99.44
345.259	105.44
345.487	94.44
345.714	89.44
345.942	91.44
346.17	94.44
346.397	90.44
346.625	86.44
346.853	97.44
347.08	93.44
347.308	99.44
347.535	101.44
347.763	101.44
347.99	95.44
348.218	101.44
348.445	113.44
348.673	101.44
348.9	101.44
349.128	105.44
349.355	89.44
349.583	93.44
349.81	92.44
350.037	87.44
350.265	87.44
350.492	102.44
350.72	97.44
350.947	102.44
351.174	100.44
351.402	116.44
351.629	120.44
351.856	111.44
352.083	93.44
352.311	107.44
352.538	110.44
352.765	111.44
352.992	122.44
353.22	105.44
353.447	99.44
353.674	92.44
353.901	105.44
354.128	95.44
354.355	83.44
354.583	89.44
354.81	96.44
355.037	95.44
355.264	85.44
355.491	86.44
355.718	83.44
355.945	98.44
356.172	94.44
356.399	91.44
356.626	76.44
356.853	95.44
357.08	70.44
357.307	98.44
357.534	87.44
357.761	84.44
357.988	96.44
358.215	96.44
358.441	83.44
358.668	94.44
358.895	96.44
359.122	89.44
359.349	89.44
359.576	83.44
359.802	108.44
360.029	137.44
360.256	147.44
360.483	118.44
360.709	99.44
360.936	88.44
361.163	103.44
361.39	100.44
361.616	94.44
361.843	96.44
362.07	101.44
362.296	102.44
362.523	89.44
362.749	101.44
362.976	113.44
363.203	95.44
363.429	90.44
363.656	91.44
363.882	97.44
364.109	99.44
364.335	103.44
364.562	98.44
364.788	107.44
365.015	101.44
365.241	104.44
365.468	102.44
365.694	124.44
365.92	100.44
366.147	90.44
366.373	100.44
366.599	106.44
366.826	95.44
367.052	99.44
367.278	84.44
367.505	86.44
367.731	95.44
367.957	83.44
368.184	95.44
368.41	116.44
368.636	129.44
368.862	137.44
369.089	112.44
369.315	107.44
369.541	87.44
369.767	95.44
369.993	91.44
370.219	87.44
370.445	92.44
370.672	82.44
370.898	78.44
371.124	86.44
371.35	94.44
371.576	78.44
371.802	83.44
372.028	94.44
372.254	91.44
372.48	85.44
372.706	84.44
372.932	83.44
373.158	96.44
373.384	83.44
373.61	98.44
373.835	86.44
374.061	85.44
374.287	97.44
374.513	86.44
374.739	87.44
374.965	98.44
375.191	90.44
375.416	92.44
375.642	85.44
375.868	91.44
376.094	103.44
376.319	97.44
376.545	83.44
376.771	76.44
376.997	107.44
377.222	92.44
377.448	86.44
377.674	81.44
377.899	83.44
378.125	102.44
378.35	94.44
378.576	90.44
378.802	94.44
379.027	95.44
379.253	95.44
379.478	92.44
379.704	85.44
379.929	89.44
380.155	89.44
380.38	88.44
380.606	105.44
380.831	89.44
381.057	89.44
381.282	76.44
381.507	101.44
381.733	102.44
381.958	85.44
382.184	90.44
382.409	92.44
382.634	92.44
382.86	103.44
383.085	112.44
383.31	85.44
383.535	83.44
383.761	100.44
383.986	89.44
384.211	97.44
384.436	99.44
384.662	91.44
384.887	100.44
385.112	100.44
385.337	108.44
385.562	94.44
385.787	102.44
386.013	102.44
386.238	114.44
386.463	99.44
386.688	100.44
386.913	100.44
387.138	104.44
387.363	92.44
387.588	91.44
387.813	85.44
388.038	86.44
388.263	83.44
388.488	93.44
388.713	92.44
388.938	86.44
389.163	83.44
389.387	103.44
389.612	107.44
389.837	92.44
390.062	102.44
390.287	97.44
390.512	94.44
390.736	106.44
390.961	78.44
391.186	77.44
391.411	86.44
391.636	77.44
391.86	86.44
392.085	92.44
392.31	91.44
392.534	86.44
392.759	83.44
392.984	100.44
393.208	88.44
393.433	88.44
393.658	88.44
393.882	95.44
394.107	87.44
394.331	86.44
394.556	66.44
394.78	90.44
395.005	83.44
395.229	97.44
395.454	97.44
395.678	85.44
395.903	93.44
396.127	99.44
396.352	87.44
396.576	78.44
396.801	81.44
397.025	91.44
397.249	90.44
397.474	87.44
397.698	77.44
397.922	91.44
398.147	79.44
398.371	87.44
398.595	77.44
398.82	79.44
399.044	81.44
399.268	78.44
399.492	78.44
399.717	95.44
399.941	93.44
400.165	100.44
400.389	92.44
400.613	88.44
400.837	82.44
401.062	87.44
401.286	82.44
401.51	92.44
401.734	103.44
401.958	121.44
402.182	144.44
402.406	196.44
402.63	132.44
402.854	102.44
403.078	99.44
403.302	91.44
403.526	85.44
403.75	101.44
403.974	84.44
404.198	86.44
404.422	89.44
404.645	86.44
404.869	90.44
405.093	116.44
405.317	135.44
405.541	124.44
405.765	115.44
405.988	125.44
406.212	195.44
406.436	299.44
406.66	182.44
406.883	113.44
407.107	104.44
407.331	115.44
407.555	104.44
407.778	104.44
408.002	99.44
408.226	94.44
408.449	93.44
408.673	96.44
408.896	103.44
409.12	106.44
409.344	87.44
409.567	98.44
409.791	107.44
410.014	98.44
410.238	90.44
410.461	83.44
410.685	83.44
410.908	107.44
411.132	97.44
411.355	102.44
411.578	101.44
411.802	79.44
412.025	92.44
412.249	109.44
412.472	113.44
412.695	125.44
412.919	116.44
413.142	94.44
413.365	90.44
413.589	98.44
413.812	84.44
414.035	77.44
414.258	99.44
414.482	79.44
414.705	78.44
414.928	101.44
415.151	92.44
415.374	78.44
415.597	89.44
415.821	87.44
416.044	74.44
416.267	97.44
416.49	89.44
416.713	77.44
416.936	85.44
417.159	75.44
417.382	74.44
417.605	102.44
417.828	107.44
418.051	100.44
418.274	99.44
418.497	79.44
418.72	82.44
418.943	90.44
419.166	78.44
419.389	89.44
419.611	92.44
419.834	92.44
420.057	82.44
420.28	81.44
420.503	85.44
420.726	80.44
420.948	93.44
421.171	78.44
421.394	75.44
421.617	84.44
421.839	73.44
422.062	87.44
422.285	93.44
422.507	106.44
422.73	114.44
422.953	90.44
423.175	91.44
423.398	94.44
423.621	89.44
423.843	85.44
424.066	75.44
424.288	85.44
424.511	92.44
424.733	97.44
424.956	120.44
425.178	103.44
425.401	105.44
425.623	102.44
425.846	96.44
426.068	90.44
426.291	87.44
426.513	105.44
426.735	87.44
426.958	102.44
427.18	106.44
427.402	163.44
427.625	243.44
427.847	217.44
428.069	202.44
428.292	118.44
428.514	90.44
428.736	87.44
428.958	84.44
429.181	87.44
429.403	98.44
429.625	93.44
429.847	103.44
430.069	102.44
430.292	97.44
430.514	79.44
430.736	93.44
430.958	107.44
431.18	90.44
431.402	88.44
431.624	78.44
431.846	93.44
432.068	80.44
432.29	89.44
432.512	89.44
432.734	91.44
432.956	90.44
433.178	102.44
433.4	107.44
433.622	75.44
433.844	92.44
434.066	93.44
434.287	83.44
434.509	75.44
434.731	115.44
434.953	91.44
435.175	77.44
435.397	99.44
435.618	101.44
435.84	118.44
436.062	123.44
436.284	120.44
436.505	100.44
436.727	103.44
436.949	85.44
437.17	70.44
437.392	87.44
437.614	107.44
437.835	135.44
438.057	146.44
438.278	132.44
438.5	106.44
438.721	129.44
438.943	120.44
439.165	82.44
439.386	95.44
439.608	98.44
439.829	108.44
440.05	140.44
440.272	171.44
440.493	112.44
440.715	78.44
440.936	92.44
441.158	82.44
441.379	102.44
441.6	104.44
441.822	100.44
442.043	97.44
442.264	106.44
442.486	114.44
442.707	109.44
442.928	110.44
443.149	168.44
443.371	166.44
443.592	142.44
443.813	130.44
444.034	126.44
444.255	77.44
444.476	90.44
444.698	86.44
444.919	93.44
445.14	142.44
445.361	133.44
445.582	136.44
445.803	169.44
446.024	175.44
446.245	179.44
446.466	106.44
446.687	90.44
446.908	98.44
447.129	83.44
447.35	98.44
447.571	85.44
447.792	82.44
448.013	93.44
448.234	113.44
448.455	98.44
448.675	122.44
448.896	130.44
449.117	115.44
449.338	121.44
449.559	146.44
449.779	154.44
450	100.44
450.221	94.44
450.442	81.44
450.662	94.44
450.883	122.44
451.104	142.44
451.324	108.44
451.545	89.44
451.766	93.44
451.986	89.44
452.207	91.44
452.428	93.44
452.648	88.44
452.869	132.44
453.089	128.44
453.31	134.44
453.53	108.44
453.751	102.44
453.971	108.44
454.192	133.44
454.412	100.44
454.633	94.44
454.853	85.44
455.073	98.44
455.294	88.44
455.514	118.44
455.734	106.44
455.955	82.44
456.175	98.44
456.395	86.44
456.616	85.44
456.836	81.44
457.056	88.44
457.276	73.44
457.497	85.44
457.717	89.44
457.937	75.44
458.157	85.44
458.377	94.44
458.598	120.44
458.818	193.44
459.038	231.44
459.258	151.44
459.478	77.44
459.698	81.44
459.918	90.44
460.138	91.44
460.358	92.44
460.578	81.44
460.798	97.44
461.018	89.44
461.238	101.44
461.458	78.44
461.678	96.44
461.898	85.44
462.118	84.44
462.338	81.44
462.558	101.44
462.777	84.44
462.997	85.44
463.217	105.44
463.437	96.44
463.657	102.44
463.876	79.44
464.096	100.44
464.316	106.44
464.536	111.44
464.755	101.44
464.975	128.44
465.195	233.44
465.414	218.44
465.634	107.44
465.854	89.44
466.073	91.44
466.293	88.44
466.512	85.44
466.732	88.44
466.951	89.44
467.171	85.44
467.391	105.44
467.61	143.44
467.829	173.44
468.049	350.44
468.268	537.44
468.488	170.44
468.707	98.44
468.927	85.44
469.146	94.44
469.365	82.44
469.585	96.44
469.804	98.44
470.023	107.44
470.243	94.44
470.462	118.44
470.681	142.44
470.901	99.44
471.12	97.44
471.339	97.44
471.558	99.44
471.777	132.44
471.997	210.44
472.216	684.44
472.435	1538.44
472.654	423.44
472.873	137.44
473.092	93.44
473.311	99.44
473.53	72.44
473.749	74.44
473.968	96.44
474.187	132.44
474.406	105.44
474.625	88.44
474.844	83.44
475.063	96.44
475.282	90.44
475.501	92.44
475.72	93.44
475.939	80.44
476.158	90.44
476.377	86.44
476.596	95.44
476.814	101.44
477.033	95.44
477.252	98.44
477.471	91.44
477.69	102.44
477.908	106.44
478.127	106.44
478.346	72.44
478.564	76.44
478.783	107.44
479.002	105.44
479.22	119.44
479.439	123.44
479.658	128.44
479.876	113.44
480.095	107.44
480.313	110.44
480.532	132.44
480.751	224.44
480.969	644.44
481.188	2641.44
481.406	1633.44
481.624	279.44
481.843	127.44
482.061	85.44
482.28	97.44
482.498	99.44
482.717	77.44
482.935	89.44
483.153	99.44
483.372	88.44
483.59	87.44
483.808	85.44
484.027	97.44
484.245	81.44
484.463	92.44
484.681	100.44
484.9	102.44
485.118	87.44
485.336	104.44
485.554	81.44
485.772	97.44
485.99	100.44
486.209	97.44
486.427	95.44
486.645	114.44
486.863	111.44
487.081	106.44
487.299	89.44
487.517	94.44
487.735	91.44
487.953	93.44
488.171	90.44
488.389	99.44
488.607	100.44
488.825	90.44
489.043	89.44
489.261	95.44
489.479	95.44
489.696	82.44
489.914	78.44
490.132	87.44
490.35	97.44
490.568	76.44
490.786	93.44
491.003	84.44
491.221	104.44
491.439	89.44
491.657	90.44
491.874	93.44
492.092	105.44
492.31	94.44
492.527	106.44
492.745	102.44
492.963	90.44
493.18	86.44
493.398	91.44
493.615	103.44
493.833	105.44
494.05	99.44
494.268	92.44
494.485	89.44
494.703	89.44
494.92	71.44
495.138	78.44
495.355	79.44
495.573	87.44
495.79	78.44
496.008	86.44
496.225	94.44
496.442	95.44
496.66	99.44
496.877	86.44
497.094	87.44
497.312	88.44
497.529	84.44
497.746	83.44
497.963	103.44
498.181	97.44
498.398	90.44
498.615	110.44
498.832	114.44
499.049	100.44
499.267	99.44
499.484	93.44
499.701	76.44
499.918	95.44
500.135	102.44
500.352	91.44
500.569	97.44
500.786	83.44
501.003	94.44
501.22	93.44
501.437	91.44
501.654	101.44
501.871	119.44
502.088	89.44
502.305	85.44
502.522	92.44
502.739	97.44
502.956	80.44
503.172	103.44
503.389	94.44
503.606	107.44
503.823	108.44
504.04	78.44
504.256	86.44
504.473	84.44
504.69	87.44
504.907	101.44
505.123	78.44
505.34	85.44
505.557	90.44
505.773	93.44
505.99	87.44
506.207	85.44
506.423	92.44
506.64	99.44
506.856	93.44
507.073	99.44
507.289	90.44
507.506	107.44
507.722	122.44
507.939	129.44
508.155	103.44
508.372	83.44
508.588	86.44
508.805	97.44
509.021	90.44
509.238	97.44
509.454	102.44
509.67	104.44
509.887	114.44
510.103	153.44
510.319	227.44
510.536	817.44
510.752	2825.44
510.968	824.44
511.184	176.44
511.401	126.44
511.617	101.44
511.833	105.44
512.049	95.44
512.265	95.44
512.481	96.44
512.698	89.44
512.914	100.44
513.13	107.44
513.346	95.44
513.562	102.44
513.778	88.44
