Data from Circ_2013_H10_HRD10591_00057.txt Node
Date: Wed Jan 03 10:04:11 EST 2024
User: Yrep
Spectrometer: HR+D1059
Trigger mode: 1
Integration Time (sec): 1.000000E-1
Scans to average: 1
Electric dark correction enabled: true
Nonlinearity correction enabled: false
Boxcar width: 0
XAxis mode: Wavelengths
Number of Pixels in Spectrum: 2048
>>>>>Begin Spectral Data<<<<<
223.165	-29.06
223.4	-29.06
223.635	-29.06
223.869	-22.06
224.104	-11.06
224.338	-16.06
224.573	-16.06
224.808	-10.06
225.042	-17.06
225.277	-12.06
225.511	15.94
225.746	5.94
225.98	15.94
226.215	16.94
226.449	17.94
226.683	15.94
226.918	21.94
227.152	22.94
227.387	35.94
227.621	38.94
227.856	35.94
228.09	33.94
228.324	32.94
228.559	62.94
228.793	66.94
229.027	68.94
229.262	77.94
229.496	72.94
229.73	91.94
229.964	96.94
230.199	65.94
230.433	77.94
230.667	82.94
230.901	69.94
231.136	92.94
231.37	78.94
231.604	74.94
231.838	76.94
232.072	77.94
232.306	80.94
232.541	76.94
232.775	83.94
233.009	89.94
233.243	86.94
233.477	79.94
233.711	87.94
233.945	79.94
234.179	78.94
234.413	70.94
234.647	77.94
234.881	84.94
235.115	75.94
235.349	85.94
235.583	81.94
235.817	79.94
236.051	78.94
236.285	79.94
236.519	71.94
236.753	75.94
236.987	78.94
237.221	75.94
237.455	85.94
237.689	72.94
237.922	62.94
238.156	83.94
238.39	67.94
238.624	59.94
238.858	82.94
239.091	67.94
239.325	65.94
239.559	73.94
239.793	85.94
240.027	83.94
240.26	69.94
240.494	65.94
240.728	75.94
240.961	69.94
241.195	80.94
241.429	83.94
241.662	77.94
241.896	83.94
242.13	70.94
242.363	71.94
242.597	75.94
242.83	72.94
243.064	93.94
243.298	71.94
243.531	74.94
243.765	84.94
243.998	67.94
244.232	70.94
244.465	81.94
244.699	72.94
244.932	75.94
245.166	80.94
245.399	53.94
245.633	73.94
245.866	78.94
246.099	76.94
246.333	82.94
246.566	67.94
246.8	75.94
247.033	65.94
247.266	69.94
247.5	75.94
247.733	70.94
247.966	71.94
248.2	71.94
248.433	89.94
248.666	62.94
248.899	74.94
249.133	82.94
249.366	102.94
249.599	104.94
249.832	82.94
250.066	74.94
250.299	69.94
250.532	65.94
250.765	90.94
250.998	66.94
251.231	59.94
251.465	72.94
251.698	79.94
251.931	86.94
252.164	88.94
252.397	63.94
252.63	72.94
252.863	98.94
253.096	91.94
253.329	67.94
253.562	85.94
253.795	78.94
254.028	73.94
254.261	70.94
254.494	86.94
254.727	76.94
254.96	75.94
255.193	69.94
255.426	66.94
255.659	81.94
255.892	86.94
256.124	77.94
256.357	80.94
256.59	63.94
256.823	77.94
257.056	86.94
257.289	96.94
257.521	89.94
257.754	70.94
257.987	72.94
258.22	97.94
258.452	86.94
258.685	71.94
258.918	79.94
259.151	83.94
259.383	95.94
259.616	81.94
259.849	87.94
260.081	75.94
260.314	82.94
260.547	66.94
260.779	82.94
261.012	94.94
261.244	104.94
261.477	88.94
261.71	88.94
261.942	104.94
262.175	124.94
262.407	84.94
262.64	79.94
262.872	84.94
263.105	81.94
263.337	81.94
263.57	84.94
263.802	81.94
264.035	70.94
264.267	75.94
264.499	81.94
264.732	80.94
264.964	86.94
265.197	86.94
265.429	82.94
265.661	79.94
265.894	80.94
266.126	79.94
266.358	57.94
266.591	80.94
266.823	68.94
267.055	77.94
267.287	73.94
267.52	98.94
267.752	82.94
267.984	88.94
268.216	94.94
268.448	75.94
268.681	89.94
268.913	87.94
269.145	78.94
269.377	85.94
269.609	76.94
269.841	83.94
270.073	76.94
270.306	66.94
270.538	84.94
270.77	94.94
271.002	87.94
271.234	94.94
271.466	85.94
271.698	88.94
271.93	78.94
272.162	80.94
272.394	91.94
272.626	76.94
272.858	71.94
273.09	81.94
273.322	63.94
273.553	73.94
273.785	76.94
274.017	77.94
274.249	81.94
274.481	85.94
274.713	77.94
274.945	78.94
275.176	93.94
275.408	94.94
275.64	98.94
275.872	84.94
276.104	87.94
276.335	98.94
276.567	104.94
276.799	135.94
277.031	134.94
277.262	154.94
277.494	113.94
277.726	97.94
277.957	93.94
278.189	101.94
278.421	85.94
278.652	83.94
278.884	70.94
279.115	87.94
279.347	84.94
279.579	94.94
279.81	108.94
280.042	134.94
280.273	174.94
280.505	128.94
280.736	85.94
280.968	83.94
281.199	88.94
281.431	87.94
281.662	96.94
281.894	82.94
282.125	116.94
282.356	111.94
282.588	147.94
282.819	111.94
283.051	95.94
283.282	83.94
283.513	79.94
283.745	90.94
283.976	81.94
284.207	91.94
284.439	82.94
284.67	75.94
284.901	72.94
285.132	88.94
285.364	69.94
285.595	78.94
285.826	84.94
286.057	83.94
286.288	73.94
286.52	79.94
286.751	76.94
286.982	76.94
287.213	90.94
287.444	103.94
287.675	83.94
287.906	100.94
288.138	88.94
288.369	86.94
288.6	97.94
288.831	83.94
289.062	80.94
289.293	87.94
289.524	91.94
289.755	74.94
289.986	76.94
290.217	80.94
290.448	64.94
290.679	84.94
290.91	67.94
291.141	84.94
291.371	88.94
291.602	81.94
291.833	90.94
292.064	78.94
292.295	80.94
292.526	76.94
292.757	90.94
292.987	83.94
293.218	74.94
293.449	90.94
293.68	86.94
293.91	91.94
294.141	88.94
294.372	97.94
294.603	97.94
294.833	79.94
295.064	96.94
295.295	80.94
295.525	92.94
295.756	95.94
295.987	112.94
296.217	157.94
296.448	125.94
296.679	100.94
296.909	97.94
297.14	73.94
297.37	105.94
297.601	83.94
297.831	80.94
298.062	94.94
298.292	100.94
298.523	105.94
298.753	86.94
298.984	75.94
299.214	98.94
299.445	104.94
299.675	94.94
299.905	92.94
300.136	88.94
300.366	88.94
300.597	78.94
300.827	83.94
301.057	94.94
301.288	103.94
301.518	97.94
301.748	85.94
301.979	93.94
302.209	80.94
302.439	85.94
302.669	88.94
302.9	89.94
303.13	93.94
303.36	99.94
303.59	116.94
303.82	121.94
304.051	103.94
304.281	94.94
304.511	72.94
304.741	83.94
304.971	84.94
305.201	87.94
305.431	90.94
305.661	81.94
305.891	80.94
306.121	99.94
306.352	104.94
306.582	105.94
306.812	110.94
307.042	109.94
307.272	117.94
307.502	151.94
307.731	118.94
307.961	104.94
308.191	99.94
308.421	96.94
308.651	90.94
308.881	94.94
309.111	75.94
309.341	90.94
309.571	92.94
309.8	97.94
310.03	103.94
310.26	89.94
310.49	87.94
310.72	102.94
310.949	119.94
311.179	108.94
311.409	109.94
311.639	95.94
311.868	95.94
312.098	99.94
312.328	89.94
312.557	100.94
312.787	109.94
313.017	112.94
313.246	93.94
313.476	98.94
313.706	82.94
313.935	90.94
314.165	101.94
314.394	106.94
314.624	103.94
314.853	109.94
315.083	109.94
315.312	110.94
315.542	92.94
315.771	86.94
316.001	96.94
316.23	77.94
316.46	89.94
316.689	94.94
316.919	85.94
317.148	103.94
317.377	89.94
317.607	83.94
317.836	72.94
318.065	91.94
318.295	89.94
318.524	84.94
318.753	81.94
318.983	96.94
319.212	109.94
319.441	91.94
319.67	105.94
319.9	82.94
320.129	87.94
320.358	92.94
320.587	101.94
320.816	91.94
321.046	93.94
321.275	103.94
321.504	93.94
321.733	85.94
321.962	77.94
322.191	96.94
322.42	107.94
322.649	101.94
322.878	126.94
323.108	130.94
323.337	142.94
323.566	131.94
323.795	161.94
324.024	240.94
324.253	453.94
324.482	991.94
324.71	2088.94
324.939	2805.94
325.168	1000.94
325.397	272.94
325.626	160.94
325.855	137.94
326.084	139.94
326.313	139.94
326.542	153.94
326.77	250.94
326.999	561.94
327.228	1110.94
327.457	2066.94
327.686	1687.94
327.914	503.94
328.143	381.94
328.372	449.94
328.6	256.94
328.829	154.94
329.058	157.94
329.287	166.94
329.515	153.94
329.744	184.94
329.972	302.94
330.201	602.94
330.43	857.94
330.658	427.94
330.887	224.94
331.115	177.94
331.344	121.94
331.572	110.94
331.801	116.94
332.03	121.94
332.258	110.94
332.486	94.94
332.715	102.94
332.943	113.94
333.172	111.94
333.4	117.94
333.629	140.94
333.857	157.94
334.085	291.94
334.314	574.94
334.542	1050.94
334.771	1027.94
334.999	305.94
335.227	131.94
335.455	103.94
335.684	102.94
335.912	94.94
336.14	89.94
336.369	102.94
336.597	112.94
336.825	104.94
337.053	97.94
337.281	108.94
337.51	78.94
337.738	83.94
337.966	87.94
338.194	103.94
338.422	97.94
338.65	90.94
338.878	84.94
339.106	82.94
339.334	82.94
339.562	85.94
339.79	88.94
340.018	90.94
340.246	92.94
340.474	102.94
340.702	81.94
340.93	96.94
341.158	92.94
341.386	104.94
341.614	106.94
341.842	94.94
342.07	89.94
342.298	101.94
342.526	104.94
342.754	79.94
342.981	85.94
343.209	78.94
343.437	81.94
343.665	81.94
343.893	82.94
344.12	85.94
344.348	84.94
344.576	97.94
344.804	87.94
345.031	95.94
345.259	102.94
345.487	82.94
345.714	79.94
345.942	93.94
346.17	91.94
346.397	95.94
346.625	99.94
346.853	82.94
347.08	88.94
347.308	90.94
347.535	101.94
347.763	101.94
347.99	71.94
348.218	110.94
348.445	103.94
348.673	92.94
348.9	96.94
349.128	91.94
349.355	95.94
349.583	89.94
349.81	100.94
350.037	93.94
350.265	93.94
350.492	93.94
350.72	115.94
350.947	105.94
351.174	103.94
351.402	119.94
351.629	101.94
351.856	112.94
352.083	113.94
352.311	114.94
352.538	126.94
352.765	117.94
352.992	113.94
353.22	106.94
353.447	114.94
353.674	101.94
353.901	90.94
354.128	88.94
354.355	96.94
354.583	82.94
354.81	96.94
355.037	91.94
355.264	86.94
355.491	79.94
355.718	91.94
355.945	98.94
356.172	90.94
356.399	99.94
356.626	92.94
356.853	94.94
357.08	85.94
357.307	95.94
357.534	71.94
357.761	87.94
357.988	96.94
358.215	94.94
358.441	88.94
358.668	87.94
358.895	89.94
359.122	88.94
359.349	83.94
359.576	88.94
359.802	118.94
360.029	120.94
360.256	129.94
360.483	115.94
360.709	88.94
360.936	110.94
361.163	89.94
361.39	89.94
361.616	102.94
361.843	86.94
362.07	90.94
362.296	95.94
362.523	85.94
362.749	93.94
362.976	81.94
363.203	77.94
363.429	77.94
363.656	87.94
363.882	74.94
364.109	81.94
364.335	97.94
364.562	83.94
364.788	88.94
365.015	80.94
365.241	86.94
365.468	101.94
365.694	97.94
365.92	100.94
366.147	88.94
366.373	107.94
366.599	86.94
366.826	94.94
367.052	70.94
367.278	92.94
367.505	88.94
367.731	85.94
367.957	75.94
368.184	98.94
368.41	92.94
368.636	112.94
368.862	131.94
369.089	111.94
369.315	101.94
369.541	88.94
369.767	92.94
369.993	83.94
370.219	101.94
370.445	101.94
370.672	78.94
370.898	82.94
371.124	80.94
371.35	81.94
371.576	83.94
371.802	78.94
372.028	84.94
372.254	81.94
372.48	75.94
372.706	77.94
372.932	87.94
373.158	80.94
373.384	88.94
373.61	81.94
373.835	91.94
374.061	65.94
374.287	78.94
374.513	90.94
374.739	93.94
374.965	83.94
375.191	73.94
375.416	71.94
375.642	99.94
375.868	101.94
376.094	84.94
376.319	94.94
376.545	81.94
376.771	84.94
376.997	86.94
377.222	94.94
377.448	87.94
377.674	87.94
377.899	94.94
378.125	91.94
378.35	92.94
378.576	83.94
378.802	72.94
379.027	85.94
379.253	78.94
379.478	75.94
379.704	83.94
379.929	81.94
380.155	96.94
380.38	74.94
380.606	75.94
380.831	83.94
381.057	80.94
381.282	85.94
381.507	84.94
381.733	91.94
381.958	80.94
382.184	91.94
382.409	87.94
382.634	106.94
382.86	101.94
383.085	88.94
383.31	90.94
383.535	97.94
383.761	80.94
383.986	91.94
384.211	107.94
384.436	78.94
384.662	109.94
384.887	87.94
385.112	90.94
385.337	99.94
385.562	99.94
385.787	94.94
386.013	103.94
386.238	99.94
386.463	105.94
386.688	111.94
386.913	102.94
387.138	95.94
387.363	95.94
387.588	89.94
387.813	92.94
388.038	102.94
388.263	96.94
388.488	87.94
388.713	93.94
388.938	91.94
389.163	101.94
389.387	101.94
389.612	94.94
389.837	86.94
390.062	78.94
390.287	81.94
390.512	73.94
390.736	77.94
390.961	86.94
391.186	75.94
391.411	95.94
391.636	88.94
391.86	82.94
392.085	76.94
392.31	75.94
392.534	89.94
392.759	75.94
392.984	75.94
393.208	83.94
393.433	87.94
393.658	79.94
393.882	82.94
394.107	73.94
394.331	77.94
394.556	75.94
394.78	81.94
395.005	75.94
395.229	82.94
395.454	78.94
395.678	82.94
395.903	86.94
396.127	84.94
396.352	81.94
396.576	80.94
396.801	97.94
397.025	87.94
397.249	71.94
397.474	82.94
397.698	73.94
397.922	77.94
398.147	89.94
398.371	78.94
398.595	85.94
398.82	81.94
399.044	91.94
399.268	81.94
399.492	75.94
399.717	67.94
399.941	75.94
400.165	63.94
400.389	90.94
400.613	86.94
400.837	94.94
401.062	78.94
401.286	96.94
401.51	92.94
401.734	88.94
401.958	105.94
402.182	115.94
402.406	184.94
402.63	138.94
402.854	95.94
403.078	87.94
403.302	81.94
403.526	70.94
403.75	83.94
403.974	80.94
404.198	82.94
404.422	82.94
404.645	90.94
404.869	91.94
405.093	117.94
405.317	111.94
405.541	126.94
405.765	119.94
405.988	117.94
406.212	178.94
406.436	273.94
406.66	175.94
406.883	112.94
407.107	90.94
407.331	104.94
407.555	98.94
407.778	114.94
408.002	83.94
408.226	83.94
408.449	72.94
408.673	83.94
408.896	69.94
409.12	83.94
409.344	91.94
409.567	89.94
409.791	85.94
410.014	95.94
410.238	90.94
410.461	86.94
410.685	88.94
410.908	87.94
411.132	102.94
411.355	94.94
411.578	86.94
411.802	90.94
412.025	81.94
412.249	95.94
412.472	105.94
412.695	125.94
412.919	93.94
413.142	96.94
413.365	86.94
413.589	81.94
413.812	88.94
414.035	76.94
414.258	104.94
414.482	82.94
414.705	72.94
414.928	89.94
415.151	92.94
415.374	86.94
415.597	78.94
415.821	90.94
416.044	96.94
416.267	80.94
416.49	82.94
416.713	74.94
416.936	95.94
417.159	83.94
417.382	86.94
417.605	84.94
417.828	104.94
418.051	93.94
418.274	81.94
418.497	81.94
418.72	86.94
418.943	77.94
419.166	87.94
419.389	85.94
419.611	88.94
419.834	86.94
420.057	96.94
420.28	86.94
420.503	85.94
420.726	85.94
420.948	95.94
421.171	89.94
421.394	94.94
421.617	91.94
421.839	84.94
422.062	77.94
422.285	79.94
422.507	80.94
422.73	112.94
422.953	86.94
423.175	79.94
423.398	88.94
423.621	99.94
423.843	90.94
424.066	79.94
424.288	83.94
424.511	98.94
424.733	101.94
424.956	112.94
425.178	105.94
425.401	98.94
425.623	99.94
425.846	79.94
426.068	105.94
426.291	94.94
426.513	96.94
426.735	94.94
426.958	96.94
427.18	111.94
427.402	166.94
427.625	215.94
427.847	218.94
428.069	206.94
428.292	110.94
428.514	79.94
428.736	85.94
428.958	79.94
429.181	83.94
429.403	78.94
429.625	87.94
429.847	89.94
430.069	91.94
430.292	87.94
430.514	65.94
430.736	81.94
430.958	76.94
431.18	66.94
431.402	89.94
431.624	75.94
431.846	75.94
432.068	83.94
432.29	78.94
432.512	97.94
432.734	87.94
432.956	90.94
433.178	95.94
433.4	94.94
433.622	86.94
433.844	86.94
434.066	72.94
434.287	79.94
434.509	85.94
434.731	104.94
434.953	72.94
435.175	84.94
435.397	89.94
435.618	94.94
435.84	94.94
436.062	134.94
436.284	133.94
436.505	104.94
436.727	114.94
436.949	100.94
437.17	89.94
437.392	77.94
437.614	97.94
437.835	107.94
438.057	142.94
438.278	114.94
438.5	108.94
438.721	121.94
438.943	103.94
439.165	98.94
439.386	80.94
439.608	88.94
439.829	97.94
440.05	143.94
440.272	186.94
440.493	117.94
440.715	90.94
440.936	82.94
441.158	90.94
441.379	86.94
441.6	85.94
441.822	95.94
442.043	89.94
442.264	99.94
442.486	102.94
442.707	96.94
442.928	120.94
443.149	157.94
443.371	149.94
443.592	118.94
443.813	119.94
444.034	121.94
444.255	93.94
444.476	81.94
444.698	86.94
444.919	99.94
445.14	130.94
445.361	133.94
445.582	118.94
445.803	175.94
446.024	148.94
446.245	156.94
446.466	117.94
446.687	77.94
446.908	82.94
447.129	81.94
447.35	85.94
447.571	88.94
447.792	73.94
448.013	93.94
448.234	107.94
448.455	122.94
448.675	119.94
448.896	127.94
449.117	104.94
449.338	111.94
449.559	128.94
449.779	139.94
450	93.94
450.221	77.94
450.442	85.94
450.662	86.94
450.883	112.94
451.104	106.94
451.324	111.94
451.545	90.94
451.766	81.94
451.986	86.94
452.207	93.94
452.428	88.94
452.648	109.94
452.869	126.94
453.089	125.94
453.31	115.94
453.53	78.94
453.751	80.94
453.971	100.94
454.192	98.94
454.412	100.94
454.633	88.94
454.853	84.94
455.073	80.94
455.294	89.94
455.514	96.94
455.734	97.94
455.955	74.94
456.175	88.94
456.395	75.94
456.616	77.94
456.836	74.94
457.056	84.94
457.276	86.94
457.497	78.94
457.717	72.94
457.937	89.94
458.157	76.94
458.377	101.94
458.598	104.94
458.818	174.94
459.038	219.94
459.258	143.94
459.478	91.94
459.698	75.94
459.918	80.94
460.138	78.94
460.358	84.94
460.578	70.94
460.798	84.94
461.018	83.94
461.238	81.94
461.458	73.94
461.678	73.94
461.898	95.94
462.118	72.94
462.338	71.94
462.558	79.94
462.777	79.94
462.997	96.94
463.217	91.94
463.437	73.94
463.657	87.94
463.876	91.94
464.096	95.94
464.316	93.94
464.536	95.94
464.755	98.94
464.975	106.94
465.195	203.94
465.414	208.94
465.634	81.94
465.854	83.94
466.073	81.94
466.293	78.94
466.512	79.94
466.732	86.94
466.951	84.94
467.171	99.94
467.391	90.94
467.61	112.94
467.829	148.94
468.049	327.94
468.268	495.94
468.488	160.94
468.707	94.94
468.927	87.94
469.146	90.94
469.365	78.94
469.585	88.94
469.804	102.94
470.023	85.94
470.243	92.94
470.462	121.94
470.681	125.94
470.901	86.94
471.12	104.94
471.339	85.94
471.558	98.94
471.777	118.94
471.997	184.94
472.216	637.94
472.435	1438.94
472.654	395.94
472.873	139.94
473.092	102.94
473.311	89.94
473.53	81.94
473.749	89.94
473.968	99.94
474.187	103.94
474.406	95.94
474.625	83.94
474.844	88.94
475.063	88.94
475.282	82.94
475.501	80.94
475.72	82.94
475.939	74.94
476.158	76.94
476.377	90.94
476.596	80.94
476.814	98.94
477.033	93.94
477.252	85.94
477.471	78.94
477.69	86.94
477.908	89.94
478.127	82.94
478.346	97.94
478.564	80.94
478.783	88.94
479.002	99.94
479.22	111.94
479.439	113.94
479.658	107.94
479.876	107.94
480.095	88.94
480.313	100.94
480.532	136.94
480.751	189.94
480.969	585.94
481.188	2379.94
481.406	1520.94
481.624	269.94
481.843	117.94
482.061	102.94
482.28	93.94
482.498	79.94
482.717	85.94
482.935	89.94
483.153	97.94
483.372	79.94
483.59	86.94
483.808	83.94
484.027	81.94
484.245	93.94
484.463	73.94
484.681	85.94
484.9	89.94
485.118	91.94
485.336	97.94
485.554	87.94
485.772	112.94
485.99	102.94
486.209	106.94
486.427	114.94
486.645	115.94
486.863	119.94
487.081	94.94
487.299	89.94
487.517	80.94
487.735	88.94
487.953	85.94
488.171	86.94
488.389	90.94
488.607	79.94
488.825	93.94
489.043	78.94
489.261	105.94
489.479	78.94
489.696	79.94
489.914	84.94
490.132	92.94
490.35	94.94
490.568	80.94
490.786	81.94
491.003	93.94
491.221	86.94
491.439	99.94
491.657	83.94
491.874	92.94
492.092	74.94
492.31	82.94
492.527	95.94
492.745	91.94
492.963	92.94
493.18	105.94
493.398	96.94
493.615	85.94
493.833	92.94
494.05	98.94
494.268	89.94
494.485	95.94
494.703	78.94
494.92	97.94
495.138	102.94
495.355	95.94
495.573	93.94
495.79	84.94
496.008	89.94
496.225	83.94
496.442	95.94
496.66	87.94
496.877	83.94
497.094	86.94
497.312	98.94
497.529	60.94
497.746	72.94
497.963	91.94
498.181	94.94
498.398	99.94
498.615	103.94
498.832	98.94
499.049	97.94
499.267	89.94
499.484	104.94
499.701	81.94
499.918	99.94
500.135	86.94
500.352	85.94
500.569	98.94
500.786	99.94
501.003	83.94
501.22	73.94
501.437	83.94
501.654	98.94
501.871	97.94
502.088	100.94
502.305	83.94
502.522	75.94
502.739	95.94
502.956	78.94
503.172	82.94
503.389	95.94
503.606	103.94
503.823	104.94
504.04	89.94
504.256	75.94
504.473	74.94
504.69	89.94
504.907	95.94
505.123	76.94
505.34	101.94
505.557	78.94
505.773	94.94
505.99	88.94
506.207	91.94
506.423	93.94
506.64	78.94
506.856	83.94
507.073	94.94
507.289	103.94
507.506	91.94
507.722	119.94
507.939	130.94
508.155	99.94
508.372	90.94
508.588	93.94
508.805	88.94
509.021	93.94
509.238	100.94
509.454	91.94
509.67	97.94
509.887	101.94
510.103	136.94
510.319	175.94
510.536	783.94
510.752	2682.94
510.968	741.94
511.184	161.94
511.401	104.94
511.617	98.94
511.833	106.94
512.049	103.94
512.265	71.94
512.481	92.94
512.698	94.94
512.914	75.94
513.13	92.94
513.346	94.94
513.562	93.94
513.778	95.94
513.994	97.94
514.21	112.94
514.426	121.94
514.642	156.94
514.858	133.94
515.074	178.94
515.29	578.94
