Data from Circ_2013_H10_HRD10591_00027.txt Node
Date: Wed Jan 03 10:04:05 EST 2024
User: Yrep
Spectrometer: HR+D1059
Trigger mode: 1
Integration Time (sec): 1.000000E-1
Scans to average: 1
Electric dark correction enabled: true
Nonlinearity correction enabled: false
Boxcar width: 0
XAxis mode: Wavelengths
Number of Pixels in Spectrum: 2048
>>>>>Begin Spectral Data<<<<<
223.165	-9.38
223.4	-9.38
223.635	-9.38
223.869	-28.38
224.104	-18.38
224.338	-15.38
224.573	-7.38
224.808	-18.38
225.042	-18.38
225.277	-4.38
225.511	7.62
225.746	-6.38
225.98	15.62
226.215	14.62
226.449	12.62
226.683	23.62
226.918	26.62
227.152	25.62
227.387	33.62
227.621	38.62
227.856	32.62
228.09	45.62
228.324	56.62
228.559	60.62
228.793	49.62
229.027	62.62
229.262	66.62
229.496	82.62
229.73	79.62
229.964	81.62
230.199	75.62
230.433	86.62
230.667	80.62
230.901	82.62
231.136	71.62
231.37	76.62
231.604	75.62
231.838	71.62
232.072	80.62
232.306	84.62
232.541	81.62
232.775	71.62
233.009	90.62
233.243	82.62
233.477	79.62
233.711	83.62
233.945	79.62
234.179	83.62
234.413	90.62
234.647	72.62
234.881	74.62
235.115	79.62
235.349	77.62
235.583	86.62
235.817	82.62
236.051	80.62
236.285	76.62
236.519	81.62
236.753	80.62
236.987	84.62
237.221	86.62
237.455	87.62
237.689	78.62
237.922	79.62
238.156	77.62
238.39	57.62
238.624	73.62
238.858	64.62
239.091	60.62
239.325	74.62
239.559	74.62
239.793	78.62
240.027	75.62
240.26	85.62
240.494	67.62
240.728	85.62
240.961	71.62
241.195	73.62
241.429	78.62
241.662	76.62
241.896	85.62
242.13	79.62
242.363	71.62
242.597	78.62
242.83	78.62
243.064	77.62
243.298	70.62
243.531	70.62
243.765	90.62
243.998	80.62
244.232	85.62
244.465	75.62
244.699	72.62
244.932	76.62
245.166	70.62
245.399	77.62
245.633	67.62
245.866	74.62
246.099	76.62
246.333	66.62
246.566	66.62
246.8	88.62
247.033	62.62
247.266	72.62
247.5	82.62
247.733	81.62
247.966	77.62
248.2	85.62
248.433	93.62
248.666	76.62
248.899	75.62
249.133	78.62
249.366	75.62
249.599	107.62
249.832	78.62
250.066	85.62
250.299	77.62
250.532	81.62
250.765	77.62
250.998	94.62
251.231	83.62
251.465	80.62
251.698	85.62
251.931	77.62
252.164	73.62
252.397	86.62
252.63	84.62
252.863	76.62
253.096	89.62
253.329	83.62
253.562	84.62
253.795	78.62
254.028	80.62
254.261	79.62
254.494	71.62
254.727	83.62
254.96	73.62
255.193	71.62
255.426	70.62
255.659	69.62
255.892	86.62
256.124	98.62
256.357	66.62
256.59	69.62
256.823	79.62
257.056	75.62
257.289	88.62
257.521	73.62
257.754	72.62
257.987	76.62
258.22	88.62
258.452	90.62
258.685	88.62
258.918	69.62
259.151	81.62
259.383	67.62
259.616	86.62
259.849	78.62
260.081	84.62
260.314	86.62
260.547	80.62
260.779	103.62
261.012	87.62
261.244	90.62
261.477	74.62
261.71	100.62
261.942	100.62
262.175	123.62
262.407	93.62
262.64	73.62
262.872	83.62
263.105	93.62
263.337	82.62
263.57	73.62
263.802	89.62
264.035	93.62
264.267	88.62
264.499	74.62
264.732	82.62
264.964	72.62
265.197	87.62
265.429	90.62
265.661	81.62
265.894	82.62
266.126	65.62
266.358	85.62
266.591	96.62
266.823	109.62
267.055	84.62
267.287	79.62
267.52	82.62
267.752	93.62
267.984	88.62
268.216	89.62
268.448	96.62
268.681	83.62
268.913	109.62
269.145	81.62
269.377	80.62
269.609	89.62
269.841	74.62
270.073	81.62
270.306	86.62
270.538	72.62
270.77	81.62
271.002	86.62
271.234	77.62
271.466	78.62
271.698	85.62
271.93	89.62
272.162	97.62
272.394	93.62
272.626	96.62
272.858	90.62
273.09	87.62
273.322	97.62
273.553	79.62
273.785	76.62
274.017	82.62
274.249	82.62
274.481	87.62
274.713	83.62
274.945	76.62
275.176	88.62
275.408	95.62
275.64	102.62
275.872	92.62
276.104	88.62
276.335	85.62
276.567	93.62
276.799	112.62
277.031	95.62
277.262	116.62
277.494	102.62
277.726	93.62
277.957	94.62
278.189	70.62
278.421	99.62
278.652	85.62
278.884	77.62
279.115	65.62
279.347	86.62
279.579	65.62
279.81	98.62
280.042	112.62
280.273	120.62
280.505	97.62
280.736	89.62
280.968	77.62
281.199	90.62
281.431	95.62
281.662	90.62
281.894	85.62
282.125	101.62
282.356	110.62
282.588	134.62
282.819	113.62
283.051	90.62
283.282	88.62
283.513	77.62
283.745	86.62
283.976	74.62
284.207	89.62
284.439	86.62
284.67	83.62
284.901	78.62
285.132	89.62
285.364	81.62
285.595	84.62
285.826	81.62
286.057	93.62
286.288	92.62
286.52	89.62
286.751	83.62
286.982	90.62
287.213	85.62
287.444	89.62
287.675	82.62
287.906	95.62
288.138	84.62
288.369	91.62
288.6	89.62
288.831	97.62
289.062	75.62
289.293	90.62
289.524	100.62
289.755	85.62
289.986	72.62
290.217	91.62
290.448	88.62
290.679	91.62
290.91	87.62
291.141	82.62
291.371	98.62
291.602	90.62
291.833	82.62
292.064	104.62
292.295	85.62
292.526	92.62
292.757	88.62
292.987	83.62
293.218	85.62
293.449	90.62
293.68	85.62
293.91	87.62
294.141	70.62
294.372	86.62
294.603	104.62
294.833	80.62
295.064	94.62
295.295	79.62
295.525	89.62
295.756	96.62
295.987	110.62
296.217	134.62
296.448	137.62
296.679	92.62
296.909	103.62
297.14	86.62
297.37	98.62
297.601	87.62
297.831	91.62
298.062	88.62
298.292	85.62
298.523	93.62
298.753	87.62
298.984	89.62
299.214	81.62
299.445	85.62
299.675	104.62
299.905	105.62
300.136	92.62
300.366	81.62
300.597	86.62
300.827	93.62
301.057	92.62
301.288	107.62
301.518	92.62
301.748	90.62
301.979	93.62
302.209	90.62
302.439	92.62
302.669	84.62
302.9	94.62
303.13	89.62
303.36	94.62
303.59	93.62
303.82	106.62
304.051	96.62
304.281	83.62
304.511	82.62
304.741	71.62
304.971	75.62
305.201	99.62
305.431	104.62
305.661	85.62
305.891	92.62
306.121	102.62
306.352	96.62
306.582	112.62
306.812	93.62
307.042	94.62
307.272	102.62
307.502	112.62
307.731	116.62
307.961	89.62
308.191	103.62
308.421	90.62
308.651	89.62
308.881	95.62
309.111	84.62
309.341	81.62
309.571	105.62
309.8	96.62
310.03	96.62
310.26	93.62
310.49	102.62
310.72	99.62
310.949	100.62
311.179	104.62
311.409	116.62
311.639	101.62
311.868	91.62
312.098	105.62
312.328	105.62
312.557	87.62
312.787	102.62
313.017	106.62
313.246	91.62
313.476	94.62
313.706	103.62
313.935	88.62
314.165	102.62
314.394	101.62
314.624	92.62
314.853	104.62
315.083	93.62
315.312	79.62
315.542	98.62
315.771	90.62
316.001	85.62
316.23	82.62
316.46	88.62
316.689	80.62
316.919	100.62
317.148	108.62
317.377	98.62
317.607	91.62
317.836	89.62
318.065	96.62
318.295	86.62
318.524	77.62
318.753	86.62
318.983	90.62
319.212	83.62
319.441	90.62
319.67	105.62
319.9	89.62
320.129	88.62
320.358	97.62
320.587	88.62
320.816	94.62
321.046	92.62
321.275	105.62
321.504	88.62
321.733	111.62
321.962	87.62
322.191	106.62
322.42	106.62
322.649	93.62
322.878	106.62
323.108	113.62
323.337	125.62
323.566	112.62
323.795	129.62
324.024	199.62
324.253	377.62
324.482	762.62
324.71	1581.62
324.939	2086.62
325.168	781.62
325.397	254.62
325.626	155.62
325.855	137.62
326.084	114.62
326.313	125.62
326.542	139.62
326.77	235.62
326.999	447.62
327.228	867.62
327.457	1572.62
327.686	1314.62
327.914	371.62
328.143	257.62
328.372	236.62
328.6	166.62
328.829	129.62
329.058	133.62
329.287	154.62
329.515	138.62
329.744	136.62
329.972	172.62
330.201	266.62
330.43	374.62
330.658	227.62
330.887	176.62
331.115	120.62
331.344	114.62
331.572	118.62
331.801	114.62
332.03	108.62
332.258	116.62
332.486	97.62
332.715	94.62
332.943	86.62
333.172	98.62
333.4	83.62
333.629	122.62
333.857	128.62
334.085	186.62
334.314	253.62
334.542	467.62
334.771	461.62
334.999	156.62
335.227	104.62
335.455	101.62
335.684	112.62
335.912	86.62
336.14	84.62
336.369	98.62
336.597	112.62
336.825	92.62
337.053	90.62
337.281	84.62
337.51	82.62
337.738	77.62
337.966	98.62
338.194	89.62
338.422	99.62
338.65	101.62
338.878	92.62
339.106	107.62
339.334	94.62
339.562	100.62
339.79	92.62
340.018	87.62
340.246	101.62
340.474	102.62
340.702	92.62
340.93	96.62
341.158	87.62
341.386	109.62
341.614	99.62
341.842	104.62
342.07	89.62
342.298	83.62
342.526	95.62
342.754	96.62
342.981	94.62
343.209	91.62
343.437	98.62
343.665	87.62
343.893	85.62
344.12	90.62
344.348	86.62
344.576	88.62
344.804	87.62
345.031	90.62
345.259	99.62
345.487	92.62
345.714	107.62
345.942	86.62
346.17	108.62
346.397	84.62
346.625	86.62
346.853	96.62
347.08	88.62
347.308	82.62
347.535	86.62
347.763	103.62
347.99	101.62
348.218	92.62
348.445	109.62
348.673	101.62
348.9	90.62
349.128	108.62
349.355	89.62
349.583	90.62
349.81	81.62
350.037	89.62
350.265	77.62
350.492	99.62
350.72	97.62
350.947	95.62
351.174	96.62
351.402	125.62
351.629	96.62
351.856	93.62
352.083	111.62
352.311	116.62
352.538	113.62
352.765	104.62
352.992	102.62
353.22	112.62
353.447	97.62
353.674	99.62
353.901	98.62
354.128	91.62
354.355	92.62
354.583	104.62
354.81	105.62
355.037	93.62
355.264	101.62
355.491	99.62
355.718	90.62
355.945	100.62
356.172	89.62
356.399	99.62
356.626	95.62
356.853	89.62
357.08	99.62
357.307	94.62
357.534	87.62
357.761	94.62
357.988	93.62
358.215	95.62
358.441	91.62
358.668	113.62
358.895	104.62
359.122	94.62
359.349	74.62
359.576	77.62
359.802	102.62
360.029	109.62
360.256	101.62
360.483	92.62
360.709	98.62
360.936	94.62
361.163	96.62
361.39	95.62
361.616	98.62
361.843	107.62
362.07	94.62
362.296	105.62
362.523	94.62
362.749	108.62
362.976	94.62
363.203	92.62
363.429	86.62
363.656	81.62
363.882	78.62
364.109	94.62
364.335	93.62
364.562	99.62
364.788	74.62
365.015	104.62
365.241	104.62
365.468	106.62
365.694	99.62
365.92	99.62
366.147	77.62
366.373	108.62
366.599	85.62
366.826	92.62
367.052	96.62
367.278	87.62
367.505	93.62
367.731	90.62
367.957	80.62
368.184	90.62
368.41	106.62
368.636	100.62
368.862	116.62
369.089	105.62
369.315	86.62
369.541	85.62
369.767	96.62
369.993	96.62
370.219	100.62
370.445	83.62
370.672	95.62
370.898	87.62
371.124	95.62
371.35	108.62
371.576	93.62
371.802	72.62
372.028	97.62
372.254	77.62
372.48	90.62
372.706	96.62
372.932	94.62
373.158	98.62
373.384	80.62
373.61	99.62
373.835	86.62
374.061	88.62
374.287	88.62
374.513	77.62
374.739	81.62
374.965	92.62
375.191	90.62
375.416	93.62
375.642	82.62
375.868	94.62
376.094	97.62
376.319	78.62
376.545	84.62
376.771	91.62
376.997	99.62
377.222	79.62
377.448	91.62
377.674	100.62
377.899	87.62
378.125	108.62
378.35	78.62
378.576	91.62
378.802	83.62
379.027	66.62
379.253	89.62
379.478	98.62
379.704	96.62
379.929	86.62
380.155	93.62
380.38	84.62
380.606	91.62
380.831	96.62
381.057	95.62
381.282	99.62
381.507	102.62
381.733	96.62
381.958	89.62
382.184	98.62
382.409	88.62
382.634	98.62
382.86	99.62
383.085	100.62
383.31	101.62
383.535	100.62
383.761	105.62
383.986	103.62
384.211	101.62
384.436	100.62
384.662	93.62
384.887	107.62
385.112	110.62
385.337	112.62
385.562	112.62
385.787	103.62
386.013	113.62
386.238	114.62
386.463	107.62
386.688	107.62
386.913	116.62
387.138	107.62
387.363	113.62
387.588	114.62
387.813	108.62
388.038	106.62
388.263	113.62
388.488	116.62
388.713	96.62
388.938	94.62
389.163	82.62
389.387	101.62
389.612	100.62
389.837	97.62
390.062	92.62
390.287	90.62
390.512	94.62
390.736	104.62
390.961	94.62
391.186	102.62
391.411	83.62
391.636	96.62
391.86	94.62
392.085	93.62
392.31	92.62
392.534	89.62
392.759	77.62
392.984	86.62
393.208	97.62
393.433	91.62
393.658	101.62
393.882	86.62
394.107	81.62
394.331	70.62
394.556	93.62
394.78	82.62
395.005	97.62
395.229	82.62
395.454	85.62
395.678	79.62
395.903	91.62
396.127	102.62
396.352	70.62
396.576	88.62
396.801	97.62
397.025	92.62
397.249	80.62
397.474	82.62
397.698	94.62
397.922	84.62
398.147	88.62
398.371	91.62
398.595	87.62
398.82	88.62
399.044	87.62
399.268	92.62
399.492	93.62
399.717	82.62
399.941	93.62
400.165	87.62
400.389	86.62
400.613	99.62
400.837	89.62
401.062	92.62
401.286	84.62
401.51	90.62
401.734	96.62
401.958	104.62
402.182	127.62
402.406	163.62
402.63	128.62
402.854	99.62
403.078	86.62
403.302	91.62
403.526	89.62
403.75	86.62
403.974	101.62
404.198	88.62
404.422	91.62
404.645	92.62
404.869	87.62
405.093	92.62
405.317	106.62
405.541	99.62
405.765	100.62
405.988	110.62
406.212	179.62
406.436	245.62
406.66	150.62
406.883	101.62
407.107	102.62
407.331	100.62
407.555	92.62
407.778	94.62
408.002	82.62
408.226	83.62
408.449	80.62
408.673	78.62
408.896	103.62
409.12	87.62
409.344	87.62
409.567	91.62
409.791	92.62
410.014	88.62
410.238	101.62
410.461	83.62
410.685	88.62
410.908	103.62
411.132	100.62
411.355	79.62
411.578	93.62
411.802	77.62
412.025	96.62
412.249	103.62
412.472	109.62
412.695	108.62
412.919	92.62
413.142	89.62
413.365	97.62
413.589	81.62
413.812	88.62
414.035	91.62
414.258	100.62
414.482	91.62
414.705	88.62
414.928	78.62
415.151	89.62
415.374	92.62
415.597	84.62
415.821	93.62
416.044	81.62
416.267	91.62
416.49	84.62
416.713	80.62
416.936	91.62
417.159	92.62
417.382	81.62
417.605	88.62
417.828	99.62
418.051	99.62
418.274	97.62
418.497	89.62
418.72	73.62
418.943	90.62
419.166	90.62
419.389	103.62
419.611	94.62
419.834	101.62
420.057	86.62
420.28	85.62
420.503	78.62
420.726	80.62
420.948	92.62
421.171	90.62
421.394	98.62
421.617	102.62
421.839	89.62
422.062	84.62
422.285	83.62
422.507	88.62
422.73	101.62
422.953	86.62
423.175	84.62
423.398	84.62
423.621	102.62
423.843	84.62
424.066	81.62
424.288	87.62
424.511	92.62
424.733	97.62
424.956	114.62
425.178	93.62
425.401	109.62
425.623	115.62
425.846	98.62
426.068	82.62
426.291	90.62
426.513	83.62
426.735	84.62
426.958	89.62
427.18	102.62
427.402	126.62
427.625	181.62
427.847	146.62
428.069	152.62
428.292	103.62
428.514	86.62
428.736	97.62
428.958	83.62
429.181	105.62
429.403	89.62
429.625	92.62
429.847	87.62
430.069	95.62
430.292	93.62
430.514	93.62
430.736	64.62
430.958	89.62
431.18	72.62
431.402	99.62
431.624	92.62
431.846	86.62
432.068	97.62
432.29	84.62
432.512	81.62
432.734	71.62
432.956	89.62
433.178	98.62
433.4	109.62
433.622	93.62
433.844	81.62
434.066	77.62
434.287	96.62
434.509	90.62
434.731	87.62
434.953	87.62
435.175	98.62
435.397	91.62
435.618	103.62
435.84	113.62
436.062	113.62
436.284	113.62
436.505	101.62
436.727	98.62
436.949	87.62
437.17	78.62
437.392	80.62
437.614	84.62
437.835	103.62
438.057	110.62
438.278	115.62
438.5	122.62
438.721	117.62
438.943	88.62
439.165	89.62
439.386	86.62
439.608	86.62
439.829	103.62
440.05	115.62
440.272	131.62
440.493	89.62
440.715	85.62
440.936	93.62
441.158	96.62
441.379	86.62
441.6	94.62
441.822	96.62
442.043	84.62
442.264	90.62
442.486	103.62
442.707	106.62
442.928	95.62
443.149	143.62
443.371	128.62
443.592	113.62
443.813	104.62
444.034	106.62
444.255	89.62
444.476	75.62
444.698	74.62
444.919	84.62
445.14	137.62
445.361	121.62
445.582	117.62
445.803	131.62
446.024	144.62
446.245	128.62
446.466	120.62
446.687	104.62
446.908	85.62
447.129	81.62
447.35	88.62
447.571	109.62
447.792	82.62
448.013	96.62
448.234	104.62
448.455	95.62
448.675	115.62
448.896	112.62
449.117	108.62
449.338	106.62
449.559	113.62
449.779	113.62
450	92.62
450.221	80.62
450.442	97.62
450.662	98.62
450.883	120.62
451.104	98.62
451.324	94.62
451.545	85.62
451.766	86.62
451.986	89.62
452.207	77.62
452.428	86.62
452.648	105.62
452.869	117.62
453.089	106.62
453.31	122.62
453.53	95.62
453.751	86.62
453.971	108.62
454.192	132.62
454.412	89.62
454.633	95.62
454.853	93.62
455.073	96.62
455.294	87.62
455.514	92.62
455.734	90.62
455.955	87.62
456.175	85.62
456.395	93.62
456.616	101.62
456.836	62.62
457.056	76.62
457.276	84.62
457.497	86.62
457.717	64.62
457.937	87.62
458.157	97.62
458.377	92.62
458.598	111.62
458.818	148.62
459.038	166.62
459.258	123.62
459.478	84.62
459.698	97.62
459.918	101.62
460.138	95.62
460.358	77.62
460.578	88.62
460.798	81.62
461.018	92.62
461.238	79.62
461.458	90.62
461.678	74.62
461.898	94.62
462.118	88.62
462.338	79.62
462.558	87.62
462.777	89.62
462.997	94.62
463.217	80.62
463.437	82.62
463.657	74.62
463.876	101.62
464.096	91.62
464.316	101.62
464.536	98.62
464.755	94.62
464.975	95.62
465.195	169.62
465.414	169.62
465.634	107.62
465.854	98.62
466.073	92.62
466.293	93.62
466.512	85.62
466.732	66.62
466.951	85.62
467.171	102.62
467.391	93.62
467.61	122.62
467.829	123.62
468.049	187.62
468.268	244.62
468.488	105.62
468.707	97.62
468.927	85.62
469.146	87.62
469.365	82.62
469.585	89.62
469.804	93.62
470.023	100.62
470.243	94.62
470.462	95.62
470.681	107.62
470.901	92.62
471.12	83.62
471.339	78.62
471.558	87.62
471.777	98.62
471.997	139.62
472.216	312.62
472.435	603.62
472.654	195.62
472.873	106.62
473.092	87.62
473.311	76.62
473.53	77.62
473.749	82.62
473.968	96.62
474.187	94.62
474.406	97.62
474.625	96.62
474.844	74.62
475.063	79.62
475.282	88.62
475.501	82.62
475.72	86.62
475.939	73.62
476.158	90.62
476.377	93.62
476.596	84.62
476.814	71.62
477.033	77.62
477.252	96.62
477.471	81.62
477.69	86.62
477.908	110.62
478.127	99.62
478.346	87.62
478.564	83.62
478.783	99.62
479.002	83.62
479.22	105.62
479.439	106.62
479.658	104.62
479.876	76.62
480.095	96.62
480.313	86.62
480.532	108.62
480.751	118.62
480.969	305.62
481.188	1007.62
481.406	684.62
481.624	157.62
481.843	106.62
482.061	85.62
482.28	97.62
482.498	85.62
482.717	91.62
482.935	79.62
483.153	91.62
483.372	80.62
483.59	84.62
483.808	80.62
484.027	91.62
484.245	71.62
484.463	95.62
484.681	90.62
484.9	100.62
485.118	97.62
485.336	93.62
485.554	95.62
485.772	87.62
485.99	105.62
486.209	108.62
486.427	98.62
486.645	101.62
486.863	116.62
487.081	109.62
487.299	101.62
487.517	95.62
487.735	90.62
487.953	77.62
488.171	91.62
488.389	105.62
488.607	97.62
488.825	107.62
489.043	90.62
489.261	89.62
489.479	86.62
489.696	82.62
489.914	93.62
490.132	90.62
490.35	88.62
490.568	94.62
490.786	91.62
491.003	98.62
491.221	68.62
491.439	87.62
491.657	96.62
491.874	94.62
492.092	79.62
492.31	92.62
492.527	87.62
492.745	90.62
492.963	97.62
493.18	97.62
493.398	79.62
493.615	93.62
493.833	98.62
494.05	80.62
494.268	97.62
494.485	90.62
494.703	83.62
494.92	78.62
495.138	89.62
495.355	96.62
495.573	91.62
495.79	92.62
496.008	96.62
496.225	93.62
496.442	74.62
496.66	86.62
496.877	78.62
497.094	73.62
497.312	94.62
497.529	82.62
497.746	91.62
497.963	88.62
498.181	105.62
498.398	84.62
498.615	91.62
498.832	94.62
499.049	92.62
499.267	100.62
499.484	92.62
499.701	99.62
499.918	79.62
500.135	80.62
500.352	86.62
500.569	86.62
500.786	91.62
501.003	109.62
501.22	99.62
501.437	90.62
501.654	97.62
501.871	110.62
502.088	103.62
502.305	84.62
502.522	76.62
502.739	99.62
502.956	117.62
503.172	99.62
503.389	83.62
503.606	100.62
503.823	89.62
504.04	79.62
504.256	78.62
504.473	86.62
504.69	84.62
504.907	99.62
505.123	95.62
505.34	81.62
505.557	77.62
505.773	92.62
505.99	90.62
506.207	85.62
506.423	78.62
506.64	92.62
506.856	79.62
507.073	91.62
507.289	101.62
507.506	92.62
507.722	104.62
507.939	109.62
508.155	95.62
508.372	81.62
508.588	90.62
508.805	96.62
509.021	91.62
509.238	104.62
509.454	85.62
509.67	100.62
509.887	104.62
510.103	130.62
510.319	210.62
510.536	744.62
510.752	2468.62
510.968	705.62
511.184	166.62
511.401	102.62
511.617	88.62
511.833	91.62
512.049	103.62
512.265	94.62
512.481	87.62
512.698	93.62
512.914	100.62
513.13	94.62
513.346	88.62
513.562	91.62
513.778	88.62
513.994	106.62
514.21	94.62
514.426	116.62
514.642	129.62
514.858	126.62
515.074	174.62
515.29	473.62
