Data from Circ_2013_H10_HRD10591_00082.txt Node
Date: Wed Jan 03 10:04:16 EST 2024
User: Yrep
Spectrometer: HR+D1059
Trigger mode: 1
Integration Time (sec): 1.000000E-1
Scans to average: 1
Electric dark correction enabled: true
Nonlinearity correction enabled: false
Boxcar width: 0
XAxis mode: Wavelengths
Number of Pixels in Spectrum: 2048
>>>>>Begin Spectral Data<<<<<
223.165	-10.62
223.4	-10.62
223.635	-10.62
223.869	-41.62
224.104	-17.62
224.338	-26.62
224.573	-17.62
224.808	-14.62
225.042	1.38
225.277	11.38
225.511	-10.62
225.746	12.38
225.98	3.38
226.215	11.38
226.449	18.38
226.683	27.38
226.918	25.38
227.152	28.38
227.387	41.38
227.621	38.38
227.856	45.38
228.09	56.38
228.324	41.38
228.559	59.38
228.793	60.38
229.027	65.38
229.262	69.38
229.496	76.38
229.73	108.38
229.964	91.38
230.199	69.38
230.433	87.38
230.667	77.38
230.901	85.38
231.136	77.38
231.37	73.38
231.604	91.38
231.838	81.38
232.072	89.38
232.306	88.38
232.541	78.38
232.775	73.38
233.009	88.38
233.243	79.38
233.477	82.38
233.711	93.38
233.945	81.38
234.179	84.38
234.413	84.38
234.647	80.38
234.881	76.38
235.115	87.38
235.349	79.38
235.583	88.38
235.817	79.38
236.051	92.38
236.285	95.38
236.519	72.38
236.753	77.38
236.987	89.38
237.221	95.38
237.455	105.38
237.689	93.38
237.922	73.38
238.156	100.38
238.39	82.38
238.624	87.38
238.858	65.38
239.091	67.38
239.325	64.38
239.559	90.38
239.793	76.38
240.027	83.38
240.26	79.38
240.494	71.38
240.728	81.38
240.961	82.38
241.195	83.38
241.429	78.38
241.662	80.38
241.896	76.38
242.13	74.38
242.363	71.38
242.597	73.38
242.83	67.38
243.064	81.38
243.298	83.38
243.531	73.38
243.765	77.38
243.998	86.38
244.232	87.38
244.465	76.38
244.699	73.38
244.932	80.38
245.166	76.38
245.399	81.38
245.633	80.38
245.866	80.38
246.099	76.38
246.333	68.38
246.566	90.38
246.8	88.38
247.033	75.38
247.266	79.38
247.5	91.38
247.733	91.38
247.966	81.38
248.2	87.38
248.433	76.38
248.666	77.38
248.899	83.38
249.133	91.38
249.366	97.38
249.599	112.38
249.832	93.38
250.066	79.38
250.299	88.38
250.532	93.38
250.765	81.38
250.998	83.38
251.231	83.38
251.465	83.38
251.698	97.38
251.931	87.38
252.164	94.38
252.397	88.38
252.63	78.38
252.863	100.38
253.096	75.38
253.329	78.38
253.562	71.38
253.795	83.38
254.028	86.38
254.261	87.38
254.494	86.38
254.727	89.38
254.96	80.38
255.193	85.38
255.426	81.38
255.659	81.38
255.892	95.38
256.124	102.38
256.357	97.38
256.59	82.38
256.823	70.38
257.056	76.38
257.289	81.38
257.521	94.38
257.754	80.38
257.987	87.38
258.22	92.38
258.452	92.38
258.685	89.38
258.918	78.38
259.151	77.38
259.383	85.38
259.616	85.38
259.849	80.38
260.081	78.38
260.314	96.38
260.547	84.38
260.779	86.38
261.012	111.38
261.244	104.38
261.477	89.38
261.71	121.38
261.942	135.38
262.175	153.38
262.407	101.38
262.64	83.38
262.872	102.38
263.105	93.38
263.337	86.38
263.57	77.38
263.802	92.38
264.035	75.38
264.267	94.38
264.499	86.38
264.732	88.38
264.964	87.38
265.197	87.38
265.429	72.38
265.661	76.38
265.894	84.38
266.126	78.38
266.358	95.38
266.591	79.38
266.823	86.38
267.055	77.38
267.287	78.38
267.52	82.38
267.752	78.38
267.984	91.38
268.216	85.38
268.448	80.38
268.681	99.38
268.913	85.38
269.145	94.38
269.377	92.38
269.609	75.38
269.841	97.38
270.073	75.38
270.306	100.38
270.538	96.38
270.77	93.38
271.002	90.38
271.234	79.38
271.466	89.38
271.698	93.38
271.93	92.38
272.162	86.38
272.394	84.38
272.626	86.38
272.858	83.38
273.09	84.38
273.322	89.38
273.553	75.38
273.785	88.38
274.017	92.38
274.249	95.38
274.481	78.38
274.713	82.38
274.945	94.38
275.176	90.38
275.408	98.38
275.64	92.38
275.872	115.38
276.104	106.38
276.335	101.38
276.567	130.38
276.799	134.38
277.031	152.38
277.262	173.38
277.494	133.38
277.726	97.38
277.957	94.38
278.189	90.38
278.421	93.38
278.652	91.38
278.884	80.38
279.115	90.38
279.347	89.38
279.579	102.38
279.81	121.38
280.042	161.38
280.273	215.38
280.505	150.38
280.736	116.38
280.968	78.38
281.199	89.38
281.431	81.38
281.662	89.38
281.894	95.38
282.125	123.38
282.356	141.38
282.588	198.38
282.819	129.38
283.051	103.38
283.282	84.38
283.513	89.38
283.745	87.38
283.976	98.38
284.207	93.38
284.439	94.38
284.67	102.38
284.901	83.38
285.132	80.38
285.364	96.38
285.595	84.38
285.826	95.38
286.057	88.38
286.288	88.38
286.52	84.38
286.751	94.38
286.982	91.38
287.213	88.38
287.444	94.38
287.675	77.38
287.906	86.38
288.138	109.38
288.369	89.38
288.6	99.38
288.831	86.38
289.062	88.38
289.293	81.38
289.524	78.38
289.755	89.38
289.986	92.38
290.217	79.38
290.448	97.38
290.679	85.38
290.91	94.38
291.141	90.38
291.371	72.38
291.602	86.38
291.833	88.38
292.064	94.38
292.295	83.38
292.526	89.38
292.757	80.38
292.987	92.38
293.218	88.38
293.449	95.38
293.68	96.38
293.91	95.38
294.141	97.38
294.372	86.38
294.603	92.38
294.833	104.38
295.064	98.38
295.295	101.38
295.525	91.38
295.756	108.38
295.987	137.38
296.217	169.38
296.448	162.38
296.679	108.38
296.909	80.38
297.14	88.38
297.37	87.38
297.601	89.38
297.831	96.38
298.062	84.38
298.292	74.38
298.523	92.38
298.753	86.38
298.984	75.38
299.214	101.38
299.445	91.38
299.675	86.38
299.905	99.38
300.136	102.38
300.366	91.38
300.597	92.38
300.827	108.38
301.057	104.38
301.288	129.38
301.518	120.38
301.748	99.38
301.979	106.38
302.209	99.38
302.439	101.38
302.669	79.38
302.9	81.38
303.13	91.38
303.36	122.38
303.59	119.38
303.82	145.38
304.051	117.38
304.281	94.38
304.511	104.38
304.741	89.38
304.971	95.38
305.201	96.38
305.431	89.38
305.661	93.38
305.891	98.38
306.121	94.38
306.352	120.38
306.582	117.38
306.812	101.38
307.042	107.38
307.272	141.38
307.502	154.38
307.731	149.38
307.961	130.38
308.191	106.38
308.421	87.38
308.651	84.38
308.881	89.38
309.111	92.38
309.341	89.38
309.571	100.38
309.8	100.38
310.03	99.38
310.26	113.38
310.49	96.38
310.72	103.38
310.949	122.38
311.179	117.38
311.409	97.38
311.639	115.38
311.868	97.38
312.098	100.38
312.328	101.38
312.557	120.38
312.787	121.38
313.017	116.38
313.246	113.38
313.476	82.38
313.706	100.38
313.935	95.38
314.165	115.38
314.394	128.38
314.624	101.38
314.853	105.38
315.083	101.38
315.312	81.38
315.542	93.38
315.771	97.38
316.001	99.38
316.23	96.38
316.46	99.38
316.689	94.38
316.919	86.38
317.148	120.38
317.377	109.38
317.607	103.38
317.836	107.38
318.065	106.38
318.295	88.38
318.524	97.38
318.753	96.38
318.983	93.38
319.212	99.38
319.441	110.38
319.67	99.38
319.9	101.38
320.129	102.38
320.358	89.38
320.587	93.38
320.816	112.38
321.046	96.38
321.275	92.38
321.504	91.38
321.733	109.38
321.962	109.38
322.191	100.38
322.42	118.38
322.649	107.38
322.878	130.38
323.108	130.38
323.337	147.38
323.566	158.38
323.795	169.38
324.024	249.38
324.253	459.38
324.482	954.38
324.71	1919.38
324.939	2534.38
325.168	958.38
325.397	275.38
325.626	164.38
325.855	139.38
326.084	126.38
326.313	143.38
326.542	183.38
326.77	252.38
326.999	493.38
327.228	995.38
327.457	1792.38
327.686	1455.38
327.914	505.38
328.143	445.38
328.372	554.38
328.6	336.38
328.829	179.38
329.058	176.38
329.287	185.38
329.515	172.38
329.744	218.38
329.972	393.38
330.201	783.38
330.43	1108.38
330.658	536.38
330.887	283.38
331.115	189.38
331.344	116.38
331.572	119.38
331.801	119.38
332.03	135.38
332.258	104.38
332.486	105.38
332.715	101.38
332.943	111.38
333.172	131.38
333.4	122.38
333.629	143.38
333.857	205.38
334.085	369.38
334.314	708.38
334.542	1399.38
334.771	1308.38
334.999	351.38
335.227	148.38
335.455	134.38
335.684	131.38
335.912	97.38
336.14	116.38
336.369	101.38
336.597	111.38
336.825	115.38
337.053	82.38
337.281	97.38
337.51	95.38
337.738	104.38
337.966	84.38
338.194	112.38
338.422	108.38
338.65	90.38
338.878	103.38
339.106	83.38
339.334	94.38
339.562	101.38
339.79	97.38
340.018	91.38
340.246	98.38
340.474	106.38
340.702	109.38
340.93	85.38
341.158	90.38
341.386	99.38
341.614	102.38
341.842	107.38
342.07	99.38
342.298	97.38
342.526	105.38
342.754	92.38
342.981	96.38
343.209	91.38
343.437	101.38
343.665	90.38
343.893	97.38
344.12	104.38
344.348	96.38
344.576	105.38
344.804	93.38
345.031	101.38
345.259	115.38
345.487	105.38
345.714	102.38
345.942	97.38
346.17	101.38
346.397	106.38
346.625	92.38
346.853	101.38
347.08	99.38
347.308	99.38
347.535	108.38
347.763	99.38
347.99	106.38
348.218	107.38
348.445	120.38
348.673	109.38
348.9	102.38
349.128	97.38
349.355	93.38
349.583	109.38
349.81	96.38
350.037	100.38
350.265	101.38
350.492	100.38
350.72	94.38
350.947	110.38
351.174	126.38
351.402	119.38
351.629	123.38
351.856	90.38
352.083	113.38
352.311	93.38
352.538	118.38
352.765	119.38
352.992	116.38
353.22	127.38
353.447	101.38
353.674	114.38
353.901	100.38
354.128	94.38
354.355	107.38
354.583	103.38
354.81	102.38
355.037	94.38
355.264	91.38
355.491	87.38
355.718	95.38
355.945	100.38
356.172	93.38
356.399	93.38
356.626	103.38
356.853	91.38
357.08	88.38
357.307	100.38
357.534	92.38
357.761	95.38
357.988	85.38
358.215	94.38
358.441	89.38
358.668	83.38
358.895	91.38
359.122	100.38
359.349	91.38
359.576	85.38
359.802	113.38
360.029	128.38
360.256	136.38
360.483	142.38
360.709	106.38
360.936	92.38
361.163	101.38
361.39	106.38
361.616	92.38
361.843	90.38
362.07	108.38
362.296	117.38
362.523	96.38
362.749	106.38
362.976	103.38
363.203	87.38
363.429	94.38
363.656	99.38
363.882	85.38
364.109	108.38
364.335	94.38
364.562	110.38
364.788	104.38
365.015	113.38
365.241	122.38
365.468	115.38
365.694	130.38
365.92	103.38
366.147	101.38
366.373	105.38
366.599	101.38
366.826	89.38
367.052	96.38
367.278	104.38
367.505	99.38
367.731	88.38
367.957	84.38
368.184	97.38
368.41	121.38
368.636	129.38
368.862	135.38
369.089	154.38
369.315	105.38
369.541	102.38
369.767	93.38
369.993	107.38
370.219	101.38
370.445	97.38
370.672	106.38
370.898	87.38
371.124	93.38
371.35	86.38
371.576	87.38
371.802	97.38
372.028	108.38
372.254	95.38
372.48	82.38
372.706	79.38
372.932	92.38
373.158	100.38
373.384	95.38
373.61	96.38
373.835	94.38
374.061	98.38
374.287	97.38
374.513	93.38
374.739	92.38
374.965	78.38
375.191	85.38
375.416	80.38
375.642	74.38
375.868	76.38
376.094	91.38
376.319	101.38
376.545	95.38
376.771	75.38
376.997	96.38
377.222	87.38
377.448	77.38
377.674	76.38
377.899	92.38
378.125	105.38
378.35	95.38
378.576	78.38
378.802	94.38
379.027	97.38
379.253	88.38
379.478	90.38
379.704	88.38
379.929	101.38
380.155	99.38
380.38	89.38
380.606	91.38
380.831	103.38
381.057	93.38
381.282	90.38
381.507	91.38
381.733	101.38
381.958	105.38
382.184	102.38
382.409	105.38
382.634	107.38
382.86	99.38
383.085	100.38
383.31	87.38
383.535	94.38
383.761	104.38
383.986	93.38
384.211	94.38
384.436	81.38
384.662	99.38
384.887	100.38
385.112	87.38
385.337	98.38
385.562	113.38
385.787	115.38
386.013	109.38
386.238	100.38
386.463	97.38
386.688	100.38
386.913	94.38
387.138	91.38
387.363	97.38
387.588	104.38
387.813	94.38
388.038	107.38
388.263	96.38
388.488	87.38
388.713	97.38
388.938	94.38
389.163	89.38
389.387	98.38
389.612	90.38
389.837	86.38
390.062	97.38
390.287	87.38
390.512	80.38
390.736	94.38
390.961	99.38
391.186	102.38
391.411	88.38
391.636	99.38
391.86	82.38
392.085	100.38
392.31	81.38
392.534	88.38
392.759	100.38
392.984	90.38
393.208	89.38
393.433	92.38
393.658	96.38
393.882	99.38
394.107	89.38
394.331	84.38
394.556	81.38
394.78	94.38
395.005	68.38
395.229	85.38
395.454	97.38
395.678	75.38
395.903	90.38
396.127	107.38
396.352	80.38
396.576	89.38
396.801	92.38
397.025	86.38
397.249	91.38
397.474	91.38
397.698	86.38
397.922	87.38
398.147	91.38
398.371	86.38
398.595	92.38
398.82	84.38
399.044	93.38
399.268	89.38
399.492	93.38
399.717	90.38
399.941	99.38
400.165	86.38
400.389	119.38
400.613	101.38
400.837	94.38
401.062	106.38
401.286	101.38
401.51	97.38
401.734	107.38
401.958	95.38
402.182	152.38
402.406	214.38
402.63	163.38
402.854	102.38
403.078	102.38
403.302	74.38
403.526	91.38
403.75	97.38
403.974	89.38
404.198	88.38
404.422	101.38
404.645	98.38
404.869	100.38
405.093	106.38
405.317	132.38
405.541	127.38
405.765	121.38
405.988	128.38
406.212	219.38
406.436	327.38
406.66	214.38
406.883	123.38
407.107	110.38
407.331	106.38
407.555	112.38
407.778	106.38
408.002	94.38
408.226	89.38
408.449	93.38
408.673	87.38
408.896	86.38
409.12	95.38
409.344	114.38
409.567	90.38
409.791	92.38
410.014	82.38
410.238	110.38
410.461	89.38
410.685	87.38
410.908	96.38
411.132	110.38
411.355	102.38
411.578	90.38
411.802	90.38
412.025	92.38
412.249	97.38
412.472	101.38
412.695	131.38
412.919	99.38
413.142	95.38
413.365	99.38
413.589	85.38
413.812	88.38
414.035	95.38
414.258	95.38
414.482	93.38
414.705	95.38
414.928	79.38
415.151	83.38
415.374	95.38
415.597	87.38
415.821	104.38
416.044	91.38
416.267	93.38
416.49	91.38
416.713	84.38
416.936	85.38
417.159	91.38
417.382	94.38
417.605	101.38
417.828	100.38
418.051	96.38
418.274	94.38
418.497	85.38
418.72	88.38
418.943	96.38
419.166	90.38
419.389	92.38
419.611	91.38
419.834	95.38
420.057	87.38
420.28	80.38
420.503	103.38
420.726	87.38
420.948	91.38
421.171	101.38
421.394	92.38
421.617	83.38
421.839	86.38
422.062	100.38
422.285	96.38
422.507	109.38
422.73	105.38
422.953	106.38
423.175	88.38
423.398	93.38
423.621	100.38
423.843	81.38
424.066	83.38
424.288	92.38
424.511	80.38
424.733	102.38
424.956	104.38
425.178	101.38
425.401	105.38
425.623	108.38
425.846	92.38
426.068	95.38
426.291	102.38
426.513	93.38
426.735	95.38
426.958	102.38
427.18	117.38
427.402	175.38
427.625	238.38
427.847	218.38
428.069	182.38
428.292	109.38
428.514	99.38
428.736	92.38
428.958	92.38
429.181	89.38
429.403	86.38
429.625	88.38
429.847	98.38
430.069	108.38
430.292	97.38
430.514	94.38
430.736	85.38
430.958	110.38
431.18	95.38
431.402	84.38
431.624	67.38
431.846	88.38
432.068	89.38
432.29	89.38
432.512	88.38
432.734	95.38
432.956	88.38
433.178	98.38
433.4	103.38
433.622	87.38
433.844	99.38
434.066	94.38
434.287	83.38
434.509	97.38
434.731	80.38
434.953	100.38
435.175	92.38
435.397	99.38
435.618	95.38
435.84	112.38
436.062	140.38
436.284	108.38
436.505	104.38
436.727	115.38
436.949	95.38
437.17	89.38
437.392	91.38
437.614	80.38
437.835	122.38
438.057	154.38
438.278	126.38
438.5	99.38
438.721	135.38
438.943	102.38
439.165	98.38
439.386	96.38
439.608	104.38
439.829	128.38
440.05	150.38
440.272	185.38
440.493	113.38
440.715	84.38
440.936	101.38
441.158	86.38
441.379	95.38
441.6	91.38
441.822	81.38
442.043	92.38
442.264	109.38
442.486	118.38
442.707	115.38
442.928	122.38
443.149	171.38
443.371	167.38
443.592	131.38
443.813	126.38
444.034	131.38
444.255	93.38
444.476	96.38
444.698	90.38
444.919	108.38
445.14	134.38
445.361	141.38
445.582	133.38
445.803	150.38
446.024	167.38
446.245	160.38
446.466	121.38
446.687	107.38
446.908	97.38
447.129	104.38
447.35	87.38
447.571	100.38
447.792	89.38
448.013	110.38
448.234	102.38
448.455	95.38
448.675	135.38
448.896	145.38
449.117	102.38
449.338	102.38
449.559	137.38
449.779	160.38
450	92.38
450.221	102.38
450.442	101.38
450.662	106.38
450.883	135.38
451.104	140.38
451.324	96.38
451.545	85.38
451.766	87.38
451.986	87.38
452.207	95.38
452.428	98.38
452.648	100.38
452.869	124.38
453.089	144.38
453.31	161.38
453.53	118.38
453.751	94.38
453.971	112.38
454.192	143.38
454.412	108.38
454.633	99.38
454.853	95.38
455.073	92.38
455.294	88.38
455.514	108.38
455.734	99.38
455.955	92.38
456.175	74.38
456.395	96.38
456.616	77.38
456.836	88.38
457.056	87.38
457.276	91.38
457.497	85.38
457.717	80.38
457.937	81.38
458.157	86.38
458.377	97.38
458.598	139.38
458.818	207.38
459.038	257.38
459.258	145.38
459.478	108.38
459.698	83.38
459.918	99.38
460.138	81.38
460.358	98.38
460.578	93.38
460.798	94.38
461.018	110.38
461.238	88.38
461.458	96.38
461.678	95.38
461.898	91.38
462.118	78.38
462.338	86.38
462.558	87.38
462.777	89.38
462.997	95.38
463.217	104.38
463.437	91.38
463.657	102.38
463.876	100.38
464.096	85.38
464.316	98.38
464.536	116.38
464.755	93.38
464.975	125.38
465.195	254.38
465.414	245.38
465.634	104.38
465.854	102.38
466.073	80.38
466.293	80.38
466.512	99.38
466.732	71.38
466.951	103.38
467.171	112.38
467.391	100.38
467.61	161.38
467.829	179.38
468.049	440.38
468.268	653.38
468.488	185.38
468.707	119.38
468.927	104.38
469.146	85.38
469.365	91.38
469.585	92.38
469.804	128.38
470.023	105.38
470.243	96.38
470.462	104.38
470.681	142.38
470.901	95.38
471.12	113.38
471.339	99.38
471.558	117.38
471.777	137.38
471.997	256.38
472.216	863.38
472.435	1959.38
472.654	493.38
472.873	156.38
473.092	109.38
473.311	89.38
473.53	89.38
473.749	105.38
473.968	110.38
474.187	135.38
474.406	123.38
474.625	97.38
474.844	95.38
475.063	105.38
475.282	99.38
475.501	100.38
475.72	94.38
475.939	96.38
476.158	101.38
476.377	95.38
476.596	89.38
476.814	108.38
477.033	107.38
477.252	103.38
477.471	99.38
477.69	104.38
477.908	99.38
478.127	80.38
478.346	93.38
478.564	101.38
478.783	103.38
479.002	103.38
479.22	112.38
479.439	131.38
479.658	126.38
479.876	118.38
480.095	115.38
480.313	135.38
480.532	145.38
480.751	228.38
480.969	805.38
481.188	3330.38
481.406	1953.38
481.624	312.38
481.843	129.38
482.061	105.38
482.28	108.38
482.498	103.38
482.717	89.38
482.935	96.38
483.153	92.38
483.372	93.38
483.59	95.38
483.808	89.38
484.027	92.38
484.245	97.38
484.463	84.38
484.681	88.38
484.9	91.38
485.118	82.38
485.336	100.38
485.554	101.38
485.772	93.38
485.99	100.38
486.209	109.38
486.427	104.38
486.645	124.38
486.863	139.38
487.081	96.38
487.299	95.38
487.517	95.38
487.735	102.38
487.953	104.38
488.171	97.38
488.389	95.38
488.607	93.38
488.825	90.38
489.043	79.38
489.261	81.38
489.479	94.38
489.696	102.38
489.914	93.38
490.132	89.38
490.35	88.38
490.568	99.38
490.786	96.38
491.003	99.38
491.221	85.38
491.439	98.38
491.657	93.38
491.874	91.38
492.092	89.38
492.31	87.38
492.527	95.38
492.745	102.38
492.963	80.38
493.18	84.38
493.398	93.38
493.615	97.38
493.833	90.38
494.05	99.38
494.268	82.38
494.485	92.38
494.703	89.38
494.92	85.38
495.138	86.38
495.355	91.38
495.573	111.38
495.79	86.38
496.008	93.38
496.225	98.38
496.442	85.38
496.66	104.38
496.877	87.38
497.094	100.38
497.312	99.38
497.529	100.38
497.746	93.38
497.963	95.38
498.181	104.38
498.398	83.38
498.615	120.38
498.832	112.38
499.049	96.38
499.267	89.38
499.484	98.38
499.701	73.38
499.918	82.38
500.135	98.38
500.352	86.38
500.569	90.38
500.786	93.38
501.003	86.38
501.22	76.38
501.437	102.38
501.654	106.38
501.871	133.38
502.088	102.38
502.305	93.38
502.522	87.38
502.739	95.38
502.956	89.38
503.172	97.38
503.389	105.38
503.606	121.38
503.823	100.38
504.04	106.38
504.256	90.38
504.473	89.38
504.69	92.38
504.907	104.38
505.123	103.38
505.34	103.38
505.557	92.38
505.773	92.38
505.99	100.38
506.207	102.38
506.423	93.38
506.64	79.38
506.856	91.38
507.073	92.38
507.289	93.38
507.506	107.38
507.722	133.38
507.939	138.38
508.155	110.38
508.372	103.38
508.588	100.38
508.805	117.38
509.021	108.38
509.238	112.38
509.454	117.38
509.67	101.38
509.887	108.38
510.103	152.38
510.319	234.38
510.536	955.38
510.752	3415.38
510.968	948.38
511.184	193.38
511.401	121.38
511.617	104.38
511.833	108.38
512.049	102.38
512.265	98.38
512.481	109.38
512.698	94.38
