Data from Circ_2013_H10_HRD10591_00093.txt Node
Date: Wed Jan 03 10:04:18 EST 2024
User: Yrep
Spectrometer: HR+D1059
Trigger mode: 1
Integration Time (sec): 1.000000E-1
Scans to average: 1
Electric dark correction enabled: true
Nonlinearity correction enabled: false
Boxcar width: 0
XAxis mode: Wavelengths
Number of Pixels in Spectrum: 2048
>>>>>Begin Spectral Data<<<<<
223.165	-12.19
223.4	-12.19
223.635	-12.19
223.869	-13.19
224.104	-24.19
224.338	-13.19
224.573	-5.19
224.808	-7.19
225.042	3.81
225.277	-22.19
225.511	-3.19
225.746	-6.19
225.98	13.81
226.215	-3.19
226.449	14.81
226.683	24.81
226.918	18.81
227.152	33.81
227.387	38.81
227.621	22.81
227.856	55.81
228.09	54.81
228.324	50.81
228.559	47.81
228.793	50.81
229.027	69.81
229.262	87.81
229.496	89.81
229.73	113.81
229.964	121.81
230.199	85.81
230.433	81.81
230.667	85.81
230.901	77.81
231.136	68.81
231.37	82.81
231.604	72.81
231.838	82.81
232.072	83.81
232.306	91.81
232.541	78.81
232.775	80.81
233.009	76.81
233.243	95.81
233.477	86.81
233.711	90.81
233.945	82.81
234.179	84.81
234.413	86.81
234.647	83.81
234.881	70.81
235.115	84.81
235.349	80.81
235.583	83.81
235.817	88.81
236.051	85.81
236.285	89.81
236.519	85.81
236.753	66.81
236.987	83.81
237.221	100.81
237.455	105.81
237.689	65.81
237.922	76.81
238.156	74.81
238.39	71.81
238.624	74.81
238.858	73.81
239.091	74.81
239.325	89.81
239.559	92.81
239.793	79.81
240.027	71.81
240.26	85.81
240.494	78.81
240.728	69.81
240.961	71.81
241.195	85.81
241.429	94.81
241.662	85.81
241.896	87.81
242.13	77.81
242.363	84.81
242.597	82.81
242.83	70.81
243.064	78.81
243.298	85.81
243.531	83.81
243.765	90.81
243.998	79.81
244.232	85.81
244.465	101.81
244.699	100.81
244.932	70.81
245.166	70.81
245.399	79.81
245.633	72.81
245.866	79.81
246.099	86.81
246.333	82.81
246.566	70.81
246.8	85.81
247.033	91.81
247.266	79.81
247.5	74.81
247.733	93.81
247.966	94.81
248.2	89.81
248.433	77.81
248.666	87.81
248.899	86.81
249.133	96.81
249.366	125.81
249.599	98.81
249.832	90.81
250.066	86.81
250.299	82.81
250.532	95.81
250.765	79.81
250.998	81.81
251.231	86.81
251.465	92.81
251.698	87.81
251.931	80.81
252.164	87.81
252.397	70.81
252.63	92.81
252.863	79.81
253.096	78.81
253.329	77.81
253.562	87.81
253.795	97.81
254.028	93.81
254.261	78.81
254.494	87.81
254.727	92.81
254.96	84.81
255.193	85.81
255.426	82.81
255.659	79.81
255.892	109.81
256.124	99.81
256.357	103.81
256.59	92.81
256.823	83.81
257.056	82.81
257.289	87.81
257.521	92.81
257.754	95.81
257.987	92.81
258.22	93.81
258.452	102.81
258.685	116.81
258.918	98.81
259.151	84.81
259.383	80.81
259.616	77.81
259.849	87.81
260.081	93.81
260.314	80.81
260.547	103.81
260.779	117.81
261.012	122.81
261.244	113.81
261.477	98.81
261.71	119.81
261.942	135.81
262.175	158.81
262.407	103.81
262.64	84.81
262.872	95.81
263.105	85.81
263.337	95.81
263.57	87.81
263.802	78.81
264.035	91.81
264.267	89.81
264.499	83.81
264.732	95.81
264.964	79.81
265.197	93.81
265.429	77.81
265.661	90.81
265.894	90.81
266.126	94.81
266.358	76.81
266.591	87.81
266.823	89.81
267.055	89.81
267.287	74.81
267.52	86.81
267.752	87.81
267.984	88.81
268.216	91.81
268.448	88.81
268.681	86.81
268.913	90.81
269.145	90.81
269.377	87.81
269.609	85.81
269.841	90.81
270.073	96.81
270.306	90.81
270.538	92.81
270.77	93.81
271.002	81.81
271.234	93.81
271.466	91.81
271.698	102.81
271.93	95.81
272.162	90.81
272.394	83.81
272.626	79.81
272.858	69.81
273.09	83.81
273.322	102.81
273.553	91.81
273.785	94.81
274.017	84.81
274.249	87.81
274.481	95.81
274.713	106.81
274.945	83.81
275.176	119.81
275.408	104.81
275.64	107.81
275.872	119.81
276.104	131.81
276.335	115.81
276.567	124.81
276.799	165.81
277.031	194.81
277.262	204.81
277.494	164.81
277.726	112.81
277.957	86.81
278.189	98.81
278.421	104.81
278.652	81.81
278.884	98.81
279.115	100.81
279.347	91.81
279.579	100.81
279.81	141.81
280.042	202.81
280.273	273.81
280.505	188.81
280.736	103.81
280.968	100.81
281.199	80.81
281.431	98.81
281.662	103.81
281.894	89.81
282.125	111.81
282.356	158.81
282.588	175.81
282.819	134.81
283.051	105.81
283.282	98.81
283.513	94.81
283.745	74.81
283.976	82.81
284.207	99.81
284.439	99.81
284.67	92.81
284.901	88.81
285.132	87.81
285.364	103.81
285.595	86.81
285.826	84.81
286.057	87.81
286.288	78.81
286.52	72.81
286.751	79.81
286.982	90.81
287.213	79.81
287.444	90.81
287.675	98.81
287.906	91.81
288.138	99.81
288.369	112.81
288.6	105.81
288.831	94.81
289.062	86.81
289.293	101.81
289.524	101.81
289.755	102.81
289.986	85.81
290.217	91.81
290.448	89.81
290.679	100.81
290.91	94.81
291.141	83.81
291.371	88.81
291.602	92.81
291.833	95.81
292.064	88.81
292.295	88.81
292.526	98.81
292.757	85.81
292.987	100.81
293.218	93.81
293.449	78.81
293.68	101.81
293.91	89.81
294.141	88.81
294.372	99.81
294.603	99.81
294.833	102.81
295.064	81.81
295.295	91.81
295.525	105.81
295.756	98.81
295.987	134.81
296.217	186.81
296.448	156.81
296.679	96.81
296.909	106.81
297.14	91.81
297.37	95.81
297.601	94.81
297.831	97.81
298.062	108.81
298.292	96.81
298.523	92.81
298.753	86.81
298.984	92.81
299.214	99.81
299.445	96.81
299.675	97.81
299.905	109.81
300.136	98.81
300.366	88.81
300.597	89.81
300.827	99.81
301.057	109.81
301.288	130.81
301.518	116.81
301.748	123.81
301.979	117.81
302.209	115.81
302.439	101.81
302.669	105.81
302.9	104.81
303.13	101.81
303.36	116.81
303.59	138.81
303.82	150.81
304.051	108.81
304.281	94.81
304.511	95.81
304.741	93.81
304.971	86.81
305.201	98.81
305.431	95.81
305.661	94.81
305.891	100.81
306.121	104.81
306.352	121.81
306.582	130.81
306.812	109.81
307.042	135.81
307.272	154.81
307.502	174.81
307.731	173.81
307.961	127.81
308.191	99.81
308.421	98.81
308.651	96.81
308.881	103.81
309.111	110.81
309.341	110.81
309.571	111.81
309.8	121.81
310.03	120.81
310.26	127.81
310.49	100.81
310.72	114.81
310.949	136.81
311.179	116.81
311.409	112.81
311.639	102.81
311.868	107.81
312.098	112.81
312.328	103.81
312.557	123.81
312.787	134.81
313.017	127.81
313.246	98.81
313.476	103.81
313.706	98.81
313.935	99.81
314.165	116.81
314.394	132.81
314.624	108.81
314.853	112.81
315.083	107.81
315.312	96.81
315.542	108.81
315.771	96.81
316.001	102.81
316.23	100.81
316.46	88.81
316.689	99.81
316.919	108.81
317.148	104.81
317.377	125.81
317.607	98.81
317.836	106.81
318.065	93.81
318.295	101.81
318.524	109.81
318.753	101.81
318.983	84.81
319.212	118.81
319.441	144.81
319.67	124.81
319.9	103.81
320.129	90.81
320.358	112.81
320.587	109.81
320.816	101.81
321.046	118.81
321.275	103.81
321.504	94.81
321.733	98.81
321.962	111.81
322.191	102.81
322.42	135.81
322.649	134.81
322.878	144.81
323.108	162.81
323.337	145.81
323.566	180.81
323.795	210.81
324.024	278.81
324.253	605.81
324.482	1295.81
324.71	2758.81
324.939	3680.81
325.168	1292.81
325.397	336.81
325.626	192.81
325.855	165.81
326.084	149.81
326.313	169.81
326.542	187.81
326.77	324.81
326.999	671.81
327.228	1406.81
327.457	2646.81
327.686	2092.81
327.914	669.81
328.143	589.81
328.372	727.81
328.6	415.81
328.829	224.81
329.058	219.81
329.287	242.81
329.515	214.81
329.744	288.81
329.972	530.81
330.201	1076.81
330.43	1559.81
330.658	724.81
330.887	355.81
331.115	226.81
331.344	130.81
331.572	142.81
331.801	142.81
332.03	143.81
332.258	136.81
332.486	119.81
332.715	123.81
332.943	121.81
333.172	124.81
333.4	134.81
333.629	162.81
333.857	254.81
334.085	482.81
334.314	1005.81
334.542	1958.81
334.771	1863.81
334.999	484.81
335.227	206.81
335.455	157.81
335.684	110.81
335.912	109.81
336.14	118.81
336.369	107.81
336.597	120.81
336.825	119.81
337.053	108.81
337.281	106.81
337.51	101.81
337.738	104.81
337.966	95.81
338.194	114.81
338.422	117.81
338.65	111.81
338.878	96.81
339.106	109.81
339.334	107.81
339.562	94.81
339.79	96.81
340.018	82.81
340.246	94.81
340.474	115.81
340.702	114.81
340.93	103.81
341.158	103.81
341.386	93.81
341.614	118.81
341.842	109.81
342.07	87.81
342.298	94.81
342.526	100.81
342.754	87.81
342.981	99.81
343.209	90.81
343.437	102.81
343.665	104.81
343.893	99.81
344.12	91.81
344.348	101.81
344.576	108.81
344.804	95.81
345.031	114.81
345.259	130.81
345.487	109.81
345.714	110.81
345.942	92.81
346.17	82.81
346.397	102.81
346.625	98.81
346.853	99.81
347.08	100.81
347.308	102.81
347.535	123.81
347.763	111.81
347.99	118.81
348.218	119.81
348.445	111.81
348.673	103.81
348.9	96.81
349.128	84.81
349.355	80.81
349.583	94.81
349.81	88.81
350.037	89.81
350.265	103.81
350.492	92.81
350.72	107.81
350.947	105.81
351.174	121.81
351.402	128.81
351.629	119.81
351.856	109.81
352.083	127.81
352.311	126.81
352.538	132.81
352.765	141.81
352.992	137.81
353.22	132.81
353.447	129.81
353.674	120.81
353.901	103.81
354.128	103.81
354.355	92.81
354.583	102.81
354.81	108.81
355.037	103.81
355.264	91.81
355.491	95.81
355.718	96.81
355.945	87.81
356.172	99.81
356.399	92.81
356.626	94.81
356.853	88.81
357.08	96.81
357.307	89.81
357.534	98.81
357.761	97.81
357.988	91.81
358.215	87.81
358.441	96.81
358.668	91.81
358.895	99.81
359.122	91.81
359.349	113.81
359.576	100.81
359.802	129.81
360.029	171.81
360.256	170.81
360.483	137.81
360.709	90.81
360.936	96.81
361.163	109.81
361.39	118.81
361.616	96.81
361.843	100.81
362.07	111.81
362.296	126.81
362.523	107.81
362.749	111.81
362.976	107.81
363.203	102.81
363.429	90.81
363.656	86.81
363.882	108.81
364.109	98.81
364.335	101.81
364.562	106.81
364.788	110.81
365.015	114.81
365.241	101.81
365.468	131.81
365.694	126.81
365.92	128.81
366.147	106.81
366.373	101.81
366.599	99.81
366.826	111.81
367.052	92.81
367.278	105.81
367.505	96.81
367.731	115.81
367.957	104.81
368.184	113.81
368.41	132.81
368.636	130.81
368.862	153.81
369.089	139.81
369.315	103.81
369.541	93.81
369.767	102.81
369.993	106.81
370.219	98.81
370.445	102.81
370.672	92.81
370.898	90.81
371.124	78.81
371.35	101.81
371.576	110.81
371.802	87.81
372.028	85.81
372.254	86.81
372.48	87.81
372.706	78.81
372.932	80.81
373.158	83.81
373.384	99.81
373.61	84.81
373.835	104.81
374.061	93.81
374.287	101.81
374.513	82.81
374.739	95.81
374.965	107.81
375.191	89.81
375.416	93.81
375.642	88.81
375.868	94.81
376.094	94.81
376.319	88.81
376.545	95.81
376.771	94.81
376.997	94.81
377.222	92.81
377.448	91.81
377.674	81.81
377.899	97.81
378.125	87.81
378.35	93.81
378.576	83.81
378.802	104.81
379.027	96.81
379.253	103.81
379.478	99.81
379.704	93.81
379.929	96.81
380.155	95.81
380.38	91.81
380.606	114.81
380.831	104.81
381.057	106.81
381.282	81.81
381.507	106.81
381.733	94.81
381.958	93.81
382.184	106.81
382.409	110.81
382.634	108.81
382.86	87.81
383.085	102.81
383.31	101.81
383.535	109.81
383.761	113.81
383.986	106.81
384.211	92.81
384.436	101.81
384.662	105.81
384.887	93.81
385.112	100.81
385.337	109.81
385.562	106.81
385.787	95.81
386.013	96.81
386.238	125.81
386.463	114.81
386.688	114.81
386.913	75.81
387.138	109.81
387.363	103.81
387.588	96.81
387.813	100.81
388.038	107.81
388.263	102.81
388.488	114.81
388.713	98.81
388.938	88.81
389.163	106.81
389.387	90.81
389.612	93.81
389.837	96.81
390.062	90.81
390.287	93.81
390.512	99.81
390.736	106.81
390.961	90.81
391.186	97.81
391.411	83.81
391.636	99.81
391.86	92.81
392.085	96.81
392.31	90.81
392.534	101.81
392.759	77.81
392.984	77.81
393.208	96.81
393.433	86.81
393.658	94.81
393.882	88.81
394.107	84.81
394.331	80.81
394.556	87.81
394.78	91.81
395.005	91.81
395.229	90.81
395.454	84.81
395.678	95.81
395.903	96.81
396.127	111.81
396.352	82.81
396.576	88.81
396.801	98.81
397.025	87.81
397.249	100.81
397.474	109.81
397.698	78.81
397.922	80.81
398.147	92.81
398.371	91.81
398.595	102.81
398.82	95.81
399.044	95.81
399.268	93.81
399.492	92.81
399.717	102.81
399.941	99.81
400.165	82.81
400.389	91.81
400.613	91.81
400.837	103.81
401.062	106.81
401.286	103.81
401.51	95.81
401.734	108.81
401.958	131.81
402.182	156.81
402.406	223.81
402.63	172.81
402.854	110.81
403.078	107.81
403.302	96.81
403.526	90.81
403.75	85.81
403.974	85.81
404.198	93.81
404.422	88.81
404.645	89.81
404.869	101.81
405.093	130.81
405.317	154.81
405.541	159.81
405.765	132.81
405.988	156.81
406.212	246.81
406.436	349.81
406.66	233.81
406.883	151.81
407.107	130.81
407.331	119.81
407.555	119.81
407.778	111.81
408.002	94.81
408.226	104.81
408.449	91.81
408.673	91.81
408.896	114.81
409.12	105.81
409.344	82.81
409.567	98.81
409.791	97.81
410.014	100.81
410.238	83.81
410.461	94.81
410.685	91.81
410.908	94.81
411.132	106.81
411.355	107.81
411.578	103.81
411.802	93.81
412.025	91.81
412.249	106.81
412.472	129.81
412.695	159.81
412.919	119.81
413.142	104.81
413.365	78.81
413.589	80.81
413.812	86.81
414.035	92.81
414.258	94.81
414.482	92.81
414.705	97.81
414.928	88.81
415.151	107.81
415.374	87.81
415.597	95.81
415.821	88.81
416.044	88.81
416.267	101.81
416.49	92.81
416.713	91.81
416.936	98.81
417.159	93.81
417.382	100.81
417.605	109.81
417.828	116.81
418.051	93.81
418.274	78.81
418.497	98.81
418.72	98.81
418.943	65.81
419.166	88.81
419.389	97.81
419.611	79.81
419.834	86.81
420.057	93.81
420.28	102.81
420.503	88.81
420.726	82.81
420.948	91.81
421.171	107.81
421.394	105.81
421.617	98.81
421.839	74.81
422.062	97.81
422.285	100.81
422.507	103.81
422.73	116.81
422.953	93.81
423.175	75.81
423.398	83.81
423.621	95.81
423.843	93.81
424.066	99.81
424.288	91.81
424.511	98.81
424.733	114.81
424.956	140.81
425.178	107.81
425.401	111.81
425.623	138.81
425.846	105.81
426.068	107.81
426.291	98.81
426.513	94.81
426.735	115.81
426.958	120.81
427.18	152.81
427.402	200.81
427.625	310.81
427.847	292.81
428.069	252.81
428.292	150.81
428.514	119.81
428.736	86.81
428.958	101.81
429.181	86.81
429.403	87.81
429.625	83.81
429.847	119.81
430.069	115.81
430.292	91.81
430.514	85.81
430.736	86.81
430.958	91.81
431.18	77.81
431.402	108.81
431.624	87.81
431.846	84.81
432.068	78.81
432.29	85.81
432.512	84.81
432.734	69.81
432.956	105.81
433.178	106.81
433.4	125.81
433.622	96.81
433.844	96.81
434.066	105.81
434.287	90.81
434.509	86.81
434.731	91.81
434.953	89.81
435.175	88.81
435.397	92.81
435.618	104.81
435.84	136.81
436.062	154.81
436.284	149.81
436.505	121.81
436.727	128.81
436.949	93.81
437.17	87.81
437.392	98.81
437.614	110.81
437.835	142.81
438.057	158.81
438.278	135.81
438.5	126.81
438.721	150.81
438.943	118.81
439.165	93.81
439.386	91.81
439.608	96.81
439.829	118.81
440.05	168.81
440.272	218.81
440.493	134.81
440.715	98.81
440.936	89.81
441.158	102.81
441.379	90.81
441.6	107.81
441.822	125.81
442.043	109.81
442.264	120.81
442.486	129.81
442.707	124.81
442.928	135.81
443.149	190.81
443.371	194.81
443.592	154.81
443.813	144.81
444.034	150.81
444.255	98.81
444.476	101.81
444.698	92.81
444.919	103.81
445.14	150.81
445.361	142.81
445.582	171.81
445.803	223.81
446.024	212.81
446.245	202.81
446.466	140.81
446.687	98.81
446.908	100.81
447.129	85.81
447.35	87.81
447.571	97.81
447.792	100.81
448.013	104.81
448.234	138.81
448.455	131.81
448.675	149.81
448.896	159.81
449.117	117.81
449.338	133.81
449.559	165.81
449.779	180.81
450	106.81
450.221	101.81
450.442	105.81
450.662	103.81
450.883	144.81
451.104	143.81
451.324	118.81
451.545	88.81
451.766	98.81
451.986	99.81
452.207	93.81
452.428	107.81
452.648	119.81
452.869	137.81
453.089	134.81
453.31	145.81
453.53	108.81
453.751	114.81
453.971	140.81
454.192	151.81
454.412	96.81
454.633	94.81
454.853	86.81
455.073	101.81
455.294	110.81
455.514	119.81
455.734	103.81
455.955	85.81
456.175	84.81
456.395	84.81
456.616	85.81
456.836	83.81
457.056	89.81
457.276	90.81
457.497	94.81
457.717	81.81
457.937	93.81
458.157	98.81
458.377	113.81
458.598	136.81
458.818	249.81
459.038	299.81
459.258	184.81
459.478	120.81
459.698	93.81
459.918	96.81
460.138	79.81
460.358	90.81
460.578	104.81
460.798	100.81
461.018	103.81
461.238	105.81
461.458	82.81
461.678	67.81
461.898	86.81
462.118	106.81
462.338	84.81
462.558	93.81
462.777	74.81
462.997	105.81
463.217	93.81
463.437	96.81
463.657	86.81
463.876	93.81
464.096	91.81
464.316	96.81
464.536	98.81
464.755	107.81
464.975	144.81
465.195	276.81
465.414	286.81
465.634	137.81
465.854	94.81
466.073	97.81
466.293	101.81
466.512	92.81
466.732	93.81
466.951	92.81
467.171	101.81
467.391	133.81
467.61	171.81
467.829	226.81
468.049	535.81
468.268	840.81
468.488	235.81
468.707	111.81
468.927	111.81
469.146	97.81
469.365	91.81
469.585	91.81
469.804	119.81
470.023	130.81
470.243	106.81
470.462	119.81
470.681	166.81
470.901	100.81
471.12	99.81
471.339	104.81
471.558	138.81
471.777	162.81
471.997	281.81
472.216	1064.81
472.435	2510.81
472.654	623.81
472.873	165.81
473.092	114.81
473.311	113.81
473.53	105.81
473.749	102.81
473.968	106.81
474.187	144.81
474.406	123.81
474.625	104.81
474.844	92.81
475.063	123.81
475.282	100.81
475.501	102.81
475.72	100.81
475.939	110.81
476.158	78.81
476.377	92.81
476.596	100.81
476.814	120.81
477.033	105.81
477.252	87.81
477.471	98.81
477.69	89.81
477.908	109.81
478.127	102.81
478.346	93.81
478.564	112.81
478.783	118.81
479.002	105.81
479.22	106.81
479.439	139.81
479.658	153.81
479.876	147.81
480.095	135.81
480.313	155.81
480.532	166.81
480.751	274.81
480.969	986.81
481.188	4260.81
481.406	2622.81
481.624	365.81
481.843	137.81
482.061	125.81
482.28	108.81
482.498	90.81
482.717	96.81
482.935	95.81
483.153	93.81
483.372	121.81
483.59	111.81
483.808	105.81
484.027	92.81
484.245	109.81
484.463	101.81
484.681	102.81
484.9	96.81
485.118	104.81
485.336	97.81
485.554	100.81
485.772	94.81
485.99	100.81
486.209	107.81
486.427	133.81
486.645	131.81
486.863	134.81
487.081	108.81
487.299	110.81
487.517	98.81
487.735	105.81
487.953	90.81
488.171	93.81
488.389	93.81
488.607	116.81
488.825	86.81
489.043	106.81
489.261	92.81
489.479	96.81
489.696	93.81
489.914	90.81
490.132	89.81
490.35	109.81
490.568	83.81
490.786	94.81
491.003	82.81
491.221	104.81
491.439	116.81
491.657	107.81
491.874	97.81
492.092	92.81
492.31	99.81
492.527	118.81
492.745	101.81
492.963	88.81
493.18	93.81
493.398	85.81
493.615	101.81
493.833	92.81
494.05	99.81
494.268	94.81
494.485	82.81
494.703	90.81
494.92	90.81
495.138	94.81
495.355	103.81
495.573	92.81
495.79	98.81
496.008	95.81
496.225	90.81
496.442	109.81
496.66	107.81
496.877	87.81
497.094	95.81
497.312	97.81
497.529	101.81
497.746	86.81
497.963	104.81
498.181	91.81
498.398	106.81
498.615	118.81
498.832	119.81
499.049	97.81
499.267	85.81
499.484	92.81
499.701	98.81
499.918	118.81
500.135	94.81
500.352	91.81
500.569	95.81
500.786	100.81
501.003	88.81
501.22	94.81
501.437	108.81
501.654	105.81
501.871	131.81
502.088	80.81
502.305	95.81
502.522	99.81
502.739	93.81
502.956	95.81
503.172	83.81
503.389	99.81
503.606	147.81
503.823	119.81
504.04	97.81
504.256	84.81
504.473	99.81
504.69	99.81
504.907	87.81
505.123	95.81
505.34	101.81
505.557	96.81
505.773	95.81
505.99	98.81
506.207	82.81
506.423	87.81
506.64	103.81
506.856	93.81
507.073	91.81
507.289	93.81
507.506	114.81
507.722	142.81
507.939	137.81
508.155	99.81
508.372	101.81
508.588	105.81
508.805	97.81
509.021	100.81
509.238	117.81
509.454	106.81
509.67	107.81
509.887	119.81
510.103	139.81
510.319	255.81
510.536	974.81
510.752	3457.81
510.968	978.81
511.184	191.81
