Data from Circ_2013_H10_HRD10591_00071.txt Node
Date: Wed Jan 03 10:04:14 EST 2024
User: Yrep
Spectrometer: HR+D1059
Trigger mode: 1
Integration Time (sec): 1.000000E-1
Scans to average: 1
Electric dark correction enabled: true
Nonlinearity correction enabled: false
Boxcar width: 0
XAxis mode: Wavelengths
Number of Pixels in Spectrum: 2048
>>>>>Begin Spectral Data<<<<<
223.165	-19.06
223.4	-19.06
223.635	-19.06
223.869	-22.06
224.104	-13.06
224.338	-10.06
224.573	-14.06
224.808	-21.06
225.042	-10.06
225.277	-13.06
225.511	-2.06
225.746	2.94
225.98	14.94
226.215	-3.06
226.449	20.94
226.683	23.94
226.918	21.94
227.152	42.94
227.387	42.94
227.621	37.94
227.856	28.94
228.09	36.94
228.324	37.94
228.559	66.94
228.793	77.94
229.027	71.94
229.262	60.94
229.496	83.94
229.73	108.94
229.964	97.94
230.199	77.94
230.433	74.94
230.667	66.94
230.901	76.94
231.136	73.94
231.37	90.94
231.604	85.94
231.838	86.94
232.072	68.94
232.306	75.94
232.541	86.94
232.775	58.94
233.009	101.94
233.243	78.94
233.477	92.94
233.711	73.94
233.945	85.94
234.179	80.94
234.413	81.94
234.647	83.94
234.881	78.94
235.115	79.94
235.349	86.94
235.583	92.94
235.817	75.94
236.051	86.94
236.285	73.94
236.519	86.94
236.753	85.94
236.987	74.94
237.221	89.94
237.455	93.94
237.689	86.94
237.922	93.94
238.156	71.94
238.39	83.94
238.624	71.94
238.858	80.94
239.091	77.94
239.325	74.94
239.559	79.94
239.793	79.94
240.027	76.94
240.26	75.94
240.494	73.94
240.728	72.94
240.961	74.94
241.195	80.94
241.429	83.94
241.662	78.94
241.896	84.94
242.13	75.94
242.363	81.94
242.597	83.94
242.83	85.94
243.064	69.94
243.298	74.94
243.531	83.94
243.765	85.94
243.998	74.94
244.232	79.94
244.465	90.94
244.699	92.94
244.932	74.94
245.166	73.94
245.399	78.94
245.633	67.94
245.866	71.94
246.099	91.94
246.333	68.94
246.566	67.94
246.8	80.94
247.033	82.94
247.266	98.94
247.5	81.94
247.733	84.94
247.966	89.94
248.2	79.94
248.433	73.94
248.666	86.94
248.899	93.94
249.133	79.94
249.366	95.94
249.599	110.94
249.832	90.94
250.066	93.94
250.299	100.94
250.532	82.94
250.765	74.94
250.998	80.94
251.231	83.94
251.465	84.94
251.698	71.94
251.931	81.94
252.164	85.94
252.397	84.94
252.63	81.94
252.863	77.94
253.096	70.94
253.329	82.94
253.562	69.94
253.795	89.94
254.028	84.94
254.261	82.94
254.494	79.94
254.727	85.94
254.96	78.94
255.193	71.94
255.426	95.94
255.659	96.94
255.892	95.94
256.124	90.94
256.357	79.94
256.59	73.94
256.823	76.94
257.056	89.94
257.289	82.94
257.521	86.94
257.754	79.94
257.987	86.94
258.22	87.94
258.452	93.94
258.685	84.94
258.918	102.94
259.151	86.94
259.383	94.94
259.616	95.94
259.849	72.94
260.081	73.94
260.314	90.94
260.547	79.94
260.779	83.94
261.012	98.94
261.244	95.94
261.477	85.94
261.71	109.94
261.942	136.94
262.175	131.94
262.407	108.94
262.64	83.94
262.872	74.94
263.105	81.94
263.337	84.94
263.57	67.94
263.802	87.94
264.035	100.94
264.267	81.94
264.499	75.94
264.732	70.94
264.964	82.94
265.197	76.94
265.429	85.94
265.661	78.94
265.894	89.94
266.126	101.94
266.358	78.94
266.591	86.94
266.823	87.94
267.055	86.94
267.287	77.94
267.52	81.94
267.752	89.94
267.984	84.94
268.216	84.94
268.448	82.94
268.681	82.94
268.913	77.94
269.145	82.94
269.377	87.94
269.609	88.94
269.841	87.94
270.073	98.94
270.306	93.94
270.538	85.94
270.77	88.94
271.002	78.94
271.234	87.94
271.466	82.94
271.698	100.94
271.93	83.94
272.162	75.94
272.394	93.94
272.626	91.94
272.858	86.94
273.09	98.94
273.322	81.94
273.553	97.94
273.785	75.94
274.017	81.94
274.249	84.94
274.481	88.94
274.713	79.94
274.945	89.94
275.176	88.94
275.408	83.94
275.64	103.94
275.872	119.94
276.104	96.94
276.335	90.94
276.567	109.94
276.799	139.94
277.031	142.94
277.262	156.94
277.494	138.94
277.726	101.94
277.957	97.94
278.189	84.94
278.421	78.94
278.652	67.94
278.884	98.94
279.115	82.94
279.347	88.94
279.579	87.94
279.81	118.94
280.042	179.94
280.273	214.94
280.505	151.94
280.736	100.94
280.968	94.94
281.199	82.94
281.431	93.94
281.662	95.94
281.894	82.94
282.125	97.94
282.356	148.94
282.588	175.94
282.819	135.94
283.051	90.94
283.282	92.94
283.513	87.94
283.745	97.94
283.976	80.94
284.207	91.94
284.439	96.94
284.67	94.94
284.901	77.94
285.132	100.94
285.364	91.94
285.595	86.94
285.826	87.94
286.057	98.94
286.288	80.94
286.52	97.94
286.751	97.94
286.982	90.94
287.213	90.94
287.444	93.94
287.675	88.94
287.906	98.94
288.138	110.94
288.369	98.94
288.6	101.94
288.831	78.94
289.062	103.94
289.293	86.94
289.524	78.94
289.755	85.94
289.986	74.94
290.217	87.94
290.448	97.94
290.679	71.94
290.91	95.94
291.141	76.94
291.371	65.94
291.602	90.94
291.833	93.94
292.064	90.94
292.295	100.94
292.526	96.94
292.757	87.94
292.987	79.94
293.218	88.94
293.449	79.94
293.68	91.94
293.91	87.94
294.141	83.94
294.372	90.94
294.603	90.94
294.833	100.94
295.064	86.94
295.295	82.94
295.525	94.94
295.756	106.94
295.987	129.94
296.217	154.94
296.448	137.94
296.679	86.94
296.909	91.94
297.14	89.94
297.37	87.94
297.601	89.94
297.831	96.94
298.062	90.94
298.292	97.94
298.523	96.94
298.753	91.94
298.984	89.94
299.214	91.94
299.445	79.94
299.675	92.94
299.905	96.94
300.136	93.94
300.366	91.94
300.597	88.94
300.827	90.94
301.057	104.94
301.288	114.94
301.518	109.94
301.748	84.94
301.979	109.94
302.209	94.94
302.439	81.94
302.669	83.94
302.9	88.94
303.13	93.94
303.36	104.94
303.59	131.94
303.82	137.94
304.051	107.94
304.281	83.94
304.511	102.94
304.741	74.94
304.971	95.94
305.201	101.94
305.431	87.94
305.661	89.94
305.891	86.94
306.121	104.94
306.352	102.94
306.582	115.94
306.812	100.94
307.042	125.94
307.272	137.94
307.502	150.94
307.731	131.94
307.961	107.94
308.191	92.94
308.421	91.94
308.651	94.94
308.881	96.94
309.111	92.94
309.341	89.94
309.571	110.94
309.8	90.94
310.03	109.94
310.26	95.94
310.49	99.94
310.72	110.94
310.949	116.94
311.179	127.94
311.409	106.94
311.639	104.94
311.868	112.94
312.098	91.94
312.328	111.94
312.557	116.94
312.787	102.94
313.017	115.94
313.246	105.94
313.476	88.94
313.706	87.94
313.935	102.94
314.165	104.94
314.394	104.94
314.624	113.94
314.853	99.94
315.083	114.94
315.312	103.94
315.542	92.94
315.771	104.94
316.001	92.94
316.23	88.94
316.46	84.94
316.689	97.94
316.919	98.94
317.148	99.94
317.377	98.94
317.607	93.94
317.836	93.94
318.065	83.94
318.295	107.94
318.524	93.94
318.753	81.94
318.983	94.94
319.212	104.94
319.441	123.94
319.67	120.94
319.9	95.94
320.129	103.94
320.358	88.94
320.587	88.94
320.816	107.94
321.046	99.94
321.275	100.94
321.504	92.94
321.733	94.94
321.962	109.94
322.191	106.94
322.42	118.94
322.649	129.94
322.878	134.94
323.108	128.94
323.337	145.94
323.566	145.94
323.795	193.94
324.024	267.94
324.253	519.94
324.482	1161.94
324.71	2338.94
324.939	3115.94
325.168	1129.94
325.397	317.94
325.626	173.94
325.855	145.94
326.084	140.94
326.313	155.94
326.542	174.94
326.77	286.94
326.999	598.94
327.228	1246.94
327.457	2303.94
327.686	1803.94
327.914	562.94
328.143	455.94
328.372	531.94
328.6	310.94
328.829	181.94
329.058	187.94
329.287	200.94
329.515	167.94
329.744	230.94
329.972	409.94
330.201	767.94
330.43	1140.94
330.658	550.94
330.887	279.94
331.115	201.94
331.344	113.94
331.572	116.94
331.801	139.94
332.03	124.94
332.258	101.94
332.486	97.94
332.715	120.94
332.943	125.94
333.172	118.94
333.4	138.94
333.629	172.94
333.857	218.94
334.085	358.94
334.314	735.94
334.542	1387.94
334.771	1347.94
334.999	359.94
335.227	173.94
335.455	133.94
335.684	109.94
335.912	79.94
336.14	85.94
336.369	101.94
336.597	110.94
336.825	113.94
337.053	103.94
337.281	82.94
337.51	101.94
337.738	98.94
337.966	94.94
338.194	100.94
338.422	106.94
338.65	88.94
338.878	93.94
339.106	95.94
339.334	102.94
339.562	101.94
339.79	96.94
340.018	99.94
340.246	96.94
340.474	108.94
340.702	107.94
340.93	91.94
341.158	87.94
341.386	96.94
341.614	103.94
341.842	102.94
342.07	100.94
342.298	93.94
342.526	92.94
342.754	93.94
342.981	84.94
343.209	75.94
343.437	108.94
343.665	84.94
343.893	87.94
344.12	89.94
344.348	83.94
344.576	109.94
344.804	91.94
345.031	101.94
345.259	105.94
345.487	99.94
345.714	98.94
345.942	88.94
346.17	84.94
346.397	92.94
346.625	105.94
346.853	100.94
347.08	89.94
347.308	103.94
347.535	109.94
347.763	105.94
347.99	94.94
348.218	100.94
348.445	110.94
348.673	114.94
348.9	108.94
349.128	92.94
349.355	103.94
349.583	102.94
349.81	95.94
350.037	94.94
350.265	96.94
350.492	88.94
350.72	94.94
350.947	108.94
351.174	104.94
351.402	126.94
351.629	111.94
351.856	113.94
352.083	107.94
352.311	125.94
352.538	124.94
352.765	130.94
352.992	129.94
353.22	111.94
353.447	109.94
353.674	101.94
353.901	94.94
354.128	100.94
354.355	96.94
354.583	112.94
354.81	99.94
355.037	93.94
355.264	92.94
355.491	77.94
355.718	97.94
355.945	90.94
356.172	87.94
356.399	113.94
356.626	87.94
356.853	90.94
357.08	82.94
357.307	90.94
357.534	79.94
357.761	87.94
357.988	99.94
358.215	84.94
358.441	85.94
358.668	94.94
358.895	95.94
359.122	80.94
359.349	87.94
359.576	103.94
359.802	108.94
360.029	137.94
360.256	138.94
360.483	127.94
360.709	89.94
360.936	104.94
361.163	101.94
361.39	103.94
361.616	94.94
361.843	105.94
362.07	108.94
362.296	119.94
362.523	103.94
362.749	115.94
362.976	95.94
363.203	100.94
363.429	98.94
363.656	92.94
363.882	86.94
364.109	77.94
364.335	93.94
364.562	99.94
364.788	91.94
365.015	94.94
365.241	97.94
365.468	120.94
365.694	108.94
365.92	94.94
366.147	91.94
366.373	91.94
366.599	89.94
366.826	85.94
367.052	89.94
367.278	95.94
367.505	100.94
367.731	89.94
367.957	94.94
368.184	91.94
368.41	99.94
368.636	117.94
368.862	122.94
369.089	127.94
369.315	107.94
369.541	107.94
369.767	84.94
369.993	85.94
370.219	101.94
370.445	94.94
370.672	85.94
370.898	88.94
371.124	76.94
371.35	101.94
371.576	83.94
371.802	103.94
372.028	87.94
372.254	80.94
372.48	100.94
372.706	98.94
372.932	76.94
373.158	82.94
373.384	93.94
373.61	80.94
373.835	81.94
374.061	97.94
374.287	99.94
374.513	85.94
374.739	94.94
374.965	79.94
375.191	78.94
375.416	91.94
375.642	83.94
375.868	98.94
376.094	92.94
376.319	89.94
376.545	79.94
376.771	94.94
376.997	91.94
377.222	86.94
377.448	86.94
377.674	92.94
377.899	90.94
378.125	91.94
378.35	84.94
378.576	78.94
378.802	86.94
379.027	77.94
379.253	96.94
379.478	89.94
379.704	97.94
379.929	85.94
380.155	100.94
380.38	102.94
380.606	94.94
380.831	91.94
381.057	88.94
381.282	95.94
381.507	93.94
381.733	98.94
381.958	78.94
382.184	99.94
382.409	105.94
382.634	89.94
382.86	97.94
383.085	98.94
383.31	89.94
383.535	94.94
383.761	99.94
383.986	93.94
384.211	93.94
384.436	89.94
384.662	78.94
384.887	93.94
385.112	98.94
385.337	97.94
385.562	100.94
385.787	93.94
386.013	107.94
386.238	109.94
386.463	101.94
386.688	96.94
386.913	108.94
387.138	95.94
387.363	87.94
387.588	103.94
387.813	113.94
388.038	104.94
388.263	102.94
388.488	113.94
388.713	83.94
388.938	84.94
389.163	91.94
389.387	101.94
389.612	98.94
389.837	87.94
390.062	85.94
390.287	78.94
390.512	89.94
390.736	86.94
390.961	93.94
391.186	85.94
391.411	93.94
391.636	86.94
391.86	89.94
392.085	83.94
392.31	83.94
392.534	82.94
392.759	85.94
392.984	79.94
393.208	87.94
393.433	113.94
393.658	73.94
393.882	73.94
394.107	98.94
394.331	76.94
394.556	79.94
394.78	78.94
395.005	91.94
395.229	87.94
395.454	100.94
395.678	98.94
395.903	72.94
396.127	87.94
396.352	81.94
396.576	76.94
396.801	80.94
397.025	95.94
397.249	92.94
397.474	85.94
397.698	95.94
397.922	82.94
398.147	89.94
398.371	77.94
398.595	93.94
398.82	78.94
399.044	98.94
399.268	76.94
399.492	91.94
399.717	84.94
399.941	90.94
400.165	95.94
400.389	95.94
400.613	77.94
400.837	102.94
401.062	79.94
401.286	85.94
401.51	90.94
401.734	94.94
401.958	109.94
402.182	141.94
402.406	202.94
402.63	143.94
402.854	105.94
403.078	96.94
403.302	94.94
403.526	88.94
403.75	89.94
403.974	80.94
404.198	84.94
404.422	92.94
404.645	98.94
404.869	99.94
405.093	108.94
405.317	139.94
405.541	133.94
405.765	113.94
405.988	148.94
406.212	217.94
406.436	297.94
406.66	211.94
406.883	111.94
407.107	106.94
407.331	109.94
407.555	125.94
407.778	103.94
408.002	109.94
408.226	85.94
408.449	93.94
408.673	94.94
408.896	95.94
409.12	113.94
409.344	83.94
409.567	91.94
409.791	92.94
410.014	87.94
410.238	93.94
410.461	84.94
410.685	102.94
410.908	87.94
411.132	91.94
411.355	89.94
411.578	89.94
411.802	84.94
412.025	91.94
412.249	95.94
412.472	119.94
412.695	130.94
412.919	107.94
413.142	92.94
413.365	79.94
413.589	95.94
413.812	90.94
414.035	97.94
414.258	93.94
414.482	90.94
414.705	89.94
414.928	92.94
415.151	83.94
415.374	97.94
415.597	88.94
415.821	88.94
416.044	78.94
416.267	78.94
416.49	74.94
416.713	95.94
416.936	79.94
417.159	69.94
417.382	92.94
417.605	113.94
417.828	97.94
418.051	96.94
418.274	94.94
418.497	93.94
418.72	83.94
418.943	91.94
419.166	67.94
419.389	72.94
419.611	83.94
419.834	77.94
420.057	108.94
420.28	111.94
420.503	85.94
420.726	98.94
420.948	86.94
421.171	102.94
421.394	89.94
421.617	98.94
421.839	97.94
422.062	94.94
422.285	102.94
422.507	95.94
422.73	110.94
422.953	93.94
423.175	96.94
423.398	90.94
423.621	97.94
423.843	73.94
424.066	95.94
424.288	111.94
424.511	79.94
424.733	106.94
424.956	104.94
425.178	107.94
425.401	119.94
425.623	97.94
425.846	86.94
426.068	101.94
426.291	108.94
426.513	94.94
426.735	87.94
426.958	91.94
427.18	123.94
427.402	172.94
427.625	257.94
427.847	236.94
428.069	217.94
428.292	118.94
428.514	98.94
428.736	75.94
428.958	94.94
429.181	97.94
429.403	77.94
429.625	89.94
429.847	93.94
430.069	114.94
430.292	101.94
430.514	97.94
430.736	80.94
430.958	90.94
431.18	86.94
431.402	79.94
431.624	70.94
431.846	80.94
432.068	72.94
432.29	85.94
432.512	89.94
432.734	78.94
432.956	105.94
433.178	84.94
433.4	108.94
433.622	100.94
433.844	86.94
434.066	91.94
434.287	87.94
434.509	83.94
434.731	88.94
434.953	94.94
435.175	95.94
435.397	93.94
435.618	86.94
435.84	124.94
436.062	137.94
436.284	123.94
436.505	122.94
436.727	120.94
436.949	97.94
437.17	90.94
437.392	95.94
437.614	98.94
437.835	120.94
438.057	157.94
438.278	126.94
438.5	110.94
438.721	143.94
438.943	103.94
439.165	93.94
439.386	82.94
439.608	92.94
439.829	117.94
440.05	154.94
440.272	197.94
440.493	110.94
440.715	86.94
440.936	83.94
441.158	78.94
441.379	111.94
441.6	87.94
441.822	100.94
442.043	91.94
442.264	122.94
442.486	119.94
442.707	105.94
442.928	110.94
443.149	178.94
443.371	162.94
443.592	142.94
443.813	127.94
444.034	125.94
444.255	92.94
444.476	77.94
444.698	88.94
444.919	83.94
445.14	129.94
445.361	117.94
445.582	153.94
445.803	189.94
446.024	189.94
446.245	151.94
446.466	137.94
446.687	95.94
446.908	90.94
447.129	89.94
447.35	94.94
447.571	89.94
447.792	87.94
448.013	115.94
448.234	127.94
448.455	109.94
448.675	133.94
448.896	134.94
449.117	115.94
449.338	119.94
449.559	153.94
449.779	158.94
450	92.94
450.221	81.94
450.442	89.94
450.662	111.94
450.883	118.94
451.104	139.94
451.324	106.94
451.545	98.94
451.766	89.94
451.986	81.94
452.207	75.94
452.428	102.94
452.648	127.94
452.869	133.94
453.089	151.94
453.31	147.94
453.53	100.94
453.751	89.94
453.971	116.94
454.192	140.94
454.412	105.94
454.633	78.94
454.853	76.94
455.073	86.94
455.294	91.94
455.514	108.94
455.734	107.94
455.955	94.94
456.175	79.94
456.395	90.94
456.616	91.94
456.836	78.94
457.056	77.94
457.276	96.94
457.497	69.94
457.717	87.94
457.937	86.94
458.157	92.94
458.377	99.94
458.598	121.94
458.818	220.94
459.038	235.94
459.258	158.94
459.478	102.94
459.698	103.94
459.918	101.94
460.138	77.94
460.358	64.94
460.578	84.94
460.798	85.94
461.018	82.94
461.238	86.94
461.458	82.94
461.678	89.94
461.898	87.94
462.118	79.94
462.338	82.94
462.558	86.94
462.777	86.94
462.997	88.94
463.217	108.94
463.437	106.94
463.657	86.94
463.876	88.94
464.096	84.94
464.316	105.94
464.536	102.94
464.755	84.94
464.975	131.94
465.195	250.94
465.414	243.94
465.634	122.94
465.854	85.94
466.073	91.94
466.293	79.94
466.512	89.94
466.732	86.94
466.951	92.94
467.171	94.94
467.391	108.94
467.61	140.94
467.829	170.94
468.049	404.94
468.268	599.94
468.488	178.94
468.707	104.94
468.927	95.94
469.146	100.94
469.365	91.94
469.585	83.94
469.804	112.94
470.023	126.94
470.243	104.94
470.462	117.94
470.681	118.94
470.901	98.94
471.12	99.94
471.339	94.94
471.558	126.94
471.777	142.94
471.997	238.94
472.216	775.94
472.435	1817.94
472.654	458.94
472.873	143.94
473.092	99.94
473.311	97.94
473.53	87.94
473.749	102.94
473.968	97.94
474.187	129.94
474.406	110.94
474.625	93.94
474.844	95.94
475.063	82.94
475.282	89.94
475.501	99.94
475.72	84.94
475.939	98.94
476.158	90.94
476.377	82.94
476.596	89.94
476.814	101.94
477.033	106.94
477.252	97.94
477.471	95.94
477.69	100.94
477.908	90.94
478.127	84.94
478.346	94.94
478.564	93.94
478.783	99.94
479.002	104.94
479.22	98.94
479.439	116.94
479.658	108.94
479.876	100.94
480.095	109.94
480.313	126.94
480.532	161.94
480.751	229.94
480.969	744.94
481.188	3072.94
481.406	1979.94
481.624	313.94
481.843	133.94
482.061	105.94
482.28	79.94
482.498	93.94
482.717	98.94
482.935	92.94
483.153	109.94
483.372	81.94
483.59	89.94
483.808	100.94
484.027	93.94
484.245	90.94
484.463	93.94
484.681	102.94
484.9	96.94
485.118	84.94
485.336	99.94
485.554	88.94
485.772	99.94
485.99	100.94
486.209	91.94
486.427	99.94
486.645	127.94
486.863	129.94
487.081	102.94
487.299	101.94
487.517	86.94
487.735	99.94
487.953	80.94
488.171	101.94
488.389	99.94
488.607	101.94
488.825	90.94
489.043	85.94
489.261	94.94
489.479	82.94
489.696	86.94
489.914	103.94
490.132	91.94
490.35	98.94
490.568	85.94
490.786	86.94
491.003	81.94
491.221	86.94
491.439	95.94
491.657	98.94
491.874	105.94
492.092	91.94
492.31	75.94
492.527	81.94
492.745	93.94
492.963	87.94
493.18	91.94
493.398	94.94
493.615	98.94
493.833	89.94
494.05	96.94
494.268	82.94
494.485	81.94
494.703	92.94
494.92	81.94
495.138	90.94
495.355	89.94
495.573	88.94
495.79	92.94
496.008	75.94
496.225	89.94
496.442	86.94
496.66	87.94
496.877	99.94
497.094	93.94
497.312	88.94
497.529	92.94
497.746	97.94
497.963	102.94
498.181	94.94
498.398	101.94
498.615	124.94
498.832	121.94
499.049	100.94
499.267	98.94
499.484	96.94
499.701	86.94
499.918	96.94
500.135	86.94
500.352	94.94
500.569	104.94
500.786	96.94
501.003	91.94
501.22	93.94
501.437	89.94
501.654	110.94
501.871	115.94
502.088	100.94
502.305	102.94
502.522	85.94
502.739	85.94
502.956	96.94
503.172	96.94
503.389	103.94
503.606	109.94
503.823	94.94
504.04	102.94
504.256	91.94
504.473	95.94
504.69	93.94
504.907	93.94
505.123	108.94
505.34	98.94
505.557	89.94
505.773	83.94
505.99	94.94
506.207	87.94
506.423	75.94
506.64	98.94
506.856	86.94
507.073	91.94
507.289	95.94
507.506	101.94
507.722	133.94
507.939	133.94
508.155	92.94
508.372	85.94
508.588	88.94
508.805	93.94
509.021	94.94
509.238	97.94
509.454	107.94
509.67	92.94
509.887	125.94
510.103	144.94
510.319	220.94
510.536	854.94
510.752	3023.94
510.968	858.94
511.184	198.94
511.401	110.94
511.617	111.94
511.833	118.94
512.049	100.94
512.265	80.94
512.481	95.94
512.698	100.94
512.914	114.94
513.13	97.94
513.346	87.94
513.562	101.94
