Data from Circ_2013_H10_HRD10591_00073.txt Node
Date: Wed Jan 03 10:04:14 EST 2024
User: Yrep
Spectrometer: HR+D1059
Trigger mode: 1
Integration Time (sec): 1.000000E-1
Scans to average: 1
Electric dark correction enabled: true
Nonlinearity correction enabled: false
Boxcar width: 0
XAxis mode: Wavelengths
Number of Pixels in Spectrum: 2048
>>>>>Begin Spectral Data<<<<<
223.165	-21
223.4	-21
223.635	-21
223.869	-11
224.104	-12
224.338	-25
224.573	-5
224.808	-15
225.042	-12
225.277	-11
225.511	1
225.746	12
225.98	11
226.215	12
226.449	29
226.683	9
226.918	19
227.152	19
227.387	27
227.621	29
227.856	44
228.09	51
228.324	41
228.559	64
228.793	63
229.027	66
229.262	60
229.496	66
229.73	90
229.964	102
230.199	90
230.433	72
230.667	79
230.901	79
231.136	79
231.37	78
231.604	74
231.838	93
232.072	72
232.306	81
232.541	80
232.775	84
233.009	80
233.243	85
233.477	87
233.711	84
233.945	88
234.179	99
234.413	85
234.647	79
234.881	68
235.115	82
235.349	85
235.583	86
235.817	83
236.051	72
236.285	76
236.519	68
236.753	80
236.987	89
237.221	74
237.455	90
237.689	77
237.922	61
238.156	77
238.39	75
238.624	68
238.858	70
239.091	82
239.325	75
239.559	83
239.793	73
240.027	74
240.26	74
240.494	84
240.728	79
240.961	64
241.195	77
241.429	77
241.662	80
241.896	94
242.13	71
242.363	84
242.597	72
242.83	86
243.064	75
243.298	81
243.531	76
243.765	78
243.998	66
244.232	79
244.465	77
244.699	76
244.932	78
245.166	92
245.399	81
245.633	81
245.866	80
246.099	75
246.333	82
246.566	91
246.8	81
247.033	68
247.266	78
247.5	77
247.733	73
247.966	82
248.2	87
248.433	81
248.666	94
248.899	100
249.133	84
249.366	102
249.599	94
249.832	102
250.066	102
250.299	102
250.532	76
250.765	78
250.998	97
251.231	66
251.465	83
251.698	81
251.931	77
252.164	85
252.397	88
252.63	74
252.863	83
253.096	84
253.329	76
253.562	102
253.795	94
254.028	87
254.261	90
254.494	79
254.727	82
254.96	89
255.193	83
255.426	89
255.659	91
255.892	85
256.124	90
256.357	84
256.59	87
256.823	87
257.056	85
257.289	87
257.521	85
257.754	96
257.987	94
258.22	95
258.452	80
258.685	85
258.918	90
259.151	85
259.383	63
259.616	94
259.849	93
260.081	85
260.314	91
260.547	91
260.779	102
261.012	114
261.244	95
261.477	102
261.71	106
261.942	133
262.175	147
262.407	103
262.64	82
262.872	84
263.105	77
263.337	87
263.57	75
263.802	85
264.035	85
264.267	86
264.499	78
264.732	98
264.964	80
265.197	88
265.429	91
265.661	83
265.894	74
266.126	66
266.358	87
266.591	106
266.823	73
267.055	76
267.287	87
267.52	83
267.752	75
267.984	86
268.216	98
268.448	92
268.681	101
268.913	89
269.145	78
269.377	88
269.609	96
269.841	79
270.073	77
270.306	82
270.538	76
270.77	78
271.002	81
271.234	91
271.466	80
271.698	101
271.93	86
272.162	94
272.394	79
272.626	66
272.858	80
273.09	85
273.322	81
273.553	93
273.785	83
274.017	83
274.249	93
274.481	90
274.713	82
274.945	83
275.176	93
275.408	96
275.64	91
275.872	107
276.104	106
276.335	100
276.567	106
276.799	123
277.031	139
277.262	167
277.494	131
277.726	100
277.957	87
278.189	95
278.421	83
278.652	104
278.884	101
279.115	85
279.347	97
279.579	105
279.81	129
280.042	157
280.273	193
280.505	158
280.736	111
280.968	97
281.199	88
281.431	90
281.662	93
281.894	88
282.125	106
282.356	134
282.588	163
282.819	123
283.051	89
283.282	77
283.513	78
283.745	92
283.976	80
284.207	70
284.439	80
284.67	98
284.901	95
285.132	98
285.364	74
285.595	95
285.826	94
286.057	80
286.288	99
286.52	86
286.751	102
286.982	93
287.213	101
287.444	84
287.675	83
287.906	99
288.138	93
288.369	108
288.6	114
288.831	90
289.062	96
289.293	89
289.524	77
289.755	81
289.986	83
290.217	83
290.448	76
290.679	89
290.91	89
291.141	82
291.371	90
291.602	75
291.833	75
292.064	96
292.295	85
292.526	86
292.757	84
292.987	89
293.218	98
293.449	81
293.68	92
293.91	84
294.141	110
294.372	94
294.603	90
294.833	108
295.064	83
295.295	90
295.525	79
295.756	94
295.987	145
296.217	152
296.448	159
296.679	104
296.909	88
297.14	83
297.37	93
297.601	83
297.831	95
298.062	103
298.292	76
298.523	91
298.753	91
298.984	84
299.214	98
299.445	84
299.675	94
299.905	108
300.136	107
300.366	94
300.597	95
300.827	85
301.057	99
301.288	94
301.518	98
301.748	105
301.979	108
302.209	92
302.439	90
302.669	94
302.9	86
303.13	103
303.36	109
303.59	127
303.82	127
304.051	122
304.281	93
304.511	90
304.741	79
304.971	85
305.201	93
305.431	84
305.661	83
305.891	84
306.121	82
306.352	105
306.582	124
306.812	101
307.042	117
307.272	140
307.502	149
307.731	141
307.961	123
308.191	93
308.421	105
308.651	97
308.881	86
309.111	83
309.341	97
309.571	110
309.8	113
310.03	104
310.26	109
310.49	100
310.72	114
310.949	120
311.179	106
311.409	100
311.639	93
311.868	106
312.098	102
312.328	98
312.557	110
312.787	121
313.017	125
313.246	92
313.476	99
313.706	87
313.935	106
314.165	117
314.394	117
314.624	110
314.853	95
315.083	109
315.312	109
315.542	91
315.771	96
316.001	94
316.23	84
316.46	93
316.689	101
316.919	90
317.148	102
317.377	101
317.607	100
317.836	108
318.065	92
318.295	96
318.524	103
318.753	100
318.983	90
319.212	110
319.441	111
319.67	130
319.9	105
320.129	102
320.358	94
320.587	93
320.816	109
321.046	114
321.275	92
321.504	92
321.733	97
321.962	107
322.191	111
322.42	130
322.649	116
322.878	119
323.108	133
323.337	155
323.566	159
323.795	187
324.024	257
324.253	527
324.482	1067
324.71	2173
324.939	2922
325.168	1068
325.397	296
325.626	197
325.855	142
326.084	146
326.313	164
326.542	181
326.77	273
326.999	539
327.228	1196
327.457	2166
327.686	1701
327.914	525
328.143	445
328.372	519
328.6	321
328.829	180
329.058	188
329.287	207
329.515	185
329.744	210
329.972	352
330.201	744
330.43	1081
330.658	516
330.887	265
331.115	191
331.344	117
331.572	117
331.801	143
332.03	123
332.258	117
332.486	108
332.715	104
332.943	115
333.172	124
333.4	118
333.629	156
333.857	205
334.085	334
334.314	705
334.542	1345
334.771	1282
334.999	368
335.227	159
335.455	121
335.684	111
335.912	113
336.14	106
336.369	113
336.597	127
336.825	109
337.053	102
337.281	109
337.51	106
337.738	99
337.966	98
338.194	118
338.422	108
338.65	82
338.878	98
339.106	89
339.334	86
339.562	99
339.79	98
340.018	96
340.246	90
340.474	105
340.702	106
340.93	99
341.158	106
341.386	96
341.614	99
341.842	106
342.07	96
342.298	109
342.526	101
342.754	99
342.981	87
343.209	82
343.437	99
343.665	84
343.893	107
344.12	92
344.348	91
344.576	99
344.804	92
345.031	114
345.259	122
345.487	98
345.714	98
345.942	105
346.17	91
346.397	95
346.625	84
346.853	94
347.08	103
347.308	109
347.535	105
347.763	120
347.99	106
348.218	113
348.445	117
348.673	107
348.9	95
349.128	103
349.355	93
349.583	83
349.81	97
350.037	107
350.265	111
350.492	97
350.72	92
350.947	110
351.174	119
351.402	130
351.629	110
351.856	104
352.083	116
352.311	105
352.538	114
352.765	117
352.992	133
353.22	113
353.447	109
353.674	118
353.901	99
354.128	90
354.355	103
354.583	83
354.81	110
355.037	98
355.264	82
355.491	84
355.718	91
355.945	91
356.172	105
356.399	94
356.626	92
356.853	95
357.08	106
357.307	71
357.534	85
357.761	82
357.988	94
358.215	110
358.441	97
358.668	85
358.895	79
359.122	114
359.349	90
359.576	94
359.802	119
360.029	144
360.256	135
360.483	133
360.709	87
360.936	88
361.163	122
361.39	100
361.616	103
361.843	94
362.07	99
362.296	116
362.523	93
362.749	105
362.976	84
363.203	104
363.429	89
363.656	102
363.882	89
364.109	101
364.335	103
364.562	89
364.788	95
365.015	105
365.241	107
365.468	118
365.694	131
365.92	119
366.147	96
366.373	90
366.599	89
366.826	90
367.052	105
367.278	101
367.505	98
367.731	101
367.957	114
368.184	102
368.41	112
368.636	130
368.862	146
369.089	111
369.315	86
369.541	106
369.767	113
369.993	85
370.219	104
370.445	99
370.672	83
370.898	89
371.124	76
371.35	96
371.576	87
371.802	87
372.028	90
372.254	86
372.48	94
372.706	69
372.932	91
373.158	98
373.384	83
373.61	87
373.835	93
374.061	91
374.287	105
374.513	87
374.739	93
374.965	81
375.191	90
375.416	80
375.642	91
375.868	88
376.094	85
376.319	85
376.545	89
376.771	85
376.997	74
377.222	87
377.448	89
377.674	78
377.899	95
378.125	98
378.35	81
378.576	90
378.802	83
379.027	84
379.253	90
379.478	83
379.704	89
379.929	98
380.155	97
380.38	96
380.606	93
380.831	88
381.057	98
381.282	106
381.507	101
381.733	100
381.958	92
382.184	98
382.409	100
382.634	92
382.86	89
383.085	103
383.31	102
383.535	80
383.761	114
383.986	100
384.211	108
384.436	99
384.662	102
384.887	97
385.112	71
385.337	97
385.562	90
385.787	98
386.013	107
386.238	104
386.463	92
386.688	113
386.913	101
387.138	100
387.363	99
387.588	87
387.813	91
388.038	90
388.263	98
388.488	111
388.713	105
388.938	101
389.163	98
389.387	97
389.612	101
389.837	107
390.062	90
390.287	91
390.512	79
390.736	79
390.961	89
391.186	89
391.411	95
391.636	78
391.86	86
392.085	88
392.31	90
392.534	85
392.759	83
392.984	89
393.208	82
393.433	98
393.658	92
393.882	86
394.107	94
394.331	87
394.556	80
394.78	81
395.005	79
395.229	85
395.454	87
395.678	86
395.903	105
396.127	84
396.352	91
396.576	97
396.801	92
397.025	81
397.249	91
397.474	75
397.698	79
397.922	91
398.147	100
398.371	72
398.595	86
398.82	74
399.044	87
399.268	87
399.492	84
399.717	90
399.941	89
400.165	106
400.389	86
400.613	84
400.837	89
401.062	108
401.286	102
401.51	98
401.734	85
401.958	108
402.182	140
402.406	214
402.63	147
402.854	107
403.078	82
403.302	97
403.526	94
403.75	85
403.974	87
404.198	84
404.422	79
404.645	84
404.869	100
405.093	113
405.317	124
405.541	139
405.765	113
405.988	139
406.212	227
406.436	319
406.66	208
406.883	115
407.107	108
407.331	108
407.555	98
407.778	113
408.002	89
408.226	100
408.449	86
408.673	82
408.896	83
409.12	116
409.344	90
409.567	85
409.791	86
410.014	92
410.238	73
410.461	90
410.685	106
410.908	103
411.132	94
411.355	110
411.578	106
411.802	98
412.025	86
412.249	118
412.472	111
412.695	127
412.919	91
413.142	95
413.365	88
413.589	93
413.812	88
414.035	91
414.258	85
414.482	98
414.705	87
414.928	92
415.151	86
415.374	87
415.597	90
415.821	86
416.044	91
416.267	89
416.49	90
416.713	85
416.936	93
417.159	97
417.382	92
417.605	102
417.828	111
418.051	87
418.274	79
418.497	91
418.72	90
418.943	90
419.166	102
419.389	87
419.611	79
419.834	99
420.057	83
420.28	101
420.503	76
420.726	77
420.948	91
421.171	114
421.394	97
421.617	91
421.839	90
422.062	93
422.285	84
422.507	92
422.73	125
422.953	100
423.175	90
423.398	100
423.621	82
423.843	102
424.066	97
424.288	85
424.511	93
424.733	117
424.956	102
425.178	103
425.401	121
425.623	116
425.846	87
426.068	98
426.291	107
426.513	101
426.735	79
426.958	111
427.18	110
427.402	170
427.625	258
427.847	236
428.069	215
428.292	117
428.514	100
428.736	82
428.958	77
429.181	81
429.403	71
429.625	83
429.847	95
430.069	92
430.292	94
430.514	96
430.736	107
430.958	90
431.18	91
431.402	89
431.624	74
431.846	81
432.068	83
432.29	106
432.512	91
432.734	91
432.956	98
433.178	99
433.4	97
433.622	81
433.844	95
434.066	88
434.287	102
434.509	91
434.731	99
434.953	102
435.175	75
435.397	100
435.618	90
435.84	108
436.062	160
436.284	138
436.505	104
436.727	114
436.949	90
437.17	99
437.392	87
437.614	94
437.835	131
438.057	140
438.278	135
438.5	113
438.721	135
438.943	106
439.165	86
439.386	96
439.608	92
439.829	129
440.05	147
440.272	190
440.493	112
440.715	92
440.936	84
441.158	71
441.379	91
441.6	95
441.822	115
442.043	105
442.264	133
442.486	115
442.707	92
442.928	123
443.149	190
443.371	156
443.592	136
443.813	135
444.034	122
444.255	95
444.476	88
444.698	80
444.919	98
445.14	135
445.361	150
445.582	137
445.803	201
446.024	193
446.245	182
446.466	140
446.687	78
446.908	84
447.129	94
447.35	89
447.571	91
447.792	92
448.013	113
448.234	106
448.455	109
448.675	134
448.896	139
449.117	132
449.338	109
449.559	143
449.779	161
450	105
450.221	94
450.442	96
450.662	108
450.883	130
451.104	145
451.324	106
451.545	107
451.766	92
451.986	86
452.207	91
452.428	95
452.648	95
452.869	131
453.089	122
453.31	148
453.53	99
453.751	113
453.971	108
454.192	132
454.412	108
454.633	94
454.853	79
455.073	102
455.294	109
455.514	115
455.734	80
455.955	86
456.175	77
456.395	80
456.616	81
456.836	85
457.056	85
457.276	94
457.497	100
457.717	90
457.937	87
458.157	89
458.377	75
458.598	119
458.818	217
459.038	251
459.258	169
459.478	108
459.698	77
459.918	81
460.138	75
460.358	81
460.578	93
460.798	106
461.018	109
461.238	79
461.458	82
461.678	88
461.898	93
462.118	85
462.338	84
462.558	80
462.777	91
462.997	94
463.217	95
463.437	93
463.657	89
463.876	82
464.096	105
464.316	115
464.536	88
464.755	115
464.975	115
465.195	221
465.414	250
465.634	103
465.854	85
466.073	81
466.293	93
466.512	88
466.732	93
466.951	95
467.171	94
467.391	100
467.61	142
467.829	167
468.049	420
468.268	613
468.488	181
468.707	105
468.927	94
469.146	83
469.365	88
469.585	88
469.804	101
470.023	117
470.243	98
470.462	110
470.681	135
470.901	84
471.12	99
471.339	106
471.558	100
471.777	130
471.997	243
472.216	789
472.435	1817
472.654	454
472.873	142
473.092	95
473.311	88
473.53	93
473.749	102
473.968	122
474.187	129
474.406	111
474.625	107
474.844	88
475.063	92
475.282	93
475.501	93
475.72	86
475.939	80
476.158	81
476.377	100
476.596	68
476.814	89
477.033	100
477.252	89
477.471	86
477.69	89
477.908	102
478.127	82
478.346	95
478.564	87
478.783	108
479.002	114
479.22	110
479.439	110
479.658	137
479.876	108
480.095	113
480.313	114
480.532	138
480.751	227
480.969	699
481.188	2996
481.406	1846
481.624	282
481.843	127
482.061	93
482.28	89
482.498	105
482.717	94
482.935	82
483.153	64
483.372	91
483.59	90
483.808	97
484.027	94
484.245	95
484.463	85
484.681	92
484.9	88
485.118	94
485.336	86
485.554	94
485.772	94
485.99	102
486.209	104
486.427	104
486.645	108
486.863	131
487.081	105
487.299	113
487.517	94
487.735	83
487.953	83
488.171	93
488.389	89
488.607	91
488.825	97
489.043	92
489.261	84
489.479	88
489.696	80
489.914	97
490.132	86
490.35	76
490.568	65
490.786	81
491.003	87
491.221	84
491.439	92
491.657	89
491.874	83
492.092	93
492.31	98
492.527	101
492.745	88
492.963	102
493.18	102
493.398	98
493.615	105
493.833	93
494.05	97
494.268	83
494.485	98
494.703	85
494.92	95
495.138	82
495.355	85
495.573	77
495.79	86
496.008	85
496.225	91
496.442	90
496.66	92
496.877	86
497.094	83
497.312	97
497.529	83
497.746	86
497.963	87
498.181	83
498.398	96
498.615	131
498.832	104
499.049	77
499.267	83
499.484	91
499.701	97
499.918	76
500.135	87
500.352	91
500.569	80
500.786	90
501.003	100
501.22	88
501.437	90
501.654	91
501.871	115
502.088	97
502.305	106
502.522	95
502.739	85
502.956	89
503.172	85
503.389	104
503.606	116
503.823	117
504.04	85
504.256	86
504.473	91
504.69	97
504.907	91
505.123	86
505.34	89
505.557	95
505.773	98
505.99	92
506.207	90
506.423	76
506.64	93
506.856	81
507.073	82
507.289	101
507.506	101
507.722	145
507.939	144
508.155	94
508.372	96
508.588	97
508.805	103
509.021	117
509.238	114
509.454	99
509.67	103
509.887	109
510.103	141
510.319	238
510.536	863
510.752	3115
510.968	914
511.184	193
511.401	103
511.617	115
511.833	108
512.049	108
512.265	107
512.481	77
512.698	105
512.914	91
513.13	102
513.346	103
513.562	95
513.778	102
513.994	101
514.21	117
514.426	151
514.642	173
514.858	168
515.074	236
515.29	696
515.506	2503
515.721	921
515.937	203
516.153	129
516.369	88
516.585	101
516.801	100
517.016	102
517.232	111
517.448	101
517.664	101
517.879	98
518.095	98
518.311	108
518.527	97
518.742	111
518.958	97
519.173	92
519.389	103
519.605	100
519.82	101
520.036	90
520.251	151
520.467	137
520.682	122
520.898	125
521.113	149
521.329	181
521.544	278
521.76	889
521.975	4170
522.19	2578
522.406	524
522.621	154
522.836	122
523.052	99
523.267	93
523.482	83
523.698	124
523.913	150
524.128	114
524.343	99
524.559	95
524.774	101
524.989	91
525.204	107
525.419	110
525.634	102
525.849	83
526.064	108
526.28	91
526.495	78
526.71	99
526.925	94
527.14	97
527.355	98
527.57	83
527.785	96
527.999	98
528.214	103
528.429	91
528.644	98
528.859	91
529.074	79
529.289	164
529.503	290
529.718	126
529.933	86
530.148	91
530.363	87
530.577	110
530.792	96
531.007	82
531.221	84
531.436	96
531.651	93
531.865	90
532.08	87
532.295	92
532.509	103
532.724	91
532.938	90
533.153	92
533.367	101
533.582	121
533.796	101
534.011	116
534.225	94
534.44	87
534.654	89
534.868	101
535.083	90
535.297	107
535.511	100
535.726	118
535.94	98
536.154	85
536.369	92
536.583	89
536.797	97
537.011	88
537.225	85
537.44	110
537.654	83
537.868	89
538.082	86
538.296	85
538.51	93
538.724	83
538.938	98
539.153	100
539.367	130
539.581	92
539.795	87
540.009	89
540.222	89
540.436	93
540.65	74
540.864	94
541.078	105
541.292	101
541.506	72
541.72	86
541.934	99
542.147	93
542.361	90
542.575	87
542.789	76
543.002	92
543.216	92
543.43	82
543.644	75
543.857	86
544.071	83
544.285	95
544.498	83
544.712	104
544.925	104
545.139	77
545.352	81
545.566	87
545.779	92
545.993	89
546.206	82
546.42	105
546.633	87
546.847	91
547.06	81
547.274	103
547.487	93
547.7	86
547.914	89
548.127	94
548.34	87
548.554	84
548.767	102
548.98	82
549.193	87
549.407	91
549.62	89
549.833	93
550.046	94
550.259	87
550.473	81
550.686	86
550.899	79
551.112	85
551.325	97
551.538	88
551.751	92
551.964	101
552.177	90
552.39	87
552.603	75
552.816	93
553.029	90
553.242	86
553.455	98
553.667	122
553.88	121
554.093	88
554.306	101
554.519	102
554.732	101
554.944	97
555.157	84
555.37	94
555.583	93
555.795	82
556.008	88
556.221	81
556.433	89
556.646	95
556.859	91
557.071	90
557.284	97
557.496	86
557.709	101
557.921	89
558.134	90
558.346	84
558.559	71
558.771	83
558.984	79
559.196	99
559.409	85
559.621	89
559.833	93
560.046	88
560.258	102
560.47	125
560.683	98
560.895	77
561.107	96
561.32	92
561.532	92
561.744	77
561.956	95
562.168	91
562.381	85
562.593	83
562.805	87
563.017	105
563.229	101
563.441	97
563.653	64
563.865	87
564.077	78
564.289	90
564.501	105
564.713	97
564.925	92
565.137	107
565.349	77
565.561	83
565.773	87
565.985	91
566.197	75
566.408	104
566.62	89
566.832	77
567.044	72
567.255	82
567.467	89
567.679	78
567.891	81
568.102	83
568.314	74
568.526	103
568.737	88
568.949	89
569.161	74
569.372	85
569.584	78
569.795	101
570.007	119
570.218	289
570.43	147
570.641	90
570.853	82
571.064	76
571.276	92
571.487	82
571.698	91
571.91	88
572.121	86
572.333	84
572.544	76
572.755	88
572.966	78
573.178	77
573.389	93
573.6	97
573.811	95
574.023	98
574.234	83
574.445	88
574.656	78
574.867	71
575.078	100
575.289	78
575.501	91
575.712	92
575.923	91
576.134	93
576.345	76
576.556	99
576.767	89
576.978	91
577.188	86
577.399	95
577.61	84
577.821	91
578.032	145
578.243	294
578.454	946
578.665	236
578.875	101
579.086	82
579.297	84
579.508	87
579.718	86
579.929	92
580.14	86
580.35	89
580.561	89
