Data from Circ_2013_H10_HRD10591_00028.txt Node
Date: Wed Jan 03 10:04:05 EST 2024
User: Yrep
Spectrometer: HR+D1059
Trigger mode: 1
Integration Time (sec): 1.000000E-1
Scans to average: 1
Electric dark correction enabled: true
Nonlinearity correction enabled: false
Boxcar width: 0
XAxis mode: Wavelengths
Number of Pixels in Spectrum: 2048
>>>>>Begin Spectral Data<<<<<
223.165	-18.44
223.4	-18.44
223.635	-18.44
223.869	-7.44
224.104	-19.44
224.338	-25.44
224.573	-8.44
224.808	-15.44
225.042	-11.44
225.277	-5.44
225.511	2.56
225.746	-4.44
225.98	4.56
226.215	13.56
226.449	25.56
226.683	14.56
226.918	25.56
227.152	29.56
227.387	28.56
227.621	41.56
227.856	35.56
228.09	46.56
228.324	52.56
228.559	43.56
228.793	40.56
229.027	49.56
229.262	50.56
229.496	56.56
229.73	84.56
229.964	90.56
230.199	82.56
230.433	83.56
230.667	76.56
230.901	86.56
231.136	67.56
231.37	76.56
231.604	88.56
231.838	88.56
232.072	77.56
232.306	87.56
232.541	82.56
232.775	59.56
233.009	78.56
233.243	88.56
233.477	87.56
233.711	83.56
233.945	85.56
234.179	89.56
234.413	66.56
234.647	55.56
234.881	79.56
235.115	75.56
235.349	72.56
235.583	71.56
235.817	74.56
236.051	87.56
236.285	84.56
236.519	76.56
236.753	77.56
236.987	82.56
237.221	75.56
237.455	93.56
237.689	81.56
237.922	78.56
238.156	84.56
238.39	80.56
238.624	84.56
238.858	78.56
239.091	59.56
239.325	68.56
239.559	74.56
239.793	94.56
240.027	102.56
240.26	81.56
240.494	73.56
240.728	77.56
240.961	72.56
241.195	78.56
241.429	81.56
241.662	77.56
241.896	80.56
242.13	81.56
242.363	82.56
242.597	76.56
242.83	76.56
243.064	77.56
243.298	83.56
243.531	90.56
243.765	86.56
243.998	78.56
244.232	76.56
244.465	84.56
244.699	62.56
244.932	57.56
245.166	83.56
245.399	75.56
245.633	73.56
245.866	82.56
246.099	68.56
246.333	76.56
246.566	78.56
246.8	71.56
247.033	81.56
247.266	74.56
247.5	73.56
247.733	82.56
247.966	85.56
248.2	68.56
248.433	81.56
248.666	84.56
248.899	100.56
249.133	83.56
249.366	103.56
249.599	85.56
249.832	83.56
250.066	88.56
250.299	90.56
250.532	74.56
250.765	85.56
250.998	76.56
251.231	88.56
251.465	77.56
251.698	86.56
251.931	81.56
252.164	69.56
252.397	80.56
252.63	87.56
252.863	85.56
253.096	83.56
253.329	70.56
253.562	81.56
253.795	76.56
254.028	78.56
254.261	86.56
254.494	90.56
254.727	92.56
254.96	74.56
255.193	73.56
255.426	91.56
255.659	80.56
255.892	78.56
256.124	77.56
256.357	86.56
256.59	86.56
256.823	74.56
257.056	81.56
257.289	68.56
257.521	82.56
257.754	68.56
257.987	72.56
258.22	90.56
258.452	82.56
258.685	72.56
258.918	77.56
259.151	79.56
259.383	75.56
259.616	79.56
259.849	82.56
260.081	93.56
260.314	70.56
260.547	85.56
260.779	93.56
261.012	75.56
261.244	82.56
261.477	85.56
261.71	88.56
261.942	112.56
262.175	109.56
262.407	80.56
262.64	89.56
262.872	85.56
263.105	76.56
263.337	91.56
263.57	82.56
263.802	91.56
264.035	83.56
264.267	86.56
264.499	85.56
264.732	90.56
264.964	71.56
265.197	94.56
265.429	75.56
265.661	91.56
265.894	87.56
266.126	75.56
266.358	91.56
266.591	83.56
266.823	73.56
267.055	72.56
267.287	76.56
267.52	86.56
267.752	76.56
267.984	89.56
268.216	86.56
268.448	81.56
268.681	82.56
268.913	88.56
269.145	73.56
269.377	82.56
269.609	81.56
269.841	76.56
270.073	82.56
270.306	96.56
270.538	91.56
270.77	68.56
271.002	83.56
271.234	78.56
271.466	86.56
271.698	89.56
271.93	83.56
272.162	78.56
272.394	87.56
272.626	98.56
272.858	82.56
273.09	84.56
273.322	94.56
273.553	92.56
273.785	92.56
274.017	73.56
274.249	87.56
274.481	83.56
274.713	90.56
274.945	80.56
275.176	89.56
275.408	86.56
275.64	92.56
275.872	98.56
276.104	97.56
276.335	88.56
276.567	112.56
276.799	124.56
277.031	129.56
277.262	114.56
277.494	109.56
277.726	98.56
277.957	100.56
278.189	76.56
278.421	81.56
278.652	89.56
278.884	97.56
279.115	84.56
279.347	86.56
279.579	107.56
279.81	104.56
280.042	110.56
280.273	136.56
280.505	110.56
280.736	89.56
280.968	85.56
281.199	82.56
281.431	101.56
281.662	71.56
281.894	89.56
282.125	97.56
282.356	137.56
282.588	149.56
282.819	118.56
283.051	75.56
283.282	68.56
283.513	82.56
283.745	100.56
283.976	82.56
284.207	91.56
284.439	103.56
284.67	94.56
284.901	77.56
285.132	91.56
285.364	80.56
285.595	79.56
285.826	82.56
286.057	74.56
286.288	93.56
286.52	98.56
286.751	76.56
286.982	97.56
287.213	76.56
287.444	84.56
287.675	80.56
287.906	90.56
288.138	104.56
288.369	98.56
288.6	94.56
288.831	96.56
289.062	81.56
289.293	88.56
289.524	80.56
289.755	84.56
289.986	81.56
290.217	82.56
290.448	87.56
290.679	82.56
290.91	97.56
291.141	81.56
291.371	84.56
291.602	92.56
291.833	80.56
292.064	77.56
292.295	77.56
292.526	81.56
292.757	99.56
292.987	102.56
293.218	73.56
293.449	83.56
293.68	95.56
293.91	87.56
294.141	92.56
294.372	102.56
294.603	80.56
294.833	92.56
295.064	98.56
295.295	93.56
295.525	78.56
295.756	93.56
295.987	113.56
296.217	136.56
296.448	143.56
296.679	101.56
296.909	102.56
297.14	93.56
297.37	86.56
297.601	91.56
297.831	104.56
298.062	83.56
298.292	86.56
298.523	80.56
298.753	84.56
298.984	77.56
299.214	78.56
299.445	97.56
299.675	100.56
299.905	113.56
300.136	89.56
300.366	83.56
300.597	89.56
300.827	85.56
301.057	102.56
301.288	116.56
301.518	97.56
301.748	91.56
301.979	115.56
302.209	98.56
302.439	113.56
302.669	95.56
302.9	79.56
303.13	87.56
303.36	101.56
303.59	110.56
303.82	101.56
304.051	94.56
304.281	97.56
304.511	90.56
304.741	86.56
304.971	89.56
305.201	89.56
305.431	81.56
305.661	104.56
305.891	80.56
306.121	89.56
306.352	107.56
306.582	109.56
306.812	126.56
307.042	105.56
307.272	116.56
307.502	124.56
307.731	110.56
307.961	104.56
308.191	101.56
308.421	79.56
308.651	87.56
308.881	80.56
309.111	98.56
309.341	102.56
309.571	104.56
309.8	98.56
310.03	107.56
310.26	90.56
310.49	96.56
310.72	98.56
310.949	87.56
311.179	95.56
311.409	105.56
311.639	83.56
311.868	109.56
312.098	90.56
312.328	94.56
312.557	93.56
312.787	101.56
313.017	90.56
313.246	105.56
313.476	101.56
313.706	90.56
313.935	94.56
314.165	109.56
314.394	92.56
314.624	91.56
314.853	90.56
315.083	90.56
315.312	91.56
315.542	74.56
315.771	104.56
316.001	91.56
316.23	100.56
316.46	77.56
316.689	84.56
316.919	97.56
317.148	84.56
317.377	97.56
317.607	84.56
317.836	90.56
318.065	85.56
318.295	96.56
318.524	96.56
318.753	91.56
318.983	81.56
319.212	97.56
319.441	107.56
319.67	105.56
319.9	98.56
320.129	84.56
320.358	101.56
320.587	108.56
320.816	91.56
321.046	91.56
321.275	120.56
321.504	95.56
321.733	105.56
321.962	103.56
322.191	104.56
322.42	116.56
322.649	123.56
322.878	106.56
323.108	117.56
323.337	130.56
323.566	146.56
323.795	172.56
324.024	233.56
324.253	468.56
324.482	972.56
324.71	2030.56
324.939	2629.56
325.168	964.56
325.397	286.56
325.626	156.56
325.855	146.56
326.084	138.56
326.313	145.56
326.542	163.56
326.77	265.56
326.999	505.56
327.228	1120.56
327.457	2058.56
327.686	1650.56
327.914	448.56
328.143	298.56
328.372	309.56
328.6	184.56
328.829	138.56
329.058	148.56
329.287	161.56
329.515	129.56
329.744	155.56
329.972	204.56
330.201	384.56
330.43	560.56
330.658	300.56
330.887	182.56
331.115	134.56
331.344	106.56
331.572	100.56
331.801	98.56
332.03	101.56
332.258	94.56
332.486	100.56
332.715	97.56
332.943	100.56
333.172	100.56
333.4	109.56
333.629	112.56
333.857	126.56
334.085	214.56
334.314	351.56
334.542	656.56
334.771	644.56
334.999	217.56
335.227	114.56
335.455	100.56
335.684	112.56
335.912	103.56
336.14	99.56
336.369	93.56
336.597	99.56
336.825	88.56
337.053	90.56
337.281	97.56
337.51	99.56
337.738	99.56
337.966	105.56
338.194	89.56
338.422	97.56
338.65	88.56
338.878	88.56
339.106	89.56
339.334	97.56
339.562	85.56
339.79	88.56
340.018	82.56
340.246	83.56
340.474	92.56
340.702	92.56
340.93	94.56
341.158	86.56
341.386	92.56
341.614	105.56
341.842	102.56
342.07	90.56
342.298	112.56
342.526	96.56
342.754	89.56
342.981	93.56
343.209	78.56
343.437	82.56
343.665	87.56
343.893	99.56
344.12	82.56
344.348	81.56
344.576	95.56
344.804	94.56
345.031	106.56
345.259	120.56
345.487	74.56
345.714	99.56
345.942	95.56
346.17	89.56
346.397	104.56
346.625	97.56
346.853	97.56
347.08	82.56
347.308	93.56
347.535	98.56
347.763	103.56
347.99	89.56
348.218	98.56
348.445	115.56
348.673	92.56
348.9	91.56
349.128	100.56
349.355	83.56
349.583	87.56
349.81	87.56
350.037	92.56
350.265	89.56
350.492	90.56
350.72	94.56
350.947	88.56
351.174	114.56
351.402	118.56
351.629	101.56
351.856	102.56
352.083	106.56
352.311	115.56
352.538	130.56
352.765	104.56
352.992	120.56
353.22	122.56
353.447	112.56
353.674	104.56
353.901	89.56
354.128	91.56
354.355	84.56
354.583	95.56
354.81	90.56
355.037	91.56
355.264	91.56
355.491	88.56
355.718	82.56
355.945	94.56
356.172	86.56
356.399	91.56
356.626	96.56
356.853	95.56
357.08	85.56
357.307	92.56
357.534	86.56
357.761	88.56
357.988	85.56
358.215	107.56
358.441	94.56
358.668	100.56
358.895	94.56
359.122	96.56
359.349	97.56
359.576	94.56
359.802	98.56
360.029	136.56
360.256	118.56
360.483	103.56
360.709	90.56
360.936	93.56
361.163	97.56
361.39	101.56
361.616	87.56
361.843	91.56
362.07	94.56
362.296	90.56
362.523	99.56
362.749	92.56
362.976	91.56
363.203	93.56
363.429	89.56
363.656	95.56
363.882	92.56
364.109	94.56
364.335	92.56
364.562	92.56
364.788	99.56
365.015	91.56
365.241	94.56
365.468	118.56
365.694	109.56
365.92	101.56
366.147	86.56
366.373	77.56
366.599	84.56
366.826	95.56
367.052	104.56
367.278	99.56
367.505	84.56
367.731	91.56
367.957	96.56
368.184	96.56
368.41	100.56
368.636	120.56
368.862	126.56
369.089	102.56
369.315	101.56
369.541	88.56
369.767	93.56
369.993	92.56
370.219	90.56
370.445	84.56
370.672	72.56
370.898	67.56
371.124	90.56
371.35	77.56
371.576	94.56
371.802	96.56
372.028	77.56
372.254	88.56
372.48	96.56
372.706	83.56
372.932	85.56
373.158	92.56
373.384	93.56
373.61	90.56
373.835	89.56
374.061	100.56
374.287	104.56
374.513	95.56
374.739	81.56
374.965	96.56
375.191	88.56
375.416	96.56
375.642	83.56
375.868	98.56
376.094	88.56
376.319	84.56
376.545	100.56
376.771	88.56
376.997	94.56
377.222	87.56
377.448	83.56
377.674	75.56
377.899	108.56
378.125	90.56
378.35	86.56
378.576	96.56
378.802	82.56
379.027	72.56
379.253	84.56
379.478	90.56
379.704	91.56
379.929	103.56
380.155	100.56
380.38	99.56
380.606	98.56
380.831	91.56
381.057	89.56
381.282	97.56
381.507	93.56
381.733	91.56
381.958	105.56
382.184	98.56
382.409	98.56
382.634	91.56
382.86	102.56
383.085	89.56
383.31	86.56
383.535	105.56
383.761	106.56
383.986	95.56
384.211	105.56
384.436	94.56
384.662	112.56
384.887	101.56
385.112	97.56
385.337	97.56
385.562	94.56
385.787	98.56
386.013	117.56
386.238	117.56
386.463	98.56
386.688	97.56
386.913	125.56
387.138	112.56
387.363	106.56
387.588	96.56
387.813	106.56
388.038	128.56
388.263	101.56
388.488	120.56
388.713	92.56
388.938	94.56
389.163	92.56
389.387	95.56
389.612	112.56
389.837	94.56
390.062	90.56
390.287	88.56
390.512	84.56
390.736	88.56
390.961	93.56
391.186	106.56
391.411	89.56
391.636	112.56
391.86	81.56
392.085	85.56
392.31	89.56
392.534	86.56
392.759	92.56
392.984	89.56
393.208	82.56
393.433	96.56
393.658	92.56
393.882	94.56
394.107	85.56
394.331	80.56
394.556	74.56
394.78	87.56
395.005	82.56
395.229	97.56
395.454	80.56
395.678	82.56
395.903	97.56
396.127	94.56
396.352	78.56
396.576	85.56
396.801	93.56
397.025	81.56
397.249	88.56
397.474	96.56
397.698	87.56
397.922	84.56
398.147	84.56
398.371	77.56
398.595	92.56
398.82	83.56
399.044	97.56
399.268	95.56
399.492	80.56
399.717	82.56
399.941	95.56
400.165	94.56
400.389	89.56
400.613	84.56
400.837	86.56
401.062	93.56
401.286	98.56
401.51	94.56
401.734	96.56
401.958	116.56
402.182	139.56
402.406	160.56
402.63	115.56
402.854	101.56
403.078	80.56
403.302	76.56
403.526	79.56
403.75	85.56
403.974	80.56
404.198	89.56
404.422	84.56
404.645	102.56
404.869	90.56
405.093	114.56
405.317	114.56
405.541	115.56
405.765	102.56
405.988	127.56
406.212	184.56
406.436	280.56
406.66	168.56
406.883	111.56
407.107	106.56
407.331	101.56
407.555	95.56
407.778	99.56
408.002	77.56
408.226	88.56
408.449	85.56
408.673	89.56
408.896	93.56
409.12	89.56
409.344	78.56
409.567	88.56
409.791	84.56
410.014	95.56
410.238	77.56
410.461	86.56
410.685	74.56
410.908	81.56
411.132	104.56
411.355	86.56
411.578	93.56
411.802	88.56
412.025	84.56
412.249	88.56
412.472	102.56
412.695	123.56
412.919	105.56
413.142	101.56
413.365	87.56
413.589	83.56
413.812	95.56
414.035	83.56
414.258	91.56
414.482	90.56
414.705	90.56
414.928	79.56
415.151	89.56
415.374	88.56
415.597	102.56
415.821	92.56
416.044	88.56
416.267	87.56
416.49	100.56
416.713	93.56
416.936	87.56
417.159	82.56
417.382	100.56
417.605	91.56
417.828	98.56
418.051	101.56
418.274	96.56
418.497	80.56
418.72	88.56
418.943	78.56
419.166	72.56
419.389	93.56
419.611	95.56
419.834	98.56
420.057	84.56
420.28	100.56
420.503	91.56
420.726	108.56
420.948	91.56
421.171	84.56
421.394	98.56
421.617	88.56
421.839	86.56
422.062	95.56
422.285	90.56
422.507	113.56
422.73	105.56
422.953	99.56
423.175	90.56
423.398	94.56
423.621	78.56
423.843	97.56
424.066	85.56
424.288	99.56
424.511	105.56
424.733	85.56
424.956	112.56
425.178	99.56
425.401	110.56
425.623	102.56
425.846	92.56
426.068	100.56
426.291	96.56
426.513	85.56
426.735	97.56
426.958	97.56
427.18	111.56
427.402	151.56
427.625	211.56
427.847	187.56
428.069	155.56
428.292	109.56
428.514	93.56
428.736	86.56
428.958	88.56
429.181	75.56
429.403	91.56
429.625	86.56
429.847	93.56
430.069	88.56
430.292	107.56
430.514	82.56
430.736	97.56
430.958	85.56
431.18	88.56
431.402	82.56
431.624	82.56
431.846	89.56
432.068	87.56
432.29	88.56
432.512	92.56
432.734	83.56
432.956	88.56
433.178	105.56
433.4	107.56
433.622	98.56
433.844	101.56
434.066	89.56
434.287	97.56
434.509	84.56
434.731	82.56
434.953	98.56
435.175	96.56
435.397	82.56
435.618	98.56
435.84	104.56
436.062	119.56
436.284	112.56
436.505	113.56
436.727	84.56
436.949	90.56
437.17	88.56
437.392	92.56
437.614	92.56
437.835	112.56
438.057	132.56
438.278	121.56
438.5	100.56
438.721	130.56
438.943	104.56
439.165	80.56
439.386	77.56
439.608	87.56
439.829	95.56
440.05	147.56
440.272	160.56
440.493	108.56
440.715	88.56
440.936	98.56
441.158	85.56
441.379	92.56
441.6	89.56
441.822	90.56
442.043	100.56
442.264	106.56
442.486	115.56
442.707	100.56
442.928	110.56
443.149	139.56
443.371	152.56
443.592	116.56
443.813	126.56
444.034	116.56
444.255	94.56
444.476	85.56
444.698	84.56
444.919	89.56
445.14	135.56
445.361	119.56
445.582	133.56
445.803	168.56
446.024	159.56
446.245	152.56
446.466	121.56
446.687	75.56
446.908	85.56
447.129	99.56
447.35	90.56
447.571	97.56
447.792	103.56
448.013	101.56
448.234	109.56
448.455	89.56
448.675	127.56
448.896	132.56
449.117	92.56
449.338	109.56
449.559	140.56
449.779	149.56
450	103.56
450.221	95.56
450.442	73.56
450.662	101.56
450.883	112.56
451.104	122.56
451.324	101.56
451.545	95.56
451.766	87.56
451.986	80.56
452.207	88.56
452.428	94.56
452.648	102.56
452.869	127.56
453.089	120.56
453.31	131.56
453.53	84.56
453.751	97.56
453.971	105.56
454.192	126.56
454.412	98.56
454.633	84.56
454.853	84.56
455.073	80.56
455.294	98.56
455.514	105.56
455.734	84.56
455.955	84.56
456.175	81.56
456.395	69.56
456.616	85.56
456.836	84.56
457.056	72.56
457.276	72.56
457.497	87.56
457.717	91.56
457.937	84.56
458.157	72.56
458.377	79.56
458.598	122.56
458.818	178.56
459.038	185.56
459.258	133.56
459.478	98.56
459.698	89.56
459.918	80.56
460.138	76.56
460.358	78.56
460.578	90.56
460.798	87.56
461.018	86.56
461.238	89.56
461.458	90.56
461.678	76.56
461.898	98.56
462.118	95.56
462.338	94.56
462.558	90.56
462.777	81.56
462.997	79.56
463.217	87.56
463.437	83.56
463.657	89.56
463.876	94.56
464.096	79.56
464.316	99.56
464.536	98.56
464.755	100.56
464.975	103.56
465.195	196.56
465.414	191.56
465.634	105.56
465.854	101.56
466.073	81.56
466.293	99.56
466.512	98.56
466.732	87.56
466.951	86.56
467.171	105.56
467.391	107.56
467.61	120.56
467.829	128.56
468.049	213.56
468.268	317.56
468.488	131.56
468.707	89.56
468.927	100.56
469.146	87.56
469.365	81.56
469.585	98.56
469.804	87.56
470.023	102.56
470.243	88.56
470.462	102.56
470.681	115.56
470.901	92.56
471.12	76.56
471.339	99.56
471.558	90.56
471.777	101.56
471.997	156.56
472.216	389.56
472.435	857.56
472.654	262.56
472.873	106.56
473.092	96.56
473.311	95.56
473.53	87.56
473.749	87.56
473.968	101.56
474.187	116.56
474.406	104.56
474.625	90.56
474.844	89.56
475.063	80.56
475.282	82.56
475.501	86.56
475.72	110.56
475.939	83.56
476.158	86.56
476.377	96.56
476.596	95.56
476.814	91.56
477.033	108.56
477.252	89.56
477.471	79.56
477.69	102.56
477.908	87.56
478.127	97.56
478.346	85.56
478.564	83.56
478.783	105.56
479.002	107.56
479.22	89.56
479.439	114.56
479.658	97.56
479.876	93.56
480.095	101.56
480.313	112.56
480.532	105.56
480.751	154.56
480.969	374.56
481.188	1420.56
481.406	954.56
481.624	214.56
481.843	109.56
482.061	78.56
482.28	94.56
482.498	83.56
482.717	91.56
482.935	81.56
483.153	98.56
483.372	89.56
483.59	82.56
483.808	92.56
484.027	94.56
484.245	85.56
484.463	102.56
484.681	98.56
484.9	96.56
485.118	98.56
485.336	97.56
485.554	97.56
485.772	96.56
485.99	93.56
486.209	107.56
486.427	128.56
486.645	115.56
486.863	112.56
487.081	106.56
487.299	89.56
487.517	86.56
487.735	112.56
487.953	98.56
488.171	110.56
488.389	102.56
488.607	89.56
488.825	98.56
489.043	102.56
489.261	85.56
489.479	79.56
489.696	81.56
489.914	81.56
490.132	97.56
490.35	85.56
490.568	92.56
490.786	84.56
491.003	103.56
491.221	82.56
491.439	96.56
491.657	78.56
491.874	95.56
492.092	81.56
492.31	86.56
492.527	94.56
492.745	95.56
492.963	90.56
493.18	99.56
493.398	85.56
493.615	81.56
493.833	86.56
494.05	78.56
494.268	90.56
494.485	87.56
494.703	87.56
494.92	77.56
495.138	82.56
495.355	91.56
495.573	81.56
495.79	92.56
496.008	97.56
496.225	91.56
496.442	101.56
496.66	93.56
496.877	72.56
497.094	93.56
497.312	95.56
497.529	80.56
497.746	93.56
497.963	97.56
498.181	92.56
498.398	98.56
498.615	108.56
498.832	88.56
499.049	85.56
499.267	74.56
499.484	82.56
499.701	83.56
499.918	84.56
500.135	81.56
500.352	102.56
500.569	94.56
500.786	89.56
501.003	81.56
501.22	95.56
501.437	99.56
501.654	88.56
501.871	112.56
502.088	85.56
502.305	97.56
502.522	82.56
502.739	88.56
502.956	77.56
503.172	78.56
503.389	94.56
503.606	110.56
503.823	106.56
504.04	95.56
504.256	91.56
504.473	79.56
504.69	75.56
504.907	83.56
505.123	95.56
505.34	83.56
505.557	81.56
505.773	88.56
505.99	77.56
506.207	96.56
506.423	97.56
506.64	84.56
506.856	90.56
507.073	99.56
507.289	101.56
507.506	98.56
507.722	126.56
507.939	126.56
508.155	82.56
508.372	84.56
508.588	91.56
508.805	99.56
509.021	88.56
509.238	96.56
509.454	90.56
509.67	114.56
509.887	109.56
510.103	135.56
510.319	225.56
510.536	806.56
510.752	2664.56
510.968	754.56
511.184	158.56
511.401	122.56
511.617	97.56
511.833	88.56
512.049	94.56
512.265	91.56
512.481	102.56
512.698	81.56
512.914	102.56
513.13	90.56
513.346	82.56
513.562	83.56
513.778	91.56
513.994	78.56
514.21	111.56
514.426	140.56
514.642	140.56
514.858	137.56
