Data from Circ_2013_H10_HRD10591_00090.txt Node
Date: Wed Jan 03 10:04:18 EST 2024
User: Yrep
Spectrometer: HR+D1059
Trigger mode: 1
Integration Time (sec): 1.000000E-1
Scans to average: 1
Electric dark correction enabled: true
Nonlinearity correction enabled: false
Boxcar width: 0
XAxis mode: Wavelengths
Number of Pixels in Spectrum: 2048
>>>>>Begin Spectral Data<<<<<
223.165	-17.62
223.4	-17.62
223.635	-17.62
223.869	-9.62
224.104	-2.62
224.338	-27.62
224.573	-30.62
224.808	-11.62
225.042	-1.62
225.277	3.38
225.511	-4.62
225.746	-6.62
225.98	-2.62
226.215	11.38
226.449	22.38
226.683	26.38
226.918	21.38
227.152	30.38
227.387	36.38
227.621	48.38
227.856	43.38
228.09	53.38
228.324	61.38
228.559	56.38
228.793	65.38
229.027	60.38
229.262	83.38
229.496	76.38
229.73	97.38
229.964	100.38
230.199	81.38
230.433	91.38
230.667	87.38
230.901	72.38
231.136	73.38
231.37	75.38
231.604	84.38
231.838	72.38
232.072	87.38
232.306	89.38
232.541	75.38
232.775	78.38
233.009	84.38
233.243	75.38
233.477	78.38
233.711	78.38
233.945	83.38
234.179	92.38
234.413	95.38
234.647	95.38
234.881	84.38
235.115	92.38
235.349	92.38
235.583	82.38
235.817	83.38
236.051	75.38
236.285	80.38
236.519	87.38
236.753	86.38
236.987	83.38
237.221	94.38
237.455	86.38
237.689	73.38
237.922	94.38
238.156	80.38
238.39	83.38
238.624	74.38
238.858	88.38
239.091	86.38
239.325	89.38
239.559	78.38
239.793	81.38
240.027	81.38
240.26	87.38
240.494	81.38
240.728	65.38
240.961	85.38
241.195	78.38
241.429	83.38
241.662	64.38
241.896	79.38
242.13	79.38
242.363	77.38
242.597	75.38
242.83	83.38
243.064	77.38
243.298	76.38
243.531	87.38
243.765	74.38
243.998	78.38
244.232	93.38
244.465	95.38
244.699	88.38
244.932	81.38
245.166	84.38
245.399	89.38
245.633	90.38
245.866	88.38
246.099	87.38
246.333	77.38
246.566	82.38
246.8	90.38
247.033	73.38
247.266	84.38
247.5	76.38
247.733	92.38
247.966	76.38
248.2	81.38
248.433	82.38
248.666	78.38
248.899	84.38
249.133	90.38
249.366	103.38
249.599	98.38
249.832	68.38
250.066	82.38
250.299	96.38
250.532	91.38
250.765	77.38
250.998	92.38
251.231	74.38
251.465	80.38
251.698	87.38
251.931	90.38
252.164	67.38
252.397	71.38
252.63	78.38
252.863	83.38
253.096	76.38
253.329	81.38
253.562	86.38
253.795	86.38
254.028	71.38
254.261	83.38
254.494	91.38
254.727	90.38
254.96	76.38
255.193	90.38
255.426	80.38
255.659	86.38
255.892	97.38
256.124	88.38
256.357	89.38
256.59	92.38
256.823	93.38
257.056	91.38
257.289	100.38
257.521	88.38
257.754	68.38
257.987	88.38
258.22	91.38
258.452	105.38
258.685	92.38
258.918	103.38
259.151	77.38
259.383	87.38
259.616	80.38
259.849	89.38
260.081	86.38
260.314	99.38
260.547	81.38
260.779	84.38
261.012	117.38
261.244	95.38
261.477	98.38
261.71	100.38
261.942	137.38
262.175	144.38
262.407	103.38
262.64	82.38
262.872	93.38
263.105	82.38
263.337	93.38
263.57	96.38
263.802	88.38
264.035	71.38
264.267	83.38
264.499	93.38
264.732	70.38
264.964	80.38
265.197	101.38
265.429	78.38
265.661	75.38
265.894	87.38
266.126	82.38
266.358	88.38
266.591	87.38
266.823	87.38
267.055	82.38
267.287	89.38
267.52	86.38
267.752	78.38
267.984	88.38
268.216	75.38
268.448	84.38
268.681	94.38
268.913	88.38
269.145	104.38
269.377	85.38
269.609	69.38
269.841	77.38
270.073	86.38
270.306	102.38
270.538	102.38
270.77	80.38
271.002	91.38
271.234	95.38
271.466	88.38
271.698	95.38
271.93	93.38
272.162	86.38
272.394	91.38
272.626	72.38
272.858	89.38
273.09	85.38
273.322	84.38
273.553	98.38
273.785	89.38
274.017	75.38
274.249	87.38
274.481	78.38
274.713	91.38
274.945	96.38
275.176	81.38
275.408	107.38
275.64	106.38
275.872	117.38
276.104	104.38
276.335	92.38
276.567	130.38
276.799	158.38
277.031	165.38
277.262	178.38
277.494	144.38
277.726	97.38
277.957	84.38
278.189	91.38
278.421	100.38
278.652	85.38
278.884	79.38
279.115	96.38
279.347	91.38
279.579	114.38
279.81	120.38
280.042	181.38
280.273	215.38
280.505	169.38
280.736	118.38
280.968	102.38
281.199	90.38
281.431	108.38
281.662	88.38
281.894	93.38
282.125	119.38
282.356	132.38
282.588	183.38
282.819	135.38
283.051	101.38
283.282	107.38
283.513	88.38
283.745	94.38
283.976	96.38
284.207	91.38
284.439	89.38
284.67	87.38
284.901	93.38
285.132	83.38
285.364	88.38
285.595	86.38
285.826	95.38
286.057	83.38
286.288	92.38
286.52	91.38
286.751	90.38
286.982	86.38
287.213	97.38
287.444	89.38
287.675	100.38
287.906	94.38
288.138	89.38
288.369	93.38
288.6	87.38
288.831	90.38
289.062	95.38
289.293	96.38
289.524	70.38
289.755	81.38
289.986	90.38
290.217	78.38
290.448	87.38
290.679	100.38
290.91	86.38
291.141	96.38
291.371	92.38
291.602	101.38
291.833	70.38
292.064	86.38
292.295	77.38
292.526	101.38
292.757	86.38
292.987	106.38
293.218	88.38
293.449	84.38
293.68	93.38
293.91	95.38
294.141	95.38
294.372	96.38
294.603	89.38
294.833	88.38
295.064	84.38
295.295	102.38
295.525	80.38
295.756	117.38
295.987	134.38
296.217	166.38
296.448	163.38
296.679	111.38
296.909	100.38
297.14	110.38
297.37	98.38
297.601	87.38
297.831	96.38
298.062	104.38
298.292	90.38
298.523	95.38
298.753	91.38
298.984	90.38
299.214	81.38
299.445	103.38
299.675	104.38
299.905	88.38
300.136	88.38
300.366	92.38
300.597	89.38
300.827	119.38
301.057	88.38
301.288	115.38
301.518	109.38
301.748	108.38
301.979	119.38
302.209	107.38
302.439	114.38
302.669	89.38
302.9	108.38
303.13	106.38
303.36	117.38
303.59	147.38
303.82	149.38
304.051	92.38
304.281	108.38
304.511	91.38
304.741	90.38
304.971	88.38
305.201	91.38
305.431	91.38
305.661	91.38
305.891	100.38
306.121	104.38
306.352	124.38
306.582	121.38
306.812	118.38
307.042	108.38
307.272	142.38
307.502	176.38
307.731	176.38
307.961	131.38
308.191	102.38
308.421	104.38
308.651	110.38
308.881	96.38
309.111	104.38
309.341	114.38
309.571	108.38
309.8	105.38
310.03	101.38
310.26	113.38
310.49	94.38
310.72	117.38
310.949	107.38
311.179	112.38
311.409	112.38
311.639	99.38
311.868	88.38
312.098	99.38
312.328	115.38
312.557	117.38
312.787	132.38
313.017	116.38
313.246	101.38
313.476	94.38
313.706	100.38
313.935	114.38
314.165	114.38
314.394	126.38
314.624	106.38
314.853	134.38
315.083	104.38
315.312	91.38
315.542	88.38
315.771	98.38
316.001	97.38
316.23	101.38
316.46	87.38
316.689	91.38
316.919	109.38
317.148	104.38
317.377	98.38
317.607	107.38
317.836	113.38
318.065	101.38
318.295	100.38
318.524	105.38
318.753	86.38
318.983	104.38
319.212	106.38
319.441	110.38
319.67	129.38
319.9	96.38
320.129	114.38
320.358	93.38
320.587	104.38
320.816	101.38
321.046	122.38
321.275	111.38
321.504	102.38
321.733	109.38
321.962	111.38
322.191	117.38
322.42	124.38
322.649	140.38
322.878	127.38
323.108	131.38
323.337	137.38
323.566	158.38
323.795	157.38
324.024	237.38
324.253	487.38
324.482	986.38
324.71	2019.38
324.939	2612.38
325.168	995.38
325.397	299.38
325.626	178.38
325.855	159.38
326.084	144.38
326.313	159.38
326.542	174.38
326.77	251.38
326.999	501.38
327.228	1003.38
327.457	1850.38
327.686	1537.38
327.914	536.38
328.143	481.38
328.372	594.38
328.6	363.38
328.829	184.38
329.058	204.38
329.287	194.38
329.515	183.38
329.744	238.38
329.972	435.38
330.201	859.38
330.43	1242.38
330.658	574.38
330.887	299.38
331.115	196.38
331.344	130.38
331.572	121.38
331.801	137.38
332.03	120.38
332.258	108.38
332.486	114.38
332.715	108.38
332.943	112.38
333.172	120.38
333.4	121.38
333.629	143.38
333.857	211.38
334.085	390.38
334.314	756.38
334.542	1527.38
334.771	1509.38
334.999	403.38
335.227	165.38
335.455	123.38
335.684	116.38
335.912	94.38
336.14	106.38
336.369	102.38
336.597	118.38
336.825	121.38
337.053	94.38
337.281	93.38
337.51	86.38
337.738	98.38
337.966	91.38
338.194	124.38
338.422	108.38
338.65	102.38
338.878	117.38
339.106	99.38
339.334	94.38
339.562	94.38
339.79	101.38
340.018	94.38
340.246	98.38
340.474	107.38
340.702	101.38
340.93	88.38
341.158	97.38
341.386	99.38
341.614	111.38
341.842	99.38
342.07	109.38
342.298	103.38
342.526	97.38
342.754	102.38
342.981	87.38
343.209	76.38
343.437	104.38
343.665	105.38
343.893	104.38
344.12	86.38
344.348	77.38
344.576	95.38
344.804	90.38
345.031	112.38
345.259	123.38
345.487	109.38
345.714	116.38
345.942	93.38
346.17	86.38
346.397	92.38
346.625	94.38
346.853	112.38
347.08	94.38
347.308	103.38
347.535	105.38
347.763	125.38
347.99	114.38
348.218	110.38
348.445	120.38
348.673	121.38
348.9	111.38
349.128	98.38
349.355	108.38
349.583	92.38
349.81	109.38
350.037	93.38
350.265	90.38
350.492	98.38
350.72	111.38
350.947	109.38
351.174	127.38
351.402	114.38
351.629	132.38
351.856	96.38
352.083	130.38
352.311	107.38
352.538	126.38
352.765	108.38
352.992	120.38
353.22	119.38
353.447	124.38
353.674	107.38
353.901	110.38
354.128	101.38
354.355	89.38
354.583	96.38
354.81	105.38
355.037	103.38
355.264	99.38
355.491	85.38
355.718	87.38
355.945	90.38
356.172	109.38
356.399	99.38
356.626	80.38
356.853	84.38
357.08	109.38
357.307	101.38
357.534	96.38
357.761	103.38
357.988	95.38
358.215	111.38
358.441	99.38
358.668	88.38
358.895	94.38
359.122	106.38
359.349	108.38
359.576	99.38
359.802	134.38
360.029	148.38
360.256	154.38
360.483	112.38
360.709	95.38
360.936	101.38
361.163	116.38
361.39	121.38
361.616	122.38
361.843	103.38
362.07	101.38
362.296	117.38
362.523	96.38
362.749	101.38
362.976	99.38
363.203	100.38
363.429	83.38
363.656	87.38
363.882	90.38
364.109	89.38
364.335	103.38
364.562	112.38
364.788	111.38
365.015	106.38
365.241	107.38
365.468	121.38
365.694	120.38
365.92	121.38
366.147	91.38
366.373	87.38
366.599	97.38
366.826	75.38
367.052	87.38
367.278	89.38
367.505	92.38
367.731	109.38
367.957	115.38
368.184	99.38
368.41	98.38
368.636	132.38
368.862	150.38
369.089	130.38
369.315	104.38
369.541	91.38
369.767	99.38
369.993	104.38
370.219	90.38
370.445	97.38
370.672	83.38
370.898	87.38
371.124	84.38
371.35	99.38
371.576	109.38
371.802	93.38
372.028	99.38
372.254	90.38
372.48	77.38
372.706	74.38
372.932	86.38
373.158	85.38
373.384	84.38
373.61	95.38
373.835	102.38
374.061	87.38
374.287	101.38
374.513	91.38
374.739	94.38
374.965	94.38
375.191	90.38
375.416	97.38
375.642	75.38
375.868	78.38
376.094	90.38
376.319	70.38
376.545	94.38
376.771	95.38
376.997	90.38
377.222	89.38
377.448	99.38
377.674	74.38
377.899	98.38
378.125	77.38
378.35	96.38
378.576	94.38
378.802	75.38
379.027	98.38
379.253	92.38
379.478	90.38
379.704	98.38
379.929	109.38
380.155	93.38
380.38	91.38
380.606	94.38
380.831	87.38
381.057	96.38
381.282	111.38
381.507	103.38
381.733	97.38
381.958	78.38
382.184	89.38
382.409	97.38
382.634	90.38
382.86	100.38
383.085	118.38
383.31	99.38
383.535	107.38
383.761	80.38
383.986	85.38
384.211	88.38
384.436	92.38
384.662	101.38
384.887	99.38
385.112	95.38
385.337	104.38
385.562	94.38
385.787	96.38
386.013	108.38
386.238	132.38
386.463	100.38
386.688	101.38
386.913	101.38
387.138	102.38
387.363	92.38
387.588	99.38
387.813	87.38
388.038	104.38
388.263	102.38
388.488	80.38
388.713	91.38
388.938	100.38
389.163	97.38
389.387	82.38
389.612	87.38
389.837	91.38
390.062	86.38
390.287	102.38
390.512	79.38
390.736	96.38
390.961	99.38
391.186	96.38
391.411	98.38
391.636	93.38
391.86	88.38
392.085	96.38
392.31	75.38
392.534	84.38
392.759	87.38
392.984	90.38
393.208	87.38
393.433	101.38
393.658	105.38
393.882	94.38
394.107	93.38
394.331	74.38
394.556	80.38
394.78	89.38
395.005	71.38
395.229	73.38
395.454	86.38
395.678	77.38
395.903	96.38
396.127	90.38
396.352	80.38
396.576	85.38
396.801	80.38
397.025	95.38
397.249	89.38
397.474	91.38
397.698	84.38
397.922	88.38
398.147	96.38
398.371	92.38
398.595	87.38
398.82	86.38
399.044	78.38
399.268	79.38
399.492	70.38
399.717	90.38
399.941	87.38
400.165	93.38
400.389	95.38
400.613	97.38
400.837	95.38
401.062	88.38
401.286	85.38
401.51	95.38
401.734	96.38
401.958	117.38
402.182	167.38
402.406	215.38
402.63	161.38
402.854	114.38
403.078	91.38
403.302	91.38
403.526	89.38
403.75	108.38
403.974	93.38
404.198	83.38
404.422	86.38
404.645	88.38
404.869	91.38
405.093	126.38
405.317	134.38
405.541	114.38
405.765	129.38
405.988	153.38
406.212	258.38
406.436	351.38
406.66	237.38
406.883	123.38
407.107	111.38
407.331	96.38
407.555	114.38
407.778	92.38
408.002	105.38
408.226	82.38
408.449	96.38
408.673	88.38
408.896	102.38
409.12	104.38
409.344	89.38
409.567	98.38
409.791	95.38
410.014	67.38
410.238	98.38
410.461	100.38
410.685	91.38
410.908	90.38
411.132	99.38
411.355	109.38
411.578	90.38
411.802	95.38
412.025	96.38
412.249	97.38
412.472	98.38
412.695	125.38
412.919	111.38
413.142	99.38
413.365	91.38
413.589	96.38
413.812	95.38
414.035	88.38
414.258	103.38
414.482	94.38
414.705	100.38
414.928	91.38
415.151	93.38
415.374	95.38
415.597	88.38
415.821	92.38
416.044	83.38
416.267	98.38
416.49	95.38
416.713	107.38
416.936	93.38
417.159	98.38
417.382	98.38
417.605	87.38
417.828	107.38
418.051	86.38
418.274	78.38
418.497	97.38
418.72	76.38
418.943	98.38
419.166	84.38
419.389	87.38
419.611	86.38
419.834	98.38
420.057	92.38
420.28	84.38
420.503	97.38
420.726	101.38
420.948	98.38
421.171	112.38
421.394	90.38
421.617	84.38
421.839	94.38
422.062	104.38
422.285	90.38
422.507	102.38
422.73	105.38
422.953	92.38
423.175	96.38
423.398	97.38
423.621	101.38
423.843	83.38
424.066	91.38
424.288	81.38
424.511	92.38
424.733	91.38
424.956	116.38
425.178	109.38
425.401	88.38
425.623	87.38
425.846	94.38
426.068	117.38
426.291	98.38
426.513	83.38
426.735	102.38
426.958	106.38
427.18	122.38
427.402	171.38
427.625	261.38
427.847	221.38
428.069	186.38
428.292	95.38
428.514	101.38
428.736	93.38
428.958	87.38
429.181	87.38
429.403	98.38
429.625	79.38
429.847	94.38
430.069	94.38
430.292	94.38
430.514	90.38
430.736	98.38
430.958	95.38
431.18	92.38
431.402	86.38
431.624	81.38
431.846	100.38
432.068	81.38
432.29	91.38
432.512	97.38
432.734	101.38
432.956	89.38
433.178	87.38
433.4	82.38
433.622	76.38
433.844	91.38
434.066	92.38
434.287	96.38
434.509	91.38
434.731	78.38
434.953	99.38
435.175	87.38
435.397	94.38
435.618	85.38
435.84	111.38
436.062	112.38
436.284	111.38
436.505	103.38
436.727	101.38
436.949	95.38
437.17	94.38
437.392	78.38
437.614	102.38
437.835	131.38
438.057	156.38
438.278	149.38
438.5	103.38
438.721	133.38
438.943	121.38
439.165	90.38
439.386	85.38
439.608	81.38
439.829	103.38
440.05	134.38
440.272	169.38
440.493	118.38
440.715	95.38
440.936	93.38
441.158	84.38
441.379	84.38
441.6	99.38
441.822	120.38
442.043	99.38
442.264	117.38
442.486	122.38
442.707	99.38
442.928	121.38
443.149	162.38
443.371	170.38
443.592	134.38
443.813	133.38
444.034	120.38
444.255	105.38
444.476	87.38
444.698	95.38
444.919	95.38
445.14	133.38
445.361	123.38
445.582	117.38
445.803	163.38
446.024	164.38
446.245	154.38
446.466	127.38
446.687	99.38
446.908	79.38
447.129	99.38
447.35	99.38
447.571	94.38
447.792	104.38
448.013	100.38
448.234	126.38
448.455	102.38
448.675	125.38
448.896	136.38
449.117	93.38
449.338	105.38
449.559	134.38
449.779	151.38
450	101.38
450.221	93.38
450.442	95.38
450.662	100.38
450.883	133.38
451.104	155.38
451.324	109.38
451.545	99.38
451.766	85.38
451.986	85.38
452.207	101.38
452.428	100.38
452.648	101.38
452.869	142.38
453.089	152.38
453.31	138.38
453.53	103.38
453.751	101.38
453.971	136.38
454.192	154.38
454.412	110.38
454.633	92.38
454.853	103.38
455.073	91.38
455.294	96.38
455.514	127.38
455.734	95.38
455.955	87.38
456.175	84.38
456.395	84.38
456.616	95.38
456.836	77.38
457.056	86.38
457.276	86.38
457.497	87.38
457.717	75.38
457.937	87.38
458.157	91.38
458.377	91.38
458.598	122.38
458.818	228.38
459.038	254.38
459.258	149.38
459.478	98.38
459.698	90.38
459.918	96.38
460.138	85.38
460.358	93.38
460.578	93.38
460.798	106.38
461.018	90.38
461.238	86.38
461.458	83.38
461.678	103.38
461.898	78.38
462.118	93.38
462.338	81.38
462.558	82.38
462.777	95.38
462.997	95.38
463.217	92.38
463.437	98.38
463.657	102.38
463.876	110.38
464.096	90.38
464.316	97.38
464.536	99.38
464.755	98.38
464.975	130.38
465.195	258.38
465.414	266.38
465.634	111.38
465.854	103.38
466.073	104.38
466.293	92.38
466.512	92.38
466.732	97.38
466.951	96.38
467.171	90.38
467.391	130.38
467.61	147.38
467.829	182.38
468.049	495.38
468.268	776.38
468.488	212.38
468.707	92.38
468.927	93.38
469.146	118.38
469.365	90.38
469.585	102.38
469.804	104.38
470.023	122.38
470.243	117.38
470.462	127.38
470.681	130.38
470.901	110.38
471.12	106.38
471.339	113.38
471.558	118.38
471.777	141.38
471.997	268.38
472.216	959.38
472.435	2228.38
472.654	543.38
472.873	166.38
473.092	103.38
473.311	110.38
473.53	99.38
473.749	92.38
473.968	102.38
474.187	121.38
474.406	116.38
474.625	103.38
474.844	93.38
475.063	79.38
475.282	91.38
475.501	89.38
475.72	83.38
475.939	94.38
476.158	87.38
476.377	102.38
476.596	94.38
476.814	106.38
477.033	102.38
477.252	95.38
477.471	86.38
477.69	96.38
477.908	98.38
478.127	85.38
478.346	95.38
478.564	100.38
478.783	114.38
479.002	110.38
479.22	109.38
479.439	128.38
479.658	141.38
479.876	132.38
480.095	136.38
480.313	134.38
480.532	156.38
480.751	247.38
480.969	841.38
481.188	3685.38
481.406	2267.38
481.624	345.38
481.843	138.38
482.061	107.38
482.28	94.38
482.498	107.38
482.717	94.38
482.935	82.38
483.153	96.38
483.372	90.38
483.59	97.38
483.808	94.38
484.027	93.38
484.245	99.38
484.463	91.38
484.681	84.38
484.9	90.38
485.118	93.38
485.336	102.38
485.554	106.38
485.772	101.38
485.99	99.38
486.209	109.38
486.427	113.38
486.645	112.38
486.863	119.38
487.081	124.38
487.299	92.38
487.517	103.38
487.735	92.38
487.953	92.38
488.171	110.38
488.389	96.38
488.607	86.38
488.825	79.38
489.043	79.38
489.261	99.38
489.479	96.38
489.696	87.38
489.914	93.38
490.132	73.38
490.35	87.38
490.568	95.38
490.786	97.38
491.003	106.38
491.221	80.38
491.439	84.38
491.657	102.38
491.874	86.38
492.092	98.38
492.31	94.38
492.527	100.38
492.745	91.38
492.963	95.38
493.18	108.38
493.398	95.38
493.615	90.38
493.833	103.38
494.05	106.38
494.268	91.38
494.485	84.38
494.703	93.38
494.92	93.38
495.138	88.38
495.355	100.38
495.573	87.38
495.79	83.38
496.008	88.38
496.225	92.38
496.442	106.38
496.66	89.38
496.877	88.38
497.094	93.38
497.312	90.38
497.529	89.38
497.746	96.38
497.963	87.38
498.181	86.38
498.398	99.38
498.615	105.38
498.832	107.38
499.049	103.38
499.267	94.38
499.484	88.38
499.701	94.38
499.918	83.38
500.135	100.38
500.352	79.38
500.569	96.38
500.786	103.38
501.003	82.38
501.22	96.38
501.437	90.38
501.654	109.38
501.871	143.38
502.088	95.38
502.305	102.38
502.522	89.38
502.739	86.38
502.956	92.38
503.172	99.38
503.389	111.38
503.606	140.38
503.823	119.38
504.04	95.38
504.256	96.38
504.473	85.38
504.69	93.38
504.907	84.38
505.123	88.38
505.34	100.38
505.557	77.38
505.773	101.38
505.99	93.38
506.207	88.38
506.423	103.38
506.64	92.38
506.856	88.38
507.073	87.38
507.289	91.38
507.506	105.38
507.722	133.38
507.939	138.38
508.155	95.38
508.372	109.38
508.588	95.38
508.805	101.38
509.021	103.38
509.238	112.38
509.454	105.38
509.67	112.38
509.887	115.38
510.103	144.38
510.319	258.38
510.536	1001.38
510.752	3726.38
510.968	1050.38
511.184	208.38
511.401	144.38
511.617	113.38
511.833	115.38
512.049	111.38
512.265	104.38
512.481	100.38
