Data from Circ_2013_H10_HRD10591_00076.txt Node
Date: Wed Jan 03 10:04:15 EST 2024
User: Yrep
Spectrometer: HR+D1059
Trigger mode: 1
Integration Time (sec): 1.000000E-1
Scans to average: 1
Electric dark correction enabled: true
Nonlinearity correction enabled: false
Boxcar width: 0
XAxis mode: Wavelengths
Number of Pixels in Spectrum: 2048
>>>>>Begin Spectral Data<<<<<
223.165	-10.06
223.4	-10.06
223.635	-10.06
223.869	-14.06
224.104	-24.06
224.338	-18.06
224.573	-14.06
224.808	-14.06
225.042	-6.06
225.277	-4.06
225.511	-21.06
225.746	-1.06
225.98	-2.06
226.215	9.94
226.449	22.94
226.683	24.94
226.918	32.94
227.152	37.94
227.387	29.94
227.621	37.94
227.856	47.94
228.09	40.94
228.324	50.94
228.559	53.94
228.793	57.94
229.027	54.94
229.262	78.94
229.496	77.94
229.73	81.94
229.964	106.94
230.199	75.94
230.433	68.94
230.667	70.94
230.901	79.94
231.136	72.94
231.37	81.94
231.604	78.94
231.838	76.94
232.072	72.94
232.306	72.94
232.541	83.94
232.775	74.94
233.009	84.94
233.243	79.94
233.477	73.94
233.711	80.94
233.945	73.94
234.179	85.94
234.413	75.94
234.647	73.94
234.881	94.94
235.115	66.94
235.349	67.94
235.583	77.94
235.817	88.94
236.051	91.94
236.285	76.94
236.519	82.94
236.753	72.94
236.987	84.94
237.221	87.94
237.455	92.94
237.689	89.94
237.922	79.94
238.156	81.94
238.39	72.94
238.624	71.94
238.858	70.94
239.091	83.94
239.325	77.94
239.559	67.94
239.793	81.94
240.027	75.94
240.26	71.94
240.494	72.94
240.728	59.94
240.961	70.94
241.195	79.94
241.429	86.94
241.662	75.94
241.896	77.94
242.13	80.94
242.363	63.94
242.597	76.94
242.83	81.94
243.064	81.94
243.298	69.94
243.531	82.94
243.765	69.94
243.998	71.94
244.232	77.94
244.465	89.94
244.699	81.94
244.932	79.94
245.166	82.94
245.399	65.94
245.633	76.94
245.866	87.94
246.099	77.94
246.333	76.94
246.566	66.94
246.8	79.94
247.033	79.94
247.266	84.94
247.5	77.94
247.733	76.94
247.966	87.94
248.2	87.94
248.433	73.94
248.666	87.94
248.899	77.94
249.133	74.94
249.366	92.94
249.599	105.94
249.832	84.94
250.066	77.94
250.299	90.94
250.532	79.94
250.765	74.94
250.998	83.94
251.231	77.94
251.465	86.94
251.698	93.94
251.931	77.94
252.164	81.94
252.397	72.94
252.63	77.94
252.863	70.94
253.096	99.94
253.329	89.94
253.562	86.94
253.795	78.94
254.028	89.94
254.261	74.94
254.494	76.94
254.727	84.94
254.96	79.94
255.193	89.94
255.426	81.94
255.659	76.94
255.892	89.94
256.124	84.94
256.357	85.94
256.59	77.94
256.823	82.94
257.056	98.94
257.289	88.94
257.521	81.94
257.754	92.94
257.987	91.94
258.22	105.94
258.452	92.94
258.685	77.94
258.918	82.94
259.151	74.94
259.383	105.94
259.616	78.94
259.849	75.94
260.081	72.94
260.314	81.94
260.547	82.94
260.779	96.94
261.012	99.94
261.244	99.94
261.477	98.94
261.71	97.94
261.942	141.94
262.175	150.94
262.407	75.94
262.64	76.94
262.872	81.94
263.105	94.94
263.337	85.94
263.57	82.94
263.802	79.94
264.035	74.94
264.267	93.94
264.499	104.94
264.732	76.94
264.964	74.94
265.197	75.94
265.429	87.94
265.661	75.94
265.894	86.94
266.126	83.94
266.358	77.94
266.591	72.94
266.823	88.94
267.055	91.94
267.287	80.94
267.52	85.94
267.752	79.94
267.984	95.94
268.216	73.94
268.448	82.94
268.681	75.94
268.913	75.94
269.145	84.94
269.377	88.94
269.609	92.94
269.841	88.94
270.073	86.94
270.306	82.94
270.538	74.94
270.77	69.94
271.002	79.94
271.234	94.94
271.466	102.94
271.698	85.94
271.93	90.94
272.162	82.94
272.394	80.94
272.626	76.94
272.858	85.94
273.09	83.94
273.322	89.94
273.553	85.94
273.785	75.94
274.017	84.94
274.249	68.94
274.481	86.94
274.713	88.94
274.945	83.94
275.176	81.94
275.408	88.94
275.64	93.94
275.872	102.94
276.104	89.94
276.335	88.94
276.567	126.94
276.799	137.94
277.031	159.94
277.262	163.94
277.494	133.94
277.726	88.94
277.957	77.94
278.189	72.94
278.421	108.94
278.652	87.94
278.884	92.94
279.115	84.94
279.347	89.94
279.579	109.94
279.81	122.94
280.042	148.94
280.273	204.94
280.505	145.94
280.736	106.94
280.968	88.94
281.199	82.94
281.431	83.94
281.662	91.94
281.894	93.94
282.125	117.94
282.356	130.94
282.588	172.94
282.819	129.94
283.051	86.94
283.282	79.94
283.513	87.94
283.745	81.94
283.976	97.94
284.207	97.94
284.439	93.94
284.67	91.94
284.901	83.94
285.132	84.94
285.364	82.94
285.595	107.94
285.826	83.94
286.057	85.94
286.288	85.94
286.52	89.94
286.751	82.94
286.982	87.94
287.213	92.94
287.444	91.94
287.675	88.94
287.906	85.94
288.138	87.94
288.369	99.94
288.6	93.94
288.831	84.94
289.062	87.94
289.293	81.94
289.524	89.94
289.755	80.94
289.986	73.94
290.217	75.94
290.448	81.94
290.679	104.94
290.91	77.94
291.141	87.94
291.371	91.94
291.602	83.94
291.833	92.94
292.064	97.94
292.295	81.94
292.526	84.94
292.757	89.94
292.987	98.94
293.218	98.94
293.449	93.94
293.68	86.94
293.91	93.94
294.141	95.94
294.372	86.94
294.603	88.94
294.833	73.94
295.064	93.94
295.295	76.94
295.525	100.94
295.756	114.94
295.987	119.94
296.217	166.94
296.448	131.94
296.679	108.94
296.909	86.94
297.14	87.94
297.37	85.94
297.601	95.94
297.831	86.94
298.062	72.94
298.292	75.94
298.523	67.94
298.753	85.94
298.984	87.94
299.214	87.94
299.445	100.94
299.675	93.94
299.905	94.94
300.136	85.94
300.366	84.94
300.597	95.94
300.827	96.94
301.057	105.94
301.288	100.94
301.518	111.94
301.748	98.94
301.979	111.94
302.209	90.94
302.439	87.94
302.669	87.94
302.9	90.94
303.13	96.94
303.36	105.94
303.59	124.94
303.82	148.94
304.051	103.94
304.281	79.94
304.511	94.94
304.741	82.94
304.971	76.94
305.201	73.94
305.431	91.94
305.661	94.94
305.891	83.94
306.121	82.94
306.352	107.94
306.582	112.94
306.812	104.94
307.042	94.94
307.272	128.94
307.502	148.94
307.731	148.94
307.961	106.94
308.191	87.94
308.421	100.94
308.651	105.94
308.881	100.94
309.111	100.94
309.341	89.94
309.571	96.94
309.8	101.94
310.03	114.94
310.26	102.94
310.49	113.94
310.72	107.94
310.949	121.94
311.179	99.94
311.409	99.94
311.639	113.94
311.868	98.94
312.098	93.94
312.328	109.94
312.557	103.94
312.787	137.94
313.017	116.94
313.246	103.94
313.476	97.94
313.706	102.94
313.935	94.94
314.165	99.94
314.394	105.94
314.624	108.94
314.853	97.94
315.083	89.94
315.312	91.94
315.542	79.94
315.771	91.94
316.001	84.94
316.23	91.94
316.46	88.94
316.689	90.94
316.919	87.94
317.148	96.94
317.377	94.94
317.607	95.94
317.836	93.94
318.065	96.94
318.295	92.94
318.524	100.94
318.753	97.94
318.983	109.94
319.212	104.94
319.441	130.94
319.67	116.94
319.9	85.94
320.129	90.94
320.358	103.94
320.587	95.94
320.816	106.94
321.046	93.94
321.275	102.94
321.504	100.94
321.733	99.94
321.962	99.94
322.191	118.94
322.42	107.94
322.649	119.94
322.878	124.94
323.108	125.94
323.337	135.94
323.566	141.94
323.795	185.94
324.024	233.94
324.253	442.94
324.482	927.94
324.71	1845.94
324.939	2411.94
325.168	913.94
325.397	279.94
325.626	160.94
325.855	145.94
326.084	127.94
326.313	131.94
326.542	164.94
326.77	255.94
326.999	476.94
327.228	933.94
327.457	1709.94
327.686	1356.94
327.914	490.94
328.143	453.94
328.372	533.94
328.6	314.94
328.829	181.94
329.058	185.94
329.287	196.94
329.515	172.94
329.744	200.94
329.972	369.94
330.201	748.94
330.43	1082.94
330.658	499.94
330.887	264.94
331.115	190.94
331.344	113.94
331.572	133.94
331.801	133.94
332.03	123.94
332.258	106.94
332.486	103.94
332.715	114.94
332.943	103.94
333.172	108.94
333.4	112.94
333.629	145.94
333.857	211.94
334.085	351.94
334.314	692.94
334.542	1343.94
334.771	1277.94
334.999	345.94
335.227	171.94
335.455	115.94
335.684	110.94
335.912	103.94
336.14	94.94
336.369	106.94
336.597	99.94
336.825	108.94
337.053	94.94
337.281	84.94
337.51	104.94
337.738	90.94
337.966	99.94
338.194	102.94
338.422	104.94
338.65	104.94
338.878	87.94
339.106	90.94
339.334	89.94
339.562	80.94
339.79	88.94
340.018	112.94
340.246	97.94
340.474	109.94
340.702	106.94
340.93	88.94
341.158	105.94
341.386	109.94
341.614	111.94
341.842	109.94
342.07	98.94
342.298	99.94
342.526	93.94
342.754	82.94
342.981	94.94
343.209	86.94
343.437	94.94
343.665	86.94
343.893	94.94
344.12	90.94
344.348	80.94
344.576	87.94
344.804	92.94
345.031	108.94
345.259	102.94
345.487	103.94
345.714	85.94
345.942	93.94
346.17	100.94
346.397	96.94
346.625	85.94
346.853	91.94
347.08	100.94
347.308	98.94
347.535	104.94
347.763	109.94
347.99	94.94
348.218	107.94
348.445	110.94
348.673	103.94
348.9	91.94
349.128	80.94
349.355	91.94
349.583	89.94
349.81	89.94
350.037	97.94
350.265	104.94
350.492	96.94
350.72	94.94
350.947	94.94
351.174	120.94
351.402	117.94
351.629	104.94
351.856	105.94
352.083	95.94
352.311	111.94
352.538	120.94
352.765	119.94
352.992	102.94
353.22	109.94
353.447	96.94
353.674	100.94
353.901	101.94
354.128	92.94
354.355	83.94
354.583	93.94
354.81	85.94
355.037	86.94
355.264	89.94
355.491	92.94
355.718	92.94
355.945	90.94
356.172	104.94
356.399	95.94
356.626	97.94
356.853	95.94
357.08	91.94
357.307	80.94
357.534	85.94
357.761	74.94
357.988	80.94
358.215	88.94
358.441	82.94
358.668	87.94
358.895	85.94
359.122	89.94
359.349	89.94
359.576	103.94
359.802	119.94
360.029	130.94
360.256	128.94
360.483	121.94
360.709	106.94
360.936	103.94
361.163	91.94
361.39	103.94
361.616	103.94
361.843	108.94
362.07	90.94
362.296	107.94
362.523	92.94
362.749	93.94
362.976	83.94
363.203	96.94
363.429	94.94
363.656	95.94
363.882	92.94
364.109	101.94
364.335	98.94
364.562	117.94
364.788	88.94
365.015	103.94
365.241	96.94
365.468	114.94
365.694	127.94
365.92	117.94
366.147	95.94
366.373	87.94
366.599	81.94
366.826	84.94
367.052	90.94
367.278	86.94
367.505	83.94
367.731	94.94
367.957	99.94
368.184	85.94
368.41	107.94
368.636	121.94
368.862	152.94
369.089	128.94
369.315	90.94
369.541	96.94
369.767	91.94
369.993	104.94
370.219	100.94
370.445	88.94
370.672	94.94
370.898	95.94
371.124	89.94
371.35	91.94
371.576	81.94
371.802	77.94
372.028	89.94
372.254	92.94
372.48	89.94
372.706	77.94
372.932	72.94
373.158	93.94
373.384	83.94
373.61	89.94
373.835	85.94
374.061	92.94
374.287	92.94
374.513	83.94
374.739	92.94
374.965	89.94
375.191	92.94
375.416	86.94
375.642	105.94
375.868	85.94
376.094	78.94
376.319	89.94
376.545	78.94
376.771	100.94
376.997	89.94
377.222	93.94
377.448	97.94
377.674	83.94
377.899	87.94
378.125	89.94
378.35	104.94
378.576	77.94
378.802	95.94
379.027	86.94
379.253	76.94
379.478	81.94
379.704	81.94
379.929	90.94
380.155	88.94
380.38	101.94
380.606	89.94
380.831	90.94
381.057	91.94
381.282	94.94
381.507	95.94
381.733	99.94
381.958	103.94
382.184	66.94
382.409	99.94
382.634	88.94
382.86	85.94
383.085	98.94
383.31	95.94
383.535	98.94
383.761	97.94
383.986	80.94
384.211	102.94
384.436	107.94
384.662	98.94
384.887	101.94
385.112	107.94
385.337	91.94
385.562	96.94
385.787	90.94
386.013	105.94
386.238	113.94
386.463	106.94
386.688	108.94
386.913	99.94
387.138	114.94
387.363	98.94
387.588	94.94
387.813	87.94
388.038	93.94
388.263	104.94
388.488	105.94
388.713	81.94
388.938	88.94
389.163	85.94
389.387	96.94
389.612	79.94
389.837	77.94
390.062	87.94
390.287	86.94
390.512	95.94
390.736	93.94
390.961	100.94
391.186	95.94
391.411	82.94
391.636	79.94
391.86	97.94
392.085	92.94
392.31	72.94
392.534	88.94
392.759	87.94
392.984	85.94
393.208	86.94
393.433	87.94
393.658	92.94
393.882	91.94
394.107	86.94
394.331	79.94
394.556	74.94
394.78	96.94
395.005	94.94
395.229	83.94
395.454	83.94
395.678	87.94
395.903	72.94
396.127	81.94
396.352	87.94
396.576	83.94
396.801	81.94
397.025	98.94
397.249	67.94
397.474	89.94
397.698	94.94
397.922	76.94
398.147	82.94
398.371	80.94
398.595	84.94
398.82	77.94
399.044	106.94
399.268	91.94
399.492	83.94
399.717	89.94
399.941	88.94
400.165	99.94
400.389	90.94
400.613	97.94
400.837	102.94
401.062	86.94
401.286	94.94
401.51	108.94
401.734	96.94
401.958	108.94
402.182	132.94
402.406	199.94
402.63	152.94
402.854	106.94
403.078	82.94
403.302	87.94
403.526	96.94
403.75	96.94
403.974	89.94
404.198	81.94
404.422	83.94
404.645	100.94
404.869	102.94
405.093	101.94
405.317	136.94
405.541	115.94
405.765	99.94
405.988	134.94
406.212	222.94
406.436	328.94
406.66	203.94
406.883	128.94
407.107	104.94
407.331	92.94
407.555	109.94
407.778	97.94
408.002	84.94
408.226	94.94
408.449	100.94
408.673	101.94
408.896	81.94
409.12	99.94
409.344	87.94
409.567	88.94
409.791	91.94
410.014	94.94
410.238	79.94
410.461	93.94
410.685	96.94
410.908	82.94
411.132	92.94
411.355	92.94
411.578	72.94
411.802	85.94
412.025	100.94
412.249	95.94
412.472	97.94
412.695	115.94
412.919	76.94
413.142	84.94
413.365	91.94
413.589	92.94
413.812	97.94
414.035	82.94
414.258	85.94
414.482	95.94
414.705	85.94
414.928	75.94
415.151	92.94
415.374	80.94
415.597	91.94
415.821	94.94
416.044	87.94
416.267	76.94
416.49	78.94
416.713	82.94
416.936	76.94
417.159	70.94
417.382	102.94
417.605	99.94
417.828	101.94
418.051	94.94
418.274	76.94
418.497	99.94
418.72	90.94
418.943	91.94
419.166	101.94
419.389	97.94
419.611	87.94
419.834	87.94
420.057	81.94
420.28	90.94
420.503	97.94
420.726	87.94
420.948	87.94
421.171	94.94
421.394	92.94
421.617	75.94
421.839	89.94
422.062	89.94
422.285	84.94
422.507	84.94
422.73	108.94
422.953	84.94
423.175	88.94
423.398	95.94
423.621	74.94
423.843	91.94
424.066	85.94
424.288	88.94
424.511	96.94
424.733	111.94
424.956	127.94
425.178	103.94
425.401	104.94
425.623	117.94
425.846	111.94
426.068	97.94
426.291	79.94
426.513	93.94
426.735	98.94
426.958	100.94
427.18	125.94
427.402	157.94
427.625	259.94
427.847	204.94
428.069	188.94
428.292	112.94
428.514	90.94
428.736	101.94
428.958	89.94
429.181	95.94
429.403	81.94
429.625	88.94
429.847	96.94
430.069	101.94
430.292	98.94
430.514	87.94
430.736	85.94
430.958	87.94
431.18	79.94
431.402	89.94
431.624	85.94
431.846	73.94
432.068	73.94
432.29	84.94
432.512	86.94
432.734	96.94
432.956	87.94
433.178	92.94
433.4	106.94
433.622	98.94
433.844	71.94
434.066	86.94
434.287	80.94
434.509	91.94
434.731	85.94
434.953	89.94
435.175	87.94
435.397	89.94
435.618	111.94
435.84	77.94
436.062	130.94
436.284	127.94
436.505	104.94
436.727	114.94
436.949	97.94
437.17	79.94
437.392	82.94
437.614	95.94
437.835	142.94
438.057	162.94
438.278	115.94
438.5	98.94
438.721	112.94
438.943	109.94
439.165	88.94
439.386	80.94
439.608	85.94
439.829	114.94
440.05	138.94
440.272	184.94
440.493	109.94
440.715	93.94
440.936	87.94
441.158	100.94
441.379	91.94
441.6	102.94
441.822	93.94
442.043	105.94
442.264	124.94
442.486	107.94
442.707	95.94
442.928	102.94
443.149	159.94
443.371	177.94
443.592	144.94
443.813	113.94
444.034	117.94
444.255	86.94
444.476	85.94
444.698	84.94
444.919	79.94
445.14	137.94
445.361	126.94
445.582	127.94
445.803	165.94
446.024	152.94
446.245	155.94
446.466	135.94
446.687	88.94
446.908	70.94
447.129	111.94
447.35	106.94
447.571	101.94
447.792	101.94
448.013	121.94
448.234	120.94
448.455	123.94
448.675	135.94
448.896	114.94
449.117	118.94
449.338	119.94
449.559	139.94
449.779	152.94
450	102.94
450.221	102.94
450.442	96.94
450.662	95.94
450.883	127.94
451.104	154.94
451.324	115.94
451.545	98.94
451.766	91.94
451.986	85.94
452.207	95.94
452.428	94.94
452.648	113.94
452.869	132.94
453.089	130.94
453.31	159.94
453.53	107.94
453.751	99.94
453.971	119.94
454.192	145.94
454.412	107.94
454.633	79.94
454.853	85.94
455.073	79.94
455.294	98.94
455.514	107.94
455.734	88.94
455.955	91.94
456.175	83.94
456.395	82.94
456.616	86.94
456.836	87.94
457.056	77.94
457.276	96.94
457.497	79.94
457.717	77.94
457.937	92.94
458.157	84.94
458.377	87.94
458.598	111.94
458.818	212.94
459.038	241.94
459.258	161.94
459.478	95.94
459.698	96.94
459.918	76.94
460.138	89.94
460.358	82.94
460.578	104.94
460.798	106.94
461.018	94.94
461.238	100.94
461.458	113.94
461.678	93.94
461.898	82.94
462.118	90.94
462.338	83.94
462.558	87.94
462.777	77.94
462.997	85.94
463.217	98.94
463.437	101.94
463.657	82.94
463.876	96.94
464.096	90.94
464.316	88.94
464.536	98.94
464.755	97.94
464.975	124.94
465.195	233.94
465.414	242.94
465.634	119.94
465.854	91.94
466.073	94.94
466.293	93.94
466.512	90.94
466.732	76.94
466.951	90.94
467.171	99.94
467.391	107.94
467.61	135.94
467.829	177.94
468.049	426.94
468.268	637.94
468.488	184.94
468.707	117.94
468.927	89.94
469.146	85.94
469.365	92.94
469.585	83.94
469.804	100.94
470.023	95.94
470.243	92.94
470.462	107.94
470.681	135.94
470.901	93.94
471.12	86.94
471.339	93.94
471.558	98.94
471.777	135.94
471.997	242.94
472.216	813.94
472.435	1824.94
472.654	457.94
472.873	142.94
473.092	88.94
473.311	99.94
473.53	74.94
473.749	85.94
473.968	104.94
474.187	129.94
474.406	100.94
474.625	95.94
474.844	102.94
475.063	90.94
475.282	93.94
475.501	82.94
475.72	87.94
475.939	72.94
476.158	95.94
476.377	79.94
476.596	89.94
476.814	111.94
477.033	89.94
477.252	107.94
477.471	85.94
477.69	94.94
477.908	94.94
478.127	86.94
478.346	83.94
478.564	102.94
478.783	111.94
479.002	99.94
479.22	96.94
479.439	122.94
479.658	134.94
479.876	114.94
480.095	117.94
480.313	121.94
480.532	164.94
480.751	245.94
480.969	753.94
481.188	3125.94
481.406	1927.94
481.624	305.94
481.843	132.94
482.061	100.94
482.28	98.94
482.498	102.94
482.717	95.94
482.935	87.94
483.153	82.94
483.372	79.94
483.59	88.94
483.808	81.94
484.027	83.94
484.245	91.94
484.463	91.94
484.681	94.94
484.9	98.94
485.118	84.94
485.336	106.94
485.554	95.94
485.772	96.94
485.99	103.94
486.209	96.94
486.427	92.94
486.645	112.94
486.863	117.94
487.081	99.94
487.299	99.94
487.517	97.94
487.735	96.94
487.953	100.94
488.171	97.94
488.389	101.94
488.607	97.94
488.825	88.94
489.043	97.94
489.261	90.94
489.479	72.94
489.696	91.94
489.914	83.94
490.132	72.94
490.35	84.94
490.568	101.94
490.786	89.94
491.003	93.94
491.221	79.94
491.439	92.94
491.657	91.94
491.874	96.94
492.092	100.94
492.31	97.94
492.527	92.94
492.745	101.94
492.963	88.94
493.18	96.94
493.398	89.94
493.615	100.94
493.833	103.94
494.05	83.94
494.268	78.94
494.485	86.94
494.703	88.94
494.92	90.94
495.138	91.94
495.355	97.94
495.573	90.94
495.79	84.94
496.008	100.94
496.225	81.94
496.442	88.94
496.66	91.94
496.877	95.94
497.094	83.94
497.312	84.94
497.529	95.94
497.746	87.94
497.963	88.94
498.181	86.94
498.398	92.94
498.615	112.94
498.832	102.94
499.049	100.94
499.267	88.94
499.484	82.94
499.701	81.94
499.918	79.94
500.135	75.94
500.352	88.94
500.569	88.94
500.786	86.94
501.003	95.94
501.22	101.94
501.437	82.94
501.654	99.94
501.871	118.94
502.088	89.94
502.305	77.94
502.522	85.94
502.739	82.94
502.956	88.94
503.172	86.94
503.389	92.94
503.606	120.94
503.823	111.94
504.04	102.94
504.256	82.94
504.473	85.94
504.69	84.94
504.907	90.94
505.123	89.94
505.34	96.94
505.557	88.94
505.773	80.94
505.99	90.94
506.207	84.94
506.423	86.94
506.64	95.94
506.856	85.94
507.073	88.94
507.289	91.94
507.506	119.94
507.722	147.94
507.939	137.94
508.155	87.94
508.372	100.94
508.588	95.94
508.805	95.94
509.021	106.94
509.238	106.94
509.454	106.94
509.67	112.94
509.887	110.94
510.103	156.94
510.319	241.94
510.536	967.94
510.752	3436.94
510.968	952.94
511.184	178.94
511.401	136.94
511.617	112.94
511.833	127.94
512.049	98.94
512.265	85.94
512.481	106.94
512.698	96.94
512.914	74.94
513.13	87.94
513.346	96.94
513.562	103.94
513.778	93.94
513.994	109.94
514.21	117.94
