Data from Circ_2013_H10_HRD10591_00084.txt Node
Date: Wed Jan 03 10:04:17 EST 2024
User: Yrep
Spectrometer: HR+D1059
Trigger mode: 1
Integration Time (sec): 1.000000E-1
Scans to average: 1
Electric dark correction enabled: true
Nonlinearity correction enabled: false
Boxcar width: 0
XAxis mode: Wavelengths
Number of Pixels in Spectrum: 2048
>>>>>Begin Spectral Data<<<<<
223.165	-23.94
223.4	-23.94
223.635	-23.94
223.869	-19.94
224.104	-15.94
224.338	-19.94
224.573	-12.94
224.808	-2.94
225.042	2.06
225.277	-2.94
225.511	-3.94
225.746	-2.94
225.98	13.06
226.215	11.06
226.449	17.06
226.683	25.06
226.918	10.06
227.152	27.06
227.387	13.06
227.621	45.06
227.856	47.06
228.09	53.06
228.324	59.06
228.559	53.06
228.793	55.06
229.027	69.06
229.262	59.06
229.496	80.06
229.73	95.06
229.964	88.06
230.199	57.06
230.433	75.06
230.667	88.06
230.901	78.06
231.136	70.06
231.37	78.06
231.604	88.06
231.838	85.06
232.072	76.06
232.306	95.06
232.541	78.06
232.775	65.06
233.009	76.06
233.243	76.06
233.477	65.06
233.711	71.06
233.945	94.06
234.179	81.06
234.413	78.06
234.647	90.06
234.881	80.06
235.115	90.06
235.349	76.06
235.583	82.06
235.817	73.06
236.051	75.06
236.285	76.06
236.519	87.06
236.753	86.06
236.987	89.06
237.221	97.06
237.455	80.06
237.689	87.06
237.922	81.06
238.156	83.06
238.39	79.06
238.624	69.06
238.858	73.06
239.091	87.06
239.325	65.06
239.559	90.06
239.793	80.06
240.027	80.06
240.26	84.06
240.494	79.06
240.728	63.06
240.961	81.06
241.195	82.06
241.429	86.06
241.662	64.06
241.896	72.06
242.13	56.06
242.363	90.06
242.597	79.06
242.83	81.06
243.064	78.06
243.298	77.06
243.531	85.06
243.765	69.06
243.998	80.06
244.232	72.06
244.465	84.06
244.699	87.06
244.932	70.06
245.166	78.06
245.399	79.06
245.633	55.06
245.866	74.06
246.099	80.06
246.333	90.06
246.566	82.06
246.8	70.06
247.033	75.06
247.266	77.06
247.5	83.06
247.733	77.06
247.966	77.06
248.2	75.06
248.433	81.06
248.666	70.06
248.899	95.06
249.133	90.06
249.366	114.06
249.599	114.06
249.832	86.06
250.066	74.06
250.299	86.06
250.532	96.06
250.765	82.06
250.998	69.06
251.231	79.06
251.465	79.06
251.698	84.06
251.931	86.06
252.164	77.06
252.397	79.06
252.63	87.06
252.863	87.06
253.096	66.06
253.329	85.06
253.562	77.06
253.795	76.06
254.028	84.06
254.261	79.06
254.494	78.06
254.727	95.06
254.96	87.06
255.193	74.06
255.426	87.06
255.659	91.06
255.892	91.06
256.124	100.06
256.357	91.06
256.59	78.06
256.823	82.06
257.056	71.06
257.289	78.06
257.521	89.06
257.754	93.06
257.987	76.06
258.22	82.06
258.452	81.06
258.685	87.06
258.918	77.06
259.151	102.06
259.383	90.06
259.616	96.06
259.849	71.06
260.081	82.06
260.314	83.06
260.547	89.06
260.779	80.06
261.012	96.06
261.244	105.06
261.477	101.06
261.71	104.06
261.942	119.06
262.175	137.06
262.407	95.06
262.64	83.06
262.872	82.06
263.105	94.06
263.337	80.06
263.57	101.06
263.802	74.06
264.035	93.06
264.267	82.06
264.499	86.06
264.732	92.06
264.964	87.06
265.197	77.06
265.429	95.06
265.661	80.06
265.894	74.06
266.126	86.06
266.358	81.06
266.591	93.06
266.823	89.06
267.055	89.06
267.287	86.06
267.52	79.06
267.752	85.06
267.984	97.06
268.216	83.06
268.448	76.06
268.681	96.06
268.913	86.06
269.145	88.06
269.377	87.06
269.609	73.06
269.841	97.06
270.073	68.06
270.306	78.06
270.538	94.06
270.77	89.06
271.002	97.06
271.234	100.06
271.466	92.06
271.698	79.06
271.93	83.06
272.162	83.06
272.394	83.06
272.626	89.06
272.858	88.06
273.09	73.06
273.322	94.06
273.553	79.06
273.785	98.06
274.017	82.06
274.249	77.06
274.481	97.06
274.713	89.06
274.945	89.06
275.176	81.06
275.408	86.06
275.64	104.06
275.872	104.06
276.104	99.06
276.335	88.06
276.567	117.06
276.799	111.06
277.031	144.06
277.262	131.06
277.494	113.06
277.726	85.06
277.957	84.06
278.189	100.06
278.421	99.06
278.652	94.06
278.884	83.06
279.115	94.06
279.347	103.06
279.579	92.06
279.81	105.06
280.042	154.06
280.273	187.06
280.505	168.06
280.736	111.06
280.968	98.06
281.199	76.06
281.431	84.06
281.662	72.06
281.894	91.06
282.125	86.06
282.356	125.06
282.588	152.06
282.819	133.06
283.051	99.06
283.282	83.06
283.513	79.06
283.745	86.06
283.976	71.06
284.207	78.06
284.439	88.06
284.67	85.06
284.901	84.06
285.132	88.06
285.364	95.06
285.595	82.06
285.826	88.06
286.057	89.06
286.288	86.06
286.52	85.06
286.751	90.06
286.982	65.06
287.213	83.06
287.444	91.06
287.675	83.06
287.906	88.06
288.138	86.06
288.369	90.06
288.6	77.06
288.831	74.06
289.062	93.06
289.293	92.06
289.524	85.06
289.755	94.06
289.986	89.06
290.217	87.06
290.448	107.06
290.679	93.06
290.91	83.06
291.141	88.06
291.371	99.06
291.602	78.06
291.833	87.06
292.064	90.06
292.295	85.06
292.526	86.06
292.757	96.06
292.987	85.06
293.218	84.06
293.449	105.06
293.68	89.06
293.91	92.06
294.141	92.06
294.372	91.06
294.603	90.06
294.833	77.06
295.064	92.06
295.295	81.06
295.525	90.06
295.756	88.06
295.987	124.06
296.217	157.06
296.448	149.06
296.679	97.06
296.909	91.06
297.14	92.06
297.37	84.06
297.601	91.06
297.831	86.06
298.062	91.06
298.292	90.06
298.523	83.06
298.753	97.06
298.984	84.06
299.214	93.06
299.445	107.06
299.675	94.06
299.905	100.06
300.136	96.06
300.366	103.06
300.597	98.06
300.827	99.06
301.057	97.06
301.288	110.06
301.518	103.06
301.748	94.06
301.979	104.06
302.209	85.06
302.439	82.06
302.669	87.06
302.9	97.06
303.13	102.06
303.36	108.06
303.59	118.06
303.82	132.06
304.051	86.06
304.281	85.06
304.511	88.06
304.741	83.06
304.971	105.06
305.201	89.06
305.431	98.06
305.661	83.06
305.891	90.06
306.121	100.06
306.352	117.06
306.582	104.06
306.812	94.06
307.042	83.06
307.272	150.06
307.502	146.06
307.731	137.06
307.961	110.06
308.191	108.06
308.421	89.06
308.651	93.06
308.881	83.06
309.111	92.06
309.341	94.06
309.571	110.06
309.8	93.06
310.03	107.06
310.26	116.06
310.49	91.06
310.72	94.06
310.949	120.06
311.179	104.06
311.409	90.06
311.639	86.06
311.868	101.06
312.098	100.06
312.328	100.06
312.557	119.06
312.787	104.06
313.017	98.06
313.246	80.06
313.476	93.06
313.706	101.06
313.935	99.06
314.165	103.06
314.394	115.06
314.624	113.06
314.853	108.06
315.083	93.06
315.312	92.06
315.542	73.06
315.771	106.06
316.001	93.06
316.23	70.06
316.46	79.06
316.689	95.06
316.919	107.06
317.148	89.06
317.377	102.06
317.607	82.06
317.836	92.06
318.065	100.06
318.295	108.06
318.524	98.06
318.753	102.06
318.983	109.06
319.212	98.06
319.441	109.06
319.67	107.06
319.9	101.06
320.129	99.06
320.358	98.06
320.587	95.06
320.816	108.06
321.046	104.06
321.275	84.06
321.504	96.06
321.733	100.06
321.962	107.06
322.191	99.06
322.42	110.06
322.649	105.06
322.878	112.06
323.108	146.06
323.337	141.06
323.566	154.06
323.795	163.06
324.024	247.06
324.253	497.06
324.482	1044.06
324.71	2129.06
324.939	2844.06
325.168	1034.06
325.397	293.06
325.626	177.06
325.855	150.06
326.084	132.06
326.313	148.06
326.542	182.06
326.77	271.06
326.999	558.06
327.228	1129.06
327.457	2098.06
327.686	1647.06
327.914	507.06
328.143	432.06
328.372	475.06
328.6	294.06
328.829	165.06
329.058	180.06
329.287	172.06
329.515	167.06
329.744	207.06
329.972	347.06
330.201	695.06
330.43	972.06
330.658	473.06
330.887	247.06
331.115	168.06
331.344	125.06
331.572	111.06
331.801	110.06
332.03	117.06
332.258	112.06
332.486	81.06
332.715	87.06
332.943	106.06
333.172	103.06
333.4	124.06
333.629	123.06
333.857	189.06
334.085	336.06
334.314	662.06
334.542	1263.06
334.771	1177.06
334.999	335.06
335.227	155.06
335.455	128.06
335.684	107.06
335.912	96.06
336.14	115.06
336.369	107.06
336.597	121.06
336.825	105.06
337.053	115.06
337.281	93.06
337.51	93.06
337.738	100.06
337.966	100.06
338.194	98.06
338.422	100.06
338.65	109.06
338.878	104.06
339.106	97.06
339.334	87.06
339.562	98.06
339.79	83.06
340.018	90.06
340.246	99.06
340.474	88.06
340.702	93.06
340.93	85.06
341.158	106.06
341.386	112.06
341.614	102.06
341.842	97.06
342.07	104.06
342.298	95.06
342.526	105.06
342.754	91.06
342.981	90.06
343.209	82.06
343.437	76.06
343.665	89.06
343.893	86.06
344.12	98.06
344.348	94.06
344.576	85.06
344.804	94.06
345.031	101.06
345.259	102.06
345.487	84.06
345.714	89.06
345.942	92.06
346.17	99.06
346.397	88.06
346.625	85.06
346.853	76.06
347.08	83.06
347.308	94.06
347.535	110.06
347.763	96.06
347.99	92.06
348.218	116.06
348.445	103.06
348.673	104.06
348.9	99.06
349.128	89.06
349.355	102.06
349.583	102.06
349.81	81.06
350.037	97.06
350.265	89.06
350.492	95.06
350.72	94.06
350.947	96.06
351.174	107.06
351.402	117.06
351.629	118.06
351.856	98.06
352.083	113.06
352.311	95.06
352.538	128.06
352.765	107.06
352.992	120.06
353.22	120.06
353.447	114.06
353.674	100.06
353.901	87.06
354.128	107.06
354.355	95.06
354.583	96.06
354.81	95.06
355.037	93.06
355.264	92.06
355.491	81.06
355.718	85.06
355.945	85.06
356.172	90.06
356.399	106.06
356.626	88.06
356.853	87.06
357.08	84.06
357.307	100.06
357.534	93.06
357.761	98.06
357.988	89.06
358.215	98.06
358.441	95.06
358.668	86.06
358.895	79.06
359.122	76.06
359.349	85.06
359.576	113.06
359.802	103.06
360.029	149.06
360.256	134.06
360.483	100.06
360.709	86.06
360.936	107.06
361.163	86.06
361.39	121.06
361.616	108.06
361.843	93.06
362.07	116.06
362.296	93.06
362.523	98.06
362.749	102.06
362.976	107.06
363.203	100.06
363.429	85.06
363.656	82.06
363.882	94.06
364.109	92.06
364.335	103.06
364.562	87.06
364.788	99.06
365.015	102.06
365.241	108.06
365.468	128.06
365.694	102.06
365.92	105.06
366.147	94.06
366.373	81.06
366.599	70.06
366.826	93.06
367.052	89.06
367.278	98.06
367.505	77.06
367.731	109.06
367.957	94.06
368.184	103.06
368.41	90.06
368.636	116.06
368.862	103.06
369.089	119.06
369.315	109.06
369.541	95.06
369.767	98.06
369.993	89.06
370.219	87.06
370.445	95.06
370.672	94.06
370.898	92.06
371.124	86.06
371.35	81.06
371.576	95.06
371.802	76.06
372.028	106.06
372.254	95.06
372.48	105.06
372.706	99.06
372.932	104.06
373.158	93.06
373.384	79.06
373.61	95.06
373.835	92.06
374.061	87.06
374.287	105.06
374.513	90.06
374.739	85.06
374.965	80.06
375.191	94.06
375.416	71.06
375.642	81.06
375.868	83.06
376.094	84.06
376.319	96.06
376.545	98.06
376.771	97.06
376.997	100.06
377.222	68.06
377.448	95.06
377.674	97.06
377.899	80.06
378.125	93.06
378.35	107.06
378.576	73.06
378.802	95.06
379.027	90.06
379.253	82.06
379.478	94.06
379.704	92.06
379.929	98.06
380.155	90.06
380.38	77.06
380.606	86.06
380.831	91.06
381.057	110.06
381.282	93.06
381.507	85.06
381.733	98.06
381.958	114.06
382.184	99.06
382.409	91.06
382.634	102.06
382.86	100.06
383.085	105.06
383.31	95.06
383.535	85.06
383.761	116.06
383.986	90.06
384.211	83.06
384.436	103.06
384.662	95.06
384.887	89.06
385.112	113.06
385.337	99.06
385.562	113.06
385.787	92.06
386.013	116.06
386.238	88.06
386.463	102.06
386.688	120.06
386.913	106.06
387.138	92.06
387.363	92.06
387.588	85.06
387.813	93.06
388.038	101.06
388.263	104.06
388.488	101.06
388.713	100.06
388.938	102.06
389.163	82.06
389.387	83.06
389.612	95.06
389.837	90.06
390.062	102.06
390.287	93.06
390.512	79.06
390.736	90.06
390.961	92.06
391.186	92.06
391.411	93.06
391.636	82.06
391.86	79.06
392.085	83.06
392.31	83.06
392.534	70.06
392.759	97.06
392.984	90.06
393.208	99.06
393.433	83.06
393.658	81.06
393.882	89.06
394.107	82.06
394.331	82.06
394.556	88.06
394.78	85.06
395.005	83.06
395.229	88.06
395.454	103.06
395.678	83.06
395.903	96.06
396.127	92.06
396.352	99.06
396.576	82.06
396.801	83.06
397.025	71.06
397.249	80.06
397.474	97.06
397.698	85.06
397.922	99.06
398.147	77.06
398.371	89.06
398.595	104.06
398.82	93.06
399.044	88.06
399.268	97.06
399.492	89.06
399.717	98.06
399.941	76.06
400.165	94.06
400.389	100.06
400.613	86.06
400.837	74.06
401.062	76.06
401.286	109.06
401.51	94.06
401.734	94.06
401.958	112.06
402.182	135.06
402.406	183.06
402.63	136.06
402.854	102.06
403.078	89.06
403.302	81.06
403.526	102.06
403.75	98.06
403.974	96.06
404.198	78.06
404.422	96.06
404.645	89.06
404.869	103.06
405.093	114.06
405.317	142.06
405.541	128.06
405.765	108.06
405.988	118.06
406.212	203.06
406.436	275.06
406.66	195.06
406.883	113.06
407.107	110.06
407.331	90.06
407.555	113.06
407.778	96.06
408.002	84.06
408.226	86.06
408.449	90.06
408.673	94.06
408.896	99.06
409.12	113.06
409.344	101.06
409.567	86.06
409.791	99.06
410.014	92.06
410.238	93.06
410.461	109.06
410.685	83.06
410.908	85.06
411.132	106.06
411.355	86.06
411.578	104.06
411.802	97.06
412.025	85.06
412.249	97.06
412.472	119.06
412.695	142.06
412.919	98.06
413.142	85.06
413.365	83.06
413.589	91.06
413.812	79.06
414.035	81.06
414.258	85.06
414.482	93.06
414.705	107.06
414.928	98.06
415.151	91.06
415.374	88.06
415.597	78.06
415.821	93.06
416.044	87.06
416.267	85.06
416.49	82.06
416.713	83.06
416.936	86.06
417.159	97.06
417.382	92.06
417.605	116.06
417.828	116.06
418.051	82.06
418.274	82.06
418.497	88.06
418.72	83.06
418.943	97.06
419.166	90.06
419.389	82.06
419.611	88.06
419.834	92.06
420.057	85.06
420.28	100.06
420.503	89.06
420.726	86.06
420.948	89.06
421.171	108.06
421.394	89.06
421.617	101.06
421.839	71.06
422.062	87.06
422.285	72.06
422.507	100.06
422.73	118.06
422.953	100.06
423.175	90.06
423.398	88.06
423.621	97.06
423.843	94.06
424.066	68.06
424.288	74.06
424.511	96.06
424.733	103.06
424.956	117.06
425.178	115.06
425.401	104.06
425.623	103.06
425.846	85.06
426.068	99.06
426.291	94.06
426.513	99.06
426.735	89.06
426.958	104.06
427.18	140.06
427.402	178.06
427.625	229.06
427.847	218.06
428.069	189.06
428.292	123.06
428.514	96.06
428.736	90.06
428.958	83.06
429.181	97.06
429.403	89.06
429.625	86.06
429.847	94.06
430.069	107.06
430.292	95.06
430.514	83.06
430.736	79.06
430.958	97.06
431.18	78.06
431.402	94.06
431.624	81.06
431.846	86.06
432.068	99.06
432.29	84.06
432.512	93.06
432.734	98.06
432.956	101.06
433.178	88.06
433.4	93.06
433.622	93.06
433.844	104.06
434.066	91.06
434.287	88.06
434.509	98.06
434.731	86.06
434.953	94.06
435.175	101.06
435.397	97.06
435.618	75.06
435.84	100.06
436.062	143.06
436.284	120.06
436.505	106.06
436.727	108.06
436.949	93.06
437.17	88.06
437.392	101.06
437.614	97.06
437.835	126.06
438.057	158.06
438.278	133.06
438.5	125.06
438.721	141.06
438.943	113.06
439.165	95.06
439.386	91.06
439.608	91.06
439.829	127.06
440.05	140.06
440.272	177.06
440.493	105.06
440.715	74.06
440.936	78.06
441.158	90.06
441.379	83.06
441.6	95.06
441.822	105.06
442.043	97.06
442.264	132.06
442.486	104.06
442.707	86.06
442.928	106.06
443.149	146.06
443.371	165.06
443.592	116.06
443.813	130.06
444.034	110.06
444.255	106.06
444.476	82.06
444.698	82.06
444.919	72.06
445.14	132.06
445.361	149.06
445.582	143.06
445.803	165.06
446.024	174.06
446.245	163.06
446.466	121.06
446.687	87.06
446.908	90.06
447.129	92.06
447.35	96.06
447.571	102.06
447.792	95.06
448.013	98.06
448.234	123.06
448.455	101.06
448.675	125.06
448.896	126.06
449.117	101.06
449.338	108.06
449.559	149.06
449.779	153.06
450	88.06
450.221	84.06
450.442	99.06
450.662	91.06
450.883	116.06
451.104	112.06
451.324	93.06
451.545	81.06
451.766	75.06
451.986	71.06
452.207	95.06
452.428	98.06
452.648	118.06
452.869	120.06
453.089	142.06
453.31	129.06
453.53	101.06
453.751	83.06
453.971	99.06
454.192	115.06
454.412	93.06
454.633	80.06
454.853	86.06
455.073	95.06
455.294	92.06
455.514	104.06
455.734	99.06
455.955	89.06
456.175	97.06
456.395	83.06
456.616	98.06
456.836	84.06
457.056	92.06
457.276	84.06
457.497	91.06
457.717	88.06
457.937	76.06
458.157	89.06
458.377	82.06
458.598	109.06
458.818	198.06
459.038	204.06
459.258	133.06
459.478	100.06
459.698	83.06
459.918	76.06
460.138	101.06
460.358	84.06
460.578	82.06
460.798	96.06
461.018	93.06
461.238	96.06
461.458	71.06
461.678	90.06
461.898	88.06
462.118	96.06
462.338	84.06
462.558	81.06
462.777	86.06
462.997	93.06
463.217	100.06
463.437	92.06
463.657	83.06
463.876	94.06
464.096	83.06
464.316	106.06
464.536	94.06
464.755	93.06
464.975	119.06
465.195	220.06
465.414	210.06
465.634	104.06
465.854	103.06
466.073	102.06
466.293	87.06
466.512	94.06
466.732	95.06
466.951	91.06
467.171	105.06
467.391	100.06
467.61	125.06
467.829	157.06
468.049	384.06
468.268	533.06
468.488	175.06
468.707	99.06
468.927	97.06
469.146	90.06
469.365	86.06
469.585	84.06
469.804	99.06
470.023	111.06
470.243	110.06
470.462	111.06
470.681	127.06
470.901	106.06
471.12	107.06
471.339	84.06
471.558	124.06
471.777	131.06
471.997	229.06
472.216	725.06
472.435	1629.06
472.654	423.06
472.873	149.06
473.092	113.06
473.311	99.06
473.53	89.06
473.749	89.06
473.968	110.06
474.187	122.06
474.406	108.06
474.625	99.06
474.844	90.06
475.063	77.06
475.282	80.06
475.501	88.06
475.72	94.06
475.939	88.06
476.158	88.06
476.377	94.06
476.596	81.06
476.814	105.06
477.033	84.06
477.252	101.06
477.471	89.06
477.69	101.06
477.908	87.06
478.127	93.06
478.346	87.06
478.564	87.06
478.783	98.06
479.002	107.06
479.22	114.06
479.439	101.06
479.658	143.06
479.876	103.06
480.095	94.06
480.313	120.06
480.532	122.06
480.751	211.06
480.969	689.06
481.188	2786.06
481.406	1702.06
481.624	279.06
481.843	117.06
482.061	110.06
482.28	98.06
482.498	80.06
482.717	96.06
482.935	90.06
483.153	108.06
483.372	90.06
483.59	83.06
483.808	81.06
484.027	92.06
484.245	85.06
484.463	98.06
484.681	84.06
484.9	79.06
485.118	87.06
485.336	91.06
485.554	101.06
485.772	110.06
485.99	89.06
486.209	91.06
486.427	100.06
486.645	127.06
486.863	114.06
487.081	108.06
487.299	90.06
487.517	109.06
487.735	97.06
487.953	85.06
488.171	87.06
488.389	100.06
488.607	105.06
488.825	95.06
489.043	78.06
489.261	89.06
489.479	79.06
489.696	82.06
489.914	86.06
490.132	77.06
490.35	82.06
490.568	87.06
490.786	89.06
491.003	83.06
491.221	86.06
491.439	90.06
491.657	91.06
491.874	92.06
492.092	88.06
492.31	89.06
492.527	89.06
492.745	97.06
492.963	92.06
493.18	90.06
493.398	96.06
493.615	96.06
493.833	83.06
494.05	90.06
494.268	86.06
494.485	93.06
494.703	93.06
494.92	98.06
495.138	99.06
495.355	84.06
495.573	86.06
495.79	73.06
496.008	90.06
496.225	110.06
496.442	90.06
496.66	87.06
496.877	91.06
497.094	98.06
497.312	83.06
497.529	87.06
497.746	89.06
497.963	99.06
498.181	99.06
498.398	94.06
498.615	121.06
498.832	102.06
499.049	72.06
499.267	97.06
499.484	103.06
499.701	97.06
499.918	82.06
500.135	94.06
500.352	100.06
500.569	103.06
500.786	87.06
501.003	89.06
501.22	95.06
501.437	85.06
501.654	93.06
501.871	107.06
502.088	94.06
502.305	98.06
502.522	83.06
502.739	98.06
502.956	106.06
503.172	97.06
503.389	88.06
503.606	118.06
503.823	108.06
504.04	113.06
504.256	90.06
504.473	91.06
504.69	89.06
504.907	93.06
505.123	91.06
505.34	90.06
505.557	80.06
505.773	90.06
505.99	84.06
506.207	95.06
506.423	95.06
506.64	88.06
506.856	79.06
507.073	77.06
507.289	98.06
507.506	104.06
507.722	132.06
507.939	130.06
508.155	93.06
508.372	89.06
508.588	86.06
508.805	79.06
509.021	88.06
509.238	98.06
509.454	98.06
509.67	114.06
509.887	125.06
510.103	147.06
510.319	228.06
510.536	782.06
510.752	2673.06
510.968	791.06
511.184	169.06
511.401	118.06
511.617	122.06
511.833	111.06
512.049	99.06
512.265	85.06
512.481	86.06
512.698	105.06
512.914	97.06
513.13	95.06
513.346	96.06
513.562	100.06
513.778	93.06
513.994	101.06
