Data from Circ_2013_H10_HRD10591_00001.txt Node
Date: Wed Jan 03 10:04:00 EST 2024
User: Yrep
Spectrometer: HR+D1059
Trigger mode: 1
Integration Time (sec): 1.000000E-1
Scans to average: 1
Electric dark correction enabled: true
Nonlinearity correction enabled: false
Boxcar width: 0
XAxis mode: Wavelengths
Number of Pixels in Spectrum: 2048
>>>>>Begin Spectral Data<<<<<
223.165	-12.25
223.4	-12.25
223.635	-12.25
223.869	-4.25
224.104	-7.25
224.338	-11.25
224.573	-8.25
224.808	-16.25
225.042	-10.25
225.277	-5.25
225.511	-14.25
225.746	-1.25
225.98	5.75
226.215	3.75
226.449	12.75
226.683	13.75
226.918	21.75
227.152	32.75
227.387	25.75
227.621	25.75
227.856	38.75
228.09	42.75
228.324	41.75
228.559	50.75
228.793	51.75
229.027	66.75
229.262	70.75
229.496	58.75
229.73	77.75
229.964	81.75
230.199	75.75
230.433	73.75
230.667	69.75
230.901	73.75
231.136	82.75
231.37	63.75
231.604	81.75
231.838	77.75
232.072	85.75
232.306	82.75
232.541	69.75
232.775	82.75
233.009	75.75
233.243	75.75
233.477	76.75
233.711	73.75
233.945	83.75
234.179	83.75
234.413	74.75
234.647	78.75
234.881	69.75
235.115	79.75
235.349	80.75
235.583	64.75
235.817	70.75
236.051	72.75
236.285	70.75
236.519	70.75
236.753	89.75
236.987	80.75
237.221	77.75
237.455	76.75
237.689	80.75
237.922	73.75
238.156	74.75
238.39	77.75
238.624	68.75
238.858	76.75
239.091	65.75
239.325	65.75
239.559	81.75
239.793	72.75
240.027	63.75
240.26	78.75
240.494	70.75
240.728	85.75
240.961	69.75
241.195	84.75
241.429	58.75
241.662	62.75
241.896	78.75
242.13	75.75
242.363	75.75
242.597	76.75
242.83	81.75
243.064	67.75
243.298	67.75
243.531	76.75
243.765	67.75
243.998	69.75
244.232	81.75
244.465	81.75
244.699	77.75
244.932	78.75
245.166	80.75
245.399	59.75
245.633	68.75
245.866	82.75
246.099	80.75
246.333	81.75
246.566	80.75
246.8	71.75
247.033	90.75
247.266	77.75
247.5	73.75
247.733	73.75
247.966	73.75
248.2	80.75
248.433	75.75
248.666	73.75
248.899	78.75
249.133	91.75
249.366	88.75
249.599	92.75
249.832	67.75
250.066	62.75
250.299	78.75
250.532	77.75
250.765	92.75
250.998	76.75
251.231	77.75
251.465	75.75
251.698	73.75
251.931	59.75
252.164	77.75
252.397	88.75
252.63	72.75
252.863	69.75
253.096	78.75
253.329	80.75
253.562	81.75
253.795	77.75
254.028	80.75
254.261	88.75
254.494	83.75
254.727	82.75
254.96	76.75
255.193	88.75
255.426	62.75
255.659	75.75
255.892	85.75
256.124	78.75
256.357	80.75
256.59	74.75
256.823	77.75
257.056	76.75
257.289	78.75
257.521	69.75
257.754	77.75
257.987	81.75
258.22	80.75
258.452	74.75
258.685	85.75
258.918	76.75
259.151	62.75
259.383	65.75
259.616	82.75
259.849	80.75
260.081	83.75
260.314	75.75
260.547	81.75
260.779	98.75
261.012	77.75
261.244	81.75
261.477	68.75
261.71	99.75
261.942	89.75
262.175	98.75
262.407	90.75
262.64	79.75
262.872	73.75
263.105	75.75
263.337	87.75
263.57	81.75
263.802	69.75
264.035	70.75
264.267	75.75
264.499	74.75
264.732	77.75
264.964	78.75
265.197	79.75
265.429	85.75
265.661	65.75
265.894	75.75
266.126	78.75
266.358	76.75
266.591	89.75
266.823	78.75
267.055	80.75
267.287	89.75
267.52	69.75
267.752	81.75
267.984	75.75
268.216	80.75
268.448	79.75
268.681	95.75
268.913	74.75
269.145	84.75
269.377	82.75
269.609	89.75
269.841	80.75
270.073	81.75
270.306	82.75
270.538	79.75
270.77	74.75
271.002	89.75
271.234	90.75
271.466	97.75
271.698	87.75
271.93	82.75
272.162	83.75
272.394	78.75
272.626	86.75
272.858	62.75
273.09	84.75
273.322	73.75
273.553	80.75
273.785	79.75
274.017	74.75
274.249	83.75
274.481	90.75
274.713	83.75
274.945	92.75
275.176	67.75
275.408	78.75
275.64	86.75
275.872	89.75
276.104	95.75
276.335	93.75
276.567	95.75
276.799	105.75
277.031	91.75
277.262	91.75
277.494	78.75
277.726	89.75
277.957	93.75
278.189	78.75
278.421	72.75
278.652	79.75
278.884	92.75
279.115	94.75
279.347	78.75
279.579	88.75
279.81	80.75
280.042	97.75
280.273	94.75
280.505	85.75
280.736	87.75
280.968	75.75
281.199	85.75
281.431	85.75
281.662	80.75
281.894	85.75
282.125	91.75
282.356	99.75
282.588	103.75
282.819	94.75
283.051	80.75
283.282	75.75
283.513	78.75
283.745	67.75
283.976	88.75
284.207	98.75
284.439	76.75
284.67	86.75
284.901	89.75
285.132	72.75
285.364	78.75
285.595	88.75
285.826	89.75
286.057	75.75
286.288	86.75
286.52	94.75
286.751	73.75
286.982	84.75
287.213	87.75
287.444	88.75
287.675	90.75
287.906	71.75
288.138	82.75
288.369	82.75
288.6	86.75
288.831	88.75
289.062	87.75
289.293	88.75
289.524	93.75
289.755	63.75
289.986	93.75
290.217	72.75
290.448	89.75
290.679	91.75
290.91	79.75
291.141	74.75
291.371	74.75
291.602	76.75
291.833	80.75
292.064	93.75
292.295	84.75
292.526	81.75
292.757	85.75
292.987	90.75
293.218	79.75
293.449	81.75
293.68	78.75
293.91	85.75
294.141	105.75
294.372	94.75
294.603	91.75
294.833	88.75
295.064	88.75
295.295	86.75
295.525	73.75
295.756	94.75
295.987	93.75
296.217	117.75
296.448	101.75
296.679	92.75
296.909	87.75
297.14	77.75
297.37	92.75
297.601	87.75
297.831	86.75
298.062	87.75
298.292	84.75
298.523	89.75
298.753	70.75
298.984	84.75
299.214	76.75
299.445	85.75
299.675	90.75
299.905	87.75
300.136	75.75
300.366	85.75
300.597	86.75
300.827	84.75
301.057	80.75
301.288	89.75
301.518	89.75
301.748	81.75
301.979	85.75
302.209	86.75
302.439	85.75
302.669	94.75
302.9	81.75
303.13	88.75
303.36	97.75
303.59	97.75
303.82	96.75
304.051	82.75
304.281	93.75
304.511	82.75
304.741	80.75
304.971	82.75
305.201	84.75
305.431	92.75
305.661	80.75
305.891	89.75
306.121	98.75
306.352	79.75
306.582	91.75
306.812	78.75
307.042	89.75
307.272	96.75
307.502	86.75
307.731	85.75
307.961	95.75
308.191	74.75
308.421	88.75
308.651	90.75
308.881	89.75
309.111	87.75
309.341	95.75
309.571	104.75
309.8	88.75
310.03	81.75
310.26	107.75
310.49	98.75
310.72	100.75
310.949	76.75
311.179	92.75
311.409	95.75
311.639	80.75
311.868	89.75
312.098	86.75
312.328	96.75
312.557	95.75
312.787	104.75
313.017	94.75
313.246	82.75
313.476	84.75
313.706	93.75
313.935	91.75
314.165	94.75
314.394	88.75
314.624	87.75
314.853	95.75
315.083	93.75
315.312	86.75
315.542	88.75
315.771	97.75
316.001	85.75
316.23	90.75
316.46	89.75
316.689	84.75
316.919	91.75
317.148	94.75
317.377	89.75
317.607	104.75
317.836	84.75
318.065	90.75
318.295	81.75
318.524	78.75
318.753	81.75
318.983	89.75
319.212	87.75
319.441	89.75
319.67	95.75
319.9	88.75
320.129	77.75
320.358	91.75
320.587	95.75
320.816	69.75
321.046	104.75
321.275	94.75
321.504	86.75
321.733	105.75
321.962	99.75
322.191	85.75
322.42	108.75
322.649	114.75
322.878	113.75
323.108	109.75
323.337	97.75
323.566	113.75
323.795	128.75
324.024	158.75
324.253	305.75
324.482	707.75
324.71	1383.75
324.939	1853.75
325.168	693.75
325.397	215.75
325.626	147.75
325.855	129.75
326.084	99.75
326.313	122.75
326.542	120.75
326.77	196.75
326.999	365.75
327.228	803.75
327.457	1454.75
327.686	1157.75
327.914	325.75
328.143	187.75
328.372	165.75
328.6	133.75
328.829	109.75
329.058	119.75
329.287	110.75
329.515	109.75
329.744	97.75
329.972	112.75
330.201	161.75
330.43	201.75
330.658	139.75
330.887	109.75
331.115	117.75
331.344	106.75
331.572	86.75
331.801	85.75
332.03	103.75
332.258	98.75
332.486	81.75
332.715	88.75
332.943	79.75
333.172	78.75
333.4	79.75
333.629	102.75
333.857	113.75
334.085	103.75
334.314	157.75
334.542	207.75
334.771	191.75
334.999	109.75
335.227	89.75
335.455	98.75
335.684	96.75
335.912	98.75
336.14	85.75
336.369	87.75
336.597	90.75
336.825	74.75
337.053	82.75
337.281	71.75
337.51	88.75
337.738	80.75
337.966	86.75
338.194	83.75
338.422	89.75
338.65	95.75
338.878	97.75
339.106	80.75
339.334	83.75
339.562	99.75
339.79	72.75
340.018	87.75
340.246	96.75
340.474	88.75
340.702	84.75
340.93	91.75
341.158	82.75
341.386	90.75
341.614	86.75
341.842	87.75
342.07	77.75
342.298	79.75
342.526	85.75
342.754	81.75
342.981	78.75
343.209	92.75
343.437	93.75
343.665	87.75
343.893	72.75
344.12	86.75
344.348	85.75
344.576	76.75
344.804	90.75
345.031	99.75
345.259	100.75
345.487	89.75
345.714	85.75
345.942	95.75
346.17	97.75
346.397	79.75
346.625	89.75
346.853	82.75
347.08	96.75
347.308	98.75
347.535	106.75
347.763	98.75
347.99	83.75
348.218	89.75
348.445	102.75
348.673	96.75
348.9	99.75
349.128	95.75
349.355	94.75
349.583	103.75
349.81	85.75
350.037	94.75
350.265	82.75
350.492	83.75
350.72	94.75
350.947	91.75
351.174	94.75
351.402	100.75
351.629	100.75
351.856	92.75
352.083	101.75
352.311	104.75
352.538	88.75
352.765	112.75
352.992	111.75
353.22	95.75
353.447	86.75
353.674	88.75
353.901	91.75
354.128	98.75
354.355	88.75
354.583	101.75
354.81	83.75
355.037	98.75
355.264	102.75
355.491	97.75
355.718	103.75
355.945	92.75
356.172	88.75
356.399	97.75
356.626	90.75
356.853	101.75
357.08	89.75
357.307	82.75
357.534	94.75
357.761	85.75
357.988	91.75
358.215	99.75
358.441	82.75
358.668	104.75
358.895	84.75
359.122	96.75
359.349	90.75
359.576	92.75
359.802	102.75
360.029	96.75
360.256	105.75
360.483	85.75
360.709	99.75
360.936	87.75
361.163	76.75
361.39	83.75
361.616	85.75
361.843	73.75
362.07	90.75
362.296	90.75
362.523	89.75
362.749	86.75
362.976	84.75
363.203	89.75
363.429	104.75
363.656	76.75
363.882	87.75
364.109	88.75
364.335	88.75
364.562	93.75
364.788	89.75
365.015	87.75
365.241	98.75
365.468	104.75
365.694	100.75
365.92	82.75
366.147	81.75
366.373	81.75
366.599	85.75
366.826	72.75
367.052	87.75
367.278	70.75
367.505	86.75
367.731	102.75
367.957	81.75
368.184	77.75
368.41	84.75
368.636	95.75
368.862	113.75
369.089	97.75
369.315	89.75
369.541	83.75
369.767	92.75
369.993	91.75
370.219	88.75
370.445	89.75
370.672	72.75
370.898	85.75
371.124	92.75
371.35	103.75
371.576	89.75
371.802	92.75
372.028	84.75
372.254	86.75
372.48	95.75
372.706	75.75
372.932	87.75
373.158	81.75
373.384	76.75
373.61	79.75
373.835	82.75
374.061	90.75
374.287	99.75
374.513	90.75
374.739	93.75
374.965	88.75
375.191	80.75
375.416	79.75
375.642	80.75
375.868	79.75
376.094	94.75
376.319	98.75
376.545	89.75
376.771	80.75
376.997	83.75
377.222	82.75
377.448	76.75
377.674	106.75
377.899	90.75
378.125	81.75
378.35	98.75
378.576	94.75
378.802	98.75
379.027	88.75
379.253	95.75
379.478	91.75
379.704	105.75
379.929	89.75
380.155	89.75
380.38	98.75
380.606	105.75
380.831	97.75
381.057	86.75
381.282	92.75
381.507	93.75
381.733	107.75
381.958	92.75
382.184	101.75
382.409	115.75
382.634	109.75
382.86	105.75
383.085	103.75
383.31	120.75
383.535	103.75
383.761	113.75
383.986	119.75
384.211	116.75
384.436	118.75
384.662	113.75
384.887	136.75
385.112	114.75
385.337	110.75
385.562	136.75
385.787	109.75
386.013	110.75
386.238	126.75
386.463	116.75
386.688	131.75
386.913	130.75
387.138	117.75
387.363	122.75
387.588	115.75
387.813	108.75
388.038	124.75
388.263	148.75
388.488	142.75
388.713	88.75
388.938	84.75
389.163	75.75
389.387	92.75
389.612	90.75
389.837	100.75
390.062	97.75
390.287	83.75
390.512	79.75
390.736	81.75
390.961	88.75
391.186	85.75
391.411	79.75
391.636	81.75
391.86	75.75
392.085	84.75
392.31	75.75
392.534	81.75
392.759	97.75
392.984	86.75
393.208	91.75
393.433	93.75
393.658	106.75
393.882	83.75
394.107	99.75
394.331	82.75
394.556	82.75
394.78	83.75
395.005	87.75
395.229	81.75
395.454	75.75
395.678	85.75
395.903	87.75
396.127	81.75
396.352	84.75
396.576	86.75
396.801	80.75
397.025	77.75
397.249	85.75
397.474	76.75
397.698	85.75
397.922	82.75
398.147	81.75
398.371	75.75
398.595	83.75
398.82	81.75
399.044	97.75
399.268	85.75
399.492	100.75
399.717	75.75
399.941	91.75
400.165	94.75
400.389	86.75
400.613	85.75
400.837	94.75
401.062	80.75
401.286	80.75
401.51	83.75
401.734	86.75
401.958	103.75
402.182	106.75
402.406	125.75
402.63	100.75
402.854	98.75
403.078	89.75
403.302	78.75
403.526	77.75
403.75	91.75
403.974	68.75
404.198	83.75
404.422	72.75
404.645	72.75
404.869	81.75
405.093	93.75
405.317	95.75
405.541	98.75
405.765	88.75
405.988	102.75
406.212	141.75
406.436	173.75
406.66	133.75
406.883	88.75
407.107	71.75
407.331	72.75
407.555	102.75
407.778	91.75
408.002	75.75
408.226	92.75
408.449	87.75
408.673	92.75
408.896	105.75
409.12	80.75
409.344	82.75
409.567	74.75
409.791	89.75
410.014	88.75
410.238	95.75
410.461	72.75
410.685	88.75
410.908	85.75
411.132	96.75
411.355	103.75
411.578	98.75
411.802	81.75
412.025	80.75
412.249	92.75
412.472	82.75
412.695	93.75
412.919	89.75
413.142	87.75
413.365	88.75
413.589	85.75
413.812	88.75
414.035	88.75
414.258	85.75
414.482	82.75
414.705	89.75
414.928	94.75
415.151	76.75
415.374	92.75
415.597	77.75
415.821	81.75
416.044	93.75
416.267	96.75
416.49	79.75
416.713	83.75
416.936	99.75
417.159	88.75
417.382	88.75
417.605	90.75
417.828	92.75
418.051	79.75
418.274	82.75
418.497	85.75
418.72	82.75
418.943	73.75
419.166	87.75
419.389	86.75
419.611	73.75
419.834	95.75
420.057	88.75
420.28	92.75
420.503	89.75
420.726	93.75
420.948	84.75
421.171	75.75
421.394	100.75
421.617	92.75
421.839	85.75
422.062	88.75
422.285	79.75
422.507	91.75
422.73	107.75
422.953	95.75
423.175	84.75
423.398	83.75
423.621	62.75
423.843	82.75
424.066	80.75
424.288	77.75
424.511	77.75
424.733	85.75
424.956	89.75
425.178	87.75
425.401	86.75
425.623	86.75
425.846	73.75
426.068	86.75
426.291	89.75
426.513	85.75
426.735	88.75
426.958	93.75
427.18	95.75
427.402	110.75
427.625	141.75
427.847	135.75
428.069	122.75
428.292	83.75
428.514	99.75
428.736	85.75
428.958	95.75
429.181	75.75
429.403	69.75
429.625	86.75
429.847	88.75
430.069	90.75
430.292	96.75
430.514	86.75
430.736	88.75
430.958	82.75
431.18	90.75
431.402	70.75
431.624	81.75
431.846	89.75
432.068	82.75
432.29	75.75
432.512	87.75
432.734	82.75
432.956	70.75
433.178	88.75
433.4	84.75
433.622	75.75
433.844	75.75
434.066	94.75
434.287	82.75
434.509	80.75
434.731	74.75
434.953	79.75
435.175	79.75
435.397	96.75
435.618	89.75
435.84	100.75
436.062	103.75
436.284	96.75
436.505	94.75
436.727	87.75
436.949	87.75
437.17	82.75
437.392	77.75
437.614	79.75
437.835	96.75
438.057	91.75
438.278	95.75
438.5	105.75
438.721	109.75
438.943	94.75
439.165	90.75
439.386	80.75
439.608	70.75
439.829	86.75
440.05	106.75
440.272	120.75
440.493	91.75
440.715	89.75
440.936	77.75
441.158	77.75
441.379	87.75
441.6	103.75
441.822	90.75
442.043	86.75
442.264	100.75
442.486	92.75
442.707	88.75
442.928	95.75
443.149	106.75
443.371	106.75
443.592	98.75
443.813	97.75
444.034	91.75
444.255	78.75
444.476	78.75
444.698	73.75
444.919	79.75
445.14	119.75
445.361	126.75
445.582	120.75
445.803	110.75
446.024	130.75
446.245	113.75
446.466	105.75
446.687	89.75
446.908	87.75
447.129	93.75
447.35	71.75
447.571	97.75
447.792	86.75
448.013	83.75
448.234	90.75
448.455	93.75
448.675	82.75
448.896	109.75
449.117	103.75
449.338	98.75
449.559	107.75
449.779	121.75
450	81.75
450.221	91.75
450.442	94.75
450.662	84.75
450.883	93.75
451.104	96.75
451.324	93.75
451.545	94.75
451.766	88.75
451.986	77.75
452.207	66.75
452.428	82.75
452.648	80.75
452.869	106.75
453.089	107.75
453.31	107.75
453.53	88.75
453.751	75.75
453.971	84.75
454.192	95.75
454.412	89.75
454.633	86.75
454.853	82.75
455.073	79.75
455.294	94.75
455.514	93.75
455.734	84.75
455.955	73.75
456.175	82.75
456.395	71.75
456.616	86.75
456.836	74.75
457.056	84.75
457.276	74.75
457.497	82.75
457.717	77.75
457.937	103.75
458.157	69.75
458.377	85.75
458.598	100.75
458.818	138.75
459.038	122.75
459.258	104.75
459.478	84.75
459.698	73.75
459.918	71.75
460.138	93.75
460.358	80.75
460.578	75.75
460.798	87.75
461.018	86.75
461.238	78.75
461.458	94.75
461.678	86.75
461.898	83.75
462.118	81.75
462.338	78.75
462.558	81.75
462.777	83.75
462.997	87.75
463.217	77.75
463.437	94.75
463.657	98.75
463.876	93.75
464.096	87.75
464.316	88.75
464.536	96.75
464.755	87.75
464.975	101.75
465.195	130.75
465.414	129.75
465.634	79.75
465.854	83.75
466.073	94.75
466.293	86.75
466.512	93.75
466.732	79.75
466.951	92.75
467.171	74.75
467.391	81.75
467.61	94.75
467.829	103.75
468.049	129.75
468.268	153.75
468.488	93.75
468.707	75.75
468.927	68.75
469.146	80.75
469.365	86.75
469.585	82.75
469.804	96.75
470.023	76.75
470.243	76.75
470.462	101.75
470.681	91.75
470.901	94.75
471.12	84.75
471.339	81.75
471.558	65.75
471.777	86.75
471.997	104.75
472.216	167.75
472.435	267.75
472.654	117.75
472.873	72.75
473.092	88.75
473.311	93.75
473.53	74.75
473.749	86.75
473.968	75.75
474.187	86.75
474.406	79.75
474.625	80.75
474.844	84.75
475.063	83.75
475.282	81.75
475.501	72.75
475.72	95.75
475.939	84.75
476.158	70.75
476.377	75.75
476.596	76.75
476.814	82.75
477.033	102.75
477.252	100.75
477.471	71.75
477.69	75.75
477.908	82.75
478.127	97.75
478.346	89.75
478.564	88.75
478.783	88.75
479.002	89.75
479.22	92.75
479.439	90.75
479.658	97.75
479.876	92.75
480.095	90.75
480.313	94.75
480.532	90.75
480.751	93.75
480.969	164.75
481.188	433.75
481.406	313.75
481.624	122.75
481.843	95.75
482.061	73.75
482.28	81.75
482.498	82.75
482.717	77.75
482.935	75.75
483.153	107.75
483.372	76.75
483.59	85.75
483.808	82.75
484.027	90.75
484.245	85.75
484.463	82.75
484.681	88.75
484.9	87.75
485.118	94.75
485.336	82.75
485.554	90.75
485.772	96.75
485.99	105.75
486.209	105.75
486.427	97.75
486.645	100.75
486.863	103.75
487.081	90.75
487.299	95.75
487.517	88.75
487.735	96.75
487.953	81.75
488.171	81.75
488.389	98.75
488.607	85.75
488.825	100.75
489.043	92.75
489.261	91.75
489.479	75.75
489.696	86.75
489.914	88.75
490.132	96.75
490.35	88.75
490.568	87.75
490.786	87.75
491.003	93.75
491.221	86.75
491.439	93.75
491.657	100.75
491.874	91.75
492.092	90.75
492.31	82.75
492.527	81.75
492.745	72.75
492.963	83.75
493.18	80.75
493.398	73.75
493.615	87.75
493.833	93.75
494.05	85.75
494.268	90.75
494.485	90.75
494.703	74.75
494.92	85.75
495.138	82.75
495.355	78.75
495.573	99.75
495.79	90.75
496.008	91.75
496.225	88.75
496.442	93.75
496.66	89.75
496.877	91.75
497.094	94.75
497.312	74.75
497.529	84.75
497.746	93.75
497.963	66.75
498.181	85.75
498.398	98.75
498.615	102.75
498.832	87.75
499.049	87.75
499.267	87.75
499.484	94.75
499.701	95.75
499.918	92.75
500.135	94.75
500.352	83.75
500.569	87.75
500.786	101.75
501.003	94.75
501.22	73.75
501.437	97.75
501.654	97.75
501.871	89.75
502.088	74.75
502.305	82.75
502.522	90.75
502.739	86.75
502.956	91.75
503.172	98.75
503.389	94.75
503.606	90.75
503.823	102.75
504.04	87.75
504.256	89.75
504.473	79.75
504.69	78.75
504.907	99.75
505.123	79.75
505.34	82.75
505.557	70.75
505.773	89.75
505.99	81.75
506.207	80.75
506.423	87.75
506.64	86.75
506.856	90.75
507.073	95.75
507.289	81.75
507.506	85.75
507.722	98.75
507.939	111.75
508.155	87.75
508.372	93.75
508.588	104.75
508.805	98.75
509.021	87.75
509.238	96.75
509.454	89.75
509.67	96.75
509.887	106.75
510.103	121.75
510.319	184.75
510.536	512.75
510.752	1583.75
510.968	472.75
511.184	132.75
511.401	94.75
511.617	109.75
511.833	85.75
512.049	86.75
512.265	73.75
512.481	90.75
512.698	95.75
512.914	77.75
513.13	79.75
513.346	87.75
513.562	90.75
513.778	95.75
513.994	102.75
514.21	91.75
514.426	116.75
514.642	114.75
514.858	115.75
515.074	143.75
515.29	305.75
515.506	1004.75
515.721	410.75
515.937	112.75
516.153	86.75
516.369	92.75
516.585	91.75
516.801	73.75
517.016	83.75
517.232	92.75
