Data from Circ_2013_H10_HRD10591_00040.txt Node
Date: Wed Jan 03 10:04:08 EST 2024
User: Yrep
Spectrometer: HR+D1059
Trigger mode: 1
Integration Time (sec): 1.000000E-1
Scans to average: 1
Electric dark correction enabled: true
Nonlinearity correction enabled: false
Boxcar width: 0
XAxis mode: Wavelengths
Number of Pixels in Spectrum: 2048
>>>>>Begin Spectral Data<<<<<
223.165	-17.62
223.4	-17.62
223.635	-17.62
223.869	-18.62
224.104	-17.62
224.338	-8.62
224.573	-18.62
224.808	-8.62
225.042	-0.62
225.277	6.38
225.511	-13.62
225.746	-3.62
225.98	6.38
226.215	0.38
226.449	14.38
226.683	21.38
226.918	32.38
227.152	26.38
227.387	40.38
227.621	49.38
227.856	57.38
228.09	46.38
228.324	46.38
228.559	56.38
228.793	63.38
229.027	69.38
229.262	77.38
229.496	80.38
229.73	97.38
229.964	85.38
230.199	83.38
230.433	73.38
230.667	81.38
230.901	77.38
231.136	90.38
231.37	76.38
231.604	96.38
231.838	84.38
232.072	77.38
232.306	85.38
232.541	95.38
232.775	77.38
233.009	85.38
233.243	78.38
233.477	86.38
233.711	78.38
233.945	85.38
234.179	85.38
234.413	87.38
234.647	86.38
234.881	71.38
235.115	91.38
235.349	82.38
235.583	83.38
235.817	73.38
236.051	89.38
236.285	87.38
236.519	76.38
236.753	100.38
236.987	76.38
237.221	95.38
237.455	85.38
237.689	80.38
237.922	77.38
238.156	77.38
238.39	80.38
238.624	76.38
238.858	80.38
239.091	72.38
239.325	87.38
239.559	86.38
239.793	84.38
240.027	84.38
240.26	86.38
240.494	70.38
240.728	65.38
240.961	81.38
241.195	90.38
241.429	64.38
241.662	83.38
241.896	78.38
242.13	67.38
242.363	82.38
242.597	89.38
242.83	82.38
243.064	77.38
243.298	81.38
243.531	75.38
243.765	65.38
243.998	88.38
244.232	94.38
244.465	89.38
244.699	89.38
244.932	84.38
245.166	82.38
245.399	96.38
245.633	74.38
245.866	74.38
246.099	80.38
246.333	76.38
246.566	75.38
246.8	70.38
247.033	67.38
247.266	86.38
247.5	94.38
247.733	74.38
247.966	75.38
248.2	84.38
248.433	79.38
248.666	84.38
248.899	89.38
249.133	99.38
249.366	104.38
249.599	99.38
249.832	92.38
250.066	78.38
250.299	80.38
250.532	84.38
250.765	77.38
250.998	82.38
251.231	80.38
251.465	88.38
251.698	88.38
251.931	87.38
252.164	73.38
252.397	94.38
252.63	84.38
252.863	81.38
253.096	76.38
253.329	71.38
253.562	78.38
253.795	90.38
254.028	86.38
254.261	83.38
254.494	79.38
254.727	83.38
254.96	72.38
255.193	81.38
255.426	80.38
255.659	70.38
255.892	83.38
256.124	80.38
256.357	90.38
256.59	84.38
256.823	83.38
257.056	86.38
257.289	85.38
257.521	84.38
257.754	85.38
257.987	82.38
258.22	79.38
258.452	89.38
258.685	76.38
258.918	75.38
259.151	80.38
259.383	85.38
259.616	92.38
259.849	84.38
260.081	77.38
260.314	83.38
260.547	74.38
260.779	86.38
261.012	84.38
261.244	83.38
261.477	101.38
261.71	104.38
261.942	115.38
262.175	151.38
262.407	97.38
262.64	85.38
262.872	91.38
263.105	94.38
263.337	106.38
263.57	81.38
263.802	85.38
264.035	89.38
264.267	77.38
264.499	76.38
264.732	78.38
264.964	93.38
265.197	99.38
265.429	82.38
265.661	95.38
265.894	88.38
266.126	86.38
266.358	80.38
266.591	76.38
266.823	87.38
267.055	95.38
267.287	84.38
267.52	97.38
267.752	91.38
267.984	93.38
268.216	97.38
268.448	77.38
268.681	72.38
268.913	92.38
269.145	87.38
269.377	84.38
269.609	84.38
269.841	66.38
270.073	79.38
270.306	77.38
270.538	83.38
270.77	80.38
271.002	84.38
271.234	89.38
271.466	90.38
271.698	82.38
271.93	89.38
272.162	86.38
272.394	88.38
272.626	88.38
272.858	86.38
273.09	84.38
273.322	86.38
273.553	83.38
273.785	75.38
274.017	91.38
274.249	78.38
274.481	84.38
274.713	90.38
274.945	86.38
275.176	90.38
275.408	104.38
275.64	104.38
275.872	100.38
276.104	106.38
276.335	91.38
276.567	110.38
276.799	131.38
277.031	124.38
277.262	136.38
277.494	112.38
277.726	101.38
277.957	85.38
278.189	88.38
278.421	85.38
278.652	84.38
278.884	84.38
279.115	86.38
279.347	92.38
279.579	83.38
279.81	112.38
280.042	104.38
280.273	158.38
280.505	119.38
280.736	93.38
280.968	92.38
281.199	101.38
281.431	74.38
281.662	96.38
281.894	78.38
282.125	101.38
282.356	125.38
282.588	153.38
282.819	118.38
283.051	81.38
283.282	79.38
283.513	89.38
283.745	96.38
283.976	100.38
284.207	90.38
284.439	85.38
284.67	110.38
284.901	86.38
285.132	92.38
285.364	99.38
285.595	88.38
285.826	83.38
286.057	92.38
286.288	78.38
286.52	92.38
286.751	92.38
286.982	90.38
287.213	81.38
287.444	85.38
287.675	81.38
287.906	89.38
288.138	84.38
288.369	100.38
288.6	110.38
288.831	92.38
289.062	88.38
289.293	89.38
289.524	86.38
289.755	83.38
289.986	80.38
290.217	98.38
290.448	77.38
290.679	74.38
290.91	83.38
291.141	79.38
291.371	96.38
291.602	78.38
291.833	101.38
292.064	94.38
292.295	93.38
292.526	83.38
292.757	91.38
292.987	97.38
293.218	81.38
293.449	81.38
293.68	77.38
293.91	87.38
294.141	88.38
294.372	90.38
294.603	95.38
294.833	96.38
295.064	85.38
295.295	95.38
295.525	94.38
295.756	111.38
295.987	124.38
296.217	143.38
296.448	155.38
296.679	92.38
296.909	76.38
297.14	83.38
297.37	90.38
297.601	81.38
297.831	83.38
298.062	80.38
298.292	89.38
298.523	101.38
298.753	112.38
298.984	101.38
299.214	91.38
299.445	85.38
299.675	103.38
299.905	88.38
300.136	96.38
300.366	96.38
300.597	96.38
300.827	100.38
301.057	94.38
301.288	113.38
301.518	92.38
301.748	108.38
301.979	110.38
302.209	96.38
302.439	88.38
302.669	81.38
302.9	90.38
303.13	96.38
303.36	109.38
303.59	108.38
303.82	126.38
304.051	93.38
304.281	100.38
304.511	88.38
304.741	94.38
304.971	72.38
305.201	97.38
305.431	97.38
305.661	87.38
305.891	82.38
306.121	86.38
306.352	96.38
306.582	109.38
306.812	91.38
307.042	104.38
307.272	104.38
307.502	105.38
307.731	124.38
307.961	101.38
308.191	82.38
308.421	99.38
308.651	79.38
308.881	101.38
309.111	95.38
309.341	108.38
309.571	103.38
309.8	88.38
310.03	87.38
310.26	96.38
310.49	95.38
310.72	106.38
310.949	112.38
311.179	116.38
311.409	97.38
311.639	94.38
311.868	77.38
312.098	90.38
312.328	105.38
312.557	99.38
312.787	103.38
313.017	129.38
313.246	99.38
313.476	86.38
313.706	104.38
313.935	89.38
314.165	92.38
314.394	102.38
314.624	88.38
314.853	96.38
315.083	84.38
315.312	86.38
315.542	96.38
315.771	104.38
316.001	96.38
316.23	95.38
316.46	102.38
316.689	97.38
316.919	99.38
317.148	102.38
317.377	101.38
317.607	100.38
317.836	86.38
318.065	100.38
318.295	81.38
318.524	96.38
318.753	106.38
318.983	94.38
319.212	109.38
319.441	124.38
319.67	105.38
319.9	96.38
320.129	86.38
320.358	90.38
320.587	96.38
320.816	105.38
321.046	119.38
321.275	107.38
321.504	115.38
321.733	104.38
321.962	100.38
322.191	102.38
322.42	106.38
322.649	110.38
322.878	116.38
323.108	122.38
323.337	127.38
323.566	142.38
323.795	169.38
324.024	230.38
324.253	422.38
324.482	904.38
324.71	1848.38
324.939	2447.38
325.168	943.38
325.397	273.38
325.626	168.38
325.855	149.38
326.084	145.38
326.313	127.38
326.542	161.38
326.77	246.38
326.999	514.38
327.228	983.38
327.457	1822.38
327.686	1454.38
327.914	441.38
328.143	324.38
328.372	355.38
328.6	223.38
328.829	156.38
329.058	154.38
329.287	168.38
329.515	124.38
329.744	160.38
329.972	266.38
330.201	426.38
330.43	633.38
330.658	342.38
330.887	207.38
331.115	133.38
331.344	121.38
331.572	106.38
331.801	125.38
332.03	107.38
332.258	99.38
332.486	87.38
332.715	110.38
332.943	114.38
333.172	107.38
333.4	120.38
333.629	133.38
333.857	159.38
334.085	224.38
334.314	424.38
334.542	734.38
334.771	761.38
334.999	246.38
335.227	122.38
335.455	115.38
335.684	94.38
335.912	92.38
336.14	109.38
336.369	93.38
336.597	108.38
336.825	101.38
337.053	95.38
337.281	77.38
337.51	103.38
337.738	96.38
337.966	85.38
338.194	99.38
338.422	96.38
338.65	96.38
338.878	102.38
339.106	93.38
339.334	86.38
339.562	78.38
339.79	87.38
340.018	79.38
340.246	85.38
340.474	96.38
340.702	92.38
340.93	86.38
341.158	99.38
341.386	79.38
341.614	97.38
341.842	108.38
342.07	91.38
342.298	85.38
342.526	97.38
342.754	92.38
342.981	82.38
343.209	85.38
343.437	99.38
343.665	90.38
343.893	98.38
344.12	74.38
344.348	89.38
344.576	94.38
344.804	109.38
345.031	98.38
345.259	102.38
345.487	99.38
345.714	104.38
345.942	92.38
346.17	86.38
346.397	91.38
346.625	95.38
346.853	93.38
347.08	80.38
347.308	97.38
347.535	91.38
347.763	106.38
347.99	113.38
348.218	105.38
348.445	108.38
348.673	95.38
348.9	90.38
349.128	82.38
349.355	84.38
349.583	102.38
349.81	83.38
350.037	103.38
350.265	100.38
350.492	98.38
350.72	97.38
350.947	104.38
351.174	113.38
351.402	105.38
351.629	96.38
351.856	105.38
352.083	117.38
352.311	109.38
352.538	104.38
352.765	116.38
352.992	117.38
353.22	107.38
353.447	112.38
353.674	110.38
353.901	94.38
354.128	97.38
354.355	95.38
354.583	96.38
354.81	101.38
355.037	101.38
355.264	102.38
355.491	96.38
355.718	98.38
355.945	83.38
356.172	91.38
356.399	97.38
356.626	88.38
356.853	83.38
357.08	109.38
357.307	88.38
357.534	100.38
357.761	105.38
357.988	96.38
358.215	98.38
358.441	91.38
358.668	85.38
358.895	92.38
359.122	99.38
359.349	98.38
359.576	87.38
359.802	92.38
360.029	131.38
360.256	117.38
360.483	102.38
360.709	82.38
360.936	87.38
361.163	86.38
361.39	98.38
361.616	99.38
361.843	91.38
362.07	90.38
362.296	103.38
362.523	92.38
362.749	96.38
362.976	89.38
363.203	92.38
363.429	93.38
363.656	89.38
363.882	88.38
364.109	86.38
364.335	97.38
364.562	83.38
364.788	94.38
365.015	96.38
365.241	115.38
365.468	106.38
365.694	118.38
365.92	89.38
366.147	93.38
366.373	89.38
366.599	93.38
366.826	87.38
367.052	94.38
367.278	106.38
367.505	80.38
367.731	99.38
367.957	93.38
368.184	93.38
368.41	94.38
368.636	119.38
368.862	108.38
369.089	119.38
369.315	94.38
369.541	81.38
369.767	94.38
369.993	91.38
370.219	92.38
370.445	93.38
370.672	101.38
370.898	99.38
371.124	89.38
371.35	91.38
371.576	91.38
371.802	102.38
372.028	93.38
372.254	83.38
372.48	100.38
372.706	69.38
372.932	85.38
373.158	82.38
373.384	91.38
373.61	84.38
373.835	96.38
374.061	83.38
374.287	77.38
374.513	75.38
374.739	96.38
374.965	110.38
375.191	85.38
375.416	77.38
375.642	94.38
375.868	97.38
376.094	92.38
376.319	91.38
376.545	97.38
376.771	87.38
376.997	88.38
377.222	87.38
377.448	103.38
377.674	86.38
377.899	91.38
378.125	87.38
378.35	109.38
378.576	90.38
378.802	87.38
379.027	83.38
379.253	102.38
379.478	96.38
379.704	91.38
379.929	86.38
380.155	104.38
380.38	92.38
380.606	94.38
380.831	107.38
381.057	95.38
381.282	96.38
381.507	95.38
381.733	103.38
381.958	105.38
382.184	97.38
382.409	91.38
382.634	120.38
382.86	99.38
383.085	92.38
383.31	94.38
383.535	97.38
383.761	92.38
383.986	102.38
384.211	102.38
384.436	94.38
384.662	92.38
384.887	103.38
385.112	113.38
385.337	103.38
385.562	100.38
385.787	107.38
386.013	108.38
386.238	105.38
386.463	106.38
386.688	108.38
386.913	101.38
387.138	104.38
387.363	90.38
387.588	72.38
387.813	87.38
388.038	99.38
388.263	110.38
388.488	107.38
388.713	109.38
388.938	92.38
389.163	91.38
389.387	79.38
389.612	92.38
389.837	79.38
390.062	87.38
390.287	83.38
390.512	100.38
390.736	93.38
390.961	84.38
391.186	95.38
391.411	93.38
391.636	69.38
391.86	89.38
392.085	93.38
392.31	85.38
392.534	85.38
392.759	96.38
392.984	84.38
393.208	93.38
393.433	105.38
393.658	87.38
393.882	93.38
394.107	92.38
394.331	75.38
394.556	90.38
394.78	103.38
395.005	89.38
395.229	86.38
395.454	94.38
395.678	88.38
395.903	86.38
396.127	83.38
396.352	97.38
396.576	77.38
396.801	88.38
397.025	81.38
397.249	69.38
397.474	82.38
397.698	92.38
397.922	106.38
398.147	97.38
398.371	96.38
398.595	76.38
398.82	97.38
399.044	86.38
399.268	102.38
399.492	88.38
399.717	105.38
399.941	93.38
400.165	93.38
400.389	94.38
400.613	87.38
400.837	88.38
401.062	85.38
401.286	79.38
401.51	106.38
401.734	88.38
401.958	108.38
402.182	143.38
402.406	185.38
402.63	148.38
402.854	92.38
403.078	95.38
403.302	86.38
403.526	84.38
403.75	87.38
403.974	95.38
404.198	91.38
404.422	78.38
404.645	99.38
404.869	103.38
405.093	94.38
405.317	118.38
405.541	113.38
405.765	109.38
405.988	112.38
406.212	200.38
406.436	280.38
406.66	195.38
406.883	118.38
407.107	100.38
407.331	118.38
407.555	111.38
407.778	91.38
408.002	97.38
408.226	93.38
408.449	107.38
408.673	99.38
408.896	109.38
409.12	104.38
409.344	88.38
409.567	90.38
409.791	99.38
410.014	97.38
410.238	93.38
410.461	105.38
410.685	87.38
410.908	81.38
411.132	100.38
411.355	98.38
411.578	92.38
411.802	85.38
412.025	87.38
412.249	77.38
412.472	95.38
412.695	109.38
412.919	95.38
413.142	89.38
413.365	95.38
413.589	89.38
413.812	76.38
414.035	96.38
414.258	90.38
414.482	79.38
414.705	77.38
414.928	97.38
415.151	97.38
415.374	103.38
415.597	101.38
415.821	94.38
416.044	89.38
416.267	82.38
416.49	81.38
416.713	96.38
416.936	87.38
417.159	94.38
417.382	97.38
417.605	100.38
417.828	98.38
418.051	79.38
418.274	92.38
418.497	81.38
418.72	90.38
418.943	71.38
419.166	87.38
419.389	83.38
419.611	86.38
419.834	93.38
420.057	80.38
420.28	97.38
420.503	77.38
420.726	78.38
420.948	83.38
421.171	96.38
421.394	96.38
421.617	104.38
421.839	84.38
422.062	84.38
422.285	82.38
422.507	86.38
422.73	100.38
422.953	105.38
423.175	92.38
423.398	88.38
423.621	80.38
423.843	81.38
424.066	86.38
424.288	92.38
424.511	97.38
424.733	109.38
424.956	106.38
425.178	106.38
425.401	94.38
425.623	99.38
425.846	101.38
426.068	100.38
426.291	97.38
426.513	95.38
426.735	112.38
426.958	106.38
427.18	115.38
427.402	142.38
427.625	194.38
427.847	181.38
428.069	166.38
428.292	103.38
428.514	91.38
428.736	91.38
428.958	103.38
429.181	94.38
429.403	92.38
429.625	107.38
429.847	92.38
430.069	95.38
430.292	103.38
430.514	88.38
430.736	86.38
430.958	88.38
431.18	89.38
431.402	75.38
431.624	102.38
431.846	84.38
432.068	89.38
432.29	95.38
432.512	90.38
432.734	87.38
432.956	98.38
433.178	99.38
433.4	100.38
433.622	92.38
433.844	86.38
434.066	91.38
434.287	109.38
434.509	93.38
434.731	85.38
434.953	98.38
435.175	90.38
435.397	95.38
435.618	95.38
435.84	106.38
436.062	112.38
436.284	119.38
436.505	112.38
436.727	104.38
436.949	89.38
437.17	99.38
437.392	93.38
437.614	114.38
437.835	129.38
438.057	120.38
438.278	108.38
438.5	118.38
438.721	119.38
438.943	110.38
439.165	87.38
439.386	94.38
439.608	89.38
439.829	110.38
440.05	122.38
440.272	156.38
440.493	117.38
440.715	94.38
440.936	90.38
441.158	84.38
441.379	96.38
441.6	98.38
441.822	109.38
442.043	78.38
442.264	113.38
442.486	106.38
442.707	100.38
442.928	111.38
443.149	145.38
443.371	145.38
443.592	125.38
443.813	107.38
444.034	114.38
444.255	93.38
444.476	99.38
444.698	92.38
444.919	100.38
445.14	141.38
445.361	136.38
445.582	122.38
445.803	164.38
446.024	160.38
446.245	143.38
446.466	117.38
446.687	101.38
446.908	85.38
447.129	78.38
447.35	89.38
447.571	80.38
447.792	110.38
448.013	111.38
448.234	111.38
448.455	97.38
448.675	107.38
448.896	131.38
449.117	94.38
449.338	96.38
449.559	110.38
449.779	137.38
450	99.38
450.221	83.38
450.442	90.38
450.662	98.38
450.883	144.38
451.104	123.38
451.324	99.38
451.545	95.38
451.766	94.38
451.986	97.38
452.207	81.38
452.428	104.38
452.648	99.38
452.869	121.38
453.089	123.38
453.31	135.38
453.53	97.38
453.751	94.38
453.971	104.38
454.192	130.38
454.412	102.38
454.633	85.38
454.853	91.38
455.073	91.38
455.294	88.38
455.514	110.38
455.734	103.38
455.955	83.38
456.175	97.38
456.395	82.38
456.616	86.38
456.836	74.38
457.056	84.38
457.276	81.38
457.497	87.38
457.717	84.38
457.937	91.38
458.157	105.38
458.377	99.38
458.598	112.38
458.818	176.38
459.038	197.38
459.258	146.38
459.478	88.38
459.698	87.38
459.918	81.38
460.138	87.38
460.358	93.38
460.578	93.38
460.798	88.38
461.018	102.38
461.238	80.38
461.458	99.38
461.678	93.38
461.898	88.38
462.118	92.38
462.338	85.38
462.558	79.38
462.777	78.38
462.997	104.38
463.217	95.38
463.437	84.38
463.657	83.38
463.876	97.38
464.096	68.38
464.316	92.38
464.536	117.38
464.755	92.38
464.975	113.38
465.195	203.38
465.414	192.38
465.634	102.38
465.854	92.38
466.073	96.38
466.293	98.38
466.512	91.38
466.732	96.38
466.951	105.38
467.171	87.38
467.391	103.38
467.61	100.38
467.829	135.38
468.049	257.38
468.268	364.38
468.488	151.38
468.707	121.38
468.927	95.38
469.146	87.38
469.365	90.38
469.585	94.38
469.804	105.38
470.023	97.38
470.243	105.38
470.462	101.38
470.681	133.38
470.901	101.38
471.12	121.38
471.339	109.38
471.558	94.38
471.777	110.38
471.997	156.38
472.216	478.38
472.435	1042.38
472.654	302.38
472.873	125.38
473.092	94.38
473.311	96.38
473.53	81.38
473.749	85.38
473.968	88.38
474.187	102.38
474.406	115.38
474.625	104.38
474.844	84.38
475.063	92.38
475.282	99.38
475.501	81.38
475.72	88.38
475.939	81.38
476.158	99.38
476.377	74.38
476.596	88.38
476.814	91.38
477.033	105.38
477.252	96.38
477.471	89.38
477.69	100.38
477.908	103.38
478.127	91.38
478.346	86.38
478.564	104.38
478.783	100.38
479.002	92.38
479.22	97.38
479.439	107.38
479.658	118.38
479.876	108.38
480.095	92.38
480.313	102.38
480.532	124.38
480.751	167.38
480.969	437.38
481.188	1749.38
481.406	1122.38
481.624	199.38
481.843	115.38
482.061	96.38
482.28	88.38
482.498	90.38
482.717	100.38
482.935	93.38
483.153	97.38
483.372	86.38
483.59	107.38
483.808	93.38
484.027	88.38
484.245	94.38
484.463	87.38
484.681	95.38
484.9	95.38
485.118	112.38
485.336	104.38
485.554	82.38
485.772	100.38
485.99	97.38
486.209	114.38
486.427	105.38
486.645	101.38
486.863	131.38
487.081	118.38
487.299	93.38
487.517	88.38
487.735	99.38
487.953	96.38
488.171	101.38
488.389	117.38
488.607	123.38
488.825	90.38
489.043	95.38
489.261	108.38
489.479	93.38
489.696	80.38
489.914	86.38
490.132	105.38
490.35	94.38
490.568	96.38
490.786	91.38
491.003	85.38
491.221	96.38
491.439	85.38
491.657	101.38
491.874	74.38
492.092	91.38
492.31	89.38
492.527	117.38
492.745	109.38
492.963	96.38
493.18	87.38
493.398	87.38
493.615	99.38
493.833	102.38
494.05	107.38
494.268	95.38
494.485	84.38
494.703	93.38
494.92	94.38
495.138	81.38
495.355	94.38
495.573	106.38
495.79	89.38
496.008	86.38
496.225	75.38
496.442	87.38
496.66	111.38
496.877	104.38
497.094	99.38
497.312	93.38
497.529	102.38
497.746	92.38
497.963	99.38
498.181	101.38
498.398	88.38
498.615	111.38
498.832	104.38
499.049	102.38
499.267	96.38
499.484	99.38
499.701	100.38
499.918	77.38
500.135	87.38
500.352	91.38
500.569	93.38
500.786	104.38
501.003	92.38
501.22	86.38
501.437	89.38
501.654	87.38
501.871	111.38
502.088	84.38
502.305	81.38
502.522	100.38
502.739	87.38
502.956	96.38
503.172	99.38
503.389	99.38
503.606	97.38
503.823	105.38
504.04	91.38
504.256	108.38
504.473	91.38
504.69	91.38
504.907	106.38
505.123	102.38
505.34	84.38
505.557	102.38
505.773	96.38
505.99	88.38
506.207	85.38
506.423	105.38
506.64	108.38
506.856	111.38
507.073	100.38
507.289	94.38
507.506	105.38
507.722	123.38
507.939	131.38
508.155	91.38
508.372	86.38
508.588	92.38
508.805	100.38
509.021	89.38
509.238	93.38
509.454	110.38
509.67	113.38
509.887	120.38
510.103	147.38
510.319	247.38
510.536	850.38
510.752	2862.38
510.968	814.38
511.184	176.38
511.401	124.38
511.617	109.38
511.833	114.38
512.049	99.38
512.265	84.38
512.481	90.38
512.698	105.38
512.914	83.38
513.13	103.38
513.346	97.38
513.562	93.38
513.778	114.38
513.994	114.38
