Data from Circ_2013_H10_HRD10591_00020.txt Node
Date: Wed Jan 03 10:04:04 EST 2024
User: Yrep
Spectrometer: HR+D1059
Trigger mode: 1
Integration Time (sec): 1.000000E-1
Scans to average: 1
Electric dark correction enabled: true
Nonlinearity correction enabled: false
Boxcar width: 0
XAxis mode: Wavelengths
Number of Pixels in Spectrum: 2048
>>>>>Begin Spectral Data<<<<<
223.165	-25.94
223.4	-25.94
223.635	-25.94
223.869	-19.94
224.104	-12.94
224.338	-22.94
224.573	-15.94
224.808	-16.94
225.042	0.06
225.277	1.06
225.511	1.06
225.746	10.06
225.98	9.06
226.215	2.06
226.449	20.06
226.683	19.06
226.918	23.06
227.152	29.06
227.387	27.06
227.621	43.06
227.856	40.06
228.09	37.06
228.324	64.06
228.559	68.06
228.793	61.06
229.027	67.06
229.262	59.06
229.496	70.06
229.73	93.06
229.964	87.06
230.199	70.06
230.433	75.06
230.667	71.06
230.901	62.06
231.136	88.06
231.37	72.06
231.604	83.06
231.838	85.06
232.072	70.06
232.306	87.06
232.541	73.06
232.775	66.06
233.009	76.06
233.243	80.06
233.477	99.06
233.711	76.06
233.945	84.06
234.179	86.06
234.413	88.06
234.647	90.06
234.881	80.06
235.115	76.06
235.349	74.06
235.583	72.06
235.817	72.06
236.051	82.06
236.285	85.06
236.519	80.06
236.753	74.06
236.987	81.06
237.221	75.06
237.455	78.06
237.689	85.06
237.922	70.06
238.156	71.06
238.39	87.06
238.624	69.06
238.858	68.06
239.091	68.06
239.325	74.06
239.559	79.06
239.793	80.06
240.027	82.06
240.26	79.06
240.494	70.06
240.728	76.06
240.961	72.06
241.195	73.06
241.429	66.06
241.662	84.06
241.896	68.06
242.13	82.06
242.363	75.06
242.597	73.06
242.83	80.06
243.064	77.06
243.298	70.06
243.531	68.06
243.765	76.06
243.998	73.06
244.232	87.06
244.465	69.06
244.699	89.06
244.932	87.06
245.166	74.06
245.399	67.06
245.633	76.06
245.866	70.06
246.099	71.06
246.333	74.06
246.566	64.06
246.8	70.06
247.033	65.06
247.266	74.06
247.5	71.06
247.733	87.06
247.966	71.06
248.2	67.06
248.433	73.06
248.666	81.06
248.899	72.06
249.133	83.06
249.366	95.06
249.599	99.06
249.832	87.06
250.066	81.06
250.299	73.06
250.532	82.06
250.765	79.06
250.998	76.06
251.231	79.06
251.465	67.06
251.698	83.06
251.931	88.06
252.164	74.06
252.397	83.06
252.63	72.06
252.863	84.06
253.096	71.06
253.329	69.06
253.562	85.06
253.795	83.06
254.028	71.06
254.261	81.06
254.494	81.06
254.727	76.06
254.96	91.06
255.193	72.06
255.426	86.06
255.659	85.06
255.892	74.06
256.124	93.06
256.357	80.06
256.59	77.06
256.823	92.06
257.056	85.06
257.289	75.06
257.521	77.06
257.754	80.06
257.987	73.06
258.22	87.06
258.452	85.06
258.685	87.06
258.918	66.06
259.151	73.06
259.383	82.06
259.616	71.06
259.849	83.06
260.081	77.06
260.314	75.06
260.547	79.06
260.779	84.06
261.012	88.06
261.244	88.06
261.477	94.06
261.71	89.06
261.942	112.06
262.175	111.06
262.407	104.06
262.64	81.06
262.872	96.06
263.105	81.06
263.337	78.06
263.57	83.06
263.802	68.06
264.035	72.06
264.267	84.06
264.499	77.06
264.732	72.06
264.964	76.06
265.197	78.06
265.429	77.06
265.661	82.06
265.894	81.06
266.126	79.06
266.358	86.06
266.591	77.06
266.823	66.06
267.055	80.06
267.287	75.06
267.52	88.06
267.752	85.06
267.984	80.06
268.216	84.06
268.448	91.06
268.681	95.06
268.913	64.06
269.145	72.06
269.377	82.06
269.609	88.06
269.841	77.06
270.073	81.06
270.306	67.06
270.538	89.06
270.77	87.06
271.002	83.06
271.234	103.06
271.466	83.06
271.698	88.06
271.93	76.06
272.162	85.06
272.394	83.06
272.626	82.06
272.858	90.06
273.09	59.06
273.322	83.06
273.553	87.06
273.785	76.06
274.017	89.06
274.249	78.06
274.481	87.06
274.713	90.06
274.945	84.06
275.176	89.06
275.408	89.06
275.64	72.06
275.872	90.06
276.104	86.06
276.335	97.06
276.567	103.06
276.799	118.06
277.031	113.06
277.262	135.06
277.494	116.06
277.726	92.06
277.957	102.06
278.189	85.06
278.421	85.06
278.652	85.06
278.884	86.06
279.115	86.06
279.347	90.06
279.579	81.06
279.81	95.06
280.042	115.06
280.273	133.06
280.505	112.06
280.736	92.06
280.968	77.06
281.199	85.06
281.431	77.06
281.662	88.06
281.894	88.06
282.125	107.06
282.356	124.06
282.588	153.06
282.819	98.06
283.051	100.06
283.282	94.06
283.513	81.06
283.745	92.06
283.976	72.06
284.207	83.06
284.439	83.06
284.67	96.06
284.901	83.06
285.132	97.06
285.364	83.06
285.595	96.06
285.826	73.06
286.057	80.06
286.288	83.06
286.52	88.06
286.751	94.06
286.982	95.06
287.213	92.06
287.444	85.06
287.675	98.06
287.906	90.06
288.138	85.06
288.369	91.06
288.6	88.06
288.831	83.06
289.062	72.06
289.293	93.06
289.524	87.06
289.755	73.06
289.986	90.06
290.217	73.06
290.448	101.06
290.679	84.06
290.91	83.06
291.141	86.06
291.371	103.06
291.602	86.06
291.833	94.06
292.064	101.06
292.295	80.06
292.526	74.06
292.757	77.06
292.987	81.06
293.218	96.06
293.449	87.06
293.68	74.06
293.91	85.06
294.141	89.06
294.372	88.06
294.603	97.06
294.833	80.06
295.064	76.06
295.295	78.06
295.525	89.06
295.756	103.06
295.987	127.06
296.217	148.06
296.448	131.06
296.679	92.06
296.909	91.06
297.14	95.06
297.37	89.06
297.601	79.06
297.831	98.06
298.062	88.06
298.292	88.06
298.523	86.06
298.753	85.06
298.984	87.06
299.214	95.06
299.445	83.06
299.675	97.06
299.905	93.06
300.136	81.06
300.366	85.06
300.597	96.06
300.827	100.06
301.057	98.06
301.288	106.06
301.518	96.06
301.748	83.06
301.979	86.06
302.209	94.06
302.439	88.06
302.669	88.06
302.9	90.06
303.13	87.06
303.36	96.06
303.59	109.06
303.82	115.06
304.051	95.06
304.281	86.06
304.511	85.06
304.741	88.06
304.971	79.06
305.201	87.06
305.431	87.06
305.661	96.06
305.891	86.06
306.121	95.06
306.352	107.06
306.582	98.06
306.812	94.06
307.042	96.06
307.272	109.06
307.502	121.06
307.731	110.06
307.961	95.06
308.191	83.06
308.421	86.06
308.651	65.06
308.881	97.06
309.111	76.06
309.341	90.06
309.571	90.06
309.8	98.06
310.03	102.06
310.26	107.06
310.49	92.06
310.72	96.06
310.949	105.06
311.179	103.06
311.409	98.06
311.639	102.06
311.868	108.06
312.098	88.06
312.328	73.06
312.557	103.06
312.787	109.06
313.017	105.06
313.246	91.06
313.476	100.06
313.706	87.06
313.935	88.06
314.165	97.06
314.394	88.06
314.624	111.06
314.853	101.06
315.083	91.06
315.312	90.06
315.542	74.06
315.771	97.06
316.001	85.06
316.23	93.06
316.46	85.06
316.689	73.06
316.919	89.06
317.148	85.06
317.377	91.06
317.607	90.06
317.836	98.06
318.065	79.06
318.295	88.06
318.524	65.06
318.753	90.06
318.983	100.06
319.212	112.06
319.441	121.06
319.67	120.06
319.9	97.06
320.129	84.06
320.358	75.06
320.587	85.06
320.816	101.06
321.046	99.06
321.275	110.06
321.504	94.06
321.733	85.06
321.962	98.06
322.191	84.06
322.42	92.06
322.649	119.06
322.878	113.06
323.108	115.06
323.337	125.06
323.566	141.06
323.795	171.06
324.024	232.06
324.253	452.06
324.482	967.06
324.71	2013.06
324.939	2707.06
325.168	968.06
325.397	271.06
325.626	143.06
325.855	139.06
326.084	115.06
326.313	146.06
326.542	168.06
326.77	263.06
326.999	547.06
327.228	1066.06
327.457	2002.06
327.686	1605.06
327.914	438.06
328.143	306.06
328.372	319.06
328.6	213.06
328.829	143.06
329.058	159.06
329.287	141.06
329.515	140.06
329.744	137.06
329.972	229.06
330.201	391.06
330.43	564.06
330.658	304.06
330.887	215.06
331.115	151.06
331.344	119.06
331.572	116.06
331.801	117.06
332.03	107.06
332.258	100.06
332.486	102.06
332.715	101.06
332.943	85.06
333.172	102.06
333.4	112.06
333.629	133.06
333.857	147.06
334.085	214.06
334.314	363.06
334.542	673.06
334.771	671.06
334.999	205.06
335.227	141.06
335.455	89.06
335.684	108.06
335.912	103.06
336.14	95.06
336.369	94.06
336.597	92.06
336.825	85.06
337.053	77.06
337.281	92.06
337.51	77.06
337.738	101.06
337.966	91.06
338.194	88.06
338.422	87.06
338.65	79.06
338.878	97.06
339.106	90.06
339.334	76.06
339.562	91.06
339.79	85.06
340.018	90.06
340.246	102.06
340.474	99.06
340.702	97.06
340.93	88.06
341.158	98.06
341.386	93.06
341.614	109.06
341.842	99.06
342.07	86.06
342.298	77.06
342.526	88.06
342.754	80.06
342.981	88.06
343.209	83.06
343.437	90.06
343.665	85.06
343.893	91.06
344.12	97.06
344.348	96.06
344.576	81.06
344.804	85.06
345.031	97.06
345.259	92.06
345.487	83.06
345.714	93.06
345.942	94.06
346.17	93.06
346.397	91.06
346.625	84.06
346.853	87.06
347.08	89.06
347.308	100.06
347.535	96.06
347.763	96.06
347.99	95.06
348.218	93.06
348.445	105.06
348.673	103.06
348.9	90.06
349.128	99.06
349.355	100.06
349.583	86.06
349.81	98.06
350.037	82.06
350.265	95.06
350.492	85.06
350.72	89.06
350.947	97.06
351.174	110.06
351.402	105.06
351.629	105.06
351.856	96.06
352.083	109.06
352.311	98.06
352.538	114.06
352.765	97.06
352.992	108.06
353.22	96.06
353.447	97.06
353.674	82.06
353.901	107.06
354.128	100.06
354.355	90.06
354.583	94.06
354.81	101.06
355.037	97.06
355.264	99.06
355.491	90.06
355.718	91.06
355.945	91.06
356.172	87.06
356.399	96.06
356.626	89.06
356.853	90.06
357.08	91.06
357.307	101.06
357.534	96.06
357.761	92.06
357.988	86.06
358.215	103.06
358.441	93.06
358.668	93.06
358.895	95.06
359.122	76.06
359.349	94.06
359.576	97.06
359.802	114.06
360.029	138.06
360.256	125.06
360.483	120.06
360.709	92.06
360.936	90.06
361.163	97.06
361.39	97.06
361.616	107.06
361.843	88.06
362.07	92.06
362.296	99.06
362.523	94.06
362.749	91.06
362.976	86.06
363.203	87.06
363.429	92.06
363.656	91.06
363.882	79.06
364.109	74.06
364.335	98.06
364.562	104.06
364.788	85.06
365.015	88.06
365.241	91.06
365.468	101.06
365.694	107.06
365.92	101.06
366.147	74.06
366.373	84.06
366.599	95.06
366.826	95.06
367.052	87.06
367.278	103.06
367.505	84.06
367.731	87.06
367.957	101.06
368.184	86.06
368.41	87.06
368.636	101.06
368.862	125.06
369.089	109.06
369.315	88.06
369.541	95.06
369.767	95.06
369.993	81.06
370.219	91.06
370.445	96.06
370.672	98.06
370.898	84.06
371.124	86.06
371.35	91.06
371.576	80.06
371.802	91.06
372.028	89.06
372.254	78.06
372.48	86.06
372.706	97.06
372.932	76.06
373.158	87.06
373.384	91.06
373.61	90.06
373.835	73.06
374.061	100.06
374.287	96.06
374.513	80.06
374.739	84.06
374.965	103.06
375.191	76.06
375.416	86.06
375.642	79.06
375.868	86.06
376.094	92.06
376.319	88.06
376.545	99.06
376.771	94.06
376.997	91.06
377.222	83.06
377.448	90.06
377.674	86.06
377.899	104.06
378.125	97.06
378.35	99.06
378.576	89.06
378.802	91.06
379.027	76.06
379.253	81.06
379.478	100.06
379.704	99.06
379.929	77.06
380.155	95.06
380.38	104.06
380.606	91.06
380.831	84.06
381.057	101.06
381.282	112.06
381.507	114.06
381.733	104.06
381.958	91.06
382.184	104.06
382.409	109.06
382.634	104.06
382.86	71.06
383.085	90.06
383.31	93.06
383.535	101.06
383.761	101.06
383.986	104.06
384.211	91.06
384.436	96.06
384.662	102.06
384.887	101.06
385.112	101.06
385.337	104.06
385.562	99.06
385.787	106.06
386.013	117.06
386.238	136.06
386.463	111.06
386.688	131.06
386.913	111.06
387.138	102.06
387.363	97.06
387.588	104.06
387.813	107.06
388.038	105.06
388.263	111.06
388.488	107.06
388.713	105.06
388.938	88.06
389.163	87.06
389.387	81.06
389.612	87.06
389.837	83.06
390.062	89.06
390.287	84.06
390.512	90.06
390.736	95.06
390.961	86.06
391.186	86.06
391.411	90.06
391.636	91.06
391.86	85.06
392.085	97.06
392.31	86.06
392.534	81.06
392.759	79.06
392.984	87.06
393.208	93.06
393.433	100.06
393.658	108.06
393.882	88.06
394.107	92.06
394.331	81.06
394.556	76.06
394.78	84.06
395.005	96.06
395.229	79.06
395.454	81.06
395.678	82.06
395.903	75.06
396.127	87.06
396.352	83.06
396.576	84.06
396.801	86.06
397.025	87.06
397.249	80.06
397.474	95.06
397.698	91.06
397.922	86.06
398.147	76.06
398.371	65.06
398.595	72.06
398.82	76.06
399.044	80.06
399.268	74.06
399.492	68.06
399.717	88.06
399.941	87.06
400.165	97.06
400.389	106.06
400.613	83.06
400.837	95.06
401.062	66.06
401.286	99.06
401.51	89.06
401.734	90.06
401.958	103.06
402.182	123.06
402.406	184.06
402.63	133.06
402.854	97.06
403.078	91.06
403.302	92.06
403.526	67.06
403.75	90.06
403.974	83.06
404.198	72.06
404.422	80.06
404.645	82.06
404.869	90.06
405.093	91.06
405.317	104.06
405.541	123.06
405.765	81.06
405.988	143.06
406.212	185.06
406.436	264.06
406.66	172.06
406.883	123.06
407.107	96.06
407.331	103.06
407.555	98.06
407.778	87.06
408.002	98.06
408.226	91.06
408.449	84.06
408.673	96.06
408.896	92.06
409.12	75.06
409.344	86.06
409.567	75.06
409.791	62.06
410.014	87.06
410.238	106.06
410.461	87.06
410.685	92.06
410.908	96.06
411.132	98.06
411.355	86.06
411.578	89.06
411.802	78.06
412.025	84.06
412.249	91.06
412.472	85.06
412.695	106.06
412.919	89.06
413.142	89.06
413.365	88.06
413.589	91.06
413.812	77.06
414.035	74.06
414.258	81.06
414.482	87.06
414.705	84.06
414.928	84.06
415.151	81.06
415.374	83.06
415.597	76.06
415.821	95.06
416.044	83.06
416.267	91.06
416.49	92.06
416.713	79.06
416.936	85.06
417.159	87.06
417.382	93.06
417.605	75.06
417.828	103.06
418.051	88.06
418.274	80.06
418.497	83.06
418.72	87.06
418.943	87.06
419.166	78.06
419.389	87.06
419.611	87.06
419.834	76.06
420.057	76.06
420.28	73.06
420.503	96.06
420.726	78.06
420.948	96.06
421.171	114.06
421.394	99.06
421.617	82.06
421.839	83.06
422.062	82.06
422.285	87.06
422.507	92.06
422.73	111.06
422.953	99.06
423.175	87.06
423.398	82.06
423.621	96.06
423.843	83.06
424.066	91.06
424.288	91.06
424.511	98.06
424.733	92.06
424.956	104.06
425.178	100.06
425.401	100.06
425.623	94.06
425.846	88.06
426.068	99.06
426.291	94.06
426.513	96.06
426.735	77.06
426.958	75.06
427.18	125.06
427.402	163.06
427.625	199.06
427.847	186.06
428.069	164.06
428.292	109.06
428.514	88.06
428.736	104.06
428.958	77.06
429.181	84.06
429.403	64.06
429.625	98.06
429.847	87.06
430.069	111.06
430.292	90.06
430.514	89.06
430.736	89.06
430.958	77.06
431.18	85.06
431.402	75.06
431.624	94.06
431.846	84.06
432.068	83.06
432.29	75.06
432.512	80.06
432.734	89.06
432.956	95.06
433.178	85.06
433.4	100.06
433.622	87.06
433.844	101.06
434.066	93.06
434.287	87.06
434.509	76.06
434.731	85.06
434.953	85.06
435.175	81.06
435.397	73.06
435.618	96.06
435.84	110.06
436.062	140.06
436.284	113.06
436.505	111.06
436.727	102.06
436.949	99.06
437.17	87.06
437.392	79.06
437.614	100.06
437.835	111.06
438.057	130.06
438.278	110.06
438.5	102.06
438.721	138.06
438.943	92.06
439.165	87.06
439.386	91.06
439.608	86.06
439.829	100.06
440.05	139.06
440.272	158.06
440.493	100.06
440.715	80.06
440.936	99.06
441.158	100.06
441.379	88.06
441.6	96.06
441.822	103.06
442.043	89.06
442.264	99.06
442.486	100.06
442.707	100.06
442.928	115.06
443.149	143.06
443.371	152.06
443.592	115.06
443.813	119.06
444.034	110.06
444.255	87.06
444.476	85.06
444.698	81.06
444.919	81.06
445.14	140.06
445.361	133.06
445.582	128.06
445.803	170.06
446.024	151.06
446.245	152.06
446.466	129.06
446.687	96.06
446.908	91.06
447.129	85.06
447.35	95.06
447.571	95.06
447.792	96.06
448.013	106.06
448.234	106.06
448.455	101.06
448.675	123.06
448.896	125.06
449.117	116.06
449.338	100.06
449.559	139.06
449.779	121.06
450	102.06
450.221	73.06
450.442	82.06
450.662	104.06
450.883	110.06
451.104	118.06
451.324	106.06
451.545	87.06
451.766	90.06
451.986	77.06
452.207	82.06
452.428	95.06
452.648	96.06
452.869	113.06
453.089	126.06
453.31	139.06
453.53	78.06
453.751	83.06
453.971	114.06
454.192	119.06
454.412	100.06
454.633	100.06
454.853	89.06
455.073	87.06
455.294	102.06
455.514	111.06
455.734	95.06
455.955	84.06
456.175	90.06
456.395	83.06
456.616	86.06
456.836	76.06
457.056	83.06
457.276	94.06
457.497	80.06
457.717	80.06
457.937	88.06
458.157	91.06
458.377	92.06
458.598	106.06
458.818	182.06
459.038	191.06
459.258	140.06
459.478	100.06
459.698	89.06
459.918	83.06
460.138	71.06
460.358	91.06
460.578	86.06
460.798	89.06
461.018	88.06
461.238	79.06
461.458	83.06
461.678	98.06
461.898	79.06
462.118	77.06
462.338	90.06
462.558	81.06
462.777	96.06
462.997	75.06
463.217	100.06
463.437	95.06
463.657	93.06
463.876	66.06
464.096	83.06
464.316	82.06
464.536	90.06
464.755	106.06
464.975	95.06
465.195	193.06
465.414	204.06
465.634	103.06
465.854	78.06
466.073	74.06
466.293	81.06
466.512	90.06
466.732	92.06
466.951	92.06
467.171	83.06
467.391	101.06
467.61	118.06
467.829	111.06
468.049	243.06
468.268	324.06
468.488	126.06
468.707	99.06
468.927	96.06
469.146	93.06
469.365	75.06
469.585	91.06
469.804	103.06
470.023	104.06
470.243	96.06
470.462	106.06
470.681	120.06
470.901	86.06
471.12	73.06
471.339	81.06
471.558	91.06
471.777	106.06
471.997	157.06
472.216	404.06
472.435	887.06
472.654	255.06
472.873	108.06
473.092	91.06
473.311	81.06
473.53	74.06
473.749	81.06
473.968	99.06
474.187	102.06
474.406	97.06
474.625	84.06
474.844	102.06
475.063	106.06
475.282	74.06
475.501	89.06
475.72	87.06
475.939	81.06
476.158	77.06
476.377	82.06
476.596	76.06
476.814	88.06
477.033	96.06
477.252	91.06
477.471	93.06
477.69	85.06
477.908	90.06
478.127	82.06
478.346	80.06
478.564	84.06
478.783	101.06
479.002	91.06
479.22	85.06
479.439	108.06
479.658	109.06
479.876	89.06
480.095	83.06
480.313	94.06
480.532	108.06
480.751	142.06
480.969	395.06
481.188	1430.06
481.406	928.06
481.624	199.06
481.843	99.06
482.061	90.06
482.28	105.06
482.498	87.06
482.717	75.06
482.935	89.06
483.153	103.06
483.372	86.06
483.59	88.06
483.808	84.06
484.027	88.06
484.245	94.06
484.463	89.06
484.681	96.06
484.9	90.06
485.118	91.06
485.336	84.06
485.554	92.06
485.772	88.06
485.99	96.06
486.209	95.06
486.427	93.06
486.645	103.06
486.863	115.06
487.081	105.06
487.299	101.06
487.517	84.06
487.735	82.06
487.953	84.06
488.171	87.06
488.389	95.06
488.607	105.06
488.825	102.06
489.043	79.06
489.261	81.06
489.479	87.06
489.696	90.06
489.914	83.06
490.132	87.06
490.35	91.06
490.568	98.06
490.786	101.06
491.003	74.06
491.221	97.06
491.439	101.06
491.657	90.06
491.874	89.06
492.092	80.06
492.31	91.06
492.527	79.06
492.745	67.06
492.963	81.06
493.18	78.06
493.398	86.06
493.615	92.06
493.833	91.06
494.05	80.06
494.268	83.06
494.485	90.06
494.703	106.06
494.92	92.06
495.138	85.06
495.355	96.06
495.573	82.06
495.79	80.06
496.008	83.06
496.225	83.06
496.442	88.06
496.66	101.06
496.877	85.06
497.094	99.06
497.312	78.06
497.529	90.06
497.746	83.06
497.963	75.06
498.181	83.06
498.398	88.06
498.615	103.06
498.832	115.06
499.049	92.06
499.267	88.06
499.484	88.06
499.701	92.06
499.918	87.06
500.135	84.06
500.352	83.06
500.569	92.06
500.786	100.06
501.003	92.06
501.22	94.06
501.437	82.06
501.654	101.06
501.871	108.06
502.088	97.06
502.305	90.06
502.522	82.06
502.739	89.06
502.956	90.06
503.172	80.06
503.389	102.06
503.606	111.06
503.823	89.06
504.04	86.06
504.256	83.06
504.473	81.06
504.69	92.06
504.907	86.06
505.123	98.06
505.34	88.06
505.557	81.06
505.773	98.06
505.99	97.06
506.207	77.06
506.423	87.06
506.64	75.06
506.856	90.06
507.073	88.06
507.289	102.06
507.506	102.06
507.722	140.06
507.939	102.06
508.155	99.06
508.372	96.06
508.588	95.06
508.805	90.06
509.021	90.06
509.238	82.06
509.454	95.06
509.67	109.06
509.887	116.06
510.103	127.06
510.319	220.06
510.536	791.06
510.752	2696.06
510.968	776.06
511.184	166.06
511.401	119.06
511.617	106.06
511.833	96.06
512.049	88.06
512.265	95.06
512.481	95.06
512.698	81.06
512.914	95.06
513.13	81.06
513.346	99.06
513.562	94.06
513.778	87.06
513.994	92.06
514.21	111.06
514.426	116.06
514.642	153.06
514.858	147.06
515.074	181.06
515.29	602.06
