Data from Circ_2013_H10_HRD10591_00062.txt Node
Date: Wed Jan 03 10:04:12 EST 2024
User: Yrep
Spectrometer: HR+D1059
Trigger mode: 1
Integration Time (sec): 1.000000E-1
Scans to average: 1
Electric dark correction enabled: true
Nonlinearity correction enabled: false
Boxcar width: 0
XAxis mode: Wavelengths
Number of Pixels in Spectrum: 2048
>>>>>Begin Spectral Data<<<<<
223.165	-27.75
223.4	-27.75
223.635	-27.75
223.869	-28.75
224.104	-9.75
224.338	-6.75
224.573	-12.75
224.808	-9.75
225.042	6.25
225.277	-9.75
225.511	-6.75
225.746	5.25
225.98	12.25
226.215	1.25
226.449	9.25
226.683	12.25
226.918	27.25
227.152	38.25
227.387	38.25
227.621	44.25
227.856	27.25
228.09	38.25
228.324	42.25
228.559	57.25
228.793	66.25
229.027	55.25
229.262	59.25
229.496	84.25
229.73	107.25
229.964	91.25
230.199	64.25
230.433	88.25
230.667	84.25
230.901	77.25
231.136	73.25
231.37	88.25
231.604	82.25
231.838	77.25
232.072	78.25
232.306	76.25
232.541	83.25
232.775	77.25
233.009	69.25
233.243	82.25
233.477	87.25
233.711	78.25
233.945	86.25
234.179	72.25
234.413	84.25
234.647	78.25
234.881	63.25
235.115	80.25
235.349	70.25
235.583	77.25
235.817	65.25
236.051	78.25
236.285	72.25
236.519	78.25
236.753	74.25
236.987	64.25
237.221	93.25
237.455	98.25
237.689	77.25
237.922	77.25
238.156	82.25
238.39	68.25
238.624	73.25
238.858	78.25
239.091	74.25
239.325	64.25
239.559	81.25
239.793	86.25
240.027	67.25
240.26	55.25
240.494	85.25
240.728	71.25
240.961	72.25
241.195	76.25
241.429	79.25
241.662	81.25
241.896	75.25
242.13	59.25
242.363	94.25
242.597	78.25
242.83	77.25
243.064	63.25
243.298	64.25
243.531	60.25
243.765	77.25
243.998	75.25
244.232	62.25
244.465	99.25
244.699	76.25
244.932	81.25
245.166	76.25
245.399	77.25
245.633	63.25
245.866	94.25
246.099	77.25
246.333	71.25
246.566	74.25
246.8	77.25
247.033	79.25
247.266	76.25
247.5	81.25
247.733	77.25
247.966	70.25
248.2	75.25
248.433	99.25
248.666	78.25
248.899	96.25
249.133	83.25
249.366	93.25
249.599	106.25
249.832	81.25
250.066	72.25
250.299	83.25
250.532	87.25
250.765	74.25
250.998	77.25
251.231	63.25
251.465	74.25
251.698	71.25
251.931	68.25
252.164	78.25
252.397	80.25
252.63	83.25
252.863	77.25
253.096	71.25
253.329	74.25
253.562	73.25
253.795	74.25
254.028	79.25
254.261	80.25
254.494	85.25
254.727	85.25
254.96	83.25
255.193	80.25
255.426	66.25
255.659	84.25
255.892	86.25
256.124	85.25
256.357	94.25
256.59	86.25
256.823	83.25
257.056	85.25
257.289	95.25
257.521	89.25
257.754	75.25
257.987	88.25
258.22	75.25
258.452	91.25
258.685	88.25
258.918	82.25
259.151	81.25
259.383	93.25
259.616	81.25
259.849	72.25
260.081	90.25
260.314	82.25
260.547	79.25
260.779	89.25
261.012	101.25
261.244	101.25
261.477	78.25
261.71	106.25
261.942	109.25
262.175	127.25
262.407	81.25
262.64	82.25
262.872	91.25
263.105	84.25
263.337	86.25
263.57	77.25
263.802	91.25
264.035	82.25
264.267	79.25
264.499	90.25
264.732	76.25
264.964	79.25
265.197	72.25
265.429	79.25
265.661	89.25
265.894	85.25
266.126	93.25
266.358	82.25
266.591	65.25
266.823	90.25
267.055	89.25
267.287	77.25
267.52	78.25
267.752	79.25
267.984	91.25
268.216	69.25
268.448	96.25
268.681	84.25
268.913	65.25
269.145	81.25
269.377	79.25
269.609	80.25
269.841	82.25
270.073	85.25
270.306	84.25
270.538	89.25
270.77	80.25
271.002	90.25
271.234	85.25
271.466	92.25
271.698	95.25
271.93	93.25
272.162	89.25
272.394	88.25
272.626	76.25
272.858	96.25
273.09	86.25
273.322	69.25
273.553	81.25
273.785	83.25
274.017	81.25
274.249	74.25
274.481	102.25
274.713	85.25
274.945	86.25
275.176	74.25
275.408	89.25
275.64	95.25
275.872	109.25
276.104	112.25
276.335	94.25
276.567	97.25
276.799	121.25
277.031	123.25
277.262	128.25
277.494	111.25
277.726	96.25
277.957	97.25
278.189	72.25
278.421	98.25
278.652	93.25
278.884	85.25
279.115	72.25
279.347	89.25
279.579	88.25
279.81	108.25
280.042	139.25
280.273	180.25
280.505	113.25
280.736	96.25
280.968	96.25
281.199	74.25
281.431	82.25
281.662	94.25
281.894	89.25
282.125	99.25
282.356	120.25
282.588	153.25
282.819	125.25
283.051	96.25
283.282	83.25
283.513	101.25
283.745	101.25
283.976	92.25
284.207	81.25
284.439	74.25
284.67	76.25
284.901	76.25
285.132	73.25
285.364	70.25
285.595	83.25
285.826	86.25
286.057	68.25
286.288	77.25
286.52	93.25
286.751	97.25
286.982	100.25
287.213	104.25
287.444	105.25
287.675	89.25
287.906	91.25
288.138	100.25
288.369	90.25
288.6	92.25
288.831	89.25
289.062	93.25
289.293	88.25
289.524	82.25
289.755	95.25
289.986	96.25
290.217	84.25
290.448	92.25
290.679	88.25
290.91	96.25
291.141	82.25
291.371	88.25
291.602	89.25
291.833	91.25
292.064	79.25
292.295	100.25
292.526	87.25
292.757	91.25
292.987	76.25
293.218	92.25
293.449	77.25
293.68	77.25
293.91	80.25
294.141	92.25
294.372	92.25
294.603	92.25
294.833	90.25
295.064	85.25
295.295	101.25
295.525	83.25
295.756	96.25
295.987	121.25
296.217	138.25
296.448	143.25
296.679	101.25
296.909	94.25
297.14	82.25
297.37	101.25
297.601	81.25
297.831	71.25
298.062	97.25
298.292	99.25
298.523	85.25
298.753	91.25
298.984	90.25
299.214	90.25
299.445	77.25
299.675	102.25
299.905	96.25
300.136	100.25
300.366	85.25
300.597	87.25
300.827	76.25
301.057	97.25
301.288	116.25
301.518	100.25
301.748	97.25
301.979	111.25
302.209	102.25
302.439	74.25
302.669	82.25
302.9	79.25
303.13	91.25
303.36	108.25
303.59	109.25
303.82	127.25
304.051	96.25
304.281	97.25
304.511	79.25
304.741	92.25
304.971	93.25
305.201	93.25
305.431	87.25
305.661	90.25
305.891	96.25
306.121	101.25
306.352	123.25
306.582	107.25
306.812	93.25
307.042	108.25
307.272	124.25
307.502	124.25
307.731	128.25
307.961	120.25
308.191	96.25
308.421	82.25
308.651	83.25
308.881	87.25
309.111	99.25
309.341	94.25
309.571	109.25
309.8	101.25
310.03	89.25
310.26	85.25
310.49	90.25
310.72	100.25
310.949	101.25
311.179	96.25
311.409	82.25
311.639	99.25
311.868	89.25
312.098	88.25
312.328	95.25
312.557	88.25
312.787	119.25
313.017	114.25
313.246	103.25
313.476	93.25
313.706	94.25
313.935	92.25
314.165	105.25
314.394	119.25
314.624	107.25
314.853	106.25
315.083	86.25
315.312	83.25
315.542	87.25
315.771	105.25
316.001	97.25
316.23	95.25
316.46	94.25
316.689	103.25
316.919	86.25
317.148	101.25
317.377	89.25
317.607	99.25
317.836	91.25
318.065	92.25
318.295	98.25
318.524	101.25
318.753	90.25
318.983	91.25
319.212	108.25
319.441	106.25
319.67	106.25
319.9	92.25
320.129	97.25
320.358	82.25
320.587	87.25
320.816	93.25
321.046	100.25
321.275	94.25
321.504	104.25
321.733	107.25
321.962	97.25
322.191	114.25
322.42	118.25
322.649	104.25
322.878	102.25
323.108	107.25
323.337	126.25
323.566	133.25
323.795	158.25
324.024	214.25
324.253	422.25
324.482	883.25
324.71	1794.25
324.939	2405.25
325.168	903.25
325.397	271.25
325.626	155.25
325.855	132.25
326.084	123.25
326.313	131.25
326.542	167.25
326.77	251.25
326.999	486.25
327.228	973.25
327.457	1772.25
327.686	1401.25
327.914	444.25
328.143	333.25
328.372	407.25
328.6	253.25
328.829	135.25
329.058	157.25
329.287	152.25
329.515	146.25
329.744	181.25
329.972	275.25
330.201	494.25
330.43	737.25
330.658	393.25
330.887	211.25
331.115	161.25
331.344	100.25
331.572	109.25
331.801	107.25
332.03	116.25
332.258	105.25
332.486	103.25
332.715	95.25
332.943	85.25
333.172	100.25
333.4	101.25
333.629	128.25
333.857	178.25
334.085	268.25
334.314	474.25
334.542	888.25
334.771	920.25
334.999	267.25
335.227	134.25
335.455	112.25
335.684	88.25
335.912	96.25
336.14	104.25
336.369	100.25
336.597	113.25
336.825	80.25
337.053	96.25
337.281	95.25
337.51	95.25
337.738	95.25
337.966	91.25
338.194	86.25
338.422	89.25
338.65	109.25
338.878	93.25
339.106	86.25
339.334	96.25
339.562	92.25
339.79	106.25
340.018	84.25
340.246	105.25
340.474	85.25
340.702	85.25
340.93	97.25
341.158	87.25
341.386	90.25
341.614	107.25
341.842	98.25
342.07	88.25
342.298	94.25
342.526	103.25
342.754	81.25
342.981	83.25
343.209	84.25
343.437	104.25
343.665	96.25
343.893	84.25
344.12	88.25
344.348	88.25
344.576	86.25
344.804	92.25
345.031	98.25
345.259	101.25
345.487	86.25
345.714	85.25
345.942	103.25
346.17	95.25
346.397	102.25
346.625	102.25
346.853	95.25
347.08	98.25
347.308	87.25
347.535	104.25
347.763	105.25
347.99	104.25
348.218	88.25
348.445	104.25
348.673	125.25
348.9	98.25
349.128	101.25
349.355	103.25
349.583	91.25
349.81	105.25
350.037	103.25
350.265	95.25
350.492	88.25
350.72	99.25
350.947	95.25
351.174	107.25
351.402	117.25
351.629	111.25
351.856	99.25
352.083	112.25
352.311	104.25
352.538	116.25
352.765	107.25
352.992	125.25
353.22	108.25
353.447	126.25
353.674	111.25
353.901	105.25
354.128	89.25
354.355	88.25
354.583	98.25
354.81	98.25
355.037	101.25
355.264	86.25
355.491	84.25
355.718	92.25
355.945	100.25
356.172	101.25
356.399	96.25
356.626	93.25
356.853	83.25
357.08	101.25
357.307	95.25
357.534	92.25
357.761	95.25
357.988	92.25
358.215	83.25
358.441	79.25
358.668	105.25
358.895	95.25
359.122	92.25
359.349	92.25
359.576	103.25
359.802	103.25
360.029	133.25
360.256	119.25
360.483	104.25
360.709	85.25
360.936	95.25
361.163	117.25
361.39	110.25
361.616	90.25
361.843	97.25
362.07	108.25
362.296	101.25
362.523	101.25
362.749	84.25
362.976	96.25
363.203	90.25
363.429	97.25
363.656	82.25
363.882	86.25
364.109	95.25
364.335	96.25
364.562	92.25
364.788	92.25
365.015	80.25
365.241	111.25
365.468	115.25
365.694	96.25
365.92	95.25
366.147	87.25
366.373	90.25
366.599	87.25
366.826	84.25
367.052	91.25
367.278	80.25
367.505	89.25
367.731	85.25
367.957	95.25
368.184	87.25
368.41	92.25
368.636	122.25
368.862	130.25
369.089	117.25
369.315	103.25
369.541	91.25
369.767	79.25
369.993	89.25
370.219	87.25
370.445	98.25
370.672	87.25
370.898	92.25
371.124	82.25
371.35	87.25
371.576	98.25
371.802	79.25
372.028	84.25
372.254	90.25
372.48	82.25
372.706	82.25
372.932	88.25
373.158	90.25
373.384	87.25
373.61	92.25
373.835	86.25
374.061	96.25
374.287	88.25
374.513	78.25
374.739	96.25
374.965	95.25
375.191	89.25
375.416	92.25
375.642	94.25
375.868	90.25
376.094	74.25
376.319	81.25
376.545	96.25
376.771	102.25
376.997	97.25
377.222	104.25
377.448	94.25
377.674	93.25
377.899	97.25
378.125	103.25
378.35	84.25
378.576	90.25
378.802	85.25
379.027	98.25
379.253	86.25
379.478	73.25
379.704	87.25
379.929	98.25
380.155	99.25
380.38	96.25
380.606	82.25
380.831	86.25
381.057	107.25
381.282	97.25
381.507	99.25
381.733	83.25
381.958	85.25
382.184	91.25
382.409	106.25
382.634	105.25
382.86	114.25
383.085	81.25
383.31	93.25
383.535	105.25
383.761	93.25
383.986	78.25
384.211	96.25
384.436	92.25
384.662	91.25
384.887	105.25
385.112	102.25
385.337	99.25
385.562	89.25
385.787	93.25
386.013	103.25
386.238	121.25
386.463	106.25
386.688	88.25
386.913	93.25
387.138	101.25
387.363	90.25
387.588	92.25
387.813	95.25
388.038	92.25
388.263	100.25
388.488	105.25
388.713	90.25
388.938	90.25
389.163	87.25
389.387	104.25
389.612	96.25
389.837	98.25
390.062	85.25
390.287	97.25
390.512	95.25
390.736	80.25
390.961	97.25
391.186	98.25
391.411	81.25
391.636	83.25
391.86	78.25
392.085	91.25
392.31	93.25
392.534	98.25
392.759	82.25
392.984	72.25
393.208	83.25
393.433	97.25
393.658	89.25
393.882	97.25
394.107	80.25
394.331	89.25
394.556	97.25
394.78	81.25
395.005	88.25
395.229	91.25
395.454	75.25
395.678	86.25
395.903	94.25
396.127	80.25
396.352	92.25
396.576	81.25
396.801	74.25
397.025	83.25
397.249	79.25
397.474	96.25
397.698	91.25
397.922	85.25
398.147	89.25
398.371	90.25
398.595	84.25
398.82	86.25
399.044	78.25
399.268	89.25
399.492	86.25
399.717	89.25
399.941	82.25
400.165	102.25
400.389	98.25
400.613	91.25
400.837	98.25
401.062	93.25
401.286	95.25
401.51	92.25
401.734	101.25
401.958	120.25
402.182	151.25
402.406	166.25
402.63	141.25
402.854	80.25
403.078	78.25
403.302	90.25
403.526	81.25
403.75	86.25
403.974	85.25
404.198	88.25
404.422	89.25
404.645	87.25
404.869	97.25
405.093	100.25
405.317	113.25
405.541	118.25
405.765	101.25
405.988	108.25
406.212	188.25
406.436	266.25
406.66	171.25
406.883	124.25
407.107	97.25
407.331	94.25
407.555	103.25
407.778	87.25
408.002	83.25
408.226	86.25
408.449	95.25
408.673	80.25
408.896	98.25
409.12	93.25
409.344	86.25
409.567	89.25
409.791	89.25
410.014	84.25
410.238	89.25
410.461	68.25
410.685	85.25
410.908	100.25
411.132	98.25
411.355	99.25
411.578	80.25
411.802	89.25
412.025	89.25
412.249	106.25
412.472	104.25
412.695	112.25
412.919	102.25
413.142	90.25
413.365	87.25
413.589	90.25
413.812	92.25
414.035	91.25
414.258	90.25
414.482	76.25
414.705	85.25
414.928	91.25
415.151	89.25
415.374	86.25
415.597	93.25
415.821	87.25
416.044	94.25
416.267	82.25
416.49	92.25
416.713	86.25
416.936	93.25
417.159	80.25
417.382	86.25
417.605	74.25
417.828	99.25
418.051	111.25
418.274	91.25
418.497	101.25
418.72	91.25
418.943	80.25
419.166	83.25
419.389	77.25
419.611	74.25
419.834	86.25
420.057	88.25
420.28	91.25
420.503	83.25
420.726	99.25
420.948	102.25
421.171	90.25
421.394	97.25
421.617	75.25
421.839	85.25
422.062	88.25
422.285	96.25
422.507	92.25
422.73	97.25
422.953	96.25
423.175	84.25
423.398	77.25
423.621	73.25
423.843	87.25
424.066	85.25
424.288	92.25
424.511	81.25
424.733	86.25
424.956	106.25
425.178	91.25
425.401	103.25
425.623	114.25
425.846	97.25
426.068	100.25
426.291	96.25
426.513	92.25
426.735	86.25
426.958	94.25
427.18	113.25
427.402	147.25
427.625	214.25
427.847	195.25
428.069	159.25
428.292	103.25
428.514	92.25
428.736	86.25
428.958	86.25
429.181	82.25
429.403	71.25
429.625	91.25
429.847	98.25
430.069	100.25
430.292	93.25
430.514	81.25
430.736	81.25
430.958	80.25
431.18	92.25
431.402	90.25
431.624	70.25
431.846	77.25
432.068	83.25
432.29	105.25
432.512	79.25
432.734	85.25
432.956	92.25
433.178	98.25
433.4	103.25
433.622	82.25
433.844	77.25
434.066	91.25
434.287	84.25
434.509	90.25
434.731	90.25
434.953	85.25
435.175	95.25
435.397	96.25
435.618	88.25
435.84	95.25
436.062	117.25
436.284	113.25
436.505	102.25
436.727	94.25
436.949	100.25
437.17	92.25
437.392	89.25
437.614	92.25
437.835	98.25
438.057	114.25
438.278	111.25
438.5	108.25
438.721	116.25
438.943	106.25
439.165	85.25
439.386	88.25
439.608	84.25
439.829	106.25
440.05	118.25
440.272	148.25
440.493	120.25
440.715	96.25
440.936	101.25
441.158	75.25
441.379	99.25
441.6	96.25
441.822	93.25
442.043	103.25
442.264	103.25
442.486	98.25
442.707	87.25
442.928	112.25
443.149	152.25
443.371	151.25
443.592	108.25
443.813	127.25
444.034	117.25
444.255	84.25
444.476	88.25
444.698	88.25
444.919	82.25
445.14	133.25
445.361	120.25
445.582	132.25
445.803	163.25
446.024	150.25
446.245	160.25
446.466	112.25
446.687	95.25
446.908	81.25
447.129	87.25
447.35	100.25
447.571	78.25
447.792	95.25
448.013	83.25
448.234	102.25
448.455	114.25
448.675	111.25
448.896	110.25
449.117	104.25
449.338	105.25
449.559	115.25
449.779	123.25
450	95.25
450.221	73.25
450.442	77.25
450.662	92.25
450.883	121.25
451.104	112.25
451.324	118.25
451.545	94.25
451.766	89.25
451.986	87.25
452.207	75.25
452.428	93.25
452.648	111.25
452.869	125.25
453.089	121.25
453.31	111.25
453.53	89.25
453.751	90.25
453.971	105.25
454.192	121.25
454.412	95.25
454.633	88.25
454.853	83.25
455.073	91.25
455.294	78.25
455.514	101.25
455.734	72.25
455.955	92.25
456.175	84.25
456.395	90.25
456.616	84.25
456.836	85.25
457.056	76.25
457.276	93.25
457.497	83.25
457.717	91.25
457.937	87.25
458.157	98.25
458.377	92.25
458.598	108.25
458.818	165.25
459.038	192.25
459.258	132.25
459.478	87.25
459.698	72.25
459.918	81.25
460.138	85.25
460.358	83.25
460.578	89.25
460.798	90.25
461.018	86.25
461.238	68.25
461.458	65.25
461.678	75.25
461.898	85.25
462.118	91.25
462.338	93.25
462.558	89.25
462.777	75.25
462.997	87.25
463.217	103.25
463.437	86.25
463.657	91.25
463.876	95.25
464.096	81.25
464.316	84.25
464.536	89.25
464.755	101.25
464.975	95.25
465.195	169.25
465.414	208.25
465.634	111.25
465.854	80.25
466.073	81.25
466.293	91.25
466.512	77.25
466.732	77.25
466.951	87.25
467.171	93.25
467.391	103.25
467.61	111.25
467.829	140.25
468.049	308.25
468.268	459.25
468.488	156.25
468.707	94.25
468.927	85.25
469.146	88.25
469.365	77.25
469.585	92.25
469.804	104.25
470.023	99.25
470.243	97.25
470.462	103.25
470.681	108.25
470.901	91.25
471.12	73.25
471.339	97.25
471.558	95.25
471.777	114.25
471.997	171.25
472.216	559.25
472.435	1281.25
472.654	359.25
472.873	123.25
473.092	93.25
473.311	84.25
473.53	84.25
473.749	103.25
473.968	87.25
474.187	99.25
474.406	89.25
474.625	84.25
474.844	92.25
475.063	90.25
475.282	98.25
475.501	88.25
475.72	98.25
475.939	85.25
476.158	86.25
476.377	88.25
476.596	94.25
476.814	91.25
477.033	93.25
477.252	86.25
477.471	90.25
477.69	91.25
477.908	83.25
478.127	96.25
478.346	83.25
478.564	88.25
478.783	113.25
479.002	100.25
479.22	100.25
479.439	119.25
479.658	132.25
479.876	118.25
480.095	91.25
480.313	112.25
480.532	131.25
480.751	189.25
480.969	534.25
481.188	2135.25
481.406	1368.25
481.624	234.25
481.843	117.25
482.061	93.25
482.28	105.25
482.498	88.25
482.717	102.25
482.935	97.25
483.153	99.25
483.372	85.25
483.59	79.25
483.808	89.25
484.027	83.25
484.245	88.25
484.463	93.25
484.681	98.25
484.9	85.25
485.118	101.25
485.336	85.25
485.554	85.25
485.772	92.25
485.99	90.25
486.209	87.25
486.427	112.25
486.645	125.25
486.863	124.25
487.081	99.25
487.299	93.25
487.517	96.25
487.735	81.25
487.953	91.25
488.171	88.25
488.389	98.25
488.607	109.25
488.825	95.25
489.043	98.25
489.261	96.25
489.479	77.25
489.696	90.25
489.914	96.25
490.132	93.25
490.35	86.25
490.568	95.25
490.786	99.25
491.003	86.25
491.221	88.25
491.439	84.25
491.657	98.25
491.874	116.25
492.092	91.25
492.31	87.25
492.527	95.25
492.745	86.25
492.963	109.25
493.18	89.25
493.398	86.25
493.615	105.25
493.833	83.25
494.05	89.25
494.268	88.25
494.485	92.25
494.703	87.25
494.92	71.25
495.138	69.25
495.355	71.25
495.573	92.25
495.79	86.25
496.008	98.25
496.225	82.25
496.442	98.25
496.66	91.25
496.877	95.25
497.094	97.25
497.312	88.25
497.529	85.25
497.746	103.25
497.963	91.25
498.181	86.25
498.398	88.25
498.615	104.25
498.832	107.25
499.049	91.25
499.267	85.25
499.484	66.25
499.701	83.25
499.918	90.25
500.135	86.25
500.352	86.25
500.569	99.25
500.786	75.25
501.003	91.25
501.22	78.25
501.437	91.25
501.654	93.25
501.871	104.25
502.088	97.25
502.305	74.25
502.522	92.25
502.739	94.25
502.956	92.25
503.172	100.25
503.389	95.25
503.606	114.25
503.823	109.25
504.04	92.25
504.256	84.25
504.473	76.25
504.69	98.25
504.907	84.25
505.123	87.25
505.34	83.25
505.557	76.25
505.773	85.25
505.99	75.25
506.207	82.25
506.423	101.25
506.64	97.25
506.856	80.25
507.073	83.25
507.289	88.25
507.506	104.25
507.722	140.25
507.939	129.25
508.155	91.25
508.372	95.25
508.588	79.25
508.805	87.25
509.021	94.25
509.238	111.25
509.454	98.25
509.67	99.25
509.887	105.25
510.103	115.25
510.319	204.25
510.536	764.25
510.752	2715.25
510.968	782.25
511.184	156.25
511.401	109.25
511.617	91.25
511.833	99.25
512.049	85.25
512.265	90.25
512.481	93.25
512.698	109.25
512.914	80.25
513.13	87.25
513.346	89.25
513.562	113.25
513.778	92.25
513.994	95.25
514.21	93.25
514.426	133.25
514.642	144.25
514.858	151.25
