Data from Circ_2013_H10_HRD10591_00002.txt Node
Date: Wed Jan 03 10:04:00 EST 2024
User: Yrep
Spectrometer: HR+D1059
Trigger mode: 1
Integration Time (sec): 1.000000E-1
Scans to average: 1
Electric dark correction enabled: true
Nonlinearity correction enabled: false
Boxcar width: 0
XAxis mode: Wavelengths
Number of Pixels in Spectrum: 2048
>>>>>Begin Spectral Data<<<<<
223.165	-18.56
223.4	-18.56
223.635	-18.56
223.869	-7.56
224.104	-28.56
224.338	-26.56
224.573	-7.56
224.808	-8.56
225.042	-4.56
225.277	2.44
225.511	-2.56
225.746	8.44
225.98	6.44
226.215	17.44
226.449	10.44
226.683	13.44
226.918	18.44
227.152	27.44
227.387	35.44
227.621	35.44
227.856	61.44
228.09	41.44
228.324	46.44
228.559	46.44
228.793	50.44
229.027	64.44
229.262	63.44
229.496	75.44
229.73	79.44
229.964	70.44
230.199	69.44
230.433	70.44
230.667	96.44
230.901	75.44
231.136	78.44
231.37	75.44
231.604	75.44
231.838	76.44
232.072	74.44
232.306	70.44
232.541	68.44
232.775	72.44
233.009	70.44
233.243	71.44
233.477	77.44
233.711	82.44
233.945	79.44
234.179	76.44
234.413	78.44
234.647	76.44
234.881	73.44
235.115	96.44
235.349	72.44
235.583	86.44
235.817	74.44
236.051	74.44
236.285	79.44
236.519	64.44
236.753	79.44
236.987	81.44
237.221	71.44
237.455	79.44
237.689	78.44
237.922	84.44
238.156	67.44
238.39	74.44
238.624	69.44
238.858	68.44
239.091	60.44
239.325	62.44
239.559	64.44
239.793	74.44
240.027	66.44
240.26	82.44
240.494	68.44
240.728	67.44
240.961	67.44
241.195	73.44
241.429	62.44
241.662	62.44
241.896	72.44
242.13	68.44
242.363	79.44
242.597	67.44
242.83	85.44
243.064	72.44
243.298	79.44
243.531	76.44
243.765	68.44
243.998	88.44
244.232	87.44
244.465	82.44
244.699	79.44
244.932	73.44
245.166	83.44
245.399	87.44
245.633	70.44
245.866	73.44
246.099	67.44
246.333	70.44
246.566	71.44
246.8	80.44
247.033	83.44
247.266	66.44
247.5	80.44
247.733	75.44
247.966	88.44
248.2	82.44
248.433	75.44
248.666	87.44
248.899	78.44
249.133	82.44
249.366	90.44
249.599	78.44
249.832	74.44
250.066	85.44
250.299	82.44
250.532	78.44
250.765	78.44
250.998	69.44
251.231	74.44
251.465	73.44
251.698	82.44
251.931	72.44
252.164	79.44
252.397	71.44
252.63	74.44
252.863	81.44
253.096	67.44
253.329	81.44
253.562	77.44
253.795	88.44
254.028	89.44
254.261	78.44
254.494	81.44
254.727	95.44
254.96	88.44
255.193	82.44
255.426	80.44
255.659	69.44
255.892	74.44
256.124	83.44
256.357	91.44
256.59	71.44
256.823	81.44
257.056	81.44
257.289	86.44
257.521	74.44
257.754	77.44
257.987	83.44
258.22	71.44
258.452	72.44
258.685	84.44
258.918	77.44
259.151	79.44
259.383	78.44
259.616	81.44
259.849	84.44
260.081	82.44
260.314	81.44
260.547	91.44
260.779	97.44
261.012	74.44
261.244	77.44
261.477	67.44
261.71	84.44
261.942	92.44
262.175	89.44
262.407	79.44
262.64	69.44
262.872	71.44
263.105	83.44
263.337	91.44
263.57	82.44
263.802	83.44
264.035	90.44
264.267	74.44
264.499	56.44
264.732	73.44
264.964	89.44
265.197	82.44
265.429	87.44
265.661	83.44
265.894	77.44
266.126	71.44
266.358	96.44
266.591	78.44
266.823	79.44
267.055	81.44
267.287	79.44
267.52	78.44
267.752	71.44
267.984	79.44
268.216	83.44
268.448	89.44
268.681	79.44
268.913	66.44
269.145	70.44
269.377	72.44
269.609	78.44
269.841	83.44
270.073	74.44
270.306	86.44
270.538	79.44
270.77	76.44
271.002	83.44
271.234	77.44
271.466	75.44
271.698	74.44
271.93	91.44
272.162	88.44
272.394	77.44
272.626	74.44
272.858	88.44
273.09	92.44
273.322	83.44
273.553	68.44
273.785	81.44
274.017	80.44
274.249	90.44
274.481	71.44
274.713	74.44
274.945	78.44
275.176	84.44
275.408	76.44
275.64	87.44
275.872	90.44
276.104	83.44
276.335	82.44
276.567	87.44
276.799	103.44
277.031	95.44
277.262	78.44
277.494	75.44
277.726	94.44
277.957	88.44
278.189	87.44
278.421	86.44
278.652	75.44
278.884	78.44
279.115	74.44
279.347	75.44
279.579	81.44
279.81	87.44
280.042	71.44
280.273	76.44
280.505	91.44
280.736	85.44
280.968	83.44
281.199	90.44
281.431	76.44
281.662	94.44
281.894	69.44
282.125	92.44
282.356	97.44
282.588	125.44
282.819	101.44
283.051	73.44
283.282	78.44
283.513	80.44
283.745	88.44
283.976	81.44
284.207	88.44
284.439	72.44
284.67	73.44
284.901	91.44
285.132	77.44
285.364	83.44
285.595	85.44
285.826	75.44
286.057	70.44
286.288	95.44
286.52	78.44
286.751	73.44
286.982	78.44
287.213	82.44
287.444	87.44
287.675	73.44
287.906	77.44
288.138	76.44
288.369	90.44
288.6	89.44
288.831	67.44
289.062	79.44
289.293	74.44
289.524	66.44
289.755	85.44
289.986	93.44
290.217	82.44
290.448	99.44
290.679	82.44
290.91	70.44
291.141	82.44
291.371	75.44
291.602	82.44
291.833	75.44
292.064	96.44
292.295	95.44
292.526	85.44
292.757	84.44
292.987	88.44
293.218	75.44
293.449	84.44
293.68	88.44
293.91	78.44
294.141	87.44
294.372	69.44
294.603	85.44
294.833	78.44
295.064	89.44
295.295	76.44
295.525	81.44
295.756	96.44
295.987	85.44
296.217	104.44
296.448	97.44
296.679	91.44
296.909	68.44
297.14	90.44
297.37	82.44
297.601	84.44
297.831	94.44
298.062	88.44
298.292	94.44
298.523	75.44
298.753	90.44
298.984	85.44
299.214	84.44
299.445	68.44
299.675	92.44
299.905	93.44
300.136	77.44
300.366	81.44
300.597	101.44
300.827	84.44
301.057	95.44
301.288	105.44
301.518	86.44
301.748	94.44
301.979	90.44
302.209	74.44
302.439	73.44
302.669	82.44
302.9	86.44
303.13	91.44
303.36	71.44
303.59	87.44
303.82	103.44
304.051	95.44
304.281	84.44
304.511	73.44
304.741	79.44
304.971	81.44
305.201	89.44
305.431	79.44
305.661	94.44
305.891	74.44
306.121	94.44
306.352	99.44
306.582	92.44
306.812	89.44
307.042	75.44
307.272	69.44
307.502	83.44
307.731	91.44
307.961	79.44
308.191	85.44
308.421	79.44
308.651	82.44
308.881	88.44
309.111	93.44
309.341	84.44
309.571	98.44
309.8	93.44
310.03	83.44
310.26	86.44
310.49	88.44
310.72	99.44
310.949	97.44
311.179	81.44
311.409	70.44
311.639	80.44
311.868	89.44
312.098	101.44
312.328	91.44
312.557	98.44
312.787	85.44
313.017	92.44
313.246	102.44
313.476	92.44
313.706	104.44
313.935	95.44
314.165	95.44
314.394	84.44
314.624	90.44
314.853	101.44
315.083	88.44
315.312	89.44
315.542	83.44
315.771	85.44
316.001	94.44
316.23	79.44
316.46	95.44
316.689	83.44
316.919	73.44
317.148	86.44
317.377	101.44
317.607	84.44
317.836	85.44
318.065	103.44
318.295	73.44
318.524	84.44
318.753	83.44
318.983	103.44
319.212	93.44
319.441	101.44
319.67	87.44
319.9	97.44
320.129	80.44
320.358	77.44
320.587	100.44
320.816	86.44
321.046	102.44
321.275	94.44
321.504	87.44
321.733	94.44
321.962	89.44
322.191	85.44
322.42	96.44
322.649	101.44
322.878	99.44
323.108	109.44
323.337	106.44
323.566	121.44
323.795	137.44
324.024	164.44
324.253	292.44
324.482	634.44
324.71	1256.44
324.939	1650.44
325.168	641.44
325.397	194.44
325.626	127.44
325.855	122.44
326.084	115.44
326.313	108.44
326.542	143.44
326.77	202.44
326.999	366.44
327.228	735.44
327.457	1342.44
327.686	1039.44
327.914	296.44
328.143	187.44
328.372	145.44
328.6	140.44
328.829	110.44
329.058	100.44
329.287	102.44
329.515	91.44
329.744	97.44
329.972	115.44
330.201	131.44
330.43	174.44
330.658	145.44
330.887	116.44
331.115	109.44
331.344	96.44
331.572	93.44
331.801	115.44
332.03	83.44
332.258	93.44
332.486	83.44
332.715	82.44
332.943	90.44
333.172	78.44
333.4	95.44
333.629	91.44
333.857	101.44
334.085	121.44
334.314	143.44
334.542	193.44
334.771	188.44
334.999	102.44
335.227	85.44
335.455	85.44
335.684	86.44
335.912	83.44
336.14	88.44
336.369	89.44
336.597	102.44
336.825	70.44
337.053	99.44
337.281	90.44
337.51	97.44
337.738	83.44
337.966	88.44
338.194	103.44
338.422	86.44
338.65	78.44
338.878	98.44
339.106	86.44
339.334	94.44
339.562	73.44
339.79	82.44
340.018	90.44
340.246	93.44
340.474	74.44
340.702	89.44
340.93	82.44
341.158	85.44
341.386	91.44
341.614	100.44
341.842	102.44
342.07	87.44
342.298	81.44
342.526	89.44
342.754	86.44
342.981	87.44
343.209	87.44
343.437	88.44
343.665	80.44
343.893	87.44
344.12	87.44
344.348	93.44
344.576	87.44
344.804	102.44
345.031	94.44
345.259	81.44
345.487	88.44
345.714	85.44
345.942	78.44
346.17	89.44
346.397	85.44
346.625	88.44
346.853	88.44
347.08	75.44
347.308	80.44
347.535	87.44
347.763	88.44
347.99	79.44
348.218	97.44
348.445	89.44
348.673	97.44
348.9	84.44
349.128	75.44
349.355	87.44
349.583	89.44
349.81	81.44
350.037	96.44
350.265	104.44
350.492	89.44
350.72	89.44
350.947	82.44
351.174	100.44
351.402	98.44
351.629	98.44
351.856	95.44
352.083	86.44
352.311	103.44
352.538	107.44
352.765	117.44
352.992	105.44
353.22	104.44
353.447	95.44
353.674	105.44
353.901	103.44
354.128	86.44
354.355	80.44
354.583	102.44
354.81	98.44
355.037	88.44
355.264	101.44
355.491	82.44
355.718	83.44
355.945	92.44
356.172	94.44
356.399	94.44
356.626	80.44
356.853	103.44
357.08	87.44
357.307	91.44
357.534	92.44
357.761	73.44
357.988	78.44
358.215	103.44
358.441	103.44
358.668	97.44
358.895	101.44
359.122	78.44
359.349	95.44
359.576	97.44
359.802	109.44
360.029	94.44
360.256	114.44
360.483	79.44
360.709	83.44
360.936	86.44
361.163	81.44
361.39	82.44
361.616	89.44
361.843	84.44
362.07	81.44
362.296	70.44
362.523	86.44
362.749	81.44
362.976	82.44
363.203	74.44
363.429	91.44
363.656	96.44
363.882	88.44
364.109	82.44
364.335	82.44
364.562	81.44
364.788	84.44
365.015	82.44
365.241	99.44
365.468	107.44
365.694	99.44
365.92	95.44
366.147	86.44
366.373	93.44
366.599	96.44
366.826	92.44
367.052	70.44
367.278	86.44
367.505	85.44
367.731	84.44
367.957	72.44
368.184	95.44
368.41	88.44
368.636	100.44
368.862	101.44
369.089	84.44
369.315	94.44
369.541	93.44
369.767	71.44
369.993	90.44
370.219	89.44
370.445	91.44
370.672	88.44
370.898	78.44
371.124	68.44
371.35	81.44
371.576	84.44
371.802	69.44
372.028	85.44
372.254	89.44
372.48	89.44
372.706	80.44
372.932	94.44
373.158	73.44
373.384	90.44
373.61	81.44
373.835	82.44
374.061	76.44
374.287	100.44
374.513	78.44
374.739	90.44
374.965	90.44
375.191	88.44
375.416	97.44
375.642	96.44
375.868	86.44
376.094	85.44
376.319	77.44
376.545	94.44
376.771	94.44
376.997	97.44
377.222	96.44
377.448	91.44
377.674	92.44
377.899	104.44
378.125	94.44
378.35	93.44
378.576	99.44
378.802	91.44
379.027	94.44
379.253	89.44
379.478	107.44
379.704	88.44
379.929	100.44
380.155	89.44
380.38	95.44
380.606	105.44
380.831	105.44
381.057	88.44
381.282	96.44
381.507	106.44
381.733	100.44
381.958	102.44
382.184	103.44
382.409	107.44
382.634	118.44
382.86	98.44
383.085	112.44
383.31	123.44
383.535	103.44
383.761	98.44
383.986	94.44
384.211	104.44
384.436	101.44
384.662	96.44
384.887	122.44
385.112	141.44
385.337	125.44
385.562	104.44
385.787	120.44
386.013	138.44
386.238	125.44
386.463	127.44
386.688	134.44
386.913	123.44
387.138	137.44
387.363	118.44
387.588	112.44
387.813	115.44
388.038	143.44
388.263	127.44
388.488	122.44
388.713	98.44
388.938	91.44
389.163	101.44
389.387	99.44
389.612	111.44
389.837	95.44
390.062	86.44
390.287	89.44
390.512	79.44
390.736	83.44
390.961	97.44
391.186	96.44
391.411	89.44
391.636	80.44
391.86	79.44
392.085	77.44
392.31	76.44
392.534	73.44
392.759	80.44
392.984	80.44
393.208	102.44
393.433	101.44
393.658	98.44
393.882	66.44
394.107	85.44
394.331	79.44
394.556	83.44
394.78	93.44
395.005	96.44
395.229	81.44
395.454	86.44
395.678	95.44
395.903	83.44
396.127	82.44
396.352	87.44
396.576	71.44
396.801	97.44
397.025	96.44
397.249	70.44
397.474	82.44
397.698	93.44
397.922	79.44
398.147	86.44
398.371	77.44
398.595	95.44
398.82	78.44
399.044	86.44
399.268	79.44
399.492	78.44
399.717	87.44
399.941	79.44
400.165	83.44
400.389	89.44
400.613	97.44
400.837	76.44
401.062	77.44
401.286	78.44
401.51	88.44
401.734	86.44
401.958	96.44
402.182	106.44
402.406	136.44
402.63	105.44
402.854	96.44
403.078	86.44
403.302	64.44
403.526	69.44
403.75	75.44
403.974	86.44
404.198	84.44
404.422	78.44
404.645	85.44
404.869	86.44
405.093	78.44
405.317	94.44
405.541	101.44
405.765	85.44
405.988	81.44
406.212	119.44
406.436	171.44
406.66	133.44
406.883	97.44
407.107	99.44
407.331	82.44
407.555	85.44
407.778	77.44
408.002	83.44
408.226	89.44
408.449	85.44
408.673	94.44
408.896	73.44
409.12	81.44
409.344	91.44
409.567	93.44
409.791	92.44
410.014	80.44
410.238	98.44
410.461	89.44
410.685	89.44
410.908	106.44
411.132	107.44
411.355	90.44
411.578	74.44
411.802	98.44
412.025	101.44
412.249	95.44
412.472	81.44
412.695	96.44
412.919	95.44
413.142	99.44
413.365	90.44
413.589	87.44
413.812	87.44
414.035	84.44
414.258	88.44
414.482	89.44
414.705	94.44
414.928	106.44
415.151	87.44
415.374	99.44
415.597	77.44
415.821	91.44
416.044	70.44
416.267	97.44
416.49	87.44
416.713	83.44
416.936	82.44
417.159	73.44
417.382	74.44
417.605	79.44
417.828	83.44
418.051	80.44
418.274	90.44
418.497	76.44
418.72	82.44
418.943	92.44
419.166	81.44
419.389	83.44
419.611	83.44
419.834	75.44
420.057	89.44
420.28	87.44
420.503	94.44
420.726	91.44
420.948	76.44
421.171	90.44
421.394	86.44
421.617	89.44
421.839	89.44
422.062	89.44
422.285	90.44
422.507	89.44
422.73	96.44
422.953	93.44
423.175	94.44
423.398	96.44
423.621	88.44
423.843	84.44
424.066	81.44
424.288	77.44
424.511	84.44
424.733	95.44
424.956	81.44
425.178	97.44
425.401	86.44
425.623	101.44
425.846	87.44
426.068	78.44
426.291	83.44
426.513	87.44
426.735	85.44
426.958	82.44
427.18	98.44
427.402	101.44
427.625	134.44
427.847	119.44
428.069	114.44
428.292	95.44
428.514	91.44
428.736	80.44
428.958	90.44
429.181	91.44
429.403	83.44
429.625	72.44
429.847	85.44
430.069	94.44
430.292	84.44
430.514	86.44
430.736	76.44
430.958	74.44
431.18	81.44
431.402	79.44
431.624	80.44
431.846	82.44
432.068	96.44
432.29	70.44
432.512	84.44
432.734	79.44
432.956	78.44
433.178	104.44
433.4	98.44
433.622	81.44
433.844	87.44
434.066	78.44
434.287	79.44
434.509	76.44
434.731	74.44
434.953	78.44
435.175	85.44
435.397	87.44
435.618	85.44
435.84	81.44
436.062	113.44
436.284	104.44
436.505	89.44
436.727	90.44
436.949	83.44
437.17	91.44
437.392	84.44
437.614	90.44
437.835	75.44
438.057	89.44
438.278	91.44
438.5	101.44
438.721	126.44
438.943	108.44
439.165	81.44
439.386	79.44
439.608	86.44
439.829	90.44
440.05	111.44
440.272	125.44
440.493	99.44
440.715	75.44
440.936	73.44
441.158	66.44
441.379	83.44
441.6	88.44
441.822	77.44
442.043	74.44
442.264	82.44
442.486	96.44
442.707	89.44
442.928	95.44
443.149	112.44
443.371	93.44
443.592	103.44
443.813	91.44
444.034	91.44
444.255	77.44
444.476	75.44
444.698	78.44
444.919	90.44
445.14	112.44
445.361	113.44
445.582	98.44
445.803	113.44
446.024	94.44
446.245	125.44
446.466	106.44
446.687	89.44
446.908	88.44
447.129	69.44
447.35	74.44
447.571	84.44
447.792	81.44
448.013	88.44
448.234	102.44
448.455	90.44
448.675	85.44
448.896	96.44
449.117	102.44
449.338	96.44
449.559	101.44
449.779	118.44
450	89.44
450.221	84.44
450.442	84.44
450.662	80.44
450.883	95.44
451.104	89.44
451.324	90.44
451.545	89.44
451.766	74.44
451.986	67.44
452.207	80.44
452.428	89.44
452.648	79.44
452.869	97.44
453.089	104.44
453.31	102.44
453.53	85.44
453.751	81.44
453.971	75.44
454.192	81.44
454.412	79.44
454.633	95.44
454.853	81.44
455.073	83.44
455.294	72.44
455.514	82.44
455.734	91.44
455.955	86.44
456.175	82.44
456.395	92.44
456.616	82.44
456.836	82.44
457.056	82.44
457.276	81.44
457.497	83.44
457.717	82.44
457.937	84.44
458.157	77.44
458.377	80.44
458.598	88.44
458.818	130.44
459.038	129.44
459.258	104.44
459.478	79.44
459.698	83.44
459.918	73.44
460.138	90.44
460.358	83.44
460.578	82.44
460.798	84.44
461.018	82.44
461.238	89.44
461.458	88.44
461.678	86.44
461.898	93.44
462.118	71.44
462.338	69.44
462.558	95.44
462.777	77.44
462.997	81.44
463.217	64.44
463.437	75.44
463.657	83.44
463.876	85.44
464.096	74.44
464.316	84.44
464.536	68.44
464.755	89.44
464.975	89.44
465.195	124.44
465.414	133.44
465.634	94.44
465.854	91.44
466.073	77.44
466.293	75.44
466.512	85.44
466.732	97.44
466.951	83.44
467.171	80.44
467.391	87.44
467.61	86.44
467.829	93.44
468.049	101.44
468.268	125.44
468.488	81.44
468.707	77.44
468.927	75.44
469.146	80.44
469.365	80.44
469.585	78.44
469.804	84.44
470.023	93.44
470.243	73.44
470.462	81.44
470.681	82.44
470.901	89.44
471.12	85.44
471.339	96.44
471.558	84.44
471.777	92.44
471.997	99.44
472.216	157.44
472.435	228.44
472.654	111.44
472.873	87.44
473.092	72.44
473.311	78.44
473.53	77.44
473.749	79.44
473.968	82.44
474.187	86.44
474.406	96.44
474.625	75.44
474.844	88.44
475.063	90.44
475.282	79.44
475.501	79.44
475.72	78.44
475.939	75.44
476.158	84.44
476.377	74.44
476.596	84.44
476.814	83.44
477.033	79.44
477.252	73.44
477.471	69.44
477.69	97.44
477.908	95.44
478.127	81.44
478.346	68.44
478.564	84.44
478.783	92.44
479.002	88.44
479.22	99.44
479.439	94.44
479.658	90.44
479.876	75.44
480.095	86.44
480.313	88.44
480.532	111.44
480.751	115.44
480.969	148.44
481.188	354.44
481.406	240.44
481.624	104.44
481.843	93.44
482.061	73.44
482.28	95.44
482.498	71.44
482.717	83.44
482.935	69.44
483.153	87.44
483.372	77.44
483.59	82.44
483.808	88.44
484.027	96.44
484.245	96.44
484.463	83.44
484.681	92.44
484.9	101.44
485.118	69.44
485.336	85.44
485.554	88.44
485.772	98.44
485.99	100.44
486.209	122.44
486.427	102.44
486.645	105.44
486.863	109.44
487.081	86.44
487.299	98.44
487.517	97.44
487.735	80.44
487.953	84.44
488.171	87.44
488.389	86.44
488.607	86.44
488.825	75.44
489.043	88.44
489.261	75.44
489.479	83.44
489.696	83.44
489.914	88.44
490.132	76.44
490.35	86.44
490.568	86.44
490.786	95.44
491.003	89.44
491.221	96.44
491.439	86.44
491.657	92.44
491.874	81.44
492.092	94.44
492.31	88.44
492.527	86.44
492.745	70.44
492.963	85.44
493.18	95.44
493.398	98.44
493.615	96.44
493.833	88.44
494.05	78.44
494.268	89.44
494.485	74.44
494.703	89.44
494.92	97.44
495.138	85.44
495.355	83.44
495.573	86.44
495.79	78.44
496.008	85.44
496.225	88.44
496.442	72.44
496.66	95.44
496.877	76.44
497.094	88.44
497.312	84.44
497.529	79.44
497.746	86.44
497.963	90.44
498.181	99.44
498.398	93.44
498.615	98.44
498.832	95.44
499.049	81.44
499.267	78.44
499.484	91.44
499.701	77.44
499.918	69.44
500.135	70.44
500.352	71.44
500.569	76.44
500.786	87.44
501.003	83.44
501.22	94.44
501.437	91.44
501.654	88.44
501.871	79.44
502.088	65.44
502.305	94.44
502.522	82.44
502.739	81.44
502.956	98.44
503.172	93.44
503.389	84.44
503.606	93.44
503.823	75.44
504.04	85.44
504.256	79.44
504.473	74.44
504.69	79.44
504.907	90.44
505.123	71.44
505.34	82.44
505.557	85.44
505.773	87.44
505.99	83.44
506.207	78.44
506.423	93.44
506.64	72.44
506.856	79.44
507.073	77.44
507.289	90.44
507.506	84.44
507.722	90.44
507.939	102.44
508.155	80.44
508.372	83.44
508.588	85.44
508.805	87.44
509.021	90.44
509.238	90.44
509.454	87.44
509.67	109.44
509.887	105.44
510.103	98.44
510.319	176.44
510.536	530.44
510.752	1609.44
510.968	478.44
511.184	111.44
511.401	92.44
511.617	87.44
511.833	75.44
512.049	78.44
512.265	99.44
512.481	95.44
512.698	75.44
512.914	90.44
513.13	76.44
513.346	81.44
513.562	101.44
513.778	81.44
513.994	91.44
514.21	101.44
514.426	100.44
514.642	118.44
514.858	109.44
515.074	113.44
515.29	317.44
515.506	967.44
515.721	400.44
515.937	131.44
516.153	97.44
516.369	83.44
516.585	72.44
516.801	87.44
517.016	93.44
517.232	83.44
