Data from Circ_2013_H10_HRD10591_00047.txt Node
Date: Wed Jan 03 10:04:09 EST 2024
User: Yrep
Spectrometer: HR+D1059
Trigger mode: 1
Integration Time (sec): 1.000000E-1
Scans to average: 1
Electric dark correction enabled: true
Nonlinearity correction enabled: false
Boxcar width: 0
XAxis mode: Wavelengths
Number of Pixels in Spectrum: 2048
>>>>>Begin Spectral Data<<<<<
223.165	-18.81
223.4	-18.81
223.635	-18.81
223.869	-21.81
224.104	-19.81
224.338	-19.81
224.573	-8.81
224.808	-1.81
225.042	-5.81
225.277	1.19
225.511	-0.81
225.746	5.19
225.98	2.19
226.215	10.19
226.449	16.19
226.683	21.19
226.918	30.19
227.152	11.19
227.387	27.19
227.621	45.19
227.856	54.19
228.09	44.19
228.324	53.19
228.559	60.19
228.793	61.19
229.027	78.19
229.262	67.19
229.496	70.19
229.73	90.19
229.964	76.19
230.199	73.19
230.433	76.19
230.667	82.19
230.901	85.19
231.136	78.19
231.37	92.19
231.604	74.19
231.838	85.19
232.072	89.19
232.306	79.19
232.541	98.19
232.775	85.19
233.009	76.19
233.243	81.19
233.477	84.19
233.711	79.19
233.945	89.19
234.179	85.19
234.413	82.19
234.647	71.19
234.881	82.19
235.115	82.19
235.349	91.19
235.583	77.19
235.817	76.19
236.051	89.19
236.285	75.19
236.519	72.19
236.753	81.19
236.987	83.19
237.221	81.19
237.455	78.19
237.689	81.19
237.922	105.19
238.156	84.19
238.39	77.19
238.624	75.19
238.858	79.19
239.091	85.19
239.325	72.19
239.559	76.19
239.793	83.19
240.027	96.19
240.26	80.19
240.494	66.19
240.728	81.19
240.961	83.19
241.195	82.19
241.429	84.19
241.662	79.19
241.896	63.19
242.13	84.19
242.363	86.19
242.597	74.19
242.83	85.19
243.064	81.19
243.298	64.19
243.531	79.19
243.765	89.19
243.998	87.19
244.232	80.19
244.465	87.19
244.699	82.19
244.932	89.19
245.166	94.19
245.399	88.19
245.633	82.19
245.866	86.19
246.099	93.19
246.333	68.19
246.566	78.19
246.8	71.19
247.033	67.19
247.266	67.19
247.5	89.19
247.733	88.19
247.966	78.19
248.2	95.19
248.433	72.19
248.666	90.19
248.899	75.19
249.133	98.19
249.366	91.19
249.599	88.19
249.832	88.19
250.066	92.19
250.299	81.19
250.532	89.19
250.765	87.19
250.998	80.19
251.231	88.19
251.465	86.19
251.698	90.19
251.931	87.19
252.164	69.19
252.397	85.19
252.63	82.19
252.863	88.19
253.096	78.19
253.329	87.19
253.562	82.19
253.795	97.19
254.028	91.19
254.261	83.19
254.494	92.19
254.727	90.19
254.96	87.19
255.193	82.19
255.426	86.19
255.659	84.19
255.892	76.19
256.124	101.19
256.357	108.19
256.59	75.19
256.823	70.19
257.056	88.19
257.289	86.19
257.521	74.19
257.754	72.19
257.987	93.19
258.22	91.19
258.452	82.19
258.685	88.19
258.918	97.19
259.151	87.19
259.383	87.19
259.616	83.19
259.849	88.19
260.081	78.19
260.314	70.19
260.547	91.19
260.779	97.19
261.012	90.19
261.244	100.19
261.477	98.19
261.71	89.19
261.942	129.19
262.175	133.19
262.407	98.19
262.64	90.19
262.872	77.19
263.105	77.19
263.337	91.19
263.57	86.19
263.802	92.19
264.035	91.19
264.267	87.19
264.499	74.19
264.732	85.19
264.964	70.19
265.197	84.19
265.429	95.19
265.661	96.19
265.894	80.19
266.126	79.19
266.358	88.19
266.591	98.19
266.823	77.19
267.055	83.19
267.287	86.19
267.52	78.19
267.752	91.19
267.984	94.19
268.216	86.19
268.448	89.19
268.681	109.19
268.913	83.19
269.145	87.19
269.377	92.19
269.609	94.19
269.841	88.19
270.073	86.19
270.306	84.19
270.538	82.19
270.77	92.19
271.002	80.19
271.234	92.19
271.466	92.19
271.698	89.19
271.93	81.19
272.162	97.19
272.394	97.19
272.626	107.19
272.858	86.19
273.09	84.19
273.322	80.19
273.553	89.19
273.785	84.19
274.017	77.19
274.249	96.19
274.481	88.19
274.713	88.19
274.945	86.19
275.176	82.19
275.408	91.19
275.64	104.19
275.872	92.19
276.104	101.19
276.335	90.19
276.567	108.19
276.799	107.19
277.031	119.19
277.262	134.19
277.494	107.19
277.726	92.19
277.957	91.19
278.189	91.19
278.421	94.19
278.652	90.19
278.884	94.19
279.115	88.19
279.347	93.19
279.579	101.19
279.81	93.19
280.042	139.19
280.273	158.19
280.505	115.19
280.736	104.19
280.968	87.19
281.199	80.19
281.431	95.19
281.662	103.19
281.894	107.19
282.125	86.19
282.356	123.19
282.588	143.19
282.819	112.19
283.051	95.19
283.282	89.19
283.513	105.19
283.745	98.19
283.976	86.19
284.207	87.19
284.439	93.19
284.67	103.19
284.901	85.19
285.132	95.19
285.364	81.19
285.595	89.19
285.826	98.19
286.057	103.19
286.288	92.19
286.52	73.19
286.751	100.19
286.982	84.19
287.213	86.19
287.444	92.19
287.675	81.19
287.906	93.19
288.138	92.19
288.369	95.19
288.6	93.19
288.831	108.19
289.062	86.19
289.293	97.19
289.524	99.19
289.755	103.19
289.986	96.19
290.217	92.19
290.448	88.19
290.679	75.19
290.91	73.19
291.141	82.19
291.371	88.19
291.602	87.19
291.833	91.19
292.064	92.19
292.295	90.19
292.526	95.19
292.757	90.19
292.987	93.19
293.218	95.19
293.449	88.19
293.68	83.19
293.91	108.19
294.141	99.19
294.372	115.19
294.603	92.19
294.833	86.19
295.064	88.19
295.295	94.19
295.525	93.19
295.756	109.19
295.987	133.19
296.217	155.19
296.448	129.19
296.679	93.19
296.909	98.19
297.14	108.19
297.37	81.19
297.601	88.19
297.831	97.19
298.062	108.19
298.292	80.19
298.523	95.19
298.753	88.19
298.984	76.19
299.214	79.19
299.445	73.19
299.675	99.19
299.905	97.19
300.136	85.19
300.366	77.19
300.597	93.19
300.827	105.19
301.057	80.19
301.288	97.19
301.518	106.19
301.748	78.19
301.979	108.19
302.209	110.19
302.439	97.19
302.669	101.19
302.9	89.19
303.13	103.19
303.36	97.19
303.59	111.19
303.82	137.19
304.051	108.19
304.281	88.19
304.511	92.19
304.741	95.19
304.971	77.19
305.201	82.19
305.431	92.19
305.661	96.19
305.891	103.19
306.121	103.19
306.352	104.19
306.582	117.19
306.812	90.19
307.042	105.19
307.272	127.19
307.502	122.19
307.731	128.19
307.961	101.19
308.191	81.19
308.421	106.19
308.651	98.19
308.881	92.19
309.111	83.19
309.341	102.19
309.571	111.19
309.8	107.19
310.03	93.19
310.26	98.19
310.49	102.19
310.72	94.19
310.949	103.19
311.179	87.19
311.409	89.19
311.639	102.19
311.868	101.19
312.098	109.19
312.328	103.19
312.557	125.19
312.787	119.19
313.017	104.19
313.246	107.19
313.476	88.19
313.706	100.19
313.935	107.19
314.165	103.19
314.394	111.19
314.624	90.19
314.853	99.19
315.083	92.19
315.312	86.19
315.542	82.19
315.771	98.19
316.001	99.19
316.23	83.19
316.46	101.19
316.689	93.19
316.919	107.19
317.148	100.19
317.377	101.19
317.607	97.19
317.836	90.19
318.065	94.19
318.295	101.19
318.524	109.19
318.753	101.19
318.983	99.19
319.212	108.19
319.441	93.19
319.67	102.19
319.9	94.19
320.129	102.19
320.358	94.19
320.587	106.19
320.816	108.19
321.046	105.19
321.275	101.19
321.504	86.19
321.733	106.19
321.962	101.19
322.191	98.19
322.42	115.19
322.649	121.19
322.878	136.19
323.108	112.19
323.337	142.19
323.566	133.19
323.795	176.19
324.024	228.19
324.253	452.19
324.482	936.19
324.71	1917.19
324.939	2494.19
325.168	931.19
325.397	264.19
325.626	155.19
325.855	139.19
326.084	138.19
326.313	139.19
326.542	177.19
326.77	249.19
326.999	504.19
327.228	1067.19
327.457	1922.19
327.686	1512.19
327.914	446.19
328.143	324.19
328.372	326.19
328.6	213.19
328.829	157.19
329.058	156.19
329.287	159.19
329.515	139.19
329.744	161.19
329.972	251.19
330.201	419.19
330.43	597.19
330.658	326.19
330.887	196.19
331.115	162.19
331.344	119.19
331.572	117.19
331.801	117.19
332.03	109.19
332.258	107.19
332.486	100.19
332.715	88.19
332.943	108.19
333.172	122.19
333.4	107.19
333.629	134.19
333.857	162.19
334.085	248.19
334.314	417.19
334.542	764.19
334.771	714.19
334.999	237.19
335.227	143.19
335.455	95.19
335.684	107.19
335.912	96.19
336.14	96.19
336.369	99.19
336.597	97.19
336.825	97.19
337.053	101.19
337.281	94.19
337.51	96.19
337.738	92.19
337.966	112.19
338.194	95.19
338.422	109.19
338.65	88.19
338.878	103.19
339.106	100.19
339.334	101.19
339.562	91.19
339.79	97.19
340.018	99.19
340.246	95.19
340.474	94.19
340.702	100.19
340.93	98.19
341.158	108.19
341.386	108.19
341.614	102.19
341.842	108.19
342.07	109.19
342.298	90.19
342.526	96.19
342.754	99.19
342.981	95.19
343.209	98.19
343.437	105.19
343.665	83.19
343.893	94.19
344.12	93.19
344.348	102.19
344.576	74.19
344.804	101.19
345.031	96.19
345.259	98.19
345.487	93.19
345.714	101.19
345.942	97.19
346.17	83.19
346.397	85.19
346.625	106.19
346.853	93.19
347.08	86.19
347.308	96.19
347.535	95.19
347.763	106.19
347.99	104.19
348.218	107.19
348.445	115.19
348.673	104.19
348.9	114.19
349.128	105.19
349.355	92.19
349.583	78.19
349.81	103.19
350.037	108.19
350.265	105.19
350.492	102.19
350.72	107.19
350.947	109.19
351.174	103.19
351.402	131.19
351.629	107.19
351.856	99.19
352.083	116.19
352.311	116.19
352.538	103.19
352.765	117.19
352.992	111.19
353.22	120.19
353.447	117.19
353.674	117.19
353.901	98.19
354.128	101.19
354.355	103.19
354.583	101.19
354.81	101.19
355.037	104.19
355.264	93.19
355.491	92.19
355.718	93.19
355.945	102.19
356.172	103.19
356.399	100.19
356.626	77.19
356.853	101.19
357.08	97.19
357.307	93.19
357.534	98.19
357.761	106.19
357.988	97.19
358.215	99.19
358.441	109.19
358.668	86.19
358.895	95.19
359.122	82.19
359.349	93.19
359.576	106.19
359.802	105.19
360.029	108.19
360.256	116.19
360.483	104.19
360.709	100.19
360.936	97.19
361.163	111.19
361.39	102.19
361.616	104.19
361.843	97.19
362.07	90.19
362.296	110.19
362.523	113.19
362.749	103.19
362.976	92.19
363.203	95.19
363.429	98.19
363.656	85.19
363.882	73.19
364.109	98.19
364.335	108.19
364.562	95.19
364.788	91.19
365.015	102.19
365.241	108.19
365.468	135.19
365.694	112.19
365.92	101.19
366.147	91.19
366.373	81.19
366.599	106.19
366.826	86.19
367.052	88.19
367.278	94.19
367.505	102.19
367.731	104.19
367.957	101.19
368.184	98.19
368.41	111.19
368.636	130.19
368.862	116.19
369.089	111.19
369.315	95.19
369.541	95.19
369.767	95.19
369.993	95.19
370.219	101.19
370.445	91.19
370.672	98.19
370.898	90.19
371.124	86.19
371.35	90.19
371.576	74.19
371.802	89.19
372.028	98.19
372.254	99.19
372.48	99.19
372.706	91.19
372.932	87.19
373.158	92.19
373.384	96.19
373.61	91.19
373.835	99.19
374.061	90.19
374.287	100.19
374.513	102.19
374.739	96.19
374.965	83.19
375.191	79.19
375.416	87.19
375.642	87.19
375.868	85.19
376.094	88.19
376.319	82.19
376.545	86.19
376.771	102.19
376.997	98.19
377.222	104.19
377.448	96.19
377.674	105.19
377.899	93.19
378.125	84.19
378.35	100.19
378.576	102.19
378.802	100.19
379.027	94.19
379.253	101.19
379.478	81.19
379.704	93.19
379.929	95.19
380.155	113.19
380.38	111.19
380.606	102.19
380.831	92.19
381.057	96.19
381.282	90.19
381.507	92.19
381.733	109.19
381.958	108.19
382.184	97.19
382.409	110.19
382.634	116.19
382.86	101.19
383.085	107.19
383.31	115.19
383.535	118.19
383.761	94.19
383.986	105.19
384.211	105.19
384.436	111.19
384.662	114.19
384.887	96.19
385.112	102.19
385.337	97.19
385.562	108.19
385.787	116.19
386.013	122.19
386.238	120.19
386.463	117.19
386.688	106.19
386.913	114.19
387.138	104.19
387.363	96.19
387.588	96.19
387.813	94.19
388.038	113.19
388.263	118.19
388.488	113.19
388.713	103.19
388.938	99.19
389.163	88.19
389.387	93.19
389.612	106.19
389.837	102.19
390.062	97.19
390.287	104.19
390.512	90.19
390.736	94.19
390.961	93.19
391.186	104.19
391.411	108.19
391.636	101.19
391.86	91.19
392.085	86.19
392.31	98.19
392.534	93.19
392.759	97.19
392.984	87.19
393.208	88.19
393.433	93.19
393.658	92.19
393.882	89.19
394.107	85.19
394.331	102.19
394.556	77.19
394.78	86.19
395.005	93.19
395.229	82.19
395.454	91.19
395.678	79.19
395.903	93.19
396.127	89.19
396.352	93.19
396.576	82.19
396.801	92.19
397.025	93.19
397.249	81.19
397.474	89.19
397.698	116.19
397.922	94.19
398.147	90.19
398.371	99.19
398.595	79.19
398.82	86.19
399.044	84.19
399.268	91.19
399.492	108.19
399.717	94.19
399.941	95.19
400.165	97.19
400.389	87.19
400.613	94.19
400.837	87.19
401.062	102.19
401.286	84.19
401.51	104.19
401.734	113.19
401.958	91.19
402.182	144.19
402.406	170.19
402.63	141.19
402.854	98.19
403.078	95.19
403.302	88.19
403.526	85.19
403.75	90.19
403.974	90.19
404.198	97.19
404.422	82.19
404.645	96.19
404.869	93.19
405.093	106.19
405.317	123.19
405.541	121.19
405.765	110.19
405.988	148.19
406.212	195.19
406.436	265.19
406.66	163.19
406.883	118.19
407.107	94.19
407.331	105.19
407.555	109.19
407.778	92.19
408.002	91.19
408.226	94.19
408.449	95.19
408.673	92.19
408.896	93.19
409.12	93.19
409.344	96.19
409.567	90.19
409.791	73.19
410.014	104.19
410.238	106.19
410.461	107.19
410.685	97.19
410.908	88.19
411.132	98.19
411.355	122.19
411.578	102.19
411.802	82.19
412.025	93.19
412.249	93.19
412.472	110.19
412.695	99.19
412.919	113.19
413.142	104.19
413.365	95.19
413.589	87.19
413.812	93.19
414.035	81.19
414.258	87.19
414.482	88.19
414.705	105.19
414.928	92.19
415.151	106.19
415.374	82.19
415.597	102.19
415.821	100.19
416.044	102.19
416.267	107.19
416.49	92.19
416.713	93.19
416.936	88.19
417.159	88.19
417.382	89.19
417.605	85.19
417.828	98.19
418.051	98.19
418.274	95.19
418.497	94.19
418.72	95.19
418.943	97.19
419.166	82.19
419.389	80.19
419.611	95.19
419.834	77.19
420.057	93.19
420.28	104.19
420.503	94.19
420.726	87.19
420.948	97.19
421.171	89.19
421.394	100.19
421.617	81.19
421.839	90.19
422.062	88.19
422.285	102.19
422.507	103.19
422.73	108.19
422.953	95.19
423.175	100.19
423.398	89.19
423.621	96.19
423.843	94.19
424.066	93.19
424.288	90.19
424.511	85.19
424.733	116.19
424.956	110.19
425.178	90.19
425.401	101.19
425.623	97.19
425.846	102.19
426.068	88.19
426.291	97.19
426.513	100.19
426.735	105.19
426.958	106.19
427.18	121.19
427.402	158.19
427.625	198.19
427.847	189.19
428.069	156.19
428.292	112.19
428.514	86.19
428.736	88.19
428.958	93.19
429.181	96.19
429.403	91.19
429.625	94.19
429.847	100.19
430.069	112.19
430.292	89.19
430.514	91.19
430.736	82.19
430.958	94.19
431.18	83.19
431.402	66.19
431.624	85.19
431.846	92.19
432.068	84.19
432.29	81.19
432.512	86.19
432.734	79.19
432.956	86.19
433.178	100.19
433.4	107.19
433.622	92.19
433.844	101.19
434.066	92.19
434.287	94.19
434.509	90.19
434.731	93.19
434.953	86.19
435.175	86.19
435.397	89.19
435.618	82.19
435.84	105.19
436.062	130.19
436.284	118.19
436.505	101.19
436.727	100.19
436.949	91.19
437.17	95.19
437.392	82.19
437.614	107.19
437.835	117.19
438.057	129.19
438.278	105.19
438.5	111.19
438.721	129.19
438.943	121.19
439.165	103.19
439.386	101.19
439.608	104.19
439.829	88.19
440.05	153.19
440.272	167.19
440.493	121.19
440.715	96.19
440.936	98.19
441.158	98.19
441.379	90.19
441.6	88.19
441.822	100.19
442.043	98.19
442.264	116.19
442.486	121.19
442.707	99.19
442.928	127.19
443.149	128.19
443.371	151.19
443.592	125.19
443.813	123.19
444.034	120.19
444.255	97.19
444.476	100.19
444.698	90.19
444.919	79.19
445.14	146.19
445.361	146.19
445.582	106.19
445.803	150.19
446.024	146.19
446.245	143.19
446.466	124.19
446.687	90.19
446.908	89.19
447.129	72.19
447.35	109.19
447.571	92.19
447.792	89.19
448.013	103.19
448.234	104.19
448.455	108.19
448.675	105.19
448.896	120.19
449.117	97.19
449.338	107.19
449.559	152.19
449.779	125.19
450	108.19
450.221	84.19
450.442	94.19
450.662	100.19
450.883	120.19
451.104	103.19
451.324	109.19
451.545	96.19
451.766	95.19
451.986	96.19
452.207	93.19
452.428	107.19
452.648	99.19
452.869	116.19
453.089	135.19
453.31	129.19
453.53	101.19
453.751	99.19
453.971	107.19
454.192	115.19
454.412	89.19
454.633	82.19
454.853	85.19
455.073	94.19
455.294	89.19
455.514	106.19
455.734	95.19
455.955	89.19
456.175	88.19
456.395	91.19
456.616	90.19
456.836	76.19
457.056	98.19
457.276	98.19
457.497	94.19
457.717	89.19
457.937	87.19
458.157	85.19
458.377	79.19
458.598	119.19
458.818	170.19
459.038	192.19
459.258	135.19
459.478	101.19
459.698	84.19
459.918	94.19
460.138	77.19
460.358	72.19
460.578	94.19
460.798	99.19
461.018	95.19
461.238	85.19
461.458	96.19
461.678	92.19
461.898	85.19
462.118	79.19
462.338	91.19
462.558	90.19
462.777	95.19
462.997	90.19
463.217	91.19
463.437	86.19
463.657	90.19
463.876	99.19
464.096	92.19
464.316	99.19
464.536	91.19
464.755	97.19
464.975	114.19
465.195	184.19
465.414	175.19
465.634	113.19
465.854	105.19
466.073	92.19
466.293	96.19
466.512	93.19
466.732	83.19
466.951	96.19
467.171	114.19
467.391	117.19
467.61	97.19
467.829	144.19
468.049	269.19
468.268	368.19
468.488	133.19
468.707	88.19
468.927	88.19
469.146	78.19
469.365	95.19
469.585	85.19
469.804	109.19
470.023	97.19
470.243	108.19
470.462	109.19
470.681	112.19
470.901	100.19
471.12	94.19
471.339	97.19
471.558	98.19
471.777	105.19
471.997	170.19
472.216	487.19
472.435	1033.19
472.654	305.19
472.873	115.19
473.092	79.19
473.311	98.19
473.53	93.19
473.749	97.19
473.968	109.19
474.187	116.19
474.406	96.19
474.625	87.19
474.844	99.19
475.063	86.19
475.282	89.19
475.501	88.19
475.72	98.19
475.939	82.19
476.158	96.19
476.377	89.19
476.596	107.19
476.814	90.19
477.033	94.19
477.252	94.19
477.471	92.19
477.69	105.19
477.908	92.19
478.127	95.19
478.346	89.19
478.564	87.19
478.783	82.19
479.002	87.19
479.22	85.19
479.439	106.19
479.658	116.19
479.876	101.19
480.095	95.19
480.313	108.19
480.532	131.19
480.751	172.19
480.969	462.19
481.188	1722.19
481.406	1091.19
481.624	206.19
481.843	116.19
482.061	93.19
482.28	85.19
482.498	94.19
482.717	99.19
482.935	103.19
483.153	84.19
483.372	76.19
483.59	92.19
483.808	95.19
484.027	95.19
484.245	95.19
484.463	96.19
484.681	94.19
484.9	89.19
485.118	102.19
485.336	96.19
485.554	92.19
485.772	100.19
485.99	117.19
486.209	108.19
486.427	92.19
486.645	117.19
486.863	117.19
487.081	106.19
487.299	92.19
487.517	79.19
487.735	100.19
487.953	88.19
488.171	91.19
488.389	87.19
488.607	108.19
488.825	91.19
489.043	91.19
489.261	96.19
489.479	99.19
489.696	91.19
489.914	103.19
490.132	97.19
490.35	87.19
490.568	88.19
490.786	98.19
491.003	102.19
491.221	100.19
491.439	82.19
491.657	112.19
491.874	94.19
492.092	95.19
492.31	98.19
492.527	105.19
492.745	86.19
492.963	93.19
493.18	97.19
493.398	85.19
493.615	110.19
493.833	80.19
494.05	93.19
494.268	108.19
494.485	100.19
494.703	91.19
494.92	96.19
495.138	107.19
495.355	105.19
495.573	103.19
495.79	94.19
496.008	97.19
496.225	92.19
496.442	93.19
496.66	94.19
496.877	94.19
497.094	101.19
497.312	106.19
497.529	92.19
497.746	108.19
497.963	86.19
498.181	85.19
498.398	98.19
498.615	116.19
498.832	108.19
499.049	99.19
499.267	103.19
499.484	94.19
499.701	94.19
499.918	100.19
500.135	97.19
500.352	99.19
500.569	88.19
500.786	101.19
501.003	104.19
501.22	114.19
501.437	102.19
501.654	104.19
501.871	111.19
502.088	97.19
502.305	106.19
502.522	84.19
502.739	86.19
502.956	102.19
503.172	95.19
503.389	116.19
503.606	120.19
503.823	116.19
504.04	105.19
504.256	104.19
504.473	94.19
504.69	90.19
504.907	112.19
505.123	95.19
505.34	91.19
505.557	99.19
505.773	101.19
505.99	87.19
506.207	110.19
506.423	92.19
506.64	90.19
506.856	85.19
507.073	91.19
507.289	94.19
507.506	103.19
507.722	125.19
507.939	134.19
508.155	106.19
508.372	92.19
508.588	86.19
508.805	104.19
509.021	90.19
509.238	106.19
509.454	96.19
509.67	101.19
509.887	99.19
510.103	113.19
510.319	227.19
510.536	736.19
510.752	2556.19
510.968	724.19
511.184	167.19
511.401	128.19
511.617	106.19
511.833	90.19
512.049	85.19
512.265	91.19
512.481	86.19
512.698	89.19
512.914	94.19
513.13	108.19
