Data from Circ_2013_H10_HRD10591_00064.txt Node
Date: Wed Jan 03 10:04:13 EST 2024
User: Yrep
Spectrometer: HR+D1059
Trigger mode: 1
Integration Time (sec): 1.000000E-1
Scans to average: 1
Electric dark correction enabled: true
Nonlinearity correction enabled: false
Boxcar width: 0
XAxis mode: Wavelengths
Number of Pixels in Spectrum: 2048
>>>>>Begin Spectral Data<<<<<
223.165	-25.94
223.4	-25.94
223.635	-25.94
223.869	-17.94
224.104	-24.94
224.338	-10.94
224.573	-18.94
224.808	-3.94
225.042	-11.94
225.277	7.06
225.511	8.06
225.746	-6.94
225.98	10.06
226.215	17.06
226.449	14.06
226.683	21.06
226.918	16.06
227.152	28.06
227.387	22.06
227.621	37.06
227.856	32.06
228.09	50.06
228.324	34.06
228.559	45.06
228.793	51.06
229.027	66.06
229.262	64.06
229.496	89.06
229.73	84.06
229.964	93.06
230.199	73.06
230.433	75.06
230.667	77.06
230.901	66.06
231.136	73.06
231.37	65.06
231.604	69.06
231.838	87.06
232.072	82.06
232.306	68.06
232.541	89.06
232.775	82.06
233.009	82.06
233.243	99.06
233.477	84.06
233.711	65.06
233.945	79.06
234.179	71.06
234.413	73.06
234.647	81.06
234.881	83.06
235.115	65.06
235.349	91.06
235.583	78.06
235.817	73.06
236.051	76.06
236.285	71.06
236.519	61.06
236.753	66.06
236.987	80.06
237.221	86.06
237.455	72.06
237.689	75.06
237.922	80.06
238.156	83.06
238.39	74.06
238.624	66.06
238.858	71.06
239.091	78.06
239.325	78.06
239.559	78.06
239.793	73.06
240.027	71.06
240.26	74.06
240.494	80.06
240.728	72.06
240.961	64.06
241.195	68.06
241.429	70.06
241.662	87.06
241.896	70.06
242.13	56.06
242.363	69.06
242.597	87.06
242.83	89.06
243.064	77.06
243.298	65.06
243.531	73.06
243.765	68.06
243.998	69.06
244.232	76.06
244.465	89.06
244.699	61.06
244.932	76.06
245.166	62.06
245.399	75.06
245.633	70.06
245.866	74.06
246.099	78.06
246.333	71.06
246.566	71.06
246.8	67.06
247.033	84.06
247.266	83.06
247.5	77.06
247.733	78.06
247.966	71.06
248.2	71.06
248.433	70.06
248.666	65.06
248.899	86.06
249.133	89.06
249.366	89.06
249.599	98.06
249.832	88.06
250.066	92.06
250.299	91.06
250.532	82.06
250.765	75.06
250.998	67.06
251.231	77.06
251.465	89.06
251.698	89.06
251.931	73.06
252.164	81.06
252.397	75.06
252.63	80.06
252.863	81.06
253.096	82.06
253.329	81.06
253.562	66.06
253.795	63.06
254.028	57.06
254.261	78.06
254.494	92.06
254.727	73.06
254.96	84.06
255.193	80.06
255.426	92.06
255.659	70.06
255.892	93.06
256.124	78.06
256.357	96.06
256.59	87.06
256.823	83.06
257.056	80.06
257.289	92.06
257.521	65.06
257.754	74.06
257.987	78.06
258.22	72.06
258.452	74.06
258.685	82.06
258.918	85.06
259.151	81.06
259.383	81.06
259.616	62.06
259.849	70.06
260.081	71.06
260.314	90.06
260.547	76.06
260.779	93.06
261.012	89.06
261.244	102.06
261.477	105.06
261.71	97.06
261.942	123.06
262.175	129.06
262.407	96.06
262.64	83.06
262.872	77.06
263.105	79.06
263.337	75.06
263.57	92.06
263.802	90.06
264.035	71.06
264.267	77.06
264.499	76.06
264.732	79.06
264.964	64.06
265.197	84.06
265.429	77.06
265.661	79.06
265.894	85.06
266.126	77.06
266.358	77.06
266.591	71.06
266.823	79.06
267.055	89.06
267.287	82.06
267.52	79.06
267.752	73.06
267.984	80.06
268.216	79.06
268.448	93.06
268.681	87.06
268.913	86.06
269.145	80.06
269.377	66.06
269.609	72.06
269.841	90.06
270.073	73.06
270.306	78.06
270.538	88.06
270.77	84.06
271.002	80.06
271.234	89.06
271.466	82.06
271.698	71.06
271.93	102.06
272.162	82.06
272.394	90.06
272.626	78.06
272.858	82.06
273.09	87.06
273.322	79.06
273.553	71.06
273.785	73.06
274.017	83.06
274.249	76.06
274.481	86.06
274.713	74.06
274.945	86.06
275.176	85.06
275.408	100.06
275.64	110.06
275.872	110.06
276.104	78.06
276.335	91.06
276.567	124.06
276.799	136.06
277.031	157.06
277.262	156.06
277.494	132.06
277.726	98.06
277.957	95.06
278.189	96.06
278.421	87.06
278.652	82.06
278.884	76.06
279.115	90.06
279.347	81.06
279.579	99.06
279.81	119.06
280.042	138.06
280.273	211.06
280.505	162.06
280.736	94.06
280.968	102.06
281.199	91.06
281.431	73.06
281.662	92.06
281.894	83.06
282.125	93.06
282.356	142.06
282.588	164.06
282.819	119.06
283.051	90.06
283.282	85.06
283.513	89.06
283.745	91.06
283.976	86.06
284.207	97.06
284.439	97.06
284.67	92.06
284.901	89.06
285.132	71.06
285.364	83.06
285.595	82.06
285.826	73.06
286.057	80.06
286.288	87.06
286.52	77.06
286.751	99.06
286.982	81.06
287.213	78.06
287.444	77.06
287.675	81.06
287.906	86.06
288.138	90.06
288.369	101.06
288.6	92.06
288.831	103.06
289.062	90.06
289.293	79.06
289.524	83.06
289.755	88.06
289.986	72.06
290.217	88.06
290.448	81.06
290.679	100.06
290.91	78.06
291.141	79.06
291.371	91.06
291.602	82.06
291.833	90.06
292.064	74.06
292.295	82.06
292.526	78.06
292.757	86.06
292.987	89.06
293.218	82.06
293.449	86.06
293.68	87.06
293.91	75.06
294.141	81.06
294.372	77.06
294.603	87.06
294.833	103.06
295.064	88.06
295.295	87.06
295.525	71.06
295.756	85.06
295.987	131.06
296.217	165.06
296.448	138.06
296.679	91.06
296.909	87.06
297.14	80.06
297.37	77.06
297.601	82.06
297.831	85.06
298.062	94.06
298.292	90.06
298.523	82.06
298.753	98.06
298.984	73.06
299.214	79.06
299.445	76.06
299.675	99.06
299.905	89.06
300.136	105.06
300.366	77.06
300.597	79.06
300.827	94.06
301.057	108.06
301.288	121.06
301.518	98.06
301.748	97.06
301.979	96.06
302.209	85.06
302.439	98.06
302.669	84.06
302.9	92.06
303.13	88.06
303.36	89.06
303.59	104.06
303.82	124.06
304.051	97.06
304.281	84.06
304.511	90.06
304.741	88.06
304.971	88.06
305.201	76.06
305.431	75.06
305.661	71.06
305.891	93.06
306.121	87.06
306.352	93.06
306.582	110.06
306.812	95.06
307.042	102.06
307.272	129.06
307.502	160.06
307.731	150.06
307.961	102.06
308.191	93.06
308.421	87.06
308.651	103.06
308.881	92.06
309.111	104.06
309.341	96.06
309.571	102.06
309.8	90.06
310.03	105.06
310.26	116.06
310.49	97.06
310.72	98.06
310.949	114.06
311.179	94.06
311.409	90.06
311.639	89.06
311.868	80.06
312.098	94.06
312.328	87.06
312.557	113.06
312.787	121.06
313.017	106.06
313.246	102.06
313.476	86.06
313.706	85.06
313.935	85.06
314.165	110.06
314.394	115.06
314.624	104.06
314.853	110.06
315.083	94.06
315.312	95.06
315.542	93.06
315.771	92.06
316.001	89.06
316.23	87.06
316.46	93.06
316.689	98.06
316.919	89.06
317.148	97.06
317.377	97.06
317.607	91.06
317.836	87.06
318.065	100.06
318.295	103.06
318.524	95.06
318.753	87.06
318.983	95.06
319.212	101.06
319.441	106.06
319.67	100.06
319.9	88.06
320.129	88.06
320.358	99.06
320.587	98.06
320.816	92.06
321.046	95.06
321.275	83.06
321.504	90.06
321.733	100.06
321.962	102.06
322.191	108.06
322.42	108.06
322.649	115.06
322.878	117.06
323.108	122.06
323.337	140.06
323.566	149.06
323.795	170.06
324.024	255.06
324.253	511.06
324.482	1093.06
324.71	2336.06
324.939	3063.06
325.168	1086.06
325.397	290.06
325.626	153.06
325.855	136.06
326.084	144.06
326.313	137.06
326.542	185.06
326.77	281.06
326.999	553.06
327.228	1218.06
327.457	2249.06
327.686	1790.06
327.914	544.06
328.143	446.06
328.372	537.06
328.6	306.06
328.829	169.06
329.058	145.06
329.287	179.06
329.515	151.06
329.744	214.06
329.972	387.06
330.201	758.06
330.43	1077.06
330.658	513.06
330.887	274.06
331.115	190.06
331.344	110.06
331.572	115.06
331.801	128.06
332.03	125.06
332.258	103.06
332.486	98.06
332.715	87.06
332.943	93.06
333.172	117.06
333.4	132.06
333.629	144.06
333.857	209.06
334.085	359.06
334.314	711.06
334.542	1372.06
334.771	1350.06
334.999	374.06
335.227	157.06
335.455	113.06
335.684	113.06
335.912	88.06
336.14	108.06
336.369	108.06
336.597	108.06
336.825	98.06
337.053	101.06
337.281	96.06
337.51	97.06
337.738	88.06
337.966	78.06
338.194	102.06
338.422	106.06
338.65	97.06
338.878	83.06
339.106	93.06
339.334	85.06
339.562	97.06
339.79	88.06
340.018	96.06
340.246	87.06
340.474	102.06
340.702	100.06
340.93	84.06
341.158	87.06
341.386	95.06
341.614	103.06
341.842	97.06
342.07	99.06
342.298	92.06
342.526	87.06
342.754	86.06
342.981	86.06
343.209	78.06
343.437	100.06
343.665	86.06
343.893	95.06
344.12	100.06
344.348	82.06
344.576	80.06
344.804	82.06
345.031	96.06
345.259	101.06
345.487	104.06
345.714	92.06
345.942	87.06
346.17	98.06
346.397	81.06
346.625	98.06
346.853	92.06
347.08	87.06
347.308	96.06
347.535	106.06
347.763	117.06
347.99	101.06
348.218	81.06
348.445	118.06
348.673	86.06
348.9	99.06
349.128	92.06
349.355	89.06
349.583	81.06
349.81	80.06
350.037	86.06
350.265	98.06
350.492	79.06
350.72	88.06
350.947	116.06
351.174	104.06
351.402	130.06
351.629	103.06
351.856	107.06
352.083	99.06
352.311	105.06
352.538	132.06
352.765	114.06
352.992	107.06
353.22	114.06
353.447	95.06
353.674	92.06
353.901	87.06
354.128	103.06
354.355	83.06
354.583	81.06
354.81	97.06
355.037	95.06
355.264	99.06
355.491	83.06
355.718	94.06
355.945	100.06
356.172	96.06
356.399	96.06
356.626	99.06
356.853	92.06
357.08	89.06
357.307	84.06
357.534	85.06
357.761	89.06
357.988	79.06
358.215	90.06
358.441	82.06
358.668	86.06
358.895	89.06
359.122	75.06
359.349	83.06
359.576	87.06
359.802	105.06
360.029	135.06
360.256	135.06
360.483	118.06
360.709	87.06
360.936	92.06
361.163	103.06
361.39	100.06
361.616	85.06
361.843	86.06
362.07	97.06
362.296	97.06
362.523	89.06
362.749	95.06
362.976	96.06
363.203	102.06
363.429	87.06
363.656	85.06
363.882	94.06
364.109	95.06
364.335	89.06
364.562	99.06
364.788	108.06
365.015	109.06
365.241	95.06
365.468	102.06
365.694	95.06
365.92	101.06
366.147	95.06
366.373	84.06
366.599	92.06
366.826	84.06
367.052	87.06
367.278	100.06
367.505	97.06
367.731	84.06
367.957	85.06
368.184	88.06
368.41	85.06
368.636	110.06
368.862	129.06
369.089	115.06
369.315	98.06
369.541	92.06
369.767	86.06
369.993	87.06
370.219	89.06
370.445	91.06
370.672	88.06
370.898	80.06
371.124	97.06
371.35	83.06
371.576	87.06
371.802	81.06
372.028	92.06
372.254	78.06
372.48	87.06
372.706	85.06
372.932	91.06
373.158	81.06
373.384	104.06
373.61	88.06
373.835	78.06
374.061	84.06
374.287	96.06
374.513	81.06
374.739	86.06
374.965	88.06
375.191	86.06
375.416	80.06
375.642	68.06
375.868	77.06
376.094	82.06
376.319	85.06
376.545	94.06
376.771	93.06
376.997	86.06
377.222	98.06
377.448	94.06
377.674	85.06
377.899	90.06
378.125	86.06
378.35	86.06
378.576	87.06
378.802	93.06
379.027	95.06
379.253	86.06
379.478	84.06
379.704	83.06
379.929	80.06
380.155	97.06
380.38	91.06
380.606	97.06
380.831	88.06
381.057	98.06
381.282	101.06
381.507	81.06
381.733	92.06
381.958	81.06
382.184	87.06
382.409	95.06
382.634	98.06
382.86	84.06
383.085	100.06
383.31	94.06
383.535	97.06
383.761	85.06
383.986	85.06
384.211	86.06
384.436	98.06
384.662	88.06
384.887	93.06
385.112	104.06
385.337	101.06
385.562	81.06
385.787	103.06
386.013	96.06
386.238	109.06
386.463	105.06
386.688	97.06
386.913	111.06
387.138	96.06
387.363	88.06
387.588	93.06
387.813	94.06
388.038	105.06
388.263	97.06
388.488	88.06
388.713	94.06
388.938	87.06
389.163	97.06
389.387	74.06
389.612	92.06
389.837	96.06
390.062	86.06
390.287	80.06
390.512	87.06
390.736	75.06
390.961	86.06
391.186	79.06
391.411	93.06
391.636	90.06
391.86	64.06
392.085	70.06
392.31	78.06
392.534	63.06
392.759	89.06
392.984	92.06
393.208	86.06
393.433	89.06
393.658	74.06
393.882	90.06
394.107	88.06
394.331	79.06
394.556	70.06
394.78	79.06
395.005	89.06
395.229	67.06
395.454	86.06
395.678	78.06
395.903	73.06
396.127	96.06
396.352	80.06
396.576	87.06
396.801	87.06
397.025	74.06
397.249	84.06
397.474	77.06
397.698	70.06
397.922	88.06
398.147	84.06
398.371	73.06
398.595	85.06
398.82	78.06
399.044	77.06
399.268	88.06
399.492	82.06
399.717	86.06
399.941	101.06
400.165	99.06
400.389	95.06
400.613	81.06
400.837	73.06
401.062	80.06
401.286	87.06
401.51	88.06
401.734	95.06
401.958	108.06
402.182	136.06
402.406	202.06
402.63	146.06
402.854	93.06
403.078	88.06
403.302	84.06
403.526	88.06
403.75	103.06
403.974	94.06
404.198	69.06
404.422	92.06
404.645	94.06
404.869	100.06
405.093	110.06
405.317	137.06
405.541	137.06
405.765	112.06
405.988	128.06
406.212	204.06
406.436	292.06
406.66	202.06
406.883	122.06
407.107	102.06
407.331	90.06
407.555	94.06
407.778	103.06
408.002	84.06
408.226	81.06
408.449	93.06
408.673	78.06
408.896	88.06
409.12	87.06
409.344	98.06
409.567	78.06
409.791	75.06
410.014	99.06
410.238	81.06
410.461	76.06
410.685	88.06
410.908	93.06
411.132	99.06
411.355	101.06
411.578	89.06
411.802	93.06
412.025	86.06
412.249	92.06
412.472	90.06
412.695	127.06
412.919	99.06
413.142	87.06
413.365	97.06
413.589	89.06
413.812	91.06
414.035	79.06
414.258	87.06
414.482	88.06
414.705	87.06
414.928	85.06
415.151	78.06
415.374	94.06
415.597	91.06
415.821	93.06
416.044	79.06
416.267	83.06
416.49	85.06
416.713	84.06
416.936	88.06
417.159	82.06
417.382	105.06
417.605	95.06
417.828	96.06
418.051	94.06
418.274	89.06
418.497	85.06
418.72	67.06
418.943	87.06
419.166	90.06
419.389	86.06
419.611	97.06
419.834	84.06
420.057	89.06
420.28	98.06
420.503	85.06
420.726	92.06
420.948	93.06
421.171	108.06
421.394	92.06
421.617	90.06
421.839	99.06
422.062	72.06
422.285	90.06
422.507	79.06
422.73	100.06
422.953	95.06
423.175	88.06
423.398	87.06
423.621	80.06
423.843	74.06
424.066	86.06
424.288	101.06
424.511	95.06
424.733	110.06
424.956	113.06
425.178	110.06
425.401	97.06
425.623	100.06
425.846	87.06
426.068	97.06
426.291	97.06
426.513	103.06
426.735	101.06
426.958	108.06
427.18	109.06
427.402	165.06
427.625	252.06
427.847	226.06
428.069	201.06
428.292	110.06
428.514	101.06
428.736	90.06
428.958	86.06
429.181	82.06
429.403	72.06
429.625	78.06
429.847	89.06
430.069	105.06
430.292	97.06
430.514	89.06
430.736	85.06
430.958	97.06
431.18	80.06
431.402	80.06
431.624	60.06
431.846	77.06
432.068	73.06
432.29	90.06
432.512	81.06
432.734	81.06
432.956	66.06
433.178	90.06
433.4	96.06
433.622	89.06
433.844	99.06
434.066	89.06
434.287	79.06
434.509	82.06
434.731	93.06
434.953	85.06
435.175	84.06
435.397	90.06
435.618	83.06
435.84	82.06
436.062	148.06
436.284	121.06
436.505	113.06
436.727	111.06
436.949	92.06
437.17	82.06
437.392	86.06
437.614	98.06
437.835	118.06
438.057	144.06
438.278	125.06
438.5	118.06
438.721	136.06
438.943	104.06
439.165	82.06
439.386	82.06
439.608	88.06
439.829	105.06
440.05	148.06
440.272	186.06
440.493	98.06
440.715	88.06
440.936	85.06
441.158	78.06
441.379	81.06
441.6	93.06
441.822	100.06
442.043	94.06
442.264	126.06
442.486	120.06
442.707	103.06
442.928	113.06
443.149	156.06
443.371	160.06
443.592	130.06
443.813	118.06
444.034	127.06
444.255	96.06
444.476	98.06
444.698	78.06
444.919	80.06
445.14	128.06
445.361	112.06
445.582	136.06
445.803	191.06
446.024	187.06
446.245	172.06
446.466	138.06
446.687	89.06
446.908	81.06
447.129	85.06
447.35	80.06
447.571	99.06
447.792	97.06
448.013	109.06
448.234	120.06
448.455	105.06
448.675	130.06
448.896	126.06
449.117	103.06
449.338	111.06
449.559	147.06
449.779	158.06
450	87.06
450.221	89.06
450.442	92.06
450.662	91.06
450.883	112.06
451.104	123.06
451.324	115.06
451.545	77.06
451.766	92.06
451.986	87.06
452.207	87.06
452.428	88.06
452.648	96.06
452.869	112.06
453.089	143.06
453.31	138.06
453.53	85.06
453.751	88.06
453.971	104.06
454.192	144.06
454.412	97.06
454.633	73.06
454.853	85.06
455.073	87.06
455.294	84.06
455.514	113.06
455.734	91.06
455.955	74.06
456.175	76.06
456.395	65.06
456.616	66.06
456.836	87.06
457.056	67.06
457.276	90.06
457.497	87.06
457.717	98.06
457.937	85.06
458.157	85.06
458.377	97.06
458.598	130.06
458.818	212.06
459.038	242.06
459.258	152.06
459.478	96.06
459.698	93.06
459.918	84.06
460.138	78.06
460.358	85.06
460.578	81.06
460.798	88.06
461.018	80.06
461.238	78.06
461.458	79.06
461.678	80.06
461.898	75.06
462.118	85.06
462.338	68.06
462.558	71.06
462.777	87.06
462.997	88.06
463.217	86.06
463.437	92.06
463.657	74.06
463.876	89.06
464.096	89.06
464.316	93.06
464.536	108.06
464.755	104.06
464.975	116.06
465.195	235.06
465.414	254.06
465.634	114.06
465.854	81.06
466.073	82.06
466.293	95.06
466.512	86.06
466.732	103.06
466.951	76.06
467.171	90.06
467.391	115.06
467.61	133.06
467.829	166.06
468.049	384.06
468.268	625.06
468.488	189.06
468.707	95.06
468.927	82.06
469.146	88.06
469.365	70.06
469.585	90.06
469.804	107.06
470.023	106.06
470.243	101.06
470.462	112.06
470.681	125.06
470.901	96.06
471.12	87.06
471.339	93.06
471.558	100.06
471.777	143.06
471.997	231.06
472.216	776.06
472.435	1823.06
472.654	458.06
472.873	143.06
473.092	101.06
473.311	88.06
473.53	86.06
473.749	87.06
473.968	116.06
474.187	114.06
474.406	105.06
474.625	108.06
474.844	78.06
475.063	77.06
475.282	76.06
475.501	88.06
475.72	82.06
475.939	83.06
476.158	81.06
476.377	78.06
476.596	92.06
476.814	88.06
477.033	108.06
477.252	81.06
477.471	81.06
477.69	74.06
477.908	87.06
478.127	91.06
478.346	83.06
478.564	76.06
478.783	97.06
479.002	90.06
479.22	99.06
479.439	104.06
479.658	123.06
479.876	128.06
480.095	116.06
480.313	120.06
480.532	140.06
480.751	227.06
480.969	714.06
481.188	3046.06
481.406	1903.06
481.624	280.06
481.843	108.06
482.061	109.06
482.28	83.06
482.498	100.06
482.717	97.06
482.935	97.06
483.153	78.06
483.372	84.06
483.59	83.06
483.808	73.06
484.027	98.06
484.245	100.06
484.463	95.06
484.681	87.06
484.9	84.06
485.118	101.06
485.336	91.06
485.554	98.06
485.772	80.06
485.99	104.06
486.209	114.06
486.427	99.06
486.645	92.06
486.863	115.06
487.081	103.06
487.299	95.06
487.517	87.06
487.735	86.06
487.953	96.06
488.171	77.06
488.389	91.06
488.607	92.06
488.825	87.06
489.043	94.06
489.261	76.06
489.479	82.06
489.696	81.06
489.914	72.06
490.132	92.06
490.35	87.06
490.568	88.06
490.786	70.06
491.003	85.06
491.221	81.06
491.439	82.06
491.657	88.06
491.874	87.06
492.092	73.06
492.31	71.06
492.527	79.06
492.745	92.06
492.963	95.06
493.18	92.06
493.398	89.06
493.615	102.06
493.833	85.06
494.05	84.06
494.268	82.06
494.485	78.06
494.703	85.06
494.92	74.06
495.138	71.06
495.355	83.06
495.573	84.06
495.79	71.06
496.008	87.06
496.225	80.06
496.442	88.06
496.66	73.06
496.877	74.06
497.094	88.06
497.312	87.06
497.529	77.06
497.746	95.06
497.963	90.06
498.181	88.06
498.398	80.06
498.615	111.06
498.832	124.06
499.049	96.06
499.267	89.06
499.484	70.06
499.701	83.06
499.918	79.06
500.135	87.06
500.352	87.06
500.569	81.06
500.786	78.06
501.003	79.06
501.22	76.06
501.437	93.06
501.654	94.06
501.871	131.06
502.088	108.06
502.305	93.06
502.522	80.06
502.739	88.06
502.956	71.06
503.172	80.06
503.389	93.06
503.606	124.06
503.823	113.06
504.04	90.06
504.256	86.06
504.473	94.06
504.69	82.06
504.907	76.06
505.123	78.06
505.34	78.06
505.557	86.06
505.773	94.06
505.99	89.06
506.207	74.06
506.423	77.06
506.64	91.06
506.856	95.06
507.073	94.06
507.289	94.06
507.506	104.06
507.722	136.06
507.939	138.06
508.155	93.06
508.372	104.06
508.588	99.06
508.805	94.06
509.021	82.06
509.238	83.06
509.454	89.06
509.67	93.06
509.887	106.06
510.103	141.06
510.319	238.06
510.536	839.06
510.752	3009.06
510.968	876.06
511.184	169.06
511.401	108.06
511.617	106.06
511.833	114.06
512.049	82.06
512.265	91.06
512.481	82.06
512.698	91.06
512.914	93.06
513.13	92.06
513.346	88.06
513.562	92.06
513.778	102.06
513.994	91.06
514.21	126.06
514.426	149.06
514.642	182.06
514.858	157.06
515.074	200.06
