Data from Circ_2013_H10_HRD10591_00023.txt Node
Date: Wed Jan 03 10:04:04 EST 2024
User: Yrep
Spectrometer: HR+D1059
Trigger mode: 1
Integration Time (sec): 1.000000E-1
Scans to average: 1
Electric dark correction enabled: true
Nonlinearity correction enabled: false
Boxcar width: 0
XAxis mode: Wavelengths
Number of Pixels in Spectrum: 2048
>>>>>Begin Spectral Data<<<<<
223.165	-23.38
223.4	-23.38
223.635	-23.38
223.869	-33.38
224.104	-20.38
224.338	-14.38
224.573	-1.38
224.808	-16.38
225.042	3.62
225.277	-5.38
225.511	-3.38
225.746	1.62
225.98	0.62
226.215	9.62
226.449	27.62
226.683	20.62
226.918	33.62
227.152	20.62
227.387	43.62
227.621	28.62
227.856	49.62
228.09	53.62
228.324	37.62
228.559	45.62
228.793	59.62
229.027	42.62
229.262	62.62
229.496	70.62
229.73	102.62
229.964	81.62
230.199	74.62
230.433	71.62
230.667	68.62
230.901	67.62
231.136	68.62
231.37	78.62
231.604	77.62
231.838	75.62
232.072	91.62
232.306	70.62
232.541	72.62
232.775	69.62
233.009	73.62
233.243	76.62
233.477	86.62
233.711	76.62
233.945	71.62
234.179	65.62
234.413	73.62
234.647	80.62
234.881	70.62
235.115	85.62
235.349	59.62
235.583	78.62
235.817	71.62
236.051	71.62
236.285	82.62
236.519	82.62
236.753	77.62
236.987	88.62
237.221	84.62
237.455	101.62
237.689	72.62
237.922	54.62
238.156	88.62
238.39	93.62
238.624	54.62
238.858	83.62
239.091	82.62
239.325	83.62
239.559	70.62
239.793	71.62
240.027	82.62
240.26	81.62
240.494	75.62
240.728	66.62
240.961	67.62
241.195	72.62
241.429	85.62
241.662	74.62
241.896	71.62
242.13	74.62
242.363	83.62
242.597	77.62
242.83	68.62
243.064	70.62
243.298	89.62
243.531	76.62
243.765	77.62
243.998	80.62
244.232	63.62
244.465	78.62
244.699	72.62
244.932	75.62
245.166	68.62
245.399	85.62
245.633	77.62
245.866	68.62
246.099	80.62
246.333	76.62
246.566	65.62
246.8	65.62
247.033	82.62
247.266	72.62
247.5	84.62
247.733	78.62
247.966	83.62
248.2	75.62
248.433	72.62
248.666	72.62
248.899	79.62
249.133	101.62
249.366	99.62
249.599	97.62
249.832	87.62
250.066	79.62
250.299	75.62
250.532	85.62
250.765	84.62
250.998	72.62
251.231	88.62
251.465	71.62
251.698	83.62
251.931	88.62
252.164	78.62
252.397	66.62
252.63	88.62
252.863	76.62
253.096	72.62
253.329	84.62
253.562	95.62
253.795	75.62
254.028	70.62
254.261	75.62
254.494	72.62
254.727	87.62
254.96	71.62
255.193	73.62
255.426	72.62
255.659	70.62
255.892	84.62
256.124	92.62
256.357	81.62
256.59	87.62
256.823	77.62
257.056	89.62
257.289	74.62
257.521	76.62
257.754	70.62
257.987	81.62
258.22	69.62
258.452	70.62
258.685	88.62
258.918	82.62
259.151	79.62
259.383	77.62
259.616	81.62
259.849	95.62
260.081	81.62
260.314	71.62
260.547	87.62
260.779	91.62
261.012	80.62
261.244	92.62
261.477	82.62
261.71	76.62
261.942	123.62
262.175	127.62
262.407	93.62
262.64	73.62
262.872	83.62
263.105	81.62
263.337	86.62
263.57	93.62
263.802	83.62
264.035	84.62
264.267	88.62
264.499	73.62
264.732	83.62
264.964	68.62
265.197	87.62
265.429	73.62
265.661	81.62
265.894	77.62
266.126	81.62
266.358	89.62
266.591	76.62
266.823	84.62
267.055	87.62
267.287	87.62
267.52	77.62
267.752	77.62
267.984	91.62
268.216	65.62
268.448	90.62
268.681	83.62
268.913	75.62
269.145	97.62
269.377	78.62
269.609	73.62
269.841	92.62
270.073	77.62
270.306	80.62
270.538	71.62
270.77	77.62
271.002	76.62
271.234	83.62
271.466	88.62
271.698	89.62
271.93	84.62
272.162	86.62
272.394	92.62
272.626	82.62
272.858	67.62
273.09	82.62
273.322	83.62
273.553	83.62
273.785	83.62
274.017	82.62
274.249	81.62
274.481	85.62
274.713	73.62
274.945	82.62
275.176	76.62
275.408	84.62
275.64	90.62
275.872	91.62
276.104	75.62
276.335	84.62
276.567	97.62
276.799	131.62
277.031	125.62
277.262	129.62
277.494	111.62
277.726	76.62
277.957	87.62
278.189	73.62
278.421	74.62
278.652	88.62
278.884	72.62
279.115	82.62
279.347	90.62
279.579	84.62
279.81	95.62
280.042	116.62
280.273	161.62
280.505	112.62
280.736	100.62
280.968	81.62
281.199	75.62
281.431	83.62
281.662	92.62
281.894	95.62
282.125	95.62
282.356	108.62
282.588	155.62
282.819	119.62
283.051	99.62
283.282	96.62
283.513	86.62
283.745	80.62
283.976	84.62
284.207	91.62
284.439	83.62
284.67	74.62
284.901	74.62
285.132	87.62
285.364	82.62
285.595	93.62
285.826	78.62
286.057	89.62
286.288	82.62
286.52	75.62
286.751	75.62
286.982	85.62
287.213	92.62
287.444	86.62
287.675	80.62
287.906	81.62
288.138	86.62
288.369	92.62
288.6	92.62
288.831	84.62
289.062	101.62
289.293	82.62
289.524	81.62
289.755	88.62
289.986	85.62
290.217	93.62
290.448	89.62
290.679	89.62
290.91	78.62
291.141	82.62
291.371	97.62
291.602	100.62
291.833	80.62
292.064	77.62
292.295	81.62
292.526	82.62
292.757	84.62
292.987	81.62
293.218	85.62
293.449	88.62
293.68	76.62
293.91	61.62
294.141	84.62
294.372	77.62
294.603	91.62
294.833	96.62
295.064	83.62
295.295	80.62
295.525	102.62
295.756	102.62
295.987	115.62
296.217	148.62
296.448	130.62
296.679	98.62
296.909	78.62
297.14	106.62
297.37	92.62
297.601	104.62
297.831	105.62
298.062	85.62
298.292	97.62
298.523	93.62
298.753	83.62
298.984	83.62
299.214	98.62
299.445	86.62
299.675	96.62
299.905	99.62
300.136	98.62
300.366	91.62
300.597	92.62
300.827	80.62
301.057	100.62
301.288	100.62
301.518	96.62
301.748	82.62
301.979	105.62
302.209	79.62
302.439	87.62
302.669	97.62
302.9	94.62
303.13	82.62
303.36	97.62
303.59	111.62
303.82	105.62
304.051	86.62
304.281	94.62
304.511	85.62
304.741	83.62
304.971	87.62
305.201	81.62
305.431	79.62
305.661	84.62
305.891	92.62
306.121	92.62
306.352	104.62
306.582	96.62
306.812	93.62
307.042	105.62
307.272	127.62
307.502	143.62
307.731	116.62
307.961	93.62
308.191	92.62
308.421	97.62
308.651	90.62
308.881	89.62
309.111	107.62
309.341	99.62
309.571	87.62
309.8	92.62
310.03	93.62
310.26	104.62
310.49	91.62
310.72	100.62
310.949	110.62
311.179	109.62
311.409	112.62
311.639	88.62
311.868	109.62
312.098	100.62
312.328	88.62
312.557	106.62
312.787	119.62
313.017	120.62
313.246	91.62
313.476	97.62
313.706	71.62
313.935	96.62
314.165	104.62
314.394	104.62
314.624	99.62
314.853	105.62
315.083	81.62
315.312	72.62
315.542	102.62
315.771	82.62
316.001	97.62
316.23	74.62
316.46	105.62
316.689	92.62
316.919	89.62
317.148	102.62
317.377	77.62
317.607	93.62
317.836	84.62
318.065	94.62
318.295	87.62
318.524	81.62
318.753	88.62
318.983	92.62
319.212	101.62
319.441	102.62
319.67	108.62
319.9	93.62
320.129	100.62
320.358	109.62
320.587	84.62
320.816	82.62
321.046	109.62
321.275	76.62
321.504	98.62
321.733	104.62
321.962	105.62
322.191	101.62
322.42	118.62
322.649	118.62
322.878	115.62
323.108	120.62
323.337	138.62
323.566	149.62
323.795	175.62
324.024	234.62
324.253	447.62
324.482	977.62
324.71	2016.62
324.939	2725.62
325.168	997.62
325.397	276.62
325.626	149.62
325.855	131.62
326.084	146.62
326.313	145.62
326.542	175.62
326.77	251.62
326.999	490.62
327.228	1105.62
327.457	2006.62
327.686	1633.62
327.914	481.62
328.143	328.62
328.372	343.62
328.6	234.62
328.829	151.62
329.058	160.62
329.287	176.62
329.515	132.62
329.744	164.62
329.972	241.62
330.201	422.62
330.43	637.62
330.658	333.62
330.887	222.62
331.115	170.62
331.344	108.62
331.572	109.62
331.801	124.62
332.03	104.62
332.258	90.62
332.486	93.62
332.715	103.62
332.943	95.62
333.172	97.62
333.4	104.62
333.629	131.62
333.857	153.62
334.085	236.62
334.314	437.62
334.542	775.62
334.771	789.62
334.999	252.62
335.227	119.62
335.455	116.62
335.684	105.62
335.912	99.62
336.14	96.62
336.369	112.62
336.597	111.62
336.825	93.62
337.053	92.62
337.281	95.62
337.51	80.62
337.738	93.62
337.966	92.62
338.194	94.62
338.422	105.62
338.65	102.62
338.878	105.62
339.106	81.62
339.334	86.62
339.562	89.62
339.79	88.62
340.018	92.62
340.246	83.62
340.474	96.62
340.702	79.62
340.93	66.62
341.158	89.62
341.386	103.62
341.614	107.62
341.842	91.62
342.07	90.62
342.298	95.62
342.526	93.62
342.754	83.62
342.981	75.62
343.209	81.62
343.437	97.62
343.665	91.62
343.893	93.62
344.12	98.62
344.348	98.62
344.576	89.62
344.804	92.62
345.031	106.62
345.259	97.62
345.487	99.62
345.714	97.62
345.942	85.62
346.17	96.62
346.397	89.62
346.625	87.62
346.853	95.62
347.08	91.62
347.308	99.62
347.535	103.62
347.763	103.62
347.99	105.62
348.218	109.62
348.445	125.62
348.673	117.62
348.9	104.62
349.128	83.62
349.355	80.62
349.583	86.62
349.81	92.62
350.037	110.62
350.265	92.62
350.492	100.62
350.72	99.62
350.947	87.62
351.174	108.62
351.402	120.62
351.629	106.62
351.856	93.62
352.083	113.62
352.311	114.62
352.538	108.62
352.765	109.62
352.992	117.62
353.22	129.62
353.447	103.62
353.674	101.62
353.901	100.62
354.128	88.62
354.355	99.62
354.583	99.62
354.81	97.62
355.037	91.62
355.264	98.62
355.491	93.62
355.718	98.62
355.945	76.62
356.172	96.62
356.399	86.62
356.626	86.62
356.853	84.62
357.08	80.62
357.307	100.62
357.534	65.62
357.761	100.62
357.988	91.62
358.215	96.62
358.441	99.62
358.668	87.62
358.895	80.62
359.122	81.62
359.349	90.62
359.576	104.62
359.802	113.62
360.029	116.62
360.256	126.62
360.483	113.62
360.709	95.62
360.936	86.62
361.163	102.62
361.39	99.62
361.616	98.62
361.843	85.62
362.07	103.62
362.296	94.62
362.523	92.62
362.749	89.62
362.976	85.62
363.203	90.62
363.429	90.62
363.656	94.62
363.882	93.62
364.109	90.62
364.335	89.62
364.562	85.62
364.788	88.62
365.015	89.62
365.241	105.62
365.468	116.62
365.694	106.62
365.92	115.62
366.147	93.62
366.373	70.62
366.599	82.62
366.826	90.62
367.052	84.62
367.278	93.62
367.505	95.62
367.731	100.62
367.957	96.62
368.184	94.62
368.41	102.62
368.636	113.62
368.862	127.62
369.089	124.62
369.315	98.62
369.541	92.62
369.767	101.62
369.993	79.62
370.219	89.62
370.445	73.62
370.672	85.62
370.898	82.62
371.124	89.62
371.35	84.62
371.576	94.62
371.802	87.62
372.028	80.62
372.254	85.62
372.48	76.62
372.706	83.62
372.932	71.62
373.158	83.62
373.384	76.62
373.61	100.62
373.835	92.62
374.061	64.62
374.287	92.62
374.513	80.62
374.739	83.62
374.965	87.62
375.191	90.62
375.416	96.62
375.642	76.62
375.868	81.62
376.094	87.62
376.319	76.62
376.545	83.62
376.771	96.62
376.997	94.62
377.222	96.62
377.448	98.62
377.674	79.62
377.899	89.62
378.125	97.62
378.35	91.62
378.576	83.62
378.802	87.62
379.027	86.62
379.253	92.62
379.478	77.62
379.704	80.62
379.929	89.62
380.155	101.62
380.38	96.62
380.606	99.62
380.831	68.62
381.057	92.62
381.282	105.62
381.507	107.62
381.733	106.62
381.958	96.62
382.184	82.62
382.409	99.62
382.634	94.62
382.86	111.62
383.085	104.62
383.31	103.62
383.535	89.62
383.761	106.62
383.986	87.62
384.211	93.62
384.436	113.62
384.662	105.62
384.887	94.62
385.112	106.62
385.337	106.62
385.562	103.62
385.787	106.62
386.013	114.62
386.238	115.62
386.463	106.62
386.688	105.62
386.913	104.62
387.138	104.62
387.363	107.62
387.588	102.62
387.813	100.62
388.038	111.62
388.263	112.62
388.488	107.62
388.713	93.62
388.938	96.62
389.163	92.62
389.387	99.62
389.612	92.62
389.837	90.62
390.062	103.62
390.287	92.62
390.512	85.62
390.736	74.62
390.961	98.62
391.186	96.62
391.411	87.62
391.636	91.62
391.86	86.62
392.085	72.62
392.31	82.62
392.534	92.62
392.759	99.62
392.984	90.62
393.208	88.62
393.433	100.62
393.658	91.62
393.882	99.62
394.107	80.62
394.331	75.62
394.556	74.62
394.78	82.62
395.005	92.62
395.229	77.62
395.454	77.62
395.678	84.62
395.903	87.62
396.127	86.62
396.352	90.62
396.576	81.62
396.801	100.62
397.025	96.62
397.249	95.62
397.474	76.62
397.698	102.62
397.922	84.62
398.147	95.62
398.371	82.62
398.595	85.62
398.82	83.62
399.044	95.62
399.268	86.62
399.492	83.62
399.717	79.62
399.941	88.62
400.165	82.62
400.389	91.62
400.613	95.62
400.837	81.62
401.062	89.62
401.286	91.62
401.51	88.62
401.734	92.62
401.958	102.62
402.182	131.62
402.406	185.62
402.63	155.62
402.854	90.62
403.078	74.62
403.302	77.62
403.526	76.62
403.75	85.62
403.974	90.62
404.198	81.62
404.422	85.62
404.645	89.62
404.869	79.62
405.093	94.62
405.317	121.62
405.541	116.62
405.765	116.62
405.988	127.62
406.212	199.62
406.436	283.62
406.66	177.62
406.883	128.62
407.107	94.62
407.331	105.62
407.555	99.62
407.778	107.62
408.002	97.62
408.226	87.62
408.449	90.62
408.673	92.62
408.896	98.62
409.12	90.62
409.344	93.62
409.567	97.62
409.791	102.62
410.014	77.62
410.238	91.62
410.461	87.62
410.685	100.62
410.908	83.62
411.132	100.62
411.355	85.62
411.578	91.62
411.802	99.62
412.025	96.62
412.249	95.62
412.472	98.62
412.695	109.62
412.919	90.62
413.142	82.62
413.365	85.62
413.589	68.62
413.812	86.62
414.035	81.62
414.258	88.62
414.482	73.62
414.705	91.62
414.928	72.62
415.151	102.62
415.374	88.62
415.597	95.62
415.821	100.62
416.044	85.62
416.267	75.62
416.49	82.62
416.713	73.62
416.936	92.62
417.159	97.62
417.382	93.62
417.605	91.62
417.828	113.62
418.051	96.62
418.274	76.62
418.497	77.62
418.72	83.62
418.943	83.62
419.166	66.62
419.389	84.62
419.611	76.62
419.834	100.62
420.057	90.62
420.28	92.62
420.503	82.62
420.726	70.62
420.948	76.62
421.171	107.62
421.394	97.62
421.617	96.62
421.839	76.62
422.062	84.62
422.285	100.62
422.507	99.62
422.73	121.62
422.953	115.62
423.175	92.62
423.398	78.62
423.621	72.62
423.843	80.62
424.066	92.62
424.288	91.62
424.511	90.62
424.733	100.62
424.956	123.62
425.178	100.62
425.401	91.62
425.623	104.62
425.846	98.62
426.068	106.62
426.291	76.62
426.513	97.62
426.735	93.62
426.958	92.62
427.18	108.62
427.402	156.62
427.625	211.62
427.847	199.62
428.069	180.62
428.292	103.62
428.514	98.62
428.736	82.62
428.958	97.62
429.181	74.62
429.403	88.62
429.625	89.62
429.847	95.62
430.069	98.62
430.292	79.62
430.514	83.62
430.736	65.62
430.958	74.62
431.18	91.62
431.402	85.62
431.624	82.62
431.846	73.62
432.068	75.62
432.29	84.62
432.512	104.62
432.734	96.62
432.956	73.62
433.178	88.62
433.4	105.62
433.622	96.62
433.844	84.62
434.066	86.62
434.287	105.62
434.509	102.62
434.731	95.62
434.953	90.62
435.175	84.62
435.397	86.62
435.618	98.62
435.84	98.62
436.062	125.62
436.284	125.62
436.505	99.62
436.727	102.62
436.949	91.62
437.17	75.62
437.392	75.62
437.614	101.62
437.835	104.62
438.057	145.62
438.278	129.62
438.5	115.62
438.721	133.62
438.943	100.62
439.165	81.62
439.386	72.62
439.608	85.62
439.829	97.62
440.05	136.62
440.272	160.62
440.493	121.62
440.715	101.62
440.936	111.62
441.158	83.62
441.379	83.62
441.6	79.62
441.822	89.62
442.043	102.62
442.264	114.62
442.486	97.62
442.707	84.62
442.928	115.62
443.149	159.62
443.371	153.62
443.592	122.62
443.813	129.62
444.034	108.62
444.255	91.62
444.476	97.62
444.698	75.62
444.919	84.62
445.14	129.62
445.361	128.62
445.582	138.62
445.803	168.62
446.024	149.62
446.245	157.62
446.466	138.62
446.687	71.62
446.908	97.62
447.129	83.62
447.35	71.62
447.571	83.62
447.792	96.62
448.013	102.62
448.234	104.62
448.455	101.62
448.675	128.62
448.896	120.62
449.117	96.62
449.338	105.62
449.559	136.62
449.779	130.62
450	98.62
450.221	82.62
450.442	91.62
450.662	93.62
450.883	114.62
451.104	107.62
451.324	98.62
451.545	96.62
451.766	89.62
451.986	83.62
452.207	93.62
452.428	88.62
452.648	92.62
452.869	128.62
453.089	124.62
453.31	125.62
453.53	93.62
453.751	85.62
453.971	118.62
454.192	124.62
454.412	103.62
454.633	91.62
454.853	73.62
455.073	91.62
455.294	80.62
455.514	101.62
455.734	104.62
455.955	71.62
456.175	82.62
456.395	86.62
456.616	88.62
456.836	77.62
457.056	73.62
457.276	88.62
457.497	76.62
457.717	92.62
457.937	89.62
458.157	92.62
458.377	78.62
458.598	128.62
458.818	189.62
459.038	211.62
459.258	140.62
459.478	103.62
459.698	83.62
459.918	83.62
460.138	87.62
460.358	79.62
460.578	90.62
460.798	99.62
461.018	90.62
461.238	82.62
461.458	86.62
461.678	75.62
461.898	86.62
462.118	95.62
462.338	87.62
462.558	83.62
462.777	79.62
462.997	89.62
463.217	91.62
463.437	77.62
463.657	98.62
463.876	100.62
464.096	96.62
464.316	95.62
464.536	101.62
464.755	100.62
464.975	98.62
465.195	205.62
465.414	212.62
465.634	89.62
465.854	74.62
466.073	83.62
466.293	83.62
466.512	91.62
466.732	90.62
466.951	86.62
467.171	89.62
467.391	107.62
467.61	129.62
467.829	153.62
468.049	256.62
468.268	384.62
468.488	151.62
468.707	104.62
468.927	91.62
469.146	88.62
469.365	79.62
469.585	96.62
469.804	103.62
470.023	104.62
470.243	115.62
470.462	102.62
470.681	121.62
470.901	97.62
471.12	91.62
471.339	99.62
471.558	102.62
471.777	106.62
471.997	157.62
472.216	450.62
472.435	1047.62
472.654	293.62
472.873	104.62
473.092	97.62
473.311	94.62
473.53	90.62
473.749	85.62
473.968	90.62
474.187	107.62
474.406	119.62
474.625	75.62
474.844	98.62
475.063	98.62
475.282	92.62
475.501	86.62
475.72	82.62
475.939	79.62
476.158	79.62
476.377	89.62
476.596	86.62
476.814	92.62
477.033	99.62
477.252	93.62
477.471	88.62
477.69	90.62
477.908	107.62
478.127	86.62
478.346	77.62
478.564	102.62
478.783	97.62
479.002	104.62
479.22	93.62
479.439	103.62
479.658	113.62
479.876	120.62
480.095	105.62
480.313	124.62
480.532	107.62
480.751	162.62
480.969	447.62
481.188	1644.62
481.406	1135.62
481.624	212.62
481.843	96.62
482.061	87.62
482.28	100.62
482.498	90.62
482.717	77.62
482.935	87.62
483.153	92.62
483.372	86.62
483.59	91.62
483.808	87.62
484.027	88.62
484.245	100.62
484.463	96.62
484.681	102.62
484.9	83.62
485.118	80.62
485.336	91.62
485.554	100.62
485.772	95.62
485.99	99.62
486.209	104.62
486.427	101.62
486.645	122.62
486.863	129.62
487.081	103.62
487.299	90.62
487.517	91.62
487.735	99.62
487.953	94.62
488.171	87.62
488.389	87.62
488.607	74.62
488.825	98.62
489.043	67.62
489.261	88.62
489.479	78.62
489.696	89.62
489.914	95.62
490.132	71.62
490.35	86.62
490.568	92.62
490.786	82.62
491.003	90.62
491.221	84.62
491.439	88.62
491.657	91.62
491.874	100.62
492.092	81.62
492.31	84.62
492.527	81.62
492.745	98.62
492.963	93.62
493.18	85.62
493.398	98.62
493.615	85.62
493.833	77.62
494.05	97.62
494.268	72.62
494.485	84.62
494.703	90.62
494.92	84.62
495.138	101.62
495.355	79.62
495.573	104.62
495.79	85.62
496.008	100.62
496.225	99.62
496.442	97.62
496.66	99.62
496.877	84.62
497.094	92.62
497.312	86.62
497.529	77.62
497.746	94.62
497.963	70.62
498.181	93.62
498.398	100.62
498.615	104.62
498.832	115.62
499.049	87.62
499.267	89.62
499.484	76.62
499.701	84.62
499.918	92.62
500.135	93.62
500.352	87.62
500.569	96.62
500.786	91.62
501.003	96.62
501.22	84.62
501.437	81.62
501.654	108.62
501.871	125.62
502.088	94.62
502.305	85.62
502.522	86.62
502.739	97.62
502.956	89.62
503.172	87.62
503.389	89.62
503.606	120.62
503.823	100.62
504.04	92.62
504.256	81.62
504.473	80.62
504.69	95.62
504.907	86.62
505.123	99.62
505.34	81.62
505.557	97.62
505.773	105.62
505.99	75.62
506.207	88.62
506.423	84.62
506.64	101.62
506.856	90.62
507.073	75.62
507.289	64.62
507.506	95.62
507.722	127.62
507.939	123.62
508.155	101.62
508.372	95.62
508.588	86.62
508.805	100.62
509.021	96.62
509.238	97.62
509.454	95.62
509.67	103.62
509.887	108.62
510.103	131.62
510.319	213.62
510.536	818.62
510.752	2836.62
510.968	794.62
511.184	177.62
511.401	124.62
511.617	96.62
511.833	96.62
512.049	88.62
512.265	99.62
512.481	95.62
512.698	82.62
512.914	94.62
513.13	101.62
513.346	91.62
513.562	92.62
513.778	104.62
513.994	97.62
514.21	106.62
514.426	121.62
514.642	176.62
514.858	133.62
