Data from Circ_2013_H10_HRD10591_00079.txt Node
Date: Wed Jan 03 10:04:16 EST 2024
User: Yrep
Spectrometer: HR+D1059
Trigger mode: 1
Integration Time (sec): 1.000000E-1
Scans to average: 1
Electric dark correction enabled: true
Nonlinearity correction enabled: false
Boxcar width: 0
XAxis mode: Wavelengths
Number of Pixels in Spectrum: 2048
>>>>>Begin Spectral Data<<<<<
223.165	-23.56
223.4	-23.56
223.635	-23.56
223.869	-25.56
224.104	-10.56
224.338	-20.56
224.573	-23.56
224.808	-18.56
225.042	-11.56
225.277	-2.56
225.511	1.44
225.746	1.44
225.98	7.44
226.215	12.44
226.449	19.44
226.683	21.44
226.918	36.44
227.152	36.44
227.387	32.44
227.621	36.44
227.856	26.44
228.09	55.44
228.324	42.44
228.559	59.44
228.793	60.44
229.027	59.44
229.262	62.44
229.496	73.44
229.73	82.44
229.964	101.44
230.199	77.44
230.433	79.44
230.667	75.44
230.901	78.44
231.136	68.44
231.37	60.44
231.604	73.44
231.838	73.44
232.072	53.44
232.306	78.44
232.541	70.44
232.775	75.44
233.009	76.44
233.243	96.44
233.477	77.44
233.711	72.44
233.945	82.44
234.179	79.44
234.413	72.44
234.647	75.44
234.881	77.44
235.115	76.44
235.349	85.44
235.583	91.44
235.817	76.44
236.051	84.44
236.285	63.44
236.519	76.44
236.753	74.44
236.987	70.44
237.221	79.44
237.455	83.44
237.689	76.44
237.922	83.44
238.156	64.44
238.39	65.44
238.624	72.44
238.858	75.44
239.091	82.44
239.325	78.44
239.559	78.44
239.793	74.44
240.027	68.44
240.26	68.44
240.494	90.44
240.728	71.44
240.961	75.44
241.195	69.44
241.429	83.44
241.662	74.44
241.896	71.44
242.13	62.44
242.363	69.44
242.597	72.44
242.83	69.44
243.064	73.44
243.298	76.44
243.531	78.44
243.765	75.44
243.998	79.44
244.232	80.44
244.465	91.44
244.699	88.44
244.932	58.44
245.166	85.44
245.399	76.44
245.633	81.44
245.866	79.44
246.099	80.44
246.333	67.44
246.566	54.44
246.8	86.44
247.033	75.44
247.266	73.44
247.5	88.44
247.733	65.44
247.966	75.44
248.2	66.44
248.433	82.44
248.666	72.44
248.899	77.44
249.133	65.44
249.366	85.44
249.599	88.44
249.832	84.44
250.066	61.44
250.299	83.44
250.532	101.44
250.765	84.44
250.998	80.44
251.231	69.44
251.465	85.44
251.698	82.44
251.931	84.44
252.164	74.44
252.397	78.44
252.63	71.44
252.863	65.44
253.096	78.44
253.329	91.44
253.562	83.44
253.795	87.44
254.028	81.44
254.261	72.44
254.494	74.44
254.727	96.44
254.96	83.44
255.193	74.44
255.426	81.44
255.659	80.44
255.892	84.44
256.124	79.44
256.357	63.44
256.59	74.44
256.823	95.44
257.056	65.44
257.289	86.44
257.521	82.44
257.754	80.44
257.987	82.44
258.22	89.44
258.452	88.44
258.685	84.44
258.918	83.44
259.151	77.44
259.383	91.44
259.616	86.44
259.849	73.44
260.081	76.44
260.314	75.44
260.547	85.44
260.779	83.44
261.012	88.44
261.244	98.44
261.477	102.44
261.71	94.44
261.942	113.44
262.175	132.44
262.407	87.44
262.64	73.44
262.872	82.44
263.105	81.44
263.337	64.44
263.57	67.44
263.802	85.44
264.035	92.44
264.267	84.44
264.499	78.44
264.732	68.44
264.964	75.44
265.197	83.44
265.429	79.44
265.661	80.44
265.894	85.44
266.126	76.44
266.358	80.44
266.591	72.44
266.823	71.44
267.055	89.44
267.287	92.44
267.52	70.44
267.752	74.44
267.984	77.44
268.216	71.44
268.448	86.44
268.681	80.44
268.913	66.44
269.145	84.44
269.377	77.44
269.609	79.44
269.841	87.44
270.073	69.44
270.306	86.44
270.538	83.44
270.77	66.44
271.002	74.44
271.234	76.44
271.466	86.44
271.698	89.44
271.93	85.44
272.162	73.44
272.394	92.44
272.626	76.44
272.858	77.44
273.09	84.44
273.322	79.44
273.553	83.44
273.785	88.44
274.017	77.44
274.249	63.44
274.481	88.44
274.713	84.44
274.945	96.44
275.176	84.44
275.408	96.44
275.64	91.44
275.872	98.44
276.104	94.44
276.335	77.44
276.567	98.44
276.799	128.44
277.031	139.44
277.262	151.44
277.494	118.44
277.726	82.44
277.957	92.44
278.189	90.44
278.421	88.44
278.652	82.44
278.884	87.44
279.115	85.44
279.347	86.44
279.579	78.44
279.81	113.44
280.042	139.44
280.273	157.44
280.505	135.44
280.736	86.44
280.968	76.44
281.199	68.44
281.431	84.44
281.662	82.44
281.894	95.44
282.125	104.44
282.356	134.44
282.588	150.44
282.819	112.44
283.051	96.44
283.282	77.44
283.513	84.44
283.745	98.44
283.976	80.44
284.207	83.44
284.439	88.44
284.67	75.44
284.901	70.44
285.132	84.44
285.364	97.44
285.595	84.44
285.826	92.44
286.057	99.44
286.288	86.44
286.52	83.44
286.751	84.44
286.982	84.44
287.213	93.44
287.444	85.44
287.675	87.44
287.906	70.44
288.138	94.44
288.369	91.44
288.6	90.44
288.831	91.44
289.062	71.44
289.293	89.44
289.524	83.44
289.755	92.44
289.986	85.44
290.217	83.44
290.448	91.44
290.679	81.44
290.91	86.44
291.141	74.44
291.371	71.44
291.602	84.44
291.833	93.44
292.064	74.44
292.295	87.44
292.526	85.44
292.757	71.44
292.987	92.44
293.218	76.44
293.449	70.44
293.68	88.44
293.91	91.44
294.141	95.44
294.372	80.44
294.603	88.44
294.833	90.44
295.064	80.44
295.295	87.44
295.525	91.44
295.756	99.44
295.987	121.44
296.217	137.44
296.448	118.44
296.679	92.44
296.909	78.44
297.14	79.44
297.37	102.44
297.601	84.44
297.831	73.44
298.062	89.44
298.292	98.44
298.523	74.44
298.753	87.44
298.984	88.44
299.214	88.44
299.445	88.44
299.675	109.44
299.905	92.44
300.136	91.44
300.366	91.44
300.597	70.44
300.827	87.44
301.057	97.44
301.288	104.44
301.518	99.44
301.748	89.44
301.979	105.44
302.209	93.44
302.439	89.44
302.669	84.44
302.9	86.44
303.13	111.44
303.36	99.44
303.59	107.44
303.82	132.44
304.051	108.44
304.281	87.44
304.511	106.44
304.741	91.44
304.971	74.44
305.201	94.44
305.431	95.44
305.661	82.44
305.891	86.44
306.121	91.44
306.352	103.44
306.582	108.44
306.812	92.44
307.042	105.44
307.272	133.44
307.502	136.44
307.731	130.44
307.961	92.44
308.191	83.44
308.421	87.44
308.651	92.44
308.881	80.44
309.111	84.44
309.341	94.44
309.571	106.44
309.8	81.44
310.03	109.44
310.26	112.44
310.49	83.44
310.72	98.44
310.949	119.44
311.179	100.44
311.409	96.44
311.639	92.44
311.868	105.44
312.098	92.44
312.328	103.44
312.557	101.44
312.787	128.44
313.017	107.44
313.246	94.44
313.476	100.44
313.706	95.44
313.935	100.44
314.165	114.44
314.394	114.44
314.624	99.44
314.853	99.44
315.083	94.44
315.312	86.44
315.542	93.44
315.771	88.44
316.001	71.44
316.23	88.44
316.46	95.44
316.689	90.44
316.919	91.44
317.148	100.44
317.377	91.44
317.607	90.44
317.836	93.44
318.065	81.44
318.295	81.44
318.524	106.44
318.753	82.44
318.983	82.44
319.212	95.44
319.441	103.44
319.67	103.44
319.9	89.44
320.129	95.44
320.358	88.44
320.587	87.44
320.816	98.44
321.046	103.44
321.275	85.44
321.504	81.44
321.733	86.44
321.962	89.44
322.191	94.44
322.42	114.44
322.649	101.44
322.878	125.44
323.108	122.44
323.337	123.44
323.566	141.44
323.795	167.44
324.024	196.44
324.253	411.44
324.482	873.44
324.71	1755.44
324.939	2289.44
325.168	861.44
325.397	243.44
325.626	152.44
325.855	133.44
326.084	124.44
326.313	136.44
326.542	154.44
326.77	236.44
326.999	456.44
327.228	941.44
327.457	1643.44
327.686	1332.44
327.914	443.44
328.143	374.44
328.372	423.44
328.6	261.44
328.829	149.44
329.058	170.44
329.287	178.44
329.515	144.44
329.744	187.44
329.972	315.44
330.201	577.44
330.43	876.44
330.658	450.44
330.887	219.44
331.115	160.44
331.344	108.44
331.572	94.44
331.801	128.44
332.03	117.44
332.258	106.44
332.486	95.44
332.715	114.44
332.943	111.44
333.172	99.44
333.4	116.44
333.629	147.44
333.857	170.44
334.085	303.44
334.314	543.44
334.542	1027.44
334.771	1007.44
334.999	307.44
335.227	124.44
335.455	103.44
335.684	105.44
335.912	104.44
336.14	99.44
336.369	96.44
336.597	107.44
336.825	117.44
337.053	88.44
337.281	89.44
337.51	99.44
337.738	89.44
337.966	86.44
338.194	106.44
338.422	98.44
338.65	98.44
338.878	90.44
339.106	88.44
339.334	97.44
339.562	94.44
339.79	97.44
340.018	79.44
340.246	88.44
340.474	106.44
340.702	86.44
340.93	77.44
341.158	105.44
341.386	87.44
341.614	96.44
341.842	100.44
342.07	109.44
342.298	103.44
342.526	89.44
342.754	87.44
342.981	77.44
343.209	91.44
343.437	100.44
343.665	83.44
343.893	86.44
344.12	84.44
344.348	85.44
344.576	84.44
344.804	87.44
345.031	100.44
345.259	90.44
345.487	77.44
345.714	92.44
345.942	98.44
346.17	91.44
346.397	94.44
346.625	90.44
346.853	92.44
347.08	96.44
347.308	86.44
347.535	93.44
347.763	99.44
347.99	89.44
348.218	99.44
348.445	89.44
348.673	98.44
348.9	95.44
349.128	96.44
349.355	75.44
349.583	89.44
349.81	103.44
350.037	90.44
350.265	98.44
350.492	100.44
350.72	92.44
350.947	101.44
351.174	110.44
351.402	117.44
351.629	93.44
351.856	101.44
352.083	108.44
352.311	114.44
352.538	105.44
352.765	122.44
352.992	127.44
353.22	115.44
353.447	92.44
353.674	113.44
353.901	90.44
354.128	79.44
354.355	94.44
354.583	79.44
354.81	107.44
355.037	94.44
355.264	91.44
355.491	93.44
355.718	107.44
355.945	96.44
356.172	83.44
356.399	92.44
356.626	88.44
356.853	94.44
357.08	99.44
357.307	76.44
357.534	87.44
357.761	87.44
357.988	94.44
358.215	84.44
358.441	114.44
358.668	77.44
358.895	83.44
359.122	87.44
359.349	83.44
359.576	85.44
359.802	87.44
360.029	129.44
360.256	118.44
360.483	111.44
360.709	102.44
360.936	91.44
361.163	96.44
361.39	80.44
361.616	89.44
361.843	94.44
362.07	91.44
362.296	92.44
362.523	95.44
362.749	79.44
362.976	83.44
363.203	87.44
363.429	84.44
363.656	84.44
363.882	86.44
364.109	95.44
364.335	90.44
364.562	81.44
364.788	87.44
365.015	108.44
365.241	97.44
365.468	117.44
365.694	118.44
365.92	93.44
366.147	95.44
366.373	97.44
366.599	79.44
366.826	80.44
367.052	87.44
367.278	84.44
367.505	87.44
367.731	103.44
367.957	92.44
368.184	87.44
368.41	88.44
368.636	109.44
368.862	126.44
369.089	112.44
369.315	96.44
369.541	90.44
369.767	73.44
369.993	99.44
370.219	90.44
370.445	84.44
370.672	87.44
370.898	90.44
371.124	86.44
371.35	83.44
371.576	76.44
371.802	94.44
372.028	82.44
372.254	85.44
372.48	70.44
372.706	61.44
372.932	83.44
373.158	79.44
373.384	97.44
373.61	73.44
373.835	102.44
374.061	86.44
374.287	103.44
374.513	87.44
374.739	77.44
374.965	76.44
375.191	95.44
375.416	95.44
375.642	104.44
375.868	91.44
376.094	88.44
376.319	72.44
376.545	77.44
376.771	85.44
376.997	88.44
377.222	86.44
377.448	88.44
377.674	88.44
377.899	76.44
378.125	87.44
378.35	91.44
378.576	80.44
378.802	87.44
379.027	92.44
379.253	77.44
379.478	77.44
379.704	96.44
379.929	90.44
380.155	98.44
380.38	84.44
380.606	91.44
380.831	97.44
381.057	97.44
381.282	93.44
381.507	104.44
381.733	90.44
381.958	100.44
382.184	86.44
382.409	99.44
382.634	90.44
382.86	79.44
383.085	105.44
383.31	84.44
383.535	92.44
383.761	97.44
383.986	97.44
384.211	76.44
384.436	90.44
384.662	91.44
384.887	89.44
385.112	96.44
385.337	100.44
385.562	92.44
385.787	98.44
386.013	99.44
386.238	124.44
386.463	96.44
386.688	87.44
386.913	96.44
387.138	98.44
387.363	86.44
387.588	92.44
387.813	94.44
388.038	96.44
388.263	104.44
388.488	107.44
388.713	92.44
388.938	100.44
389.163	96.44
389.387	111.44
389.612	88.44
389.837	84.44
390.062	93.44
390.287	88.44
390.512	98.44
390.736	91.44
390.961	85.44
391.186	98.44
391.411	82.44
391.636	77.44
391.86	84.44
392.085	73.44
392.31	82.44
392.534	77.44
392.759	90.44
392.984	88.44
393.208	87.44
393.433	99.44
393.658	93.44
393.882	69.44
394.107	73.44
394.331	84.44
394.556	74.44
394.78	77.44
395.005	86.44
395.229	82.44
395.454	90.44
395.678	91.44
395.903	77.44
396.127	79.44
396.352	80.44
396.576	81.44
396.801	103.44
397.025	88.44
397.249	104.44
397.474	87.44
397.698	82.44
397.922	76.44
398.147	109.44
398.371	94.44
398.595	79.44
398.82	91.44
399.044	81.44
399.268	98.44
399.492	77.44
399.717	88.44
399.941	92.44
400.165	99.44
400.389	93.44
400.613	92.44
400.837	86.44
401.062	88.44
401.286	84.44
401.51	88.44
401.734	92.44
401.958	102.44
402.182	133.44
402.406	190.44
402.63	138.44
402.854	92.44
403.078	77.44
403.302	90.44
403.526	95.44
403.75	81.44
403.974	90.44
404.198	79.44
404.422	81.44
404.645	88.44
404.869	90.44
405.093	102.44
405.317	107.44
405.541	114.44
405.765	115.44
405.988	141.44
406.212	192.44
406.436	280.44
406.66	183.44
406.883	109.44
407.107	90.44
407.331	86.44
407.555	98.44
407.778	99.44
408.002	81.44
408.226	76.44
408.449	92.44
408.673	91.44
408.896	88.44
409.12	98.44
409.344	99.44
409.567	75.44
409.791	89.44
410.014	85.44
410.238	88.44
410.461	94.44
410.685	92.44
410.908	79.44
411.132	113.44
411.355	88.44
411.578	98.44
411.802	88.44
412.025	96.44
412.249	88.44
412.472	107.44
412.695	124.44
412.919	100.44
413.142	92.44
413.365	103.44
413.589	97.44
413.812	85.44
414.035	88.44
414.258	84.44
414.482	92.44
414.705	88.44
414.928	90.44
415.151	85.44
415.374	83.44
415.597	88.44
415.821	84.44
416.044	95.44
416.267	87.44
416.49	85.44
416.713	84.44
416.936	92.44
417.159	99.44
417.382	98.44
417.605	92.44
417.828	97.44
418.051	80.44
418.274	94.44
418.497	63.44
418.72	87.44
418.943	87.44
419.166	71.44
419.389	91.44
419.611	89.44
419.834	87.44
420.057	79.44
420.28	74.44
420.503	79.44
420.726	92.44
420.948	103.44
421.171	113.44
421.394	94.44
421.617	101.44
421.839	85.44
422.062	85.44
422.285	94.44
422.507	83.44
422.73	99.44
422.953	92.44
423.175	100.44
423.398	80.44
423.621	76.44
423.843	81.44
424.066	82.44
424.288	92.44
424.511	94.44
424.733	93.44
424.956	95.44
425.178	93.44
425.401	99.44
425.623	107.44
425.846	103.44
426.068	102.44
426.291	87.44
426.513	75.44
426.735	88.44
426.958	94.44
427.18	120.44
427.402	152.44
427.625	210.44
427.847	186.44
428.069	156.44
428.292	89.44
428.514	83.44
428.736	81.44
428.958	100.44
429.181	84.44
429.403	94.44
429.625	98.44
429.847	85.44
430.069	77.44
430.292	92.44
430.514	81.44
430.736	87.44
430.958	76.44
431.18	92.44
431.402	78.44
431.624	79.44
431.846	81.44
432.068	89.44
432.29	73.44
432.512	96.44
432.734	89.44
432.956	76.44
433.178	100.44
433.4	106.44
433.622	85.44
433.844	96.44
434.066	86.44
434.287	98.44
434.509	92.44
434.731	83.44
434.953	81.44
435.175	102.44
435.397	82.44
435.618	85.44
435.84	83.44
436.062	112.44
436.284	108.44
436.505	95.44
436.727	104.44
436.949	90.44
437.17	101.44
437.392	87.44
437.614	89.44
437.835	119.44
438.057	123.44
438.278	133.44
438.5	120.44
438.721	119.44
438.943	112.44
439.165	83.44
439.386	89.44
439.608	84.44
439.829	116.44
440.05	128.44
440.272	175.44
440.493	125.44
440.715	90.44
440.936	80.44
441.158	89.44
441.379	89.44
441.6	90.44
441.822	111.44
442.043	92.44
442.264	104.44
442.486	93.44
442.707	77.44
442.928	112.44
443.149	149.44
443.371	160.44
443.592	126.44
443.813	125.44
444.034	110.44
444.255	82.44
444.476	76.44
444.698	85.44
444.919	90.44
445.14	121.44
445.361	120.44
445.582	106.44
445.803	161.44
446.024	159.44
446.245	149.44
446.466	121.44
446.687	85.44
446.908	92.44
447.129	81.44
447.35	105.44
447.571	101.44
447.792	88.44
448.013	96.44
448.234	108.44
448.455	111.44
448.675	111.44
448.896	119.44
449.117	105.44
449.338	118.44
449.559	138.44
449.779	150.44
450	80.44
450.221	78.44
450.442	101.44
450.662	100.44
450.883	106.44
451.104	113.44
451.324	96.44
451.545	81.44
451.766	96.44
451.986	93.44
452.207	107.44
452.428	104.44
452.648	96.44
452.869	105.44
453.089	130.44
453.31	130.44
453.53	100.44
453.751	93.44
453.971	112.44
454.192	131.44
454.412	91.44
454.633	76.44
454.853	69.44
455.073	77.44
455.294	88.44
455.514	100.44
455.734	78.44
455.955	67.44
456.175	77.44
456.395	80.44
456.616	98.44
456.836	83.44
457.056	89.44
457.276	77.44
457.497	88.44
457.717	92.44
457.937	91.44
458.157	92.44
458.377	97.44
458.598	100.44
458.818	201.44
459.038	204.44
459.258	130.44
459.478	86.44
459.698	88.44
459.918	84.44
460.138	78.44
460.358	83.44
460.578	78.44
460.798	89.44
461.018	83.44
461.238	66.44
461.458	81.44
461.678	96.44
461.898	91.44
462.118	85.44
462.338	88.44
462.558	75.44
462.777	77.44
462.997	95.44
463.217	100.44
463.437	89.44
463.657	91.44
463.876	81.44
464.096	91.44
464.316	100.44
464.536	103.44
464.755	107.44
464.975	102.44
465.195	204.44
465.414	205.44
465.634	109.44
465.854	83.44
466.073	90.44
466.293	83.44
466.512	83.44
466.732	89.44
466.951	80.44
467.171	98.44
467.391	116.44
467.61	120.44
467.829	169.44
468.049	347.44
468.268	510.44
468.488	149.44
468.707	93.44
468.927	97.44
469.146	85.44
469.365	96.44
469.585	87.44
469.804	107.44
470.023	112.44
470.243	116.44
470.462	118.44
470.681	124.44
470.901	86.44
471.12	91.44
471.339	98.44
471.558	114.44
471.777	117.44
471.997	201.44
472.216	653.44
472.435	1480.44
472.654	396.44
472.873	122.44
473.092	101.44
473.311	88.44
473.53	79.44
473.749	93.44
473.968	99.44
474.187	100.44
474.406	93.44
474.625	76.44
474.844	88.44
475.063	85.44
475.282	84.44
475.501	100.44
475.72	102.44
475.939	87.44
476.158	89.44
476.377	81.44
476.596	83.44
476.814	102.44
477.033	93.44
477.252	98.44
477.471	84.44
477.69	89.44
477.908	84.44
478.127	81.44
478.346	81.44
478.564	88.44
478.783	86.44
479.002	97.44
479.22	98.44
479.439	103.44
479.658	117.44
479.876	127.44
480.095	115.44
480.313	106.44
480.532	131.44
480.751	187.44
480.969	594.44
481.188	2463.44
481.406	1522.44
481.624	257.44
481.843	115.44
482.061	107.44
482.28	93.44
482.498	95.44
482.717	95.44
482.935	79.44
483.153	87.44
483.372	82.44
483.59	88.44
483.808	87.44
484.027	82.44
484.245	89.44
484.463	87.44
484.681	94.44
484.9	93.44
485.118	112.44
485.336	92.44
485.554	86.44
485.772	89.44
485.99	103.44
486.209	98.44
486.427	113.44
486.645	105.44
486.863	135.44
487.081	104.44
487.299	98.44
487.517	99.44
487.735	87.44
487.953	104.44
488.171	83.44
488.389	96.44
488.607	101.44
488.825	95.44
489.043	92.44
489.261	94.44
489.479	74.44
489.696	81.44
489.914	79.44
490.132	84.44
490.35	81.44
490.568	81.44
490.786	83.44
491.003	86.44
491.221	92.44
491.439	95.44
491.657	95.44
491.874	102.44
492.092	96.44
492.31	88.44
492.527	91.44
492.745	88.44
492.963	103.44
493.18	84.44
493.398	100.44
493.615	97.44
493.833	99.44
494.05	99.44
494.268	78.44
494.485	100.44
494.703	87.44
494.92	85.44
495.138	79.44
495.355	94.44
495.573	89.44
495.79	96.44
496.008	107.44
496.225	80.44
496.442	85.44
496.66	79.44
496.877	97.44
497.094	99.44
497.312	90.44
497.529	79.44
497.746	81.44
497.963	73.44
498.181	89.44
498.398	82.44
498.615	106.44
498.832	91.44
499.049	93.44
499.267	87.44
499.484	89.44
499.701	82.44
499.918	90.44
500.135	83.44
500.352	93.44
500.569	93.44
500.786	92.44
501.003	97.44
501.22	91.44
501.437	102.44
501.654	96.44
501.871	127.44
502.088	83.44
502.305	86.44
502.522	105.44
502.739	98.44
502.956	95.44
503.172	93.44
503.389	96.44
503.606	101.44
503.823	104.44
504.04	96.44
504.256	78.44
504.473	89.44
504.69	95.44
504.907	92.44
505.123	87.44
505.34	87.44
505.557	80.44
505.773	88.44
505.99	72.44
506.207	95.44
506.423	93.44
506.64	82.44
506.856	85.44
507.073	89.44
507.289	93.44
507.506	105.44
507.722	118.44
507.939	135.44
508.155	98.44
508.372	92.44
508.588	92.44
508.805	99.44
509.021	92.44
509.238	96.44
509.454	104.44
509.67	100.44
509.887	104.44
510.103	139.44
510.319	216.44
510.536	820.44
510.752	2876.44
510.968	799.44
511.184	170.44
511.401	135.44
511.617	96.44
511.833	104.44
512.049	105.44
512.265	84.44
512.481	85.44
512.698	89.44
512.914	83.44
513.13	83.44
513.346	92.44
513.562	100.44
513.778	93.44
513.994	96.44
514.21	117.44
514.426	141.44
514.642	168.44
514.858	135.44
515.074	195.44
515.29	592.44
