Data from Circ_2013_H10_HRD10591_00075.txt Node
Date: Wed Jan 03 10:04:15 EST 2024
User: Yrep
Spectrometer: HR+D1059
Trigger mode: 1
Integration Time (sec): 1.000000E-1
Scans to average: 1
Electric dark correction enabled: true
Nonlinearity correction enabled: false
Boxcar width: 0
XAxis mode: Wavelengths
Number of Pixels in Spectrum: 2048
>>>>>Begin Spectral Data<<<<<
223.165	-17.62
223.4	-17.62
223.635	-17.62
223.869	-27.62
224.104	-19.62
224.338	-0.62
224.573	-27.62
224.808	-8.62
225.042	-9.62
225.277	-7.62
225.511	12.38
225.746	-8.62
225.98	2.38
226.215	6.38
226.449	31.38
226.683	20.38
226.918	35.38
227.152	19.38
227.387	28.38
227.621	52.38
227.856	56.38
228.09	46.38
228.324	41.38
228.559	65.38
228.793	71.38
229.027	68.38
229.262	75.38
229.496	74.38
229.73	97.38
229.964	87.38
230.199	89.38
230.433	77.38
230.667	80.38
230.901	76.38
231.136	90.38
231.37	75.38
231.604	83.38
231.838	92.38
232.072	68.38
232.306	79.38
232.541	81.38
232.775	86.38
233.009	97.38
233.243	85.38
233.477	81.38
233.711	68.38
233.945	84.38
234.179	79.38
234.413	86.38
234.647	78.38
234.881	84.38
235.115	80.38
235.349	78.38
235.583	79.38
235.817	81.38
236.051	85.38
236.285	82.38
236.519	79.38
236.753	79.38
236.987	80.38
237.221	96.38
237.455	91.38
237.689	82.38
237.922	90.38
238.156	88.38
238.39	90.38
238.624	77.38
238.858	65.38
239.091	84.38
239.325	87.38
239.559	83.38
239.793	85.38
240.027	94.38
240.26	72.38
240.494	71.38
240.728	77.38
240.961	64.38
241.195	76.38
241.429	72.38
241.662	86.38
241.896	75.38
242.13	88.38
242.363	77.38
242.597	86.38
242.83	74.38
243.064	83.38
243.298	79.38
243.531	74.38
243.765	82.38
243.998	78.38
244.232	85.38
244.465	88.38
244.699	74.38
244.932	69.38
245.166	93.38
245.399	89.38
245.633	91.38
245.866	82.38
246.099	86.38
246.333	83.38
246.566	79.38
246.8	79.38
247.033	84.38
247.266	82.38
247.5	80.38
247.733	87.38
247.966	82.38
248.2	82.38
248.433	80.38
248.666	78.38
248.899	84.38
249.133	97.38
249.366	87.38
249.599	86.38
249.832	71.38
250.066	77.38
250.299	81.38
250.532	86.38
250.765	91.38
250.998	80.38
251.231	85.38
251.465	93.38
251.698	74.38
251.931	91.38
252.164	92.38
252.397	75.38
252.63	84.38
252.863	83.38
253.096	96.38
253.329	79.38
253.562	79.38
253.795	88.38
254.028	85.38
254.261	75.38
254.494	78.38
254.727	75.38
254.96	92.38
255.193	85.38
255.426	84.38
255.659	90.38
255.892	73.38
256.124	91.38
256.357	82.38
256.59	94.38
256.823	86.38
257.056	84.38
257.289	95.38
257.521	81.38
257.754	75.38
257.987	87.38
258.22	83.38
258.452	84.38
258.685	78.38
258.918	76.38
259.151	86.38
259.383	86.38
259.616	80.38
259.849	97.38
260.081	91.38
260.314	86.38
260.547	77.38
260.779	89.38
261.012	92.38
261.244	84.38
261.477	103.38
261.71	99.38
261.942	117.38
262.175	129.38
262.407	74.38
262.64	83.38
262.872	89.38
263.105	80.38
263.337	101.38
263.57	74.38
263.802	83.38
264.035	78.38
264.267	88.38
264.499	78.38
264.732	75.38
264.964	92.38
265.197	86.38
265.429	99.38
265.661	83.38
265.894	83.38
266.126	87.38
266.358	75.38
266.591	78.38
266.823	74.38
267.055	91.38
267.287	83.38
267.52	88.38
267.752	95.38
267.984	91.38
268.216	74.38
268.448	101.38
268.681	87.38
268.913	80.38
269.145	89.38
269.377	83.38
269.609	94.38
269.841	86.38
270.073	86.38
270.306	78.38
270.538	101.38
270.77	83.38
271.002	86.38
271.234	89.38
271.466	96.38
271.698	95.38
271.93	94.38
272.162	79.38
272.394	91.38
272.626	98.38
272.858	94.38
273.09	92.38
273.322	88.38
273.553	90.38
273.785	80.38
274.017	89.38
274.249	90.38
274.481	69.38
274.713	82.38
274.945	86.38
275.176	91.38
275.408	79.38
275.64	103.38
275.872	101.38
276.104	93.38
276.335	87.38
276.567	126.38
276.799	120.38
277.031	121.38
277.262	127.38
277.494	117.38
277.726	101.38
277.957	78.38
278.189	95.38
278.421	105.38
278.652	67.38
278.884	90.38
279.115	83.38
279.347	88.38
279.579	93.38
279.81	95.38
280.042	134.38
280.273	180.38
280.505	148.38
280.736	88.38
280.968	82.38
281.199	63.38
281.431	83.38
281.662	86.38
281.894	97.38
282.125	104.38
282.356	107.38
282.588	167.38
282.819	132.38
283.051	100.38
283.282	88.38
283.513	87.38
283.745	95.38
283.976	90.38
284.207	93.38
284.439	76.38
284.67	88.38
284.901	94.38
285.132	83.38
285.364	84.38
285.595	86.38
285.826	94.38
286.057	89.38
286.288	84.38
286.52	79.38
286.751	84.38
286.982	87.38
287.213	96.38
287.444	107.38
287.675	98.38
287.906	80.38
288.138	90.38
288.369	106.38
288.6	92.38
288.831	80.38
289.062	97.38
289.293	96.38
289.524	94.38
289.755	86.38
289.986	76.38
290.217	79.38
290.448	81.38
290.679	68.38
290.91	90.38
291.141	78.38
291.371	93.38
291.602	96.38
291.833	94.38
292.064	87.38
292.295	88.38
292.526	95.38
292.757	82.38
292.987	79.38
293.218	86.38
293.449	93.38
293.68	93.38
293.91	84.38
294.141	86.38
294.372	102.38
294.603	91.38
294.833	89.38
295.064	91.38
295.295	91.38
295.525	102.38
295.756	105.38
295.987	117.38
296.217	160.38
296.448	136.38
296.679	94.38
296.909	89.38
297.14	87.38
297.37	94.38
297.601	97.38
297.831	98.38
298.062	73.38
298.292	101.38
298.523	83.38
298.753	74.38
298.984	91.38
299.214	94.38
299.445	96.38
299.675	104.38
299.905	97.38
300.136	98.38
300.366	84.38
300.597	90.38
300.827	86.38
301.057	93.38
301.288	113.38
301.518	89.38
301.748	94.38
301.979	104.38
302.209	104.38
302.439	90.38
302.669	94.38
302.9	98.38
303.13	100.38
303.36	113.38
303.59	113.38
303.82	112.38
304.051	89.38
304.281	79.38
304.511	92.38
304.741	77.38
304.971	80.38
305.201	87.38
305.431	74.38
305.661	101.38
305.891	71.38
306.121	100.38
306.352	109.38
306.582	97.38
306.812	115.38
307.042	98.38
307.272	109.38
307.502	126.38
307.731	134.38
307.961	111.38
308.191	78.38
308.421	77.38
308.651	87.38
308.881	91.38
309.111	90.38
309.341	75.38
309.571	103.38
309.8	97.38
310.03	87.38
310.26	97.38
310.49	87.38
310.72	98.38
310.949	112.38
311.179	123.38
311.409	96.38
311.639	92.38
311.868	95.38
312.098	99.38
312.328	98.38
312.557	112.38
312.787	131.38
313.017	116.38
313.246	96.38
313.476	99.38
313.706	89.38
313.935	98.38
314.165	106.38
314.394	118.38
314.624	93.38
314.853	104.38
315.083	101.38
315.312	92.38
315.542	88.38
315.771	99.38
316.001	95.38
316.23	96.38
316.46	91.38
316.689	100.38
316.919	93.38
317.148	106.38
317.377	105.38
317.607	105.38
317.836	85.38
318.065	89.38
318.295	102.38
318.524	90.38
318.753	90.38
318.983	100.38
319.212	94.38
319.441	115.38
319.67	117.38
319.9	95.38
320.129	79.38
320.358	104.38
320.587	96.38
320.816	89.38
321.046	122.38
321.275	109.38
321.504	100.38
321.733	103.38
321.962	116.38
322.191	114.38
322.42	106.38
322.649	116.38
322.878	109.38
323.108	114.38
323.337	148.38
323.566	134.38
323.795	159.38
324.024	211.38
324.253	440.38
324.482	962.38
324.71	2001.38
324.939	2598.38
325.168	980.38
325.397	270.38
325.626	165.38
325.855	129.38
326.084	141.38
326.313	135.38
326.542	165.38
326.77	262.38
326.999	520.38
327.228	1055.38
327.457	1962.38
327.686	1546.38
327.914	475.38
328.143	361.38
328.372	406.38
328.6	253.38
328.829	156.38
329.058	161.38
329.287	172.38
329.515	154.38
329.744	181.38
329.972	308.38
330.201	545.38
330.43	806.38
330.658	406.38
330.887	218.38
331.115	156.38
331.344	119.38
331.572	125.38
331.801	103.38
332.03	111.38
332.258	97.38
332.486	115.38
332.715	93.38
332.943	98.38
333.172	107.38
333.4	111.38
333.629	121.38
333.857	185.38
334.085	287.38
334.314	502.38
334.542	989.38
334.771	940.38
334.999	278.38
335.227	133.38
335.455	106.38
335.684	99.38
335.912	108.38
336.14	102.38
336.369	106.38
336.597	107.38
336.825	101.38
337.053	102.38
337.281	89.38
337.51	76.38
337.738	87.38
337.966	103.38
338.194	102.38
338.422	102.38
338.65	91.38
338.878	95.38
339.106	109.38
339.334	93.38
339.562	94.38
339.79	101.38
340.018	94.38
340.246	96.38
340.474	98.38
340.702	112.38
340.93	102.38
341.158	112.38
341.386	103.38
341.614	90.38
341.842	90.38
342.07	96.38
342.298	102.38
342.526	95.38
342.754	107.38
342.981	93.38
343.209	86.38
343.437	90.38
343.665	91.38
343.893	91.38
344.12	101.38
344.348	99.38
344.576	86.38
344.804	93.38
345.031	114.38
345.259	100.38
345.487	104.38
345.714	97.38
345.942	85.38
346.17	93.38
346.397	96.38
346.625	102.38
346.853	91.38
347.08	99.38
347.308	91.38
347.535	107.38
347.763	103.38
347.99	105.38
348.218	96.38
348.445	115.38
348.673	103.38
348.9	91.38
349.128	84.38
349.355	83.38
349.583	97.38
349.81	88.38
350.037	97.38
350.265	95.38
350.492	94.38
350.72	94.38
350.947	85.38
351.174	128.38
351.402	115.38
351.629	111.38
351.856	112.38
352.083	115.38
352.311	113.38
352.538	116.38
352.765	108.38
352.992	121.38
353.22	106.38
353.447	90.38
353.674	99.38
353.901	114.38
354.128	95.38
354.355	98.38
354.583	77.38
354.81	106.38
355.037	89.38
355.264	87.38
355.491	102.38
355.718	76.38
355.945	87.38
356.172	88.38
356.399	98.38
356.626	103.38
356.853	90.38
357.08	96.38
357.307	80.38
357.534	94.38
357.761	106.38
357.988	90.38
358.215	92.38
358.441	96.38
358.668	92.38
358.895	94.38
359.122	82.38
359.349	90.38
359.576	84.38
359.802	103.38
360.029	116.38
360.256	123.38
360.483	109.38
360.709	93.38
360.936	102.38
361.163	99.38
361.39	104.38
361.616	95.38
361.843	98.38
362.07	91.38
362.296	92.38
362.523	102.38
362.749	86.38
362.976	96.38
363.203	99.38
363.429	84.38
363.656	87.38
363.882	94.38
364.109	98.38
364.335	90.38
364.562	101.38
364.788	83.38
365.015	88.38
365.241	106.38
365.468	110.38
365.694	107.38
365.92	96.38
366.147	96.38
366.373	98.38
366.599	90.38
366.826	89.38
367.052	95.38
367.278	93.38
367.505	79.38
367.731	106.38
367.957	107.38
368.184	90.38
368.41	108.38
368.636	116.38
368.862	138.38
369.089	124.38
369.315	96.38
369.541	85.38
369.767	84.38
369.993	103.38
370.219	92.38
370.445	92.38
370.672	88.38
370.898	102.38
371.124	84.38
371.35	76.38
371.576	87.38
371.802	91.38
372.028	92.38
372.254	78.38
372.48	70.38
372.706	66.38
372.932	76.38
373.158	90.38
373.384	95.38
373.61	86.38
373.835	87.38
374.061	91.38
374.287	103.38
374.513	93.38
374.739	91.38
374.965	83.38
375.191	73.38
375.416	83.38
375.642	104.38
375.868	79.38
376.094	86.38
376.319	84.38
376.545	98.38
376.771	98.38
376.997	82.38
377.222	84.38
377.448	105.38
377.674	86.38
377.899	93.38
378.125	89.38
378.35	94.38
378.576	84.38
378.802	90.38
379.027	101.38
379.253	79.38
379.478	90.38
379.704	88.38
379.929	102.38
380.155	96.38
380.38	93.38
380.606	92.38
380.831	105.38
381.057	90.38
381.282	101.38
381.507	104.38
381.733	90.38
381.958	102.38
382.184	98.38
382.409	91.38
382.634	99.38
382.86	94.38
383.085	102.38
383.31	106.38
383.535	89.38
383.761	96.38
383.986	86.38
384.211	88.38
384.436	85.38
384.662	85.38
384.887	102.38
385.112	98.38
385.337	109.38
385.562	103.38
385.787	101.38
386.013	101.38
386.238	94.38
386.463	91.38
386.688	99.38
386.913	87.38
387.138	98.38
387.363	89.38
387.588	95.38
387.813	90.38
388.038	96.38
388.263	119.38
388.488	110.38
388.713	102.38
388.938	90.38
389.163	99.38
389.387	95.38
389.612	76.38
389.837	82.38
390.062	97.38
390.287	90.38
390.512	97.38
390.736	91.38
390.961	103.38
391.186	108.38
391.411	95.38
391.636	93.38
391.86	94.38
392.085	92.38
392.31	79.38
392.534	95.38
392.759	91.38
392.984	89.38
393.208	96.38
393.433	94.38
393.658	102.38
393.882	86.38
394.107	80.38
394.331	88.38
394.556	85.38
394.78	95.38
395.005	91.38
395.229	83.38
395.454	95.38
395.678	81.38
395.903	94.38
396.127	90.38
396.352	87.38
396.576	96.38
396.801	81.38
397.025	94.38
397.249	87.38
397.474	82.38
397.698	80.38
397.922	93.38
398.147	91.38
398.371	86.38
398.595	89.38
398.82	95.38
399.044	91.38
399.268	100.38
399.492	84.38
399.717	94.38
399.941	96.38
400.165	92.38
400.389	95.38
400.613	103.38
400.837	98.38
401.062	90.38
401.286	93.38
401.51	87.38
401.734	98.38
401.958	107.38
402.182	145.38
402.406	174.38
402.63	125.38
402.854	95.38
403.078	95.38
403.302	93.38
403.526	87.38
403.75	79.38
403.974	100.38
404.198	86.38
404.422	104.38
404.645	87.38
404.869	92.38
405.093	104.38
405.317	128.38
405.541	134.38
405.765	112.38
405.988	124.38
406.212	185.38
406.436	286.38
406.66	184.38
406.883	109.38
407.107	98.38
407.331	93.38
407.555	100.38
407.778	98.38
408.002	100.38
408.226	96.38
408.449	84.38
408.673	101.38
408.896	95.38
409.12	95.38
409.344	87.38
409.567	80.38
409.791	89.38
410.014	83.38
410.238	97.38
410.461	88.38
410.685	92.38
410.908	100.38
411.132	92.38
411.355	94.38
411.578	100.38
411.802	96.38
412.025	86.38
412.249	103.38
412.472	100.38
412.695	116.38
412.919	90.38
413.142	91.38
413.365	78.38
413.589	77.38
413.812	72.38
414.035	74.38
414.258	90.38
414.482	91.38
414.705	85.38
414.928	89.38
415.151	99.38
415.374	105.38
415.597	101.38
415.821	100.38
416.044	98.38
416.267	97.38
416.49	91.38
416.713	76.38
416.936	98.38
417.159	92.38
417.382	105.38
417.605	104.38
417.828	111.38
418.051	87.38
418.274	72.38
418.497	93.38
418.72	79.38
418.943	96.38
419.166	87.38
419.389	97.38
419.611	92.38
419.834	91.38
420.057	94.38
420.28	86.38
420.503	85.38
420.726	89.38
420.948	90.38
421.171	92.38
421.394	114.38
421.617	87.38
421.839	90.38
422.062	92.38
422.285	86.38
422.507	114.38
422.73	101.38
422.953	99.38
423.175	79.38
423.398	83.38
423.621	94.38
423.843	90.38
424.066	93.38
424.288	88.38
424.511	90.38
424.733	106.38
424.956	107.38
425.178	106.38
425.401	103.38
425.623	108.38
425.846	107.38
426.068	89.38
426.291	95.38
426.513	90.38
426.735	90.38
426.958	96.38
427.18	127.38
427.402	173.38
427.625	215.38
427.847	188.38
428.069	180.38
428.292	118.38
428.514	90.38
428.736	91.38
428.958	89.38
429.181	84.38
429.403	80.38
429.625	74.38
429.847	75.38
430.069	116.38
430.292	94.38
430.514	81.38
430.736	82.38
430.958	92.38
431.18	94.38
431.402	87.38
431.624	98.38
431.846	85.38
432.068	89.38
432.29	93.38
432.512	73.38
432.734	79.38
432.956	79.38
433.178	102.38
433.4	109.38
433.622	92.38
433.844	89.38
434.066	96.38
434.287	91.38
434.509	99.38
434.731	84.38
434.953	78.38
435.175	95.38
435.397	89.38
435.618	92.38
435.84	106.38
436.062	121.38
436.284	119.38
436.505	101.38
436.727	98.38
436.949	102.38
437.17	83.38
437.392	93.38
437.614	103.38
437.835	104.38
438.057	142.38
438.278	119.38
438.5	111.38
438.721	140.38
438.943	100.38
439.165	98.38
439.386	83.38
439.608	106.38
439.829	105.38
440.05	149.38
440.272	180.38
440.493	115.38
440.715	85.38
440.936	91.38
441.158	90.38
441.379	105.38
441.6	112.38
441.822	99.38
442.043	105.38
442.264	103.38
442.486	97.38
442.707	93.38
442.928	114.38
443.149	156.38
443.371	153.38
443.592	135.38
443.813	119.38
444.034	110.38
444.255	100.38
444.476	91.38
444.698	93.38
444.919	81.38
445.14	135.38
445.361	130.38
445.582	133.38
445.803	180.38
446.024	166.38
446.245	159.38
446.466	118.38
446.687	89.38
446.908	83.38
447.129	101.38
447.35	80.38
447.571	92.38
447.792	104.38
448.013	118.38
448.234	110.38
448.455	108.38
448.675	123.38
448.896	113.38
449.117	94.38
449.338	101.38
449.559	134.38
449.779	148.38
450	91.38
450.221	88.38
450.442	105.38
450.662	101.38
450.883	103.38
451.104	119.38
451.324	102.38
451.545	94.38
451.766	82.38
451.986	73.38
452.207	77.38
452.428	91.38
452.648	88.38
452.869	102.38
453.089	128.38
453.31	138.38
453.53	100.38
453.751	98.38
453.971	100.38
454.192	124.38
454.412	105.38
454.633	87.38
454.853	92.38
455.073	89.38
455.294	104.38
455.514	95.38
455.734	112.38
455.955	98.38
456.175	89.38
456.395	72.38
456.616	85.38
456.836	84.38
457.056	91.38
457.276	97.38
457.497	93.38
457.717	91.38
457.937	97.38
458.157	83.38
458.377	90.38
458.598	110.38
458.818	172.38
459.038	194.38
459.258	139.38
459.478	98.38
459.698	91.38
459.918	87.38
460.138	98.38
460.358	92.38
460.578	98.38
460.798	81.38
461.018	87.38
461.238	86.38
461.458	90.38
461.678	92.38
461.898	84.38
462.118	82.38
462.338	91.38
462.558	94.38
462.777	94.38
462.997	101.38
463.217	92.38
463.437	95.38
463.657	97.38
463.876	92.38
464.096	94.38
464.316	91.38
464.536	102.38
464.755	99.38
464.975	113.38
465.195	194.38
465.414	204.38
465.634	105.38
465.854	87.38
466.073	85.38
466.293	95.38
466.512	93.38
466.732	90.38
466.951	92.38
467.171	83.38
467.391	97.38
467.61	122.38
467.829	159.38
468.049	305.38
468.268	472.38
468.488	148.38
468.707	110.38
468.927	87.38
469.146	94.38
469.365	88.38
469.585	85.38
469.804	98.38
470.023	102.38
470.243	78.38
470.462	96.38
470.681	130.38
470.901	107.38
471.12	84.38
471.339	88.38
471.558	105.38
471.777	106.38
471.997	194.38
472.216	575.38
472.435	1313.38
472.654	356.38
472.873	124.38
473.092	95.38
473.311	94.38
473.53	86.38
473.749	86.38
473.968	91.38
474.187	117.38
474.406	97.38
474.625	95.38
474.844	99.38
475.063	92.38
475.282	101.38
475.501	103.38
475.72	98.38
475.939	73.38
476.158	102.38
476.377	91.38
476.596	84.38
476.814	107.38
477.033	87.38
477.252	87.38
477.471	98.38
477.69	93.38
477.908	100.38
478.127	86.38
478.346	91.38
478.564	98.38
478.783	99.38
479.002	104.38
479.22	91.38
479.439	108.38
479.658	114.38
479.876	118.38
480.095	113.38
480.313	101.38
480.532	124.38
480.751	191.38
480.969	543.38
481.188	2205.38
481.406	1404.38
481.624	253.38
481.843	113.38
482.061	91.38
482.28	98.38
482.498	98.38
482.717	81.38
482.935	105.38
483.153	98.38
483.372	103.38
483.59	95.38
483.808	86.38
484.027	101.38
484.245	100.38
484.463	94.38
484.681	86.38
484.9	93.38
485.118	94.38
485.336	85.38
485.554	95.38
485.772	101.38
485.99	104.38
486.209	103.38
486.427	116.38
486.645	121.38
486.863	128.38
487.081	111.38
487.299	95.38
487.517	111.38
487.735	109.38
487.953	93.38
488.171	94.38
488.389	96.38
488.607	90.38
488.825	88.38
489.043	92.38
489.261	87.38
489.479	89.38
489.696	99.38
489.914	85.38
490.132	99.38
490.35	84.38
490.568	91.38
490.786	95.38
491.003	95.38
491.221	88.38
491.439	111.38
491.657	94.38
491.874	83.38
492.092	88.38
492.31	95.38
492.527	101.38
492.745	91.38
492.963	106.38
493.18	99.38
493.398	100.38
493.615	99.38
493.833	97.38
494.05	102.38
494.268	92.38
494.485	93.38
494.703	94.38
494.92	94.38
495.138	95.38
495.355	99.38
495.573	101.38
495.79	78.38
496.008	99.38
496.225	104.38
496.442	93.38
496.66	87.38
496.877	84.38
497.094	92.38
497.312	93.38
497.529	89.38
497.746	91.38
497.963	92.38
498.181	102.38
498.398	80.38
498.615	91.38
498.832	92.38
499.049	84.38
499.267	100.38
499.484	99.38
499.701	102.38
499.918	100.38
500.135	106.38
500.352	90.38
500.569	107.38
500.786	84.38
501.003	87.38
501.22	85.38
501.437	84.38
501.654	104.38
501.871	120.38
502.088	94.38
502.305	86.38
502.522	98.38
502.739	93.38
502.956	91.38
503.172	101.38
503.389	98.38
503.606	124.38
503.823	109.38
504.04	86.38
504.256	92.38
504.473	94.38
504.69	91.38
504.907	97.38
505.123	93.38
505.34	92.38
505.557	87.38
505.773	101.38
505.99	90.38
506.207	96.38
506.423	89.38
506.64	100.38
506.856	100.38
507.073	96.38
507.289	91.38
507.506	97.38
507.722	110.38
507.939	116.38
508.155	102.38
508.372	101.38
508.588	100.38
508.805	95.38
509.021	103.38
509.238	108.38
509.454	95.38
509.67	102.38
509.887	87.38
510.103	148.38
510.319	213.38
510.536	775.38
510.752	2602.38
510.968	754.38
511.184	162.38
511.401	128.38
511.617	104.38
511.833	102.38
512.049	90.38
512.265	104.38
512.481	100.38
512.698	84.38
512.914	82.38
513.13	88.38
513.346	92.38
513.562	97.38
513.778	117.38
513.994	95.38
