Data from Circ_2013_H10_HRD10591_00061.txt Node
Date: Wed Jan 03 10:04:12 EST 2024
User: Yrep
Spectrometer: HR+D1059
Trigger mode: 1
Integration Time (sec): 1.000000E-1
Scans to average: 1
Electric dark correction enabled: true
Nonlinearity correction enabled: false
Boxcar width: 0
XAxis mode: Wavelengths
Number of Pixels in Spectrum: 2048
>>>>>Begin Spectral Data<<<<<
223.165	-15.38
223.4	-15.38
223.635	-15.38
223.869	-4.38
224.104	-8.38
224.338	-7.38
224.573	-26.38
224.808	-14.38
225.042	-16.38
225.277	-6.38
225.511	1.62
225.746	3.62
225.98	-0.38
226.215	9.62
226.449	19.62
226.683	20.62
226.918	24.62
227.152	19.62
227.387	31.62
227.621	42.62
227.856	39.62
228.09	53.62
228.324	53.62
228.559	50.62
228.793	68.62
229.027	47.62
229.262	70.62
229.496	73.62
229.73	91.62
229.964	73.62
230.199	79.62
230.433	73.62
230.667	90.62
230.901	93.62
231.136	88.62
231.37	85.62
231.604	65.62
231.838	78.62
232.072	77.62
232.306	82.62
232.541	74.62
232.775	84.62
233.009	78.62
233.243	79.62
233.477	89.62
233.711	79.62
233.945	94.62
234.179	80.62
234.413	76.62
234.647	84.62
234.881	78.62
235.115	87.62
235.349	86.62
235.583	84.62
235.817	79.62
236.051	73.62
236.285	81.62
236.519	86.62
236.753	71.62
236.987	80.62
237.221	74.62
237.455	85.62
237.689	88.62
237.922	77.62
238.156	77.62
238.39	82.62
238.624	84.62
238.858	82.62
239.091	79.62
239.325	79.62
239.559	70.62
239.793	86.62
240.027	77.62
240.26	88.62
240.494	84.62
240.728	77.62
240.961	82.62
241.195	85.62
241.429	76.62
241.662	77.62
241.896	82.62
242.13	72.62
242.363	86.62
242.597	64.62
242.83	93.62
243.064	75.62
243.298	64.62
243.531	83.62
243.765	73.62
243.998	89.62
244.232	85.62
244.465	78.62
244.699	85.62
244.932	86.62
245.166	87.62
245.399	73.62
245.633	72.62
245.866	77.62
246.099	68.62
246.333	79.62
246.566	75.62
246.8	87.62
247.033	70.62
247.266	78.62
247.5	80.62
247.733	63.62
247.966	92.62
248.2	80.62
248.433	86.62
248.666	91.62
248.899	86.62
249.133	95.62
249.366	123.62
249.599	102.62
249.832	78.62
250.066	85.62
250.299	89.62
250.532	91.62
250.765	79.62
250.998	87.62
251.231	81.62
251.465	74.62
251.698	87.62
251.931	91.62
252.164	95.62
252.397	80.62
252.63	79.62
252.863	83.62
253.096	84.62
253.329	82.62
253.562	74.62
253.795	73.62
254.028	75.62
254.261	76.62
254.494	78.62
254.727	88.62
254.96	83.62
255.193	76.62
255.426	83.62
255.659	77.62
255.892	85.62
256.124	94.62
256.357	83.62
256.59	85.62
256.823	80.62
257.056	89.62
257.289	76.62
257.521	82.62
257.754	83.62
257.987	79.62
258.22	92.62
258.452	91.62
258.685	90.62
258.918	84.62
259.151	74.62
259.383	92.62
259.616	76.62
259.849	89.62
260.081	78.62
260.314	88.62
260.547	79.62
260.779	82.62
261.012	77.62
261.244	100.62
261.477	89.62
261.71	103.62
261.942	134.62
262.175	135.62
262.407	86.62
262.64	76.62
262.872	104.62
263.105	91.62
263.337	78.62
263.57	84.62
263.802	84.62
264.035	81.62
264.267	94.62
264.499	83.62
264.732	81.62
264.964	89.62
265.197	90.62
265.429	82.62
265.661	82.62
265.894	85.62
266.126	68.62
266.358	82.62
266.591	97.62
266.823	90.62
267.055	80.62
267.287	90.62
267.52	80.62
267.752	75.62
267.984	84.62
268.216	85.62
268.448	84.62
268.681	75.62
268.913	78.62
269.145	79.62
269.377	89.62
269.609	84.62
269.841	89.62
270.073	91.62
270.306	95.62
270.538	92.62
270.77	88.62
271.002	86.62
271.234	89.62
271.466	92.62
271.698	81.62
271.93	87.62
272.162	93.62
272.394	91.62
272.626	84.62
272.858	86.62
273.09	81.62
273.322	93.62
273.553	81.62
273.785	91.62
274.017	98.62
274.249	76.62
274.481	79.62
274.713	95.62
274.945	85.62
275.176	98.62
275.408	91.62
275.64	95.62
275.872	101.62
276.104	94.62
276.335	94.62
276.567	110.62
276.799	120.62
277.031	144.62
277.262	152.62
277.494	113.62
277.726	80.62
277.957	91.62
278.189	91.62
278.421	94.62
278.652	87.62
278.884	85.62
279.115	82.62
279.347	77.62
279.579	82.62
279.81	125.62
280.042	142.62
280.273	179.62
280.505	141.62
280.736	100.62
280.968	73.62
281.199	76.62
281.431	92.62
281.662	94.62
281.894	90.62
282.125	103.62
282.356	117.62
282.588	151.62
282.819	110.62
283.051	100.62
283.282	98.62
283.513	98.62
283.745	94.62
283.976	88.62
284.207	103.62
284.439	95.62
284.67	84.62
284.901	85.62
285.132	97.62
285.364	91.62
285.595	95.62
285.826	88.62
286.057	83.62
286.288	100.62
286.52	80.62
286.751	104.62
286.982	92.62
287.213	98.62
287.444	98.62
287.675	96.62
287.906	90.62
288.138	86.62
288.369	92.62
288.6	87.62
288.831	82.62
289.062	86.62
289.293	72.62
289.524	87.62
289.755	86.62
289.986	94.62
290.217	92.62
290.448	90.62
290.679	87.62
290.91	82.62
291.141	87.62
291.371	87.62
291.602	87.62
291.833	78.62
292.064	91.62
292.295	98.62
292.526	103.62
292.757	87.62
292.987	85.62
293.218	95.62
293.449	91.62
293.68	84.62
293.91	94.62
294.141	91.62
294.372	82.62
294.603	87.62
294.833	92.62
295.064	79.62
295.295	96.62
295.525	96.62
295.756	99.62
295.987	126.62
296.217	147.62
296.448	143.62
296.679	116.62
296.909	86.62
297.14	82.62
297.37	89.62
297.601	94.62
297.831	108.62
298.062	83.62
298.292	94.62
298.523	96.62
298.753	73.62
298.984	89.62
299.214	91.62
299.445	86.62
299.675	100.62
299.905	92.62
300.136	91.62
300.366	110.62
300.597	97.62
300.827	92.62
301.057	98.62
301.288	101.62
301.518	93.62
301.748	97.62
301.979	106.62
302.209	99.62
302.439	102.62
302.669	88.62
302.9	110.62
303.13	90.62
303.36	110.62
303.59	110.62
303.82	134.62
304.051	110.62
304.281	77.62
304.511	91.62
304.741	99.62
304.971	90.62
305.201	93.62
305.431	92.62
305.661	83.62
305.891	105.62
306.121	95.62
306.352	109.62
306.582	114.62
306.812	98.62
307.042	109.62
307.272	130.62
307.502	117.62
307.731	121.62
307.961	104.62
308.191	91.62
308.421	88.62
308.651	91.62
308.881	86.62
309.111	85.62
309.341	106.62
309.571	110.62
309.8	105.62
310.03	86.62
310.26	90.62
310.49	93.62
310.72	111.62
310.949	129.62
311.179	109.62
311.409	92.62
311.639	93.62
311.868	110.62
312.098	97.62
312.328	97.62
312.557	97.62
312.787	106.62
313.017	94.62
313.246	99.62
313.476	89.62
313.706	94.62
313.935	96.62
314.165	102.62
314.394	117.62
314.624	91.62
314.853	88.62
315.083	103.62
315.312	105.62
315.542	89.62
315.771	93.62
316.001	101.62
316.23	91.62
316.46	94.62
316.689	87.62
316.919	86.62
317.148	104.62
317.377	115.62
317.607	94.62
317.836	103.62
318.065	91.62
318.295	99.62
318.524	96.62
318.753	94.62
318.983	92.62
319.212	84.62
319.441	105.62
319.67	108.62
319.9	90.62
320.129	77.62
320.358	103.62
320.587	113.62
320.816	105.62
321.046	106.62
321.275	103.62
321.504	98.62
321.733	98.62
321.962	89.62
322.191	102.62
322.42	112.62
322.649	103.62
322.878	108.62
323.108	120.62
323.337	121.62
323.566	150.62
323.795	172.62
324.024	235.62
324.253	455.62
324.482	1014.62
324.71	2045.62
324.939	2725.62
325.168	1003.62
325.397	292.62
325.626	158.62
325.855	148.62
326.084	149.62
326.313	155.62
326.542	161.62
326.77	262.62
326.999	518.62
327.228	1100.62
327.457	2038.62
327.686	1657.62
327.914	507.62
328.143	375.62
328.372	401.62
328.6	263.62
328.829	151.62
329.058	166.62
329.287	163.62
329.515	137.62
329.744	170.62
329.972	285.62
330.201	540.62
330.43	803.62
330.658	401.62
330.887	219.62
331.115	165.62
331.344	115.62
331.572	108.62
331.801	115.62
332.03	121.62
332.258	116.62
332.486	112.62
332.715	102.62
332.943	101.62
333.172	111.62
333.4	113.62
333.629	139.62
333.857	156.62
334.085	273.62
334.314	503.62
334.542	968.62
334.771	958.62
334.999	282.62
335.227	147.62
335.455	115.62
335.684	111.62
335.912	90.62
336.14	99.62
336.369	110.62
336.597	99.62
336.825	106.62
337.053	86.62
337.281	94.62
337.51	110.62
337.738	101.62
337.966	101.62
338.194	110.62
338.422	96.62
338.65	96.62
338.878	100.62
339.106	88.62
339.334	92.62
339.562	85.62
339.79	95.62
340.018	103.62
340.246	100.62
340.474	99.62
340.702	92.62
340.93	95.62
341.158	98.62
341.386	98.62
341.614	114.62
341.842	83.62
342.07	90.62
342.298	89.62
342.526	95.62
342.754	92.62
342.981	93.62
343.209	80.62
343.437	94.62
343.665	87.62
343.893	86.62
344.12	99.62
344.348	91.62
344.576	84.62
344.804	82.62
345.031	106.62
345.259	109.62
345.487	104.62
345.714	91.62
345.942	85.62
346.17	93.62
346.397	105.62
346.625	97.62
346.853	114.62
347.08	93.62
347.308	93.62
347.535	108.62
347.763	96.62
347.99	76.62
348.218	100.62
348.445	110.62
348.673	109.62
348.9	92.62
349.128	106.62
349.355	89.62
349.583	83.62
349.81	82.62
350.037	96.62
350.265	107.62
350.492	101.62
350.72	85.62
350.947	104.62
351.174	115.62
351.402	118.62
351.629	95.62
351.856	95.62
352.083	104.62
352.311	102.62
352.538	110.62
352.765	118.62
352.992	122.62
353.22	107.62
353.447	113.62
353.674	88.62
353.901	85.62
354.128	89.62
354.355	101.62
354.583	99.62
354.81	91.62
355.037	83.62
355.264	94.62
355.491	91.62
355.718	98.62
355.945	93.62
356.172	91.62
356.399	78.62
356.626	98.62
356.853	92.62
357.08	79.62
357.307	93.62
357.534	84.62
357.761	89.62
357.988	97.62
358.215	97.62
358.441	82.62
358.668	95.62
358.895	83.62
359.122	99.62
359.349	89.62
359.576	95.62
359.802	116.62
360.029	126.62
360.256	123.62
360.483	100.62
360.709	102.62
360.936	86.62
361.163	97.62
361.39	86.62
361.616	102.62
361.843	93.62
362.07	98.62
362.296	99.62
362.523	105.62
362.749	100.62
362.976	91.62
363.203	83.62
363.429	87.62
363.656	92.62
363.882	111.62
364.109	102.62
364.335	86.62
364.562	79.62
364.788	87.62
365.015	100.62
365.241	107.62
365.468	122.62
365.694	106.62
365.92	105.62
366.147	82.62
366.373	97.62
366.599	83.62
366.826	92.62
367.052	110.62
367.278	98.62
367.505	89.62
367.731	92.62
367.957	94.62
368.184	91.62
368.41	110.62
368.636	135.62
368.862	131.62
369.089	119.62
369.315	91.62
369.541	92.62
369.767	92.62
369.993	90.62
370.219	81.62
370.445	87.62
370.672	88.62
370.898	91.62
371.124	77.62
371.35	85.62
371.576	74.62
371.802	89.62
372.028	104.62
372.254	92.62
372.48	89.62
372.706	102.62
372.932	81.62
373.158	89.62
373.384	89.62
373.61	79.62
373.835	96.62
374.061	85.62
374.287	98.62
374.513	91.62
374.739	79.62
374.965	86.62
375.191	81.62
375.416	92.62
375.642	75.62
375.868	99.62
376.094	87.62
376.319	94.62
376.545	91.62
376.771	97.62
376.997	92.62
377.222	84.62
377.448	101.62
377.674	85.62
377.899	101.62
378.125	98.62
378.35	98.62
378.576	82.62
378.802	75.62
379.027	84.62
379.253	103.62
379.478	104.62
379.704	87.62
379.929	84.62
380.155	74.62
380.38	101.62
380.606	91.62
380.831	98.62
381.057	98.62
381.282	109.62
381.507	94.62
381.733	95.62
381.958	95.62
382.184	83.62
382.409	94.62
382.634	103.62
382.86	105.62
383.085	97.62
383.31	97.62
383.535	104.62
383.761	103.62
383.986	99.62
384.211	75.62
384.436	94.62
384.662	78.62
384.887	85.62
385.112	100.62
385.337	98.62
385.562	98.62
385.787	94.62
386.013	108.62
386.238	113.62
386.463	107.62
386.688	106.62
386.913	90.62
387.138	88.62
387.363	105.62
387.588	98.62
387.813	95.62
388.038	109.62
388.263	105.62
388.488	103.62
388.713	91.62
388.938	106.62
389.163	97.62
389.387	104.62
389.612	85.62
389.837	97.62
390.062	99.62
390.287	85.62
390.512	89.62
390.736	93.62
390.961	88.62
391.186	83.62
391.411	87.62
391.636	99.62
391.86	80.62
392.085	89.62
392.31	87.62
392.534	78.62
392.759	96.62
392.984	86.62
393.208	85.62
393.433	82.62
393.658	75.62
393.882	75.62
394.107	86.62
394.331	77.62
394.556	78.62
394.78	93.62
395.005	89.62
395.229	70.62
395.454	81.62
395.678	90.62
395.903	72.62
396.127	82.62
396.352	86.62
396.576	92.62
396.801	93.62
397.025	79.62
397.249	76.62
397.474	90.62
397.698	93.62
397.922	89.62
398.147	77.62
398.371	85.62
398.595	71.62
398.82	102.62
399.044	92.62
399.268	95.62
399.492	93.62
399.717	94.62
399.941	97.62
400.165	98.62
400.389	80.62
400.613	90.62
400.837	90.62
401.062	76.62
401.286	94.62
401.51	87.62
401.734	91.62
401.958	115.62
402.182	121.62
402.406	187.62
402.63	127.62
402.854	108.62
403.078	98.62
403.302	90.62
403.526	80.62
403.75	92.62
403.974	90.62
404.198	93.62
404.422	89.62
404.645	86.62
404.869	99.62
405.093	94.62
405.317	121.62
405.541	119.62
405.765	104.62
405.988	125.62
406.212	195.62
406.436	292.62
406.66	179.62
406.883	119.62
407.107	101.62
407.331	99.62
407.555	97.62
407.778	96.62
408.002	98.62
408.226	85.62
408.449	91.62
408.673	84.62
408.896	102.62
409.12	107.62
409.344	92.62
409.567	93.62
409.791	91.62
410.014	95.62
410.238	92.62
410.461	76.62
410.685	103.62
410.908	90.62
411.132	110.62
411.355	94.62
411.578	89.62
411.802	74.62
412.025	89.62
412.249	93.62
412.472	106.62
412.695	123.62
412.919	102.62
413.142	91.62
413.365	90.62
413.589	102.62
413.812	90.62
414.035	98.62
414.258	97.62
414.482	103.62
414.705	85.62
414.928	87.62
415.151	92.62
415.374	88.62
415.597	91.62
415.821	104.62
416.044	94.62
416.267	99.62
416.49	94.62
416.713	88.62
416.936	87.62
417.159	103.62
417.382	83.62
417.605	105.62
417.828	91.62
418.051	99.62
418.274	95.62
418.497	93.62
418.72	85.62
418.943	100.62
419.166	92.62
419.389	89.62
419.611	91.62
419.834	93.62
420.057	96.62
420.28	97.62
420.503	84.62
420.726	95.62
420.948	78.62
421.171	105.62
421.394	89.62
421.617	63.62
421.839	92.62
422.062	96.62
422.285	83.62
422.507	105.62
422.73	100.62
422.953	83.62
423.175	78.62
423.398	85.62
423.621	85.62
423.843	79.62
424.066	93.62
424.288	86.62
424.511	91.62
424.733	99.62
424.956	111.62
425.178	107.62
425.401	97.62
425.623	109.62
425.846	100.62
426.068	98.62
426.291	101.62
426.513	84.62
426.735	86.62
426.958	98.62
427.18	106.62
427.402	158.62
427.625	215.62
427.847	203.62
428.069	182.62
428.292	121.62
428.514	95.62
428.736	77.62
428.958	84.62
429.181	83.62
429.403	77.62
429.625	84.62
429.847	93.62
430.069	98.62
430.292	107.62
430.514	73.62
430.736	88.62
430.958	88.62
431.18	80.62
431.402	87.62
431.624	90.62
431.846	77.62
432.068	70.62
432.29	85.62
432.512	106.62
432.734	87.62
432.956	86.62
433.178	104.62
433.4	94.62
433.622	91.62
433.844	96.62
434.066	88.62
434.287	89.62
434.509	96.62
434.731	102.62
434.953	90.62
435.175	83.62
435.397	95.62
435.618	93.62
435.84	116.62
436.062	129.62
436.284	127.62
436.505	93.62
436.727	103.62
436.949	83.62
437.17	109.62
437.392	92.62
437.614	87.62
437.835	114.62
438.057	137.62
438.278	120.62
438.5	100.62
438.721	137.62
438.943	133.62
439.165	92.62
439.386	94.62
439.608	91.62
439.829	87.62
440.05	127.62
440.272	163.62
440.493	98.62
440.715	86.62
440.936	93.62
441.158	96.62
441.379	89.62
441.6	94.62
441.822	94.62
442.043	99.62
442.264	109.62
442.486	106.62
442.707	96.62
442.928	124.62
443.149	156.62
443.371	163.62
443.592	122.62
443.813	124.62
444.034	117.62
444.255	102.62
444.476	87.62
444.698	76.62
444.919	91.62
445.14	130.62
445.361	138.62
445.582	131.62
445.803	164.62
446.024	140.62
446.245	140.62
446.466	122.62
446.687	87.62
446.908	85.62
447.129	87.62
447.35	84.62
447.571	90.62
447.792	91.62
448.013	98.62
448.234	116.62
448.455	122.62
448.675	106.62
448.896	132.62
449.117	102.62
449.338	106.62
449.559	130.62
449.779	149.62
450	102.62
450.221	87.62
450.442	97.62
450.662	104.62
450.883	126.62
451.104	120.62
451.324	106.62
451.545	82.62
451.766	86.62
451.986	94.62
452.207	116.62
452.428	97.62
452.648	104.62
452.869	110.62
453.089	125.62
453.31	133.62
453.53	88.62
453.751	89.62
453.971	102.62
454.192	137.62
454.412	104.62
454.633	100.62
454.853	110.62
455.073	79.62
455.294	97.62
455.514	99.62
455.734	78.62
455.955	97.62
456.175	76.62
456.395	85.62
456.616	96.62
456.836	80.62
457.056	78.62
457.276	94.62
457.497	85.62
457.717	86.62
457.937	95.62
458.157	76.62
458.377	102.62
458.598	118.62
458.818	179.62
459.038	204.62
459.258	140.62
459.478	102.62
459.698	78.62
459.918	94.62
460.138	84.62
460.358	97.62
460.578	91.62
460.798	99.62
461.018	62.62
461.238	75.62
461.458	78.62
461.678	76.62
461.898	88.62
462.118	99.62
462.338	83.62
462.558	95.62
462.777	85.62
462.997	92.62
463.217	95.62
463.437	89.62
463.657	85.62
463.876	89.62
464.096	97.62
464.316	97.62
464.536	106.62
464.755	99.62
464.975	119.62
465.195	203.62
465.414	230.62
465.634	105.62
465.854	85.62
466.073	98.62
466.293	86.62
466.512	83.62
466.732	98.62
466.951	88.62
467.171	109.62
467.391	116.62
467.61	117.62
467.829	150.62
468.049	328.62
468.268	501.62
468.488	155.62
468.707	90.62
468.927	75.62
469.146	87.62
469.365	102.62
469.585	84.62
469.804	90.62
470.023	106.62
470.243	85.62
470.462	107.62
470.681	126.62
470.901	102.62
471.12	97.62
471.339	107.62
471.558	99.62
471.777	118.62
471.997	200.62
472.216	606.62
472.435	1358.62
472.654	370.62
472.873	144.62
473.092	97.62
473.311	93.62
473.53	86.62
473.749	106.62
473.968	104.62
474.187	98.62
474.406	100.62
474.625	106.62
474.844	96.62
475.063	98.62
475.282	90.62
475.501	90.62
475.72	87.62
475.939	73.62
476.158	90.62
476.377	82.62
476.596	97.62
476.814	94.62
477.033	102.62
477.252	99.62
477.471	89.62
477.69	95.62
477.908	91.62
478.127	90.62
478.346	102.62
478.564	92.62
478.783	82.62
479.002	109.62
479.22	98.62
479.439	125.62
479.658	125.62
479.876	98.62
480.095	111.62
480.313	103.62
480.532	133.62
480.751	186.62
480.969	568.62
481.188	2233.62
481.406	1453.62
481.624	258.62
481.843	109.62
482.061	102.62
482.28	86.62
482.498	85.62
482.717	82.62
482.935	101.62
483.153	97.62
483.372	86.62
483.59	89.62
483.808	72.62
484.027	87.62
484.245	98.62
484.463	106.62
484.681	92.62
484.9	89.62
485.118	92.62
485.336	72.62
485.554	90.62
485.772	98.62
485.99	99.62
486.209	108.62
486.427	103.62
486.645	113.62
486.863	129.62
487.081	120.62
487.299	91.62
487.517	98.62
487.735	91.62
487.953	94.62
488.171	97.62
488.389	98.62
488.607	116.62
488.825	100.62
489.043	95.62
489.261	71.62
489.479	90.62
489.696	95.62
489.914	91.62
490.132	97.62
490.35	92.62
490.568	87.62
490.786	93.62
491.003	76.62
491.221	82.62
491.439	94.62
491.657	90.62
491.874	75.62
492.092	82.62
492.31	83.62
492.527	107.62
492.745	94.62
492.963	83.62
493.18	81.62
493.398	82.62
493.615	85.62
493.833	100.62
494.05	92.62
494.268	81.62
494.485	93.62
494.703	75.62
494.92	81.62
495.138	84.62
495.355	79.62
495.573	91.62
495.79	100.62
496.008	94.62
496.225	95.62
496.442	99.62
496.66	114.62
496.877	80.62
497.094	100.62
497.312	89.62
497.529	91.62
497.746	101.62
497.963	95.62
498.181	95.62
498.398	84.62
498.615	102.62
498.832	94.62
499.049	92.62
499.267	92.62
499.484	83.62
499.701	82.62
499.918	89.62
500.135	85.62
500.352	79.62
500.569	90.62
500.786	79.62
501.003	103.62
501.22	103.62
501.437	93.62
501.654	94.62
501.871	114.62
502.088	105.62
502.305	92.62
502.522	83.62
502.739	98.62
502.956	85.62
503.172	90.62
503.389	101.62
503.606	105.62
503.823	101.62
504.04	92.62
504.256	94.62
504.473	100.62
504.69	86.62
504.907	93.62
505.123	79.62
505.34	102.62
505.557	89.62
505.773	102.62
505.99	72.62
506.207	88.62
506.423	85.62
506.64	87.62
506.856	102.62
507.073	80.62
507.289	93.62
507.506	95.62
507.722	131.62
507.939	125.62
508.155	115.62
508.372	93.62
508.588	97.62
508.805	98.62
509.021	113.62
509.238	98.62
509.454	102.62
509.67	104.62
509.887	102.62
510.103	130.62
510.319	245.62
510.536	873.62
510.752	2958.62
510.968	833.62
511.184	179.62
511.401	133.62
511.617	94.62
511.833	97.62
512.049	92.62
512.265	99.62
512.481	92.62
512.698	101.62
512.914	99.62
513.13	96.62
513.346	91.62
513.562	89.62
513.778	104.62
513.994	101.62
514.21	103.62
