Data from Circ_2013_H10_HRD10591_00056.txt Node
Date: Wed Jan 03 10:04:11 EST 2024
User: Yrep
Spectrometer: HR+D1059
Trigger mode: 1
Integration Time (sec): 1.000000E-1
Scans to average: 1
Electric dark correction enabled: true
Nonlinearity correction enabled: false
Boxcar width: 0
XAxis mode: Wavelengths
Number of Pixels in Spectrum: 2048
>>>>>Begin Spectral Data<<<<<
223.165	-28
223.4	-28
223.635	-28
223.869	-27
224.104	-30
224.338	-16
224.573	-2
224.808	-4
225.042	-2
225.277	-8
225.511	-1
225.746	-2
225.98	4
226.215	2
226.449	26
226.683	30
226.918	22
227.152	36
227.387	36
227.621	43
227.856	40
228.09	45
228.324	52
228.559	58
228.793	144
229.027	406
229.262	470
229.496	589
229.73	786
229.964	773
230.199	510
230.433	461
230.667	441
230.901	458
231.136	428
231.37	422
231.604	442
231.838	434
232.072	435
232.306	446
232.541	432
232.775	446
233.009	459
233.243	449
233.477	467
233.711	470
233.945	501
234.179	466
234.413	484
234.647	493
234.881	506
235.115	493
235.349	510
235.583	526
235.817	555
236.051	628
236.285	592
236.519	587
236.753	679
236.987	842
237.221	1272
237.455	1366
237.689	819
237.922	698
238.156	652
238.39	649
238.624	632
238.858	636
239.091	653
239.325	650
239.559	687
239.793	698
240.027	732
240.26	891
240.494	930
240.728	933
240.961	860
241.195	789
241.429	763
241.662	768
241.896	763
242.13	753
242.363	778
242.597	785
242.83	824
243.064	825
243.298	838
243.531	819
243.765	839
243.998	856
244.232	843
244.465	922
244.699	913
244.932	904
245.166	882
245.399	924
245.633	896
245.866	887
246.099	936
246.333	926
246.566	925
246.8	970
247.033	1016
247.266	1021
247.5	1073
247.733	1127
247.966	1093
248.2	1098
248.433	1138
248.666	1209
248.899	1333
249.133	1427
249.366	1436
249.599	1380
249.832	1336
250.066	1511
250.299	1886
250.532	2447
250.765	2278
250.998	2047
251.231	1750
251.465	1560
251.698	1449
251.931	1436
252.164	1422
252.397	1402
252.63	1428
252.863	1499
253.096	1643
253.329	1655
253.562	1612
253.795	1549
254.028	1545
254.261	1627
254.494	1810
254.727	2128
254.96	2122
255.193	1973
255.426	2025
255.659	2331
255.892	3246
256.124	4226
256.357	3374
256.59	2477
256.823	2062
257.056	1852
257.289	1792
257.521	1728
257.754	1689
257.987	1608
258.22	1603
258.452	1608
258.685	1602
258.918	1558
259.151	1631
259.383	1651
259.616	1652
259.849	1739
260.081	1899
260.314	2037
260.547	1916
260.779	1792
261.012	1723
261.244	1693
261.477	1668
261.71	1738
261.942	1783
262.175	1789
262.407	1678
262.64	1654
262.872	1650
263.105	1645
263.337	1620
263.57	1649
263.802	1654
264.035	1643
264.267	1650
264.499	1668
264.732	1674
264.964	1685
265.197	1687
265.429	1694
265.661	1718
265.894	1709
266.126	1728
266.358	1765
266.591	1790
266.823	1811
267.055	1842
267.287	1821
267.52	1800
267.752	1800
267.984	1805
268.216	1867
268.448	1893
268.681	1926
268.913	2084
269.145	2257
269.377	2235
269.609	2169
269.841	2163
270.073	2258
270.306	2486
270.538	2591
270.77	2434
271.002	2365
271.234	2330
271.466	2456
271.698	2570
271.93	2568
272.162	2584
272.394	2520
272.626	2355
272.858	2283
273.09	2198
273.322	2260
273.553	2232
273.785	2179
274.017	2224
274.249	2260
274.481	2240
274.713	2261
274.945	2304
275.176	2331
275.408	2284
275.64	2338
275.872	2390
276.104	2377
276.335	2434
276.567	2486
276.799	2722
277.031	2997
277.262	3147
277.494	2910
277.726	2700
277.957	2592
278.189	2554
278.421	2410
278.652	2459
278.884	2456
279.115	2481
279.347	2480
279.579	2557
279.81	2638
280.042	2779
280.273	2917
280.505	2876
280.736	2669
280.968	2588
281.199	2561
281.431	2568
281.662	2556
281.894	2556
282.125	2584
282.356	2719
282.588	2936
282.819	2693
283.051	2591
283.282	2570
283.513	2569
283.745	2563
283.976	2598
284.207	2653
284.439	2610
284.67	2594
284.901	2620
285.132	2595
285.364	2646
285.595	2640
285.826	2616
286.057	2659
286.288	2614
286.52	2665
286.751	2643
286.982	2710
287.213	2643
287.444	2746
287.675	2806
287.906	2849
288.138	2807
288.369	2875
288.6	2866
288.831	2848
289.062	2819
289.293	2805
289.524	2844
289.755	2727
289.986	2790
290.217	2786
290.448	2787
290.679	2770
290.91	2680
291.141	2733
291.371	2784
291.602	2792
291.833	2768
292.064	2763
292.295	2793
292.526	2789
292.757	2790
292.987	2754
293.218	2732
293.449	2794
293.68	2795
293.91	2760
294.141	2789
294.372	2791
294.603	2796
294.833	2797
295.064	2851
295.295	2870
295.525	2814
295.756	2901
295.987	2961
296.217	3168
296.448	3092
296.679	2921
296.909	2925
297.14	2928
297.37	2996
297.601	3011
297.831	2967
298.062	3018
298.292	3012
298.523	3046
298.753	3030
298.984	3009
299.214	3021
299.445	3049
299.675	3059
299.905	3126
300.136	3080
300.366	3081
300.597	3077
300.827	3245
301.057	3301
301.288	3401
301.518	3280
301.748	3322
301.979	3400
302.209	3340
302.439	3346
302.669	3271
302.9	3274
303.13	3277
303.36	3286
303.59	3384
303.82	3446
304.051	3360
304.281	3292
304.511	3188
304.741	3245
304.971	3161
305.201	3251
305.431	3234
305.661	3233
305.891	3198
306.121	3227
306.352	3296
306.582	3350
306.812	3234
307.042	3296
307.272	3420
307.502	3416
307.731	3430
307.961	3304
308.191	3311
308.421	3260
308.651	3261
308.881	3323
309.111	3350
309.341	3307
309.571	3416
309.8	3514
310.03	3580
310.26	3568
310.49	3528
310.72	3653
310.949	3810
311.179	3730
311.409	3585
311.639	3605
311.868	3544
312.098	3578
312.328	3754
312.557	3860
312.787	3943
313.017	3798
313.246	3712
313.476	3635
313.706	3698
313.935	3801
314.165	3923
314.394	3994
314.624	3837
314.853	3735
315.083	3714
315.312	3689
315.542	3623
315.771	3604
316.001	3601
316.23	3628
316.46	3594
316.689	3654
316.919	3652
317.148	3747
317.377	3749
317.607	3689
317.836	3638
318.065	3578
318.295	3675
318.524	3645
318.753	3665
318.983	3669
319.212	3636
319.441	3725
319.67	3744
319.9	3662
320.129	3690
320.358	3680
320.587	3788
320.816	3837
321.046	3848
321.275	3790
321.504	3821
321.733	3829
321.962	3937
322.191	3980
322.42	4146
322.649	4182
322.878	4251
323.108	4388
323.337	4624
323.566	4760
323.795	5073
324.024	5665
324.253	7405
324.482	11351
324.71	15535
324.939	15598
325.168	13116
325.397	6455
325.626	5207
325.855	4936
326.084	4940
326.313	4953
326.542	5088
326.77	5932
326.999	7500
327.228	10929
327.457	14890
327.686	14292
327.914	8636
328.143	8040
328.372	8493
328.6	7080
328.829	6186
329.058	6353
329.287	6426
329.515	6343
329.744	6956
329.972	8680
330.201	11295
330.43	12713
330.658	9482
330.887	7581
331.115	6503
331.344	5731
331.572	5528
331.801	5566
332.03	5567
332.258	5462
332.486	5507
332.715	5753
332.943	5912
333.172	6300
333.4	6571
333.629	7122
333.857	8151
334.085	9842
334.314	12816
334.542	15027
334.771	14316
334.999	9093
335.227	7034
335.455	6261
335.684	5889
335.912	5572
336.14	5362
336.369	5290
336.597	5299
336.825	5249
337.053	5054
337.281	4934
337.51	4880
337.738	4843
337.966	4744
338.194	4750
338.422	4727
338.65	4552
338.878	4560
339.106	4489
339.334	4470
339.562	4549
339.79	4425
340.018	4408
340.246	4386
340.474	4362
340.702	4348
340.93	4391
341.158	4349
341.386	4393
341.614	4355
341.842	4311
342.07	4252
342.298	4281
342.526	4183
342.754	4198
342.981	4247
343.209	4340
343.437	4555
343.665	4826
343.893	5064
344.12	5042
344.348	4832
344.576	4668
344.804	4616
345.031	4649
345.259	4565
345.487	4393
345.714	4293
345.942	4186
346.17	4148
346.397	4119
346.625	4160
346.853	4102
347.08	4065
347.308	4206
347.535	4282
347.763	4286
347.99	4138
348.218	4238
348.445	4321
348.673	4212
348.9	4102
349.128	4054
349.355	4023
349.583	3957
349.81	3930
350.037	4000
350.265	3931
350.492	4016
350.72	4005
350.947	4017
351.174	4112
351.402	4112
351.629	4115
351.856	4076
352.083	4226
352.311	4275
352.538	4220
352.765	4166
352.992	4140
353.22	4074
353.447	3994
353.674	3985
353.901	3908
354.128	3936
354.355	3875
354.583	3915
354.81	3895
355.037	3878
355.264	3821
355.491	3845
355.718	3821
355.945	3867
356.172	3881
356.399	3831
356.626	3920
356.853	3876
357.08	3815
357.307	3820
357.534	3866
357.761	3870
357.988	3921
358.215	3881
358.441	3888
358.668	3904
358.895	3933
359.122	3968
359.349	4056
359.576	4155
359.802	4365
360.029	4579
360.256	4578
360.483	4276
360.709	4075
360.936	4120
361.163	4130
361.39	4166
361.616	4184
361.843	4073
362.07	4122
362.296	4155
362.523	4097
362.749	4163
362.976	4062
363.203	3986
363.429	3958
363.656	4029
363.882	4049
364.109	3952
364.335	4006
364.562	3918
364.788	3973
365.015	3982
365.241	3969
365.468	4034
365.694	4018
365.92	4094
366.147	3930
366.373	4017
366.599	3986
366.826	3904
367.052	3909
367.278	3962
367.505	3972
367.731	4045
367.957	3944
368.184	4023
368.41	4098
368.636	4200
368.862	4171
369.089	4083
369.315	4112
369.541	4035
369.767	4083
369.993	4064
370.219	4065
370.445	4144
370.672	4097
370.898	4144
371.124	4130
371.35	4180
371.576	4235
371.802	4170
372.028	4156
372.254	4199
372.48	4234
372.706	4299
372.932	4358
373.158	4252
373.384	4225
373.61	4256
373.835	4276
374.061	4234
374.287	4330
374.513	4390
374.739	4497
374.965	4609
375.191	4573
375.416	4523
375.642	4377
375.868	4332
376.094	4320
376.319	4238
376.545	4316
376.771	4223
376.997	4189
377.222	4228
377.448	4183
377.674	4158
377.899	4152
378.125	4211
378.35	4124
378.576	4080
378.802	4101
379.027	4214
379.253	4188
379.478	4102
379.704	4175
379.929	4164
380.155	4184
380.38	4126
380.606	4250
380.831	4130
381.057	4254
381.282	4218
381.507	4219
381.733	4286
381.958	4285
382.184	4371
382.409	4395
382.634	4424
382.86	4512
383.085	4453
383.31	4545
383.535	4585
383.761	4662
383.986	4773
384.211	4856
384.436	4840
384.662	4908
384.887	4980
385.112	5015
385.337	5099
385.562	5090
385.787	5088
386.013	5119
386.238	5165
386.463	5109
386.688	5069
386.913	5022
387.138	5000
387.363	4936
387.588	4973
387.813	4998
388.038	4981
388.263	5037
388.488	5027
388.713	5000
388.938	4979
389.163	4904
389.387	4964
389.612	4878
389.837	4927
390.062	4873
390.287	4960
390.512	4963
390.736	5012
390.961	5144
391.186	5189
391.411	5298
391.636	5382
391.86	5506
392.085	5598
392.31	5478
392.534	5410
392.759	5303
392.984	5203
393.208	5158
393.433	5179
393.658	5205
393.882	5194
394.107	5219
394.331	5286
394.556	5179
394.78	5308
395.005	5319
395.229	5323
395.454	5496
395.678	5591
395.903	5619
396.127	5643
396.352	5503
396.576	5401
396.801	5317
397.025	5337
397.249	5460
397.474	5596
397.698	5640
397.922	5774
398.147	5919
398.371	5997
398.595	6077
398.82	6420
399.044	6933
399.268	7588
399.492	8762
399.717	9326
399.941	8974
400.165	8444
400.389	7716
400.613	7081
400.837	6580
401.062	6426
401.286	6353
401.51	6326
401.734	6298
401.958	6406
402.182	6554
402.406	6692
402.63	6684
402.854	6855
403.078	6877
403.302	6990
403.526	7184
403.75	7216
403.974	7362
404.198	7283
404.422	7493
404.645	7572
404.869	7741
405.093	8252
405.317	8776
405.541	8659
405.765	7728
405.988	7482
406.212	7540
406.436	7601
406.66	7643
406.883	7565
407.107	8083
407.331	8516
407.555	9011
407.778	8690
408.002	7996
408.226	7641
408.449	7526
408.673	7405
408.896	7444
409.12	7647
409.344	7263
409.567	6955
409.791	6913
410.014	6857
410.238	6779
410.461	6840
410.685	6869
410.908	6929
411.132	7116
411.355	7148
411.578	6840
411.802	6650
412.025	6854
412.249	7453
412.472	7962
412.695	8565
412.919	7809
413.142	7258
413.365	7004
413.589	6794
413.812	6558
414.035	6324
414.258	6501
414.482	6433
414.705	6424
414.928	6346
415.151	6354
415.374	6348
415.597	6194
415.821	6086
416.044	6238
416.267	6268
416.49	6058
416.713	6068
416.936	6171
417.159	6236
417.382	6344
417.605	6472
417.828	6625
418.051	6498
418.274	6429
418.497	6298
418.72	6475
418.943	6337
419.166	6792
419.389	7277
419.611	7131
419.834	7177
420.057	7250
420.28	7519
420.503	7305
420.726	7044
420.948	6942
421.171	7155
421.394	7005
421.617	6431
421.839	6452
422.062	6580
422.285	6590
422.507	7203
422.73	7522
422.953	7061
423.175	6816
423.398	6816
423.621	6732
423.843	7060
424.066	6932
424.288	6920
424.511	7027
424.733	7467
424.956	7845
425.178	7433
425.401	7657
425.623	7433
425.846	6555
426.068	6485
426.291	6333
426.513	6296
426.735	6408
426.958	6898
427.18	7631
427.402	8803
427.625	9275
427.847	8502
428.069	8186
428.292	7005
428.514	6153
428.736	5874
428.958	5860
429.181	5627
429.403	5715
429.625	5842
429.847	6138
430.069	6537
430.292	6130
430.514	5600
430.736	5606
430.958	5574
431.18	5480
431.402	5439
431.624	5505
431.846	5539
432.068	5562
432.29	5702
432.512	5494
432.734	5621
432.956	5532
433.178	5677
433.4	5633
433.622	5561
433.844	5619
434.066	5644
434.287	5650
434.509	5892
434.731	6110
434.953	6252
435.175	6309
435.397	6388
435.618	6359
435.84	6600
436.062	7476
436.284	7348
436.505	6223
436.727	6044
436.949	5719
437.17	5576
437.392	5629
437.614	5687
437.835	6071
438.057	7010
438.278	7581
438.5	7464
438.721	8186
438.943	7286
439.165	6104
439.386	5959
439.608	5989
439.829	6123
440.05	6504
440.272	6957
440.493	6221
440.715	5964
440.936	5989
441.158	5925
441.379	6113
441.6	6357
441.822	6536
442.043	6989
442.264	7685
442.486	7352
442.707	6584
442.928	6438
443.149	6758
443.371	6894
443.592	7444
443.813	8244
444.034	8219
444.255	7127
444.476	7013
444.698	7213
444.919	7362
445.14	7116
445.361	6981
445.582	7216
445.803	7794
446.024	8413
446.245	8138
446.466	7226
446.687	6197
446.908	5886
447.129	5536
447.35	5451
447.571	5396
447.792	5218
448.013	5476
448.234	5617
448.455	6167
448.675	7201
448.896	7726
449.117	6397
449.338	6646
449.559	7840
449.779	8027
450	6125
450.221	5475
450.442	5346
450.662	5231
450.883	5489
451.104	5497
451.324	5296
451.545	5165
451.766	5020
451.986	4909
452.207	4890
452.428	4843
452.648	4971
452.869	4938
453.089	5038
453.31	5081
453.53	4890
453.751	4857
453.971	5027
454.192	5142
454.412	4869
454.633	4782
454.853	4753
455.073	4785
455.294	5150
455.514	5584
455.734	5175
455.955	4663
456.175	4569
456.395	4548
456.616	4494
456.836	4569
457.056	4538
457.276	4464
457.497	4684
457.717	4626
457.937	4649
458.157	4752
458.377	4881
458.598	5217
458.818	5923
459.038	6689
459.258	6454
459.478	5788
459.698	5708
459.918	5697
460.138	5877
460.358	6094
460.578	6119
460.798	6256
461.018	6209
461.238	6026
461.458	6023
461.678	5971
461.898	6150
462.118	6205
462.338	6562
462.558	6591
462.777	6964
462.997	7537
463.217	7859
463.437	7862
463.657	7180
463.876	6866
464.096	7111
464.316	6915
464.536	7071
464.755	6802
464.975	6752
465.195	7094
465.414	7159
465.634	6138
465.854	5727
466.073	5558
466.293	5309
466.512	5294
466.732	5130
466.951	5140
467.171	5176
467.391	5275
467.61	5352
467.829	5570
468.049	6217
468.268	7291
468.488	5913
468.707	5323
468.927	5145
469.146	5058
469.365	5152
469.585	5123
469.804	5339
470.023	5423
470.243	5420
470.462	5515
470.681	5734
470.901	5524
471.12	5339
471.339	5361
471.558	5453
471.777	5521
471.997	5934
472.216	7998
472.435	12067
472.654	8749
472.873	6533
473.092	5890
473.311	5540
473.53	5444
473.749	5433
473.968	5842
474.187	6692
474.406	6245
474.625	5440
474.844	5138
475.063	5052
475.282	5089
475.501	5122
475.72	5094
475.939	5168
476.158	5159
476.377	5156
476.596	5247
476.814	5326
477.033	5353
477.252	5466
477.471	5572
477.69	5642
477.908	5805
478.127	5873
478.346	5954
478.564	6139
478.783	6206
479.002	6290
479.22	6409
479.439	6504
479.658	6705
479.876	6768
480.095	6946
480.313	7489
480.532	7519
480.751	7961
480.969	9940
481.188	15312
481.406	15444
481.624	10462
481.843	8329
482.061	7492
482.28	6984
482.498	6659
482.717	6476
482.935	6373
483.153	6250
483.372	6143
483.59	6194
483.808	6110
484.027	6004
484.245	6081
484.463	6171
484.681	6166
484.9	6121
485.118	6250
485.336	6234
485.554	6353
485.772	6348
485.99	6400
486.209	6375
486.427	6475
486.645	6555
486.863	6635
487.081	6497
487.299	6445
487.517	6446
487.735	6368
487.953	6468
488.171	6430
488.389	6557
488.607	6540
488.825	6535
489.043	6658
489.261	6618
489.479	6676
489.696	6781
489.914	6868
490.132	7012
490.35	7080
490.568	7283
490.786	7472
491.003	7707
491.221	8150
491.439	8518
491.657	8518
491.874	8642
492.092	8642
492.31	8792
492.527	9071
492.745	9332
492.963	9274
493.18	9053
493.398	9012
493.615	8989
493.833	8725
494.05	8627
494.268	8421
494.485	8297
494.703	8249
494.92	8150
495.138	7978
495.355	7968
495.573	7987
495.79	7949
496.008	7835
496.225	7831
496.442	7817
496.66	7828
496.877	7861
497.094	7939
497.312	8016
497.529	8128
497.746	8351
497.963	8523
498.181	8871
498.398	9098
498.615	9506
498.832	9889
499.049	10392
499.267	11103
499.484	11800
499.701	12590
499.918	13297
500.135	14127
500.352	14758
500.569	14990
500.786	15009
501.003	14372
501.22	13711
501.437	12932
501.654	12004
501.871	11393
502.088	10610
502.305	9872
502.522	9532
502.739	9094
502.956	8679
503.172	8350
503.389	8178
503.606	8098
503.823	7989
504.04	7826
504.256	7851
504.473	8074
504.69	8034
504.907	7915
505.123	7483
505.34	7244
505.557	7091
505.773	6905
505.99	6875
506.207	6750
506.423	6691
506.64	6701
506.856	6541
507.073	6489
507.289	6429
507.506	6454
507.722	6513
507.939	6565
508.155	6350
508.372	6253
508.588	6166
508.805	6177
509.021	6118
509.238	6383
509.454	6324
509.67	6146
509.887	5995
510.103	6064
510.319	6153
510.536	7471
510.752	11414
510.968	7486
511.184	6016
511.401	6096
511.617	6349
511.833	7014
512.049	7089
512.265	6593
512.481	6212
512.698	6027
512.914	5997
513.13	5827
513.346	5828
513.562	5839
513.778	5833
513.994	5920
514.21	5989
514.426	6203
514.642	6528
514.858	6633
515.074	7030
515.29	8604
515.506	11890
515.721	8487
515.937	6714
516.153	6566
516.369	6550
516.585	6555
516.801	6597
517.016	6732
517.232	7096
517.448	7113
517.664	7370
517.879	7345
518.095	7335
518.311	7185
518.527	6906
518.742	6743
518.958	6480
519.173	6265
519.389	6144
519.605	6101
519.82	6031
520.036	6052
520.251	6116
520.467	6220
520.682	6170
520.898	6152
521.113	6372
521.329	6680
521.544	7463
521.76	9702
521.975	14512
522.19	11993
522.406	7088
522.621	6040
522.836	5600
523.052	5421
523.267	5346
523.482	5142
523.698	5091
523.913	5095
524.128	5042
524.343	5067
524.559	4896
524.774	4871
524.989	4937
525.204	5019
525.419	4924
525.634	4820
525.849	4747
526.064	4659
526.28	4718
526.495	4747
526.71	4677
526.925	4664
527.14	4603
527.355	4704
527.57	4624
527.785	4658
527.999	4594
528.214	4634
528.429	4705
528.644	4686
528.859	4633
529.074	4679
529.289	4928
529.503	5592
529.718	5151
529.933	4876
530.148	4672
530.363	4606
530.577	4624
530.792	4565
531.007	4583
531.221	4606
531.436	4560
531.651	4578
531.865	4594
532.08	4597
532.295	4584
532.509	4514
532.724	4618
532.938	4598
533.153	4508
533.367	4515
533.582	4508
533.796	4531
534.011	4544
534.225	4528
534.44	4397
534.654	4384
534.868	4407
535.083	4381
535.297	4386
535.511	4442
535.726	4543
535.94	4533
536.154	4440
536.369	4314
536.583	4268
536.797	4289
537.011	4227
537.225	4234
537.44	4214
537.654	4235
537.868	4196
538.082	4227
538.296	4262
538.51	4229
538.724	4180
538.938	4144
539.153	4172
539.367	4289
539.581	4264
539.795	4120
540.009	4139
540.222	4160
540.436	4149
540.65	4152
540.864	4213
541.078	4244
541.292	4218
541.506	4094
541.72	3989
541.934	3937
