Data from Circ_2013_H10_HRD10591_00081.txt Node
Date: Wed Jan 03 10:04:16 EST 2024
User: Yrep
Spectrometer: HR+D1059
Trigger mode: 1
Integration Time (sec): 1.000000E-1
Scans to average: 1
Electric dark correction enabled: true
Nonlinearity correction enabled: false
Boxcar width: 0
XAxis mode: Wavelengths
Number of Pixels in Spectrum: 2048
>>>>>Begin Spectral Data<<<<<
223.165	-5.12
223.4	-5.12
223.635	-5.12
223.869	-37.12
224.104	-27.12
224.338	-9.12
224.573	-12.12
224.808	-10.12
225.042	-20.12
225.277	-8.12
225.511	9.88
225.746	8.88
225.98	8.88
226.215	7.88
226.449	26.88
226.683	18.88
226.918	16.88
227.152	30.88
227.387	34.88
227.621	37.88
227.856	46.88
228.09	38.88
228.324	46.88
228.559	56.88
228.793	64.88
229.027	64.88
229.262	55.88
229.496	82.88
229.73	94.88
229.964	88.88
230.199	71.88
230.433	63.88
230.667	81.88
230.901	69.88
231.136	83.88
231.37	78.88
231.604	82.88
231.838	94.88
232.072	71.88
232.306	84.88
232.541	78.88
232.775	83.88
233.009	85.88
233.243	86.88
233.477	85.88
233.711	77.88
233.945	91.88
234.179	80.88
234.413	87.88
234.647	75.88
234.881	74.88
235.115	73.88
235.349	91.88
235.583	85.88
235.817	84.88
236.051	67.88
236.285	76.88
236.519	89.88
236.753	91.88
236.987	77.88
237.221	89.88
237.455	87.88
237.689	72.88
237.922	76.88
238.156	74.88
238.39	79.88
238.624	84.88
238.858	71.88
239.091	67.88
239.325	70.88
239.559	79.88
239.793	79.88
240.027	75.88
240.26	95.88
240.494	83.88
240.728	67.88
240.961	89.88
241.195	93.88
241.429	66.88
241.662	78.88
241.896	85.88
242.13	88.88
242.363	86.88
242.597	78.88
242.83	84.88
243.064	73.88
243.298	78.88
243.531	76.88
243.765	84.88
243.998	86.88
244.232	83.88
244.465	84.88
244.699	83.88
244.932	76.88
245.166	85.88
245.399	81.88
245.633	78.88
245.866	82.88
246.099	71.88
246.333	84.88
246.566	74.88
246.8	95.88
247.033	73.88
247.266	86.88
247.5	77.88
247.733	85.88
247.966	77.88
248.2	66.88
248.433	75.88
248.666	76.88
248.899	89.88
249.133	92.88
249.366	90.88
249.599	99.88
249.832	79.88
250.066	95.88
250.299	78.88
250.532	81.88
250.765	72.88
250.998	92.88
251.231	79.88
251.465	73.88
251.698	104.88
251.931	84.88
252.164	62.88
252.397	86.88
252.63	84.88
252.863	84.88
253.096	79.88
253.329	81.88
253.562	78.88
253.795	85.88
254.028	84.88
254.261	85.88
254.494	93.88
254.727	82.88
254.96	83.88
255.193	74.88
255.426	87.88
255.659	84.88
255.892	90.88
256.124	91.88
256.357	88.88
256.59	86.88
256.823	90.88
257.056	78.88
257.289	91.88
257.521	84.88
257.754	81.88
257.987	87.88
258.22	84.88
258.452	78.88
258.685	80.88
258.918	95.88
259.151	83.88
259.383	70.88
259.616	89.88
259.849	83.88
260.081	78.88
260.314	89.88
260.547	79.88
260.779	85.88
261.012	88.88
261.244	96.88
261.477	94.88
261.71	94.88
261.942	138.88
262.175	122.88
262.407	105.88
262.64	79.88
262.872	93.88
263.105	84.88
263.337	74.88
263.57	83.88
263.802	85.88
264.035	69.88
264.267	84.88
264.499	77.88
264.732	89.88
264.964	93.88
265.197	77.88
265.429	88.88
265.661	81.88
265.894	79.88
266.126	87.88
266.358	87.88
266.591	82.88
266.823	71.88
267.055	75.88
267.287	79.88
267.52	88.88
267.752	83.88
267.984	83.88
268.216	82.88
268.448	79.88
268.681	74.88
268.913	98.88
269.145	87.88
269.377	77.88
269.609	83.88
269.841	75.88
270.073	87.88
270.306	81.88
270.538	91.88
270.77	85.88
271.002	90.88
271.234	91.88
271.466	86.88
271.698	84.88
271.93	85.88
272.162	79.88
272.394	73.88
272.626	82.88
272.858	71.88
273.09	69.88
273.322	96.88
273.553	79.88
273.785	80.88
274.017	95.88
274.249	74.88
274.481	89.88
274.713	88.88
274.945	91.88
275.176	90.88
275.408	80.88
275.64	101.88
275.872	96.88
276.104	93.88
276.335	99.88
276.567	107.88
276.799	124.88
277.031	141.88
277.262	137.88
277.494	120.88
277.726	102.88
277.957	72.88
278.189	77.88
278.421	85.88
278.652	85.88
278.884	91.88
279.115	86.88
279.347	91.88
279.579	87.88
279.81	119.88
280.042	151.88
280.273	165.88
280.505	124.88
280.736	107.88
280.968	96.88
281.199	90.88
281.431	91.88
281.662	100.88
281.894	93.88
282.125	94.88
282.356	126.88
282.588	163.88
282.819	123.88
283.051	90.88
283.282	90.88
283.513	86.88
283.745	78.88
283.976	85.88
284.207	87.88
284.439	92.88
284.67	83.88
284.901	96.88
285.132	84.88
285.364	78.88
285.595	79.88
285.826	92.88
286.057	83.88
286.288	84.88
286.52	81.88
286.751	88.88
286.982	94.88
287.213	85.88
287.444	82.88
287.675	84.88
287.906	78.88
288.138	87.88
288.369	83.88
288.6	100.88
288.831	73.88
289.062	87.88
289.293	82.88
289.524	81.88
289.755	76.88
289.986	84.88
290.217	88.88
290.448	83.88
290.679	83.88
290.91	84.88
291.141	86.88
291.371	84.88
291.602	83.88
291.833	83.88
292.064	59.88
292.295	91.88
292.526	79.88
292.757	99.88
292.987	89.88
293.218	93.88
293.449	89.88
293.68	90.88
293.91	82.88
294.141	92.88
294.372	86.88
294.603	91.88
294.833	83.88
295.064	97.88
295.295	92.88
295.525	87.88
295.756	114.88
295.987	140.88
296.217	148.88
296.448	133.88
296.679	104.88
296.909	91.88
297.14	83.88
297.37	96.88
297.601	81.88
297.831	67.88
298.062	97.88
298.292	89.88
298.523	83.88
298.753	88.88
298.984	102.88
299.214	89.88
299.445	102.88
299.675	100.88
299.905	102.88
300.136	111.88
300.366	77.88
300.597	102.88
300.827	91.88
301.057	103.88
301.288	106.88
301.518	76.88
301.748	102.88
301.979	90.88
302.209	83.88
302.439	92.88
302.669	86.88
302.9	108.88
303.13	87.88
303.36	100.88
303.59	125.88
303.82	127.88
304.051	85.88
304.281	85.88
304.511	95.88
304.741	93.88
304.971	81.88
305.201	93.88
305.431	84.88
305.661	81.88
305.891	88.88
306.121	82.88
306.352	93.88
306.582	112.88
306.812	86.88
307.042	121.88
307.272	125.88
307.502	120.88
307.731	133.88
307.961	108.88
308.191	93.88
308.421	87.88
308.651	95.88
308.881	100.88
309.111	86.88
309.341	93.88
309.571	108.88
309.8	95.88
310.03	104.88
310.26	109.88
310.49	87.88
310.72	90.88
310.949	110.88
311.179	110.88
311.409	99.88
311.639	106.88
311.868	109.88
312.098	93.88
312.328	98.88
312.557	100.88
312.787	129.88
313.017	95.88
313.246	92.88
313.476	94.88
313.706	89.88
313.935	108.88
314.165	95.88
314.394	96.88
314.624	101.88
314.853	98.88
315.083	104.88
315.312	91.88
315.542	84.88
315.771	87.88
316.001	89.88
316.23	86.88
316.46	99.88
316.689	99.88
316.919	85.88
317.148	100.88
317.377	98.88
317.607	95.88
317.836	97.88
318.065	97.88
318.295	90.88
318.524	90.88
318.753	90.88
318.983	78.88
319.212	93.88
319.441	107.88
319.67	106.88
319.9	91.88
320.129	86.88
320.358	102.88
320.587	94.88
320.816	101.88
321.046	95.88
321.275	97.88
321.504	99.88
321.733	92.88
321.962	100.88
322.191	97.88
322.42	119.88
322.649	113.88
322.878	110.88
323.108	113.88
323.337	131.88
323.566	157.88
323.795	161.88
324.024	215.88
324.253	449.88
324.482	947.88
324.71	1950.88
324.939	2554.88
325.168	929.88
325.397	250.88
325.626	169.88
325.855	141.88
326.084	130.88
326.313	147.88
326.542	160.88
326.77	251.88
326.999	506.88
327.228	1021.88
327.457	1831.88
327.686	1523.88
327.914	502.88
328.143	376.88
328.372	433.88
328.6	241.88
328.829	154.88
329.058	159.88
329.287	181.88
329.515	145.88
329.744	181.88
329.972	321.88
330.201	577.88
330.43	839.88
330.658	419.88
330.887	231.88
331.115	150.88
331.344	109.88
331.572	117.88
331.801	115.88
332.03	111.88
332.258	111.88
332.486	102.88
332.715	96.88
332.943	95.88
333.172	104.88
333.4	108.88
333.629	121.88
333.857	179.88
334.085	297.88
334.314	541.88
334.542	1035.88
334.771	981.88
334.999	308.88
335.227	134.88
335.455	131.88
335.684	106.88
335.912	120.88
336.14	99.88
336.369	115.88
336.597	129.88
336.825	95.88
337.053	98.88
337.281	81.88
337.51	104.88
337.738	99.88
337.966	104.88
338.194	96.88
338.422	104.88
338.65	104.88
338.878	89.88
339.106	73.88
339.334	83.88
339.562	105.88
339.79	89.88
340.018	106.88
340.246	89.88
340.474	98.88
340.702	97.88
340.93	85.88
341.158	83.88
341.386	93.88
341.614	100.88
341.842	108.88
342.07	103.88
342.298	91.88
342.526	90.88
342.754	73.88
342.981	84.88
343.209	88.88
343.437	100.88
343.665	79.88
343.893	93.88
344.12	104.88
344.348	79.88
344.576	100.88
344.804	76.88
345.031	124.88
345.259	104.88
345.487	97.88
345.714	91.88
345.942	93.88
346.17	100.88
346.397	83.88
346.625	81.88
346.853	81.88
347.08	93.88
347.308	86.88
347.535	108.88
347.763	96.88
347.99	104.88
348.218	111.88
348.445	118.88
348.673	112.88
348.9	107.88
349.128	87.88
349.355	88.88
349.583	94.88
349.81	98.88
350.037	96.88
350.265	85.88
350.492	106.88
350.72	93.88
350.947	104.88
351.174	115.88
351.402	101.88
351.629	111.88
351.856	100.88
352.083	94.88
352.311	120.88
352.538	114.88
352.765	109.88
352.992	118.88
353.22	114.88
353.447	95.88
353.674	95.88
353.901	100.88
354.128	84.88
354.355	108.88
354.583	98.88
354.81	107.88
355.037	113.88
355.264	97.88
355.491	86.88
355.718	89.88
355.945	84.88
356.172	100.88
356.399	109.88
356.626	89.88
356.853	78.88
357.08	95.88
357.307	87.88
357.534	81.88
357.761	84.88
357.988	105.88
358.215	93.88
358.441	96.88
358.668	81.88
358.895	73.88
359.122	81.88
359.349	87.88
359.576	102.88
359.802	108.88
360.029	135.88
360.256	128.88
360.483	95.88
360.709	100.88
360.936	95.88
361.163	101.88
361.39	78.88
361.616	98.88
361.843	91.88
362.07	107.88
362.296	86.88
362.523	90.88
362.749	97.88
362.976	70.88
363.203	102.88
363.429	91.88
363.656	75.88
363.882	88.88
364.109	88.88
364.335	85.88
364.562	86.88
364.788	88.88
365.015	102.88
365.241	107.88
365.468	107.88
365.694	116.88
365.92	111.88
366.147	97.88
366.373	92.88
366.599	89.88
366.826	95.88
367.052	92.88
367.278	83.88
367.505	91.88
367.731	92.88
367.957	92.88
368.184	84.88
368.41	100.88
368.636	119.88
368.862	131.88
369.089	107.88
369.315	105.88
369.541	91.88
369.767	97.88
369.993	85.88
370.219	105.88
370.445	90.88
370.672	77.88
370.898	76.88
371.124	98.88
371.35	86.88
371.576	99.88
371.802	84.88
372.028	90.88
372.254	77.88
372.48	84.88
372.706	83.88
372.932	93.88
373.158	93.88
373.384	94.88
373.61	85.88
373.835	95.88
374.061	91.88
374.287	90.88
374.513	90.88
374.739	86.88
374.965	88.88
375.191	76.88
375.416	90.88
375.642	82.88
375.868	87.88
376.094	97.88
376.319	85.88
376.545	81.88
376.771	86.88
376.997	81.88
377.222	94.88
377.448	105.88
377.674	75.88
377.899	85.88
378.125	84.88
378.35	85.88
378.576	85.88
378.802	92.88
379.027	88.88
379.253	96.88
379.478	103.88
379.704	93.88
379.929	93.88
380.155	115.88
380.38	94.88
380.606	92.88
380.831	99.88
381.057	87.88
381.282	85.88
381.507	94.88
381.733	94.88
381.958	90.88
382.184	99.88
382.409	92.88
382.634	94.88
382.86	94.88
383.085	97.88
383.31	102.88
383.535	102.88
383.761	101.88
383.986	93.88
384.211	83.88
384.436	93.88
384.662	88.88
384.887	101.88
385.112	113.88
385.337	106.88
385.562	110.88
385.787	95.88
386.013	98.88
386.238	118.88
386.463	113.88
386.688	110.88
386.913	93.88
387.138	92.88
387.363	116.88
387.588	106.88
387.813	88.88
388.038	101.88
388.263	101.88
388.488	100.88
388.713	95.88
388.938	90.88
389.163	108.88
389.387	97.88
389.612	88.88
389.837	93.88
390.062	89.88
390.287	87.88
390.512	110.88
390.736	93.88
390.961	96.88
391.186	92.88
391.411	92.88
391.636	79.88
391.86	90.88
392.085	74.88
392.31	84.88
392.534	91.88
392.759	98.88
392.984	86.88
393.208	72.88
393.433	85.88
393.658	76.88
393.882	81.88
394.107	77.88
394.331	91.88
394.556	91.88
394.78	89.88
395.005	100.88
395.229	82.88
395.454	87.88
395.678	88.88
395.903	79.88
396.127	99.88
396.352	86.88
396.576	74.88
396.801	86.88
397.025	86.88
397.249	74.88
397.474	86.88
397.698	79.88
397.922	69.88
398.147	96.88
398.371	85.88
398.595	88.88
398.82	86.88
399.044	90.88
399.268	84.88
399.492	90.88
399.717	88.88
399.941	71.88
400.165	105.88
400.389	107.88
400.613	100.88
400.837	92.88
401.062	87.88
401.286	89.88
401.51	87.88
401.734	86.88
401.958	115.88
402.182	151.88
402.406	192.88
402.63	151.88
402.854	115.88
403.078	83.88
403.302	88.88
403.526	82.88
403.75	84.88
403.974	85.88
404.198	94.88
404.422	110.88
404.645	100.88
404.869	90.88
405.093	107.88
405.317	125.88
405.541	125.88
405.765	109.88
405.988	119.88
406.212	192.88
406.436	279.88
406.66	178.88
406.883	117.88
407.107	95.88
407.331	100.88
407.555	107.88
407.778	107.88
408.002	89.88
408.226	85.88
408.449	109.88
408.673	98.88
408.896	74.88
409.12	99.88
409.344	88.88
409.567	86.88
409.791	83.88
410.014	86.88
410.238	91.88
410.461	99.88
410.685	94.88
410.908	100.88
411.132	104.88
411.355	99.88
411.578	90.88
411.802	81.88
412.025	91.88
412.249	99.88
412.472	117.88
412.695	127.88
412.919	101.88
413.142	89.88
413.365	85.88
413.589	86.88
413.812	86.88
414.035	102.88
414.258	81.88
414.482	99.88
414.705	94.88
414.928	90.88
415.151	103.88
415.374	93.88
415.597	93.88
415.821	97.88
416.044	85.88
416.267	97.88
416.49	93.88
416.713	87.88
416.936	87.88
417.159	92.88
417.382	87.88
417.605	92.88
417.828	111.88
418.051	90.88
418.274	81.88
418.497	96.88
418.72	79.88
418.943	91.88
419.166	84.88
419.389	68.88
419.611	94.88
419.834	77.88
420.057	83.88
420.28	93.88
420.503	87.88
420.726	89.88
420.948	95.88
421.171	100.88
421.394	82.88
421.617	98.88
421.839	82.88
422.062	101.88
422.285	88.88
422.507	103.88
422.73	117.88
422.953	103.88
423.175	72.88
423.398	75.88
423.621	95.88
423.843	95.88
424.066	92.88
424.288	84.88
424.511	98.88
424.733	103.88
424.956	99.88
425.178	111.88
425.401	106.88
425.623	98.88
425.846	92.88
426.068	88.88
426.291	93.88
426.513	93.88
426.735	93.88
426.958	90.88
427.18	109.88
427.402	151.88
427.625	223.88
427.847	208.88
428.069	185.88
428.292	116.88
428.514	93.88
428.736	88.88
428.958	88.88
429.181	84.88
429.403	91.88
429.625	82.88
429.847	97.88
430.069	97.88
430.292	86.88
430.514	97.88
430.736	87.88
430.958	91.88
431.18	93.88
431.402	71.88
431.624	77.88
431.846	98.88
432.068	84.88
432.29	90.88
432.512	78.88
432.734	98.88
432.956	78.88
433.178	90.88
433.4	104.88
433.622	98.88
433.844	94.88
434.066	95.88
434.287	85.88
434.509	85.88
434.731	86.88
434.953	82.88
435.175	83.88
435.397	91.88
435.618	107.88
435.84	117.88
436.062	114.88
436.284	122.88
436.505	106.88
436.727	118.88
436.949	94.88
437.17	77.88
437.392	80.88
437.614	99.88
437.835	111.88
438.057	117.88
438.278	127.88
438.5	105.88
438.721	127.88
438.943	107.88
439.165	89.88
439.386	100.88
439.608	76.88
439.829	105.88
440.05	150.88
440.272	163.88
440.493	109.88
440.715	89.88
440.936	98.88
441.158	87.88
441.379	76.88
441.6	92.88
441.822	106.88
442.043	97.88
442.264	115.88
442.486	108.88
442.707	107.88
442.928	110.88
443.149	153.88
443.371	164.88
443.592	132.88
443.813	118.88
444.034	113.88
444.255	93.88
444.476	88.88
444.698	94.88
444.919	89.88
445.14	109.88
445.361	127.88
445.582	111.88
445.803	151.88
446.024	147.88
446.245	142.88
446.466	119.88
446.687	99.88
446.908	104.88
447.129	93.88
447.35	91.88
447.571	108.88
447.792	91.88
448.013	100.88
448.234	114.88
448.455	88.88
448.675	119.88
448.896	120.88
449.117	104.88
449.338	90.88
449.559	125.88
449.779	139.88
450	121.88
450.221	92.88
450.442	95.88
450.662	90.88
450.883	125.88
451.104	124.88
451.324	91.88
451.545	97.88
451.766	83.88
451.986	77.88
452.207	91.88
452.428	88.88
452.648	114.88
452.869	114.88
453.089	141.88
453.31	143.88
453.53	113.88
453.751	90.88
453.971	111.88
454.192	133.88
454.412	91.88
454.633	75.88
454.853	94.88
455.073	83.88
455.294	78.88
455.514	91.88
455.734	94.88
455.955	66.88
456.175	85.88
456.395	78.88
456.616	100.88
456.836	96.88
457.056	91.88
457.276	79.88
457.497	77.88
457.717	77.88
457.937	79.88
458.157	78.88
458.377	97.88
458.598	110.88
458.818	191.88
459.038	204.88
459.258	137.88
459.478	87.88
459.698	77.88
459.918	90.88
460.138	90.88
460.358	93.88
460.578	88.88
460.798	85.88
461.018	99.88
461.238	94.88
461.458	77.88
461.678	97.88
461.898	92.88
462.118	88.88
462.338	84.88
462.558	77.88
462.777	89.88
462.997	105.88
463.217	94.88
463.437	89.88
463.657	81.88
463.876	90.88
464.096	90.88
464.316	87.88
464.536	88.88
464.755	89.88
464.975	119.88
465.195	205.88
465.414	213.88
465.634	103.88
465.854	93.88
466.073	87.88
466.293	93.88
466.512	99.88
466.732	93.88
466.951	96.88
467.171	85.88
467.391	99.88
467.61	111.88
467.829	151.88
468.049	315.88
468.268	503.88
468.488	155.88
468.707	103.88
468.927	93.88
469.146	90.88
469.365	75.88
469.585	89.88
469.804	94.88
470.023	108.88
470.243	93.88
470.462	111.88
470.681	136.88
470.901	95.88
471.12	104.88
471.339	99.88
471.558	96.88
471.777	113.88
471.997	199.88
472.216	635.88
472.435	1429.88
472.654	375.88
472.873	121.88
473.092	79.88
473.311	83.88
473.53	88.88
473.749	85.88
473.968	98.88
474.187	122.88
474.406	103.88
474.625	90.88
474.844	85.88
475.063	82.88
475.282	95.88
475.501	87.88
475.72	97.88
475.939	100.88
476.158	75.88
476.377	84.88
476.596	88.88
476.814	90.88
477.033	110.88
477.252	90.88
477.471	84.88
477.69	87.88
477.908	99.88
478.127	81.88
478.346	110.88
478.564	77.88
478.783	97.88
479.002	95.88
479.22	93.88
479.439	110.88
479.658	114.88
479.876	115.88
480.095	105.88
480.313	106.88
480.532	125.88
480.751	191.88
480.969	591.88
481.188	2364.88
481.406	1512.88
481.624	251.88
481.843	119.88
482.061	113.88
482.28	106.88
482.498	89.88
482.717	84.88
482.935	70.88
483.153	88.88
483.372	85.88
483.59	92.88
483.808	86.88
484.027	86.88
484.245	83.88
484.463	95.88
484.681	92.88
484.9	89.88
485.118	84.88
485.336	97.88
485.554	101.88
485.772	102.88
485.99	106.88
486.209	113.88
486.427	125.88
486.645	109.88
486.863	113.88
487.081	102.88
487.299	83.88
487.517	99.88
487.735	98.88
487.953	89.88
488.171	91.88
488.389	95.88
488.607	101.88
488.825	85.88
489.043	96.88
489.261	85.88
489.479	85.88
489.696	68.88
489.914	90.88
490.132	77.88
490.35	87.88
490.568	77.88
490.786	79.88
491.003	91.88
491.221	85.88
491.439	105.88
491.657	98.88
491.874	93.88
492.092	97.88
492.31	98.88
492.527	91.88
492.745	89.88
492.963	98.88
493.18	96.88
493.398	97.88
493.615	90.88
493.833	94.88
494.05	87.88
494.268	86.88
494.485	87.88
494.703	98.88
494.92	92.88
495.138	89.88
495.355	84.88
495.573	108.88
495.79	106.88
496.008	87.88
496.225	102.88
496.442	90.88
496.66	82.88
496.877	78.88
497.094	96.88
497.312	104.88
497.529	87.88
497.746	97.88
497.963	95.88
498.181	87.88
498.398	107.88
498.615	113.88
498.832	107.88
499.049	91.88
499.267	92.88
499.484	97.88
499.701	89.88
499.918	85.88
500.135	87.88
500.352	93.88
500.569	96.88
500.786	101.88
501.003	89.88
501.22	77.88
501.437	103.88
501.654	89.88
501.871	110.88
502.088	105.88
502.305	94.88
502.522	93.88
502.739	92.88
502.956	80.88
503.172	98.88
503.389	99.88
503.606	126.88
503.823	100.88
504.04	99.88
504.256	99.88
504.473	89.88
504.69	90.88
504.907	93.88
505.123	86.88
505.34	95.88
505.557	94.88
505.773	83.88
505.99	98.88
506.207	98.88
506.423	90.88
506.64	94.88
506.856	76.88
507.073	105.88
507.289	88.88
507.506	112.88
507.722	137.88
507.939	126.88
508.155	95.88
508.372	90.88
508.588	91.88
508.805	101.88
509.021	99.88
509.238	94.88
509.454	89.88
509.67	104.88
509.887	121.88
510.103	157.88
510.319	203.88
510.536	836.88
510.752	2835.88
510.968	827.88
511.184	164.88
511.401	113.88
511.617	101.88
511.833	107.88
512.049	107.88
512.265	87.88
512.481	96.88
512.698	97.88
512.914	89.88
513.13	86.88
513.346	101.88
513.562	95.88
513.778	88.88
513.994	105.88
514.21	111.88
514.426	131.88
