Data from Circ_2013_H10_HRD10591_00051.txt Node
Date: Wed Jan 03 10:04:10 EST 2024
User: Yrep
Spectrometer: HR+D1059
Trigger mode: 1
Integration Time (sec): 1.000000E-1
Scans to average: 1
Electric dark correction enabled: true
Nonlinearity correction enabled: false
Boxcar width: 0
XAxis mode: Wavelengths
Number of Pixels in Spectrum: 2048
>>>>>Begin Spectral Data<<<<<
223.165	-18.19
223.4	-18.19
223.635	-18.19
223.869	-14.19
224.104	-17.19
224.338	-19.19
224.573	-7.19
224.808	-17.19
225.042	-2.19
225.277	-22.19
225.511	-13.19
225.746	8.81
225.98	12.81
226.215	14.81
226.449	18.81
226.683	15.81
226.918	32.81
227.152	26.81
227.387	31.81
227.621	35.81
227.856	35.81
228.09	32.81
228.324	50.81
228.559	38.81
228.793	46.81
229.027	55.81
229.262	61.81
229.496	74.81
229.73	87.81
229.964	73.81
230.199	70.81
230.433	64.81
230.667	64.81
230.901	80.81
231.136	75.81
231.37	85.81
231.604	82.81
231.838	81.81
232.072	70.81
232.306	87.81
232.541	76.81
232.775	80.81
233.009	73.81
233.243	81.81
233.477	74.81
233.711	73.81
233.945	80.81
234.179	64.81
234.413	80.81
234.647	76.81
234.881	71.81
235.115	70.81
235.349	74.81
235.583	73.81
235.817	71.81
236.051	70.81
236.285	76.81
236.519	75.81
236.753	71.81
236.987	82.81
237.221	87.81
237.455	80.81
237.689	67.81
237.922	74.81
238.156	75.81
238.39	61.81
238.624	68.81
238.858	77.81
239.091	65.81
239.325	75.81
239.559	78.81
239.793	73.81
240.027	70.81
240.26	78.81
240.494	79.81
240.728	70.81
240.961	76.81
241.195	74.81
241.429	55.81
241.662	64.81
241.896	76.81
242.13	79.81
242.363	85.81
242.597	63.81
242.83	60.81
243.064	54.81
243.298	77.81
243.531	80.81
243.765	84.81
243.998	72.81
244.232	93.81
244.465	82.81
244.699	71.81
244.932	77.81
245.166	76.81
245.399	65.81
245.633	47.81
245.866	63.81
246.099	68.81
246.333	85.81
246.566	77.81
246.8	76.81
247.033	72.81
247.266	62.81
247.5	73.81
247.733	61.81
247.966	67.81
248.2	86.81
248.433	74.81
248.666	66.81
248.899	74.81
249.133	76.81
249.366	90.81
249.599	101.81
249.832	81.81
250.066	80.81
250.299	71.81
250.532	72.81
250.765	71.81
250.998	84.81
251.231	88.81
251.465	76.81
251.698	65.81
251.931	80.81
252.164	68.81
252.397	64.81
252.63	87.81
252.863	78.81
253.096	83.81
253.329	82.81
253.562	84.81
253.795	82.81
254.028	68.81
254.261	65.81
254.494	81.81
254.727	87.81
254.96	86.81
255.193	76.81
255.426	59.81
255.659	73.81
255.892	74.81
256.124	73.81
256.357	80.81
256.59	64.81
256.823	82.81
257.056	77.81
257.289	79.81
257.521	90.81
257.754	74.81
257.987	79.81
258.22	100.81
258.452	82.81
258.685	85.81
258.918	83.81
259.151	71.81
259.383	89.81
259.616	74.81
259.849	77.81
260.081	77.81
260.314	81.81
260.547	85.81
260.779	89.81
261.012	77.81
261.244	81.81
261.477	87.81
261.71	89.81
261.942	108.81
262.175	126.81
262.407	83.81
262.64	86.81
262.872	86.81
263.105	84.81
263.337	78.81
263.57	79.81
263.802	77.81
264.035	97.81
264.267	66.81
264.499	81.81
264.732	87.81
264.964	71.81
265.197	72.81
265.429	69.81
265.661	73.81
265.894	72.81
266.126	90.81
266.358	74.81
266.591	87.81
266.823	64.81
267.055	84.81
267.287	84.81
267.52	73.81
267.752	83.81
267.984	85.81
268.216	78.81
268.448	82.81
268.681	83.81
268.913	79.81
269.145	82.81
269.377	86.81
269.609	78.81
269.841	91.81
270.073	71.81
270.306	87.81
270.538	76.81
270.77	76.81
271.002	74.81
271.234	83.81
271.466	81.81
271.698	87.81
271.93	77.81
272.162	85.81
272.394	89.81
272.626	84.81
272.858	73.81
273.09	82.81
273.322	78.81
273.553	70.81
273.785	78.81
274.017	77.81
274.249	78.81
274.481	73.81
274.713	71.81
274.945	71.81
275.176	84.81
275.408	84.81
275.64	97.81
275.872	101.81
276.104	79.81
276.335	81.81
276.567	113.81
276.799	124.81
277.031	138.81
277.262	130.81
277.494	124.81
277.726	97.81
277.957	82.81
278.189	91.81
278.421	80.81
278.652	61.81
278.884	88.81
279.115	95.81
279.347	90.81
279.579	86.81
279.81	88.81
280.042	132.81
280.273	165.81
280.505	127.81
280.736	94.81
280.968	91.81
281.199	87.81
281.431	81.81
281.662	86.81
281.894	90.81
282.125	96.81
282.356	111.81
282.588	149.81
282.819	120.81
283.051	82.81
283.282	92.81
283.513	77.81
283.745	65.81
283.976	92.81
284.207	78.81
284.439	91.81
284.67	73.81
284.901	77.81
285.132	71.81
285.364	91.81
285.595	69.81
285.826	85.81
286.057	91.81
286.288	93.81
286.52	90.81
286.751	69.81
286.982	73.81
287.213	93.81
287.444	87.81
287.675	87.81
287.906	79.81
288.138	85.81
288.369	90.81
288.6	80.81
288.831	89.81
289.062	80.81
289.293	87.81
289.524	93.81
289.755	87.81
289.986	82.81
290.217	85.81
290.448	91.81
290.679	86.81
290.91	80.81
291.141	65.81
291.371	82.81
291.602	82.81
291.833	99.81
292.064	99.81
292.295	78.81
292.526	89.81
292.757	85.81
292.987	85.81
293.218	81.81
293.449	88.81
293.68	88.81
293.91	81.81
294.141	78.81
294.372	71.81
294.603	86.81
294.833	87.81
295.064	90.81
295.295	92.81
295.525	96.81
295.756	109.81
295.987	112.81
296.217	143.81
296.448	135.81
296.679	83.81
296.909	84.81
297.14	67.81
297.37	94.81
297.601	88.81
297.831	88.81
298.062	80.81
298.292	83.81
298.523	92.81
298.753	83.81
298.984	86.81
299.214	80.81
299.445	81.81
299.675	73.81
299.905	96.81
300.136	87.81
300.366	82.81
300.597	84.81
300.827	103.81
301.057	104.81
301.288	110.81
301.518	87.81
301.748	97.81
301.979	110.81
302.209	105.81
302.439	87.81
302.669	89.81
302.9	91.81
303.13	79.81
303.36	89.81
303.59	96.81
303.82	120.81
304.051	99.81
304.281	97.81
304.511	78.81
304.741	58.81
304.971	72.81
305.201	89.81
305.431	94.81
305.661	93.81
305.891	86.81
306.121	91.81
306.352	92.81
306.582	107.81
306.812	105.81
307.042	97.81
307.272	112.81
307.502	136.81
307.731	118.81
307.961	108.81
308.191	91.81
308.421	73.81
308.651	81.81
308.881	86.81
309.111	100.81
309.341	94.81
309.571	90.81
309.8	85.81
310.03	93.81
310.26	92.81
310.49	89.81
310.72	82.81
310.949	92.81
311.179	87.81
311.409	79.81
311.639	100.81
311.868	93.81
312.098	96.81
312.328	94.81
312.557	88.81
312.787	112.81
313.017	92.81
313.246	96.81
313.476	83.81
313.706	84.81
313.935	88.81
314.165	106.81
314.394	99.81
314.624	90.81
314.853	96.81
315.083	87.81
315.312	87.81
315.542	85.81
315.771	91.81
316.001	88.81
316.23	79.81
316.46	84.81
316.689	93.81
316.919	82.81
317.148	80.81
317.377	92.81
317.607	93.81
317.836	107.81
318.065	79.81
318.295	87.81
318.524	82.81
318.753	85.81
318.983	87.81
319.212	84.81
319.441	107.81
319.67	92.81
319.9	99.81
320.129	88.81
320.358	84.81
320.587	105.81
320.816	91.81
321.046	104.81
321.275	84.81
321.504	85.81
321.733	81.81
321.962	92.81
322.191	99.81
322.42	102.81
322.649	111.81
322.878	107.81
323.108	98.81
323.337	132.81
323.566	140.81
323.795	166.81
324.024	228.81
324.253	405.81
324.482	854.81
324.71	1741.81
324.939	2316.81
325.168	842.81
325.397	254.81
325.626	153.81
325.855	121.81
326.084	134.81
326.313	123.81
326.542	161.81
326.77	238.81
326.999	464.81
327.228	943.81
327.457	1681.81
327.686	1370.81
327.914	426.81
328.143	329.81
328.372	392.81
328.6	240.81
328.829	146.81
329.058	142.81
329.287	153.81
329.515	150.81
329.744	161.81
329.972	257.81
330.201	478.81
330.43	709.81
330.658	363.81
330.887	194.81
331.115	153.81
331.344	100.81
331.572	95.81
331.801	100.81
332.03	105.81
332.258	101.81
332.486	89.81
332.715	109.81
332.943	105.81
333.172	103.81
333.4	106.81
333.629	118.81
333.857	154.81
334.085	260.81
334.314	461.81
334.542	857.81
334.771	851.81
334.999	275.81
335.227	140.81
335.455	119.81
335.684	112.81
335.912	90.81
336.14	97.81
336.369	99.81
336.597	94.81
336.825	94.81
337.053	103.81
337.281	92.81
337.51	94.81
337.738	93.81
337.966	84.81
338.194	89.81
338.422	82.81
338.65	92.81
338.878	95.81
339.106	78.81
339.334	88.81
339.562	87.81
339.79	82.81
340.018	77.81
340.246	81.81
340.474	85.81
340.702	84.81
340.93	72.81
341.158	71.81
341.386	90.81
341.614	95.81
341.842	97.81
342.07	72.81
342.298	88.81
342.526	92.81
342.754	84.81
342.981	88.81
343.209	97.81
343.437	83.81
343.665	96.81
343.893	74.81
344.12	73.81
344.348	82.81
344.576	97.81
344.804	109.81
345.031	77.81
345.259	102.81
345.487	94.81
345.714	95.81
345.942	85.81
346.17	89.81
346.397	85.81
346.625	84.81
346.853	83.81
347.08	84.81
347.308	90.81
347.535	98.81
347.763	100.81
347.99	89.81
348.218	110.81
348.445	117.81
348.673	100.81
348.9	106.81
349.128	69.81
349.355	85.81
349.583	83.81
349.81	90.81
350.037	97.81
350.265	95.81
350.492	101.81
350.72	93.81
350.947	105.81
351.174	104.81
351.402	105.81
351.629	99.81
351.856	90.81
352.083	100.81
352.311	103.81
352.538	92.81
352.765	110.81
352.992	108.81
353.22	125.81
353.447	99.81
353.674	89.81
353.901	98.81
354.128	98.81
354.355	74.81
354.583	94.81
354.81	96.81
355.037	83.81
355.264	105.81
355.491	85.81
355.718	87.81
355.945	82.81
356.172	101.81
356.399	85.81
356.626	93.81
356.853	77.81
357.08	88.81
357.307	85.81
357.534	83.81
357.761	93.81
357.988	81.81
358.215	90.81
358.441	85.81
358.668	84.81
358.895	78.81
359.122	80.81
359.349	82.81
359.576	84.81
359.802	105.81
360.029	115.81
360.256	116.81
360.483	93.81
360.709	93.81
360.936	92.81
361.163	90.81
361.39	89.81
361.616	91.81
361.843	97.81
362.07	97.81
362.296	87.81
362.523	93.81
362.749	89.81
362.976	88.81
363.203	85.81
363.429	77.81
363.656	86.81
363.882	89.81
364.109	78.81
364.335	105.81
364.562	86.81
364.788	95.81
365.015	82.81
365.241	93.81
365.468	101.81
365.694	103.81
365.92	91.81
366.147	92.81
366.373	94.81
366.599	88.81
366.826	88.81
367.052	78.81
367.278	86.81
367.505	81.81
367.731	94.81
367.957	86.81
368.184	92.81
368.41	104.81
368.636	116.81
368.862	119.81
369.089	109.81
369.315	87.81
369.541	85.81
369.767	90.81
369.993	89.81
370.219	83.81
370.445	93.81
370.672	90.81
370.898	82.81
371.124	85.81
371.35	91.81
371.576	92.81
371.802	77.81
372.028	81.81
372.254	93.81
372.48	73.81
372.706	73.81
372.932	78.81
373.158	80.81
373.384	74.81
373.61	83.81
373.835	90.81
374.061	86.81
374.287	91.81
374.513	91.81
374.739	81.81
374.965	92.81
375.191	82.81
375.416	88.81
375.642	88.81
375.868	92.81
376.094	87.81
376.319	91.81
376.545	88.81
376.771	74.81
376.997	79.81
377.222	86.81
377.448	86.81
377.674	84.81
377.899	83.81
378.125	91.81
378.35	88.81
378.576	77.81
378.802	84.81
379.027	89.81
379.253	76.81
379.478	84.81
379.704	81.81
379.929	84.81
380.155	99.81
380.38	97.81
380.606	75.81
380.831	79.81
381.057	85.81
381.282	98.81
381.507	93.81
381.733	86.81
381.958	88.81
382.184	91.81
382.409	88.81
382.634	92.81
382.86	109.81
383.085	101.81
383.31	88.81
383.535	105.81
383.761	96.81
383.986	87.81
384.211	89.81
384.436	95.81
384.662	90.81
384.887	87.81
385.112	102.81
385.337	105.81
385.562	89.81
385.787	97.81
386.013	105.81
386.238	103.81
386.463	103.81
386.688	90.81
386.913	82.81
387.138	94.81
387.363	84.81
387.588	114.81
387.813	107.81
388.038	105.81
388.263	108.81
388.488	111.81
388.713	92.81
388.938	91.81
389.163	81.81
389.387	85.81
389.612	89.81
389.837	96.81
390.062	89.81
390.287	94.81
390.512	82.81
390.736	71.81
390.961	83.81
391.186	80.81
391.411	85.81
391.636	73.81
391.86	84.81
392.085	74.81
392.31	86.81
392.534	84.81
392.759	74.81
392.984	85.81
393.208	88.81
393.433	89.81
393.658	76.81
393.882	84.81
394.107	75.81
394.331	91.81
394.556	83.81
394.78	79.81
395.005	79.81
395.229	82.81
395.454	96.81
395.678	82.81
395.903	85.81
396.127	82.81
396.352	95.81
396.576	72.81
396.801	91.81
397.025	81.81
397.249	81.81
397.474	66.81
397.698	85.81
397.922	67.81
398.147	82.81
398.371	84.81
398.595	86.81
398.82	99.81
399.044	80.81
399.268	88.81
399.492	62.81
399.717	101.81
399.941	80.81
400.165	81.81
400.389	90.81
400.613	79.81
400.837	95.81
401.062	98.81
401.286	86.81
401.51	85.81
401.734	90.81
401.958	92.81
402.182	142.81
402.406	180.81
402.63	124.81
402.854	80.81
403.078	86.81
403.302	76.81
403.526	86.81
403.75	89.81
403.974	85.81
404.198	87.81
404.422	109.81
404.645	81.81
404.869	91.81
405.093	98.81
405.317	114.81
405.541	103.81
405.765	111.81
405.988	132.81
406.212	205.81
406.436	300.81
406.66	180.81
406.883	108.81
407.107	94.81
407.331	93.81
407.555	80.81
407.778	101.81
408.002	79.81
408.226	86.81
408.449	77.81
408.673	83.81
408.896	96.81
409.12	78.81
409.344	87.81
409.567	98.81
409.791	89.81
410.014	93.81
410.238	73.81
410.461	77.81
410.685	109.81
410.908	90.81
411.132	92.81
411.355	91.81
411.578	85.81
411.802	98.81
412.025	83.81
412.249	92.81
412.472	88.81
412.695	104.81
412.919	96.81
413.142	76.81
413.365	87.81
413.589	96.81
413.812	86.81
414.035	93.81
414.258	91.81
414.482	82.81
414.705	83.81
414.928	101.81
415.151	79.81
415.374	84.81
415.597	80.81
415.821	80.81
416.044	95.81
416.267	77.81
416.49	76.81
416.713	80.81
416.936	88.81
417.159	69.81
417.382	88.81
417.605	88.81
417.828	94.81
418.051	101.81
418.274	92.81
418.497	80.81
418.72	73.81
418.943	90.81
419.166	82.81
419.389	81.81
419.611	83.81
419.834	90.81
420.057	80.81
420.28	87.81
420.503	92.81
420.726	75.81
420.948	93.81
421.171	98.81
421.394	92.81
421.617	85.81
421.839	82.81
422.062	87.81
422.285	95.81
422.507	97.81
422.73	93.81
422.953	89.81
423.175	81.81
423.398	83.81
423.621	76.81
423.843	89.81
424.066	84.81
424.288	76.81
424.511	83.81
424.733	86.81
424.956	103.81
425.178	95.81
425.401	113.81
425.623	98.81
425.846	91.81
426.068	104.81
426.291	86.81
426.513	96.81
426.735	72.81
426.958	95.81
427.18	97.81
427.402	140.81
427.625	210.81
427.847	187.81
428.069	144.81
428.292	98.81
428.514	82.81
428.736	91.81
428.958	95.81
429.181	78.81
429.403	89.81
429.625	99.81
429.847	86.81
430.069	94.81
430.292	102.81
430.514	89.81
430.736	80.81
430.958	81.81
431.18	78.81
431.402	90.81
431.624	88.81
431.846	80.81
432.068	80.81
432.29	86.81
432.512	76.81
432.734	77.81
432.956	90.81
433.178	97.81
433.4	98.81
433.622	91.81
433.844	98.81
434.066	81.81
434.287	77.81
434.509	86.81
434.731	83.81
434.953	88.81
435.175	83.81
435.397	85.81
435.618	83.81
435.84	117.81
436.062	108.81
436.284	82.81
436.505	89.81
436.727	92.81
436.949	88.81
437.17	90.81
437.392	93.81
437.614	77.81
437.835	127.81
438.057	145.81
438.278	122.81
438.5	94.81
438.721	112.81
438.943	101.81
439.165	87.81
439.386	86.81
439.608	88.81
439.829	92.81
440.05	124.81
440.272	156.81
440.493	105.81
440.715	82.81
440.936	70.81
441.158	87.81
441.379	73.81
441.6	79.81
441.822	96.81
442.043	88.81
442.264	105.81
442.486	102.81
442.707	87.81
442.928	116.81
443.149	141.81
443.371	147.81
443.592	110.81
443.813	98.81
444.034	95.81
444.255	105.81
444.476	80.81
444.698	82.81
444.919	90.81
445.14	144.81
445.361	116.81
445.582	124.81
445.803	137.81
446.024	124.81
446.245	116.81
446.466	100.81
446.687	94.81
446.908	77.81
447.129	86.81
447.35	85.81
447.571	104.81
447.792	79.81
448.013	95.81
448.234	103.81
448.455	104.81
448.675	99.81
448.896	124.81
449.117	89.81
449.338	98.81
449.559	125.81
449.779	129.81
450	78.81
450.221	96.81
450.442	97.81
450.662	100.81
450.883	93.81
451.104	120.81
451.324	96.81
451.545	88.81
451.766	68.81
451.986	92.81
452.207	94.81
452.428	85.81
452.648	97.81
452.869	124.81
453.089	117.81
453.31	126.81
453.53	95.81
453.751	88.81
453.971	98.81
454.192	113.81
454.412	90.81
454.633	89.81
454.853	77.81
455.073	80.81
455.294	73.81
455.514	88.81
455.734	84.81
455.955	81.81
456.175	89.81
456.395	72.81
456.616	86.81
456.836	85.81
457.056	84.81
457.276	82.81
457.497	82.81
457.717	80.81
457.937	81.81
458.157	82.81
458.377	97.81
458.598	113.81
458.818	179.81
459.038	188.81
459.258	136.81
459.478	90.81
459.698	93.81
459.918	85.81
460.138	84.81
460.358	69.81
460.578	81.81
460.798	84.81
461.018	76.81
461.238	84.81
461.458	65.81
461.678	82.81
461.898	97.81
462.118	80.81
462.338	86.81
462.558	81.81
462.777	90.81
462.997	78.81
463.217	76.81
463.437	79.81
463.657	92.81
463.876	92.81
464.096	91.81
464.316	92.81
464.536	96.81
464.755	88.81
464.975	118.81
465.195	211.81
465.414	188.81
465.634	93.81
465.854	94.81
466.073	72.81
466.293	84.81
466.512	86.81
466.732	84.81
466.951	95.81
467.171	89.81
467.391	90.81
467.61	105.81
467.829	153.81
468.049	295.81
468.268	466.81
468.488	140.81
468.707	92.81
468.927	80.81
469.146	93.81
469.365	85.81
469.585	80.81
469.804	104.81
470.023	99.81
470.243	88.81
470.462	111.81
470.681	116.81
470.901	92.81
471.12	89.81
471.339	99.81
471.558	89.81
471.777	110.81
471.997	174.81
472.216	544.81
472.435	1262.81
472.654	325.81
472.873	112.81
473.092	88.81
473.311	89.81
473.53	85.81
473.749	79.81
473.968	82.81
474.187	115.81
474.406	105.81
474.625	88.81
474.844	74.81
475.063	91.81
475.282	86.81
475.501	79.81
475.72	68.81
475.939	82.81
476.158	75.81
476.377	89.81
476.596	78.81
476.814	85.81
477.033	90.81
477.252	87.81
477.471	94.81
477.69	86.81
477.908	87.81
478.127	90.81
478.346	89.81
478.564	106.81
478.783	105.81
479.002	103.81
479.22	92.81
479.439	103.81
479.658	112.81
479.876	112.81
480.095	103.81
480.313	108.81
480.532	128.81
480.751	191.81
480.969	513.81
481.188	2068.81
481.406	1332.81
481.624	222.81
481.843	116.81
482.061	93.81
482.28	98.81
482.498	85.81
482.717	97.81
482.935	84.81
483.153	88.81
483.372	86.81
483.59	77.81
483.808	90.81
484.027	82.81
484.245	82.81
484.463	109.81
484.681	94.81
484.9	94.81
485.118	80.81
485.336	81.81
485.554	92.81
485.772	96.81
485.99	107.81
486.209	99.81
486.427	86.81
486.645	118.81
486.863	108.81
487.081	106.81
487.299	94.81
487.517	94.81
487.735	85.81
487.953	81.81
488.171	91.81
488.389	101.81
488.607	91.81
488.825	89.81
489.043	87.81
489.261	82.81
489.479	80.81
489.696	84.81
489.914	84.81
490.132	78.81
490.35	81.81
490.568	83.81
490.786	82.81
491.003	79.81
491.221	96.81
491.439	92.81
491.657	74.81
491.874	105.81
492.092	76.81
492.31	85.81
492.527	85.81
492.745	103.81
492.963	93.81
493.18	83.81
493.398	83.81
493.615	101.81
493.833	86.81
494.05	102.81
494.268	94.81
494.485	77.81
494.703	84.81
494.92	72.81
495.138	77.81
495.355	82.81
495.573	85.81
495.79	82.81
496.008	77.81
496.225	79.81
496.442	91.81
496.66	83.81
496.877	90.81
497.094	93.81
497.312	84.81
497.529	100.81
497.746	101.81
497.963	79.81
498.181	94.81
498.398	102.81
498.615	100.81
498.832	99.81
499.049	85.81
499.267	96.81
499.484	80.81
499.701	81.81
499.918	109.81
500.135	85.81
500.352	89.81
500.569	78.81
500.786	88.81
501.003	90.81
501.22	84.81
501.437	92.81
501.654	93.81
501.871	100.81
502.088	88.81
502.305	89.81
502.522	88.81
502.739	83.81
502.956	95.81
503.172	103.81
503.389	95.81
503.606	102.81
503.823	95.81
504.04	92.81
504.256	81.81
504.473	83.81
504.69	90.81
504.907	89.81
505.123	78.81
505.34	90.81
505.557	90.81
505.773	93.81
505.99	90.81
506.207	88.81
506.423	89.81
506.64	93.81
506.856	93.81
507.073	78.81
507.289	92.81
507.506	84.81
507.722	116.81
507.939	127.81
508.155	89.81
508.372	81.81
508.588	82.81
508.805	85.81
509.021	88.81
509.238	93.81
509.454	97.81
509.67	89.81
509.887	107.81
510.103	134.81
510.319	225.81
510.536	829.81
510.752	2896.81
510.968	813.81
511.184	165.81
511.401	119.81
511.617	94.81
511.833	85.81
512.049	97.81
512.265	96.81
512.481	97.81
512.698	98.81
512.914	87.81
513.13	86.81
513.346	93.81
513.562	99.81
513.778	95.81
513.994	82.81
514.21	97.81
514.426	137.81
514.642	146.81
514.858	138.81
515.074	185.81
515.29	584.81
515.506	2184.81
515.721	800.81
515.937	197.81
516.153	117.81
