Data from Circ_2013_H10_HRD10591_00014.txt Node
Date: Wed Jan 03 10:04:03 EST 2024
User: Yrep
Spectrometer: HR+D1059
Trigger mode: 1
Integration Time (sec): 1.000000E-1
Scans to average: 1
Electric dark correction enabled: true
Nonlinearity correction enabled: false
Boxcar width: 0
XAxis mode: Wavelengths
Number of Pixels in Spectrum: 2048
>>>>>Begin Spectral Data<<<<<
223.165	-21.81
223.4	-21.81
223.635	-21.81
223.869	-21.81
224.104	-20.81
224.338	-18.81
224.573	-5.81
224.808	-19.81
225.042	-9.81
225.277	-5.81
225.511	-13.81
225.746	8.19
225.98	10.19
226.215	8.19
226.449	26.19
226.683	31.19
226.918	23.19
227.152	31.19
227.387	25.19
227.621	25.19
227.856	43.19
228.09	43.19
228.324	55.19
228.559	47.19
228.793	61.19
229.027	64.19
229.262	70.19
229.496	69.19
229.73	72.19
229.964	86.19
230.199	85.19
230.433	71.19
230.667	77.19
230.901	81.19
231.136	91.19
231.37	80.19
231.604	79.19
231.838	72.19
232.072	86.19
232.306	82.19
232.541	95.19
232.775	90.19
233.009	88.19
233.243	79.19
233.477	83.19
233.711	95.19
233.945	91.19
234.179	88.19
234.413	87.19
234.647	77.19
234.881	67.19
235.115	77.19
235.349	73.19
235.583	82.19
235.817	67.19
236.051	69.19
236.285	72.19
236.519	71.19
236.753	73.19
236.987	77.19
237.221	62.19
237.455	66.19
237.689	84.19
237.922	79.19
238.156	62.19
238.39	92.19
238.624	78.19
238.858	74.19
239.091	72.19
239.325	76.19
239.559	94.19
239.793	85.19
240.027	70.19
240.26	84.19
240.494	77.19
240.728	67.19
240.961	62.19
241.195	86.19
241.429	73.19
241.662	66.19
241.896	73.19
242.13	75.19
242.363	74.19
242.597	76.19
242.83	64.19
243.064	61.19
243.298	81.19
243.531	76.19
243.765	81.19
243.998	71.19
244.232	74.19
244.465	78.19
244.699	79.19
244.932	84.19
245.166	86.19
245.399	75.19
245.633	82.19
245.866	74.19
246.099	74.19
246.333	86.19
246.566	73.19
246.8	74.19
247.033	88.19
247.266	75.19
247.5	66.19
247.733	76.19
247.966	72.19
248.2	91.19
248.433	81.19
248.666	75.19
248.899	84.19
249.133	88.19
249.366	93.19
249.599	94.19
249.832	73.19
250.066	84.19
250.299	79.19
250.532	82.19
250.765	92.19
250.998	87.19
251.231	92.19
251.465	75.19
251.698	82.19
251.931	82.19
252.164	74.19
252.397	84.19
252.63	78.19
252.863	85.19
253.096	86.19
253.329	73.19
253.562	81.19
253.795	86.19
254.028	58.19
254.261	84.19
254.494	70.19
254.727	84.19
254.96	77.19
255.193	70.19
255.426	83.19
255.659	77.19
255.892	79.19
256.124	79.19
256.357	77.19
256.59	83.19
256.823	67.19
257.056	76.19
257.289	82.19
257.521	82.19
257.754	77.19
257.987	87.19
258.22	77.19
258.452	83.19
258.685	89.19
258.918	80.19
259.151	89.19
259.383	83.19
259.616	71.19
259.849	89.19
260.081	70.19
260.314	77.19
260.547	91.19
260.779	83.19
261.012	91.19
261.244	88.19
261.477	88.19
261.71	100.19
261.942	108.19
262.175	123.19
262.407	92.19
262.64	86.19
262.872	84.19
263.105	57.19
263.337	87.19
263.57	90.19
263.802	88.19
264.035	86.19
264.267	82.19
264.499	91.19
264.732	79.19
264.964	87.19
265.197	88.19
265.429	71.19
265.661	74.19
265.894	106.19
266.126	87.19
266.358	70.19
266.591	91.19
266.823	86.19
267.055	70.19
267.287	88.19
267.52	84.19
267.752	74.19
267.984	78.19
268.216	75.19
268.448	89.19
268.681	78.19
268.913	85.19
269.145	75.19
269.377	80.19
269.609	84.19
269.841	89.19
270.073	85.19
270.306	82.19
270.538	79.19
270.77	77.19
271.002	75.19
271.234	83.19
271.466	103.19
271.698	93.19
271.93	87.19
272.162	85.19
272.394	91.19
272.626	83.19
272.858	88.19
273.09	58.19
273.322	83.19
273.553	81.19
273.785	84.19
274.017	87.19
274.249	93.19
274.481	81.19
274.713	86.19
274.945	102.19
275.176	95.19
275.408	87.19
275.64	95.19
275.872	85.19
276.104	75.19
276.335	84.19
276.567	104.19
276.799	127.19
277.031	125.19
277.262	106.19
277.494	97.19
277.726	78.19
277.957	83.19
278.189	83.19
278.421	67.19
278.652	90.19
278.884	77.19
279.115	97.19
279.347	84.19
279.579	89.19
279.81	104.19
280.042	111.19
280.273	127.19
280.505	99.19
280.736	86.19
280.968	94.19
281.199	82.19
281.431	96.19
281.662	75.19
281.894	75.19
282.125	97.19
282.356	122.19
282.588	159.19
282.819	130.19
283.051	76.19
283.282	78.19
283.513	100.19
283.745	79.19
283.976	62.19
284.207	70.19
284.439	88.19
284.67	91.19
284.901	84.19
285.132	71.19
285.364	93.19
285.595	88.19
285.826	78.19
286.057	81.19
286.288	93.19
286.52	73.19
286.751	83.19
286.982	88.19
287.213	90.19
287.444	87.19
287.675	96.19
287.906	99.19
288.138	91.19
288.369	99.19
288.6	93.19
288.831	85.19
289.062	89.19
289.293	91.19
289.524	99.19
289.755	87.19
289.986	84.19
290.217	76.19
290.448	85.19
290.679	89.19
290.91	92.19
291.141	95.19
291.371	87.19
291.602	92.19
291.833	88.19
292.064	93.19
292.295	79.19
292.526	94.19
292.757	94.19
292.987	86.19
293.218	91.19
293.449	90.19
293.68	82.19
293.91	86.19
294.141	88.19
294.372	78.19
294.603	76.19
294.833	98.19
295.064	87.19
295.295	86.19
295.525	91.19
295.756	98.19
295.987	111.19
296.217	143.19
296.448	135.19
296.679	92.19
296.909	83.19
297.14	90.19
297.37	77.19
297.601	90.19
297.831	79.19
298.062	85.19
298.292	93.19
298.523	80.19
298.753	76.19
298.984	90.19
299.214	101.19
299.445	89.19
299.675	90.19
299.905	90.19
300.136	91.19
300.366	103.19
300.597	87.19
300.827	92.19
301.057	110.19
301.288	97.19
301.518	97.19
301.748	92.19
301.979	98.19
302.209	93.19
302.439	87.19
302.669	93.19
302.9	91.19
303.13	88.19
303.36	85.19
303.59	101.19
303.82	116.19
304.051	102.19
304.281	83.19
304.511	85.19
304.741	87.19
304.971	96.19
305.201	87.19
305.431	76.19
305.661	108.19
305.891	91.19
306.121	82.19
306.352	108.19
306.582	101.19
306.812	90.19
307.042	122.19
307.272	105.19
307.502	115.19
307.731	114.19
307.961	91.19
308.191	88.19
308.421	101.19
308.651	80.19
308.881	93.19
309.111	94.19
309.341	99.19
309.571	105.19
309.8	105.19
310.03	94.19
310.26	100.19
310.49	98.19
310.72	103.19
310.949	107.19
311.179	99.19
311.409	98.19
311.639	98.19
311.868	87.19
312.098	83.19
312.328	90.19
312.557	102.19
312.787	109.19
313.017	108.19
313.246	92.19
313.476	95.19
313.706	92.19
313.935	91.19
314.165	102.19
314.394	107.19
314.624	80.19
314.853	104.19
315.083	102.19
315.312	93.19
315.542	85.19
315.771	101.19
316.001	103.19
316.23	83.19
316.46	97.19
316.689	90.19
316.919	97.19
317.148	104.19
317.377	99.19
317.607	97.19
317.836	103.19
318.065	93.19
318.295	103.19
318.524	73.19
318.753	77.19
318.983	95.19
319.212	100.19
319.441	116.19
319.67	103.19
319.9	92.19
320.129	85.19
320.358	102.19
320.587	94.19
320.816	97.19
321.046	108.19
321.275	99.19
321.504	80.19
321.733	100.19
321.962	99.19
322.191	100.19
322.42	103.19
322.649	115.19
322.878	109.19
323.108	125.19
323.337	111.19
323.566	142.19
323.795	166.19
324.024	204.19
324.253	410.19
324.482	864.19
324.71	1714.19
324.939	2287.19
325.168	879.19
325.397	258.19
325.626	155.19
325.855	146.19
326.084	125.19
326.313	138.19
326.542	164.19
326.77	239.19
326.999	473.19
327.228	954.19
327.457	1710.19
327.686	1385.19
327.914	393.19
328.143	265.19
328.372	301.19
328.6	196.19
328.829	146.19
329.058	154.19
329.287	145.19
329.515	150.19
329.744	140.19
329.972	204.19
330.201	350.19
330.43	497.19
330.658	259.19
330.887	183.19
331.115	159.19
331.344	108.19
331.572	102.19
331.801	113.19
332.03	115.19
332.258	110.19
332.486	95.19
332.715	93.19
332.943	99.19
333.172	109.19
333.4	109.19
333.629	122.19
333.857	139.19
334.085	198.19
334.314	340.19
334.542	596.19
334.771	588.19
334.999	199.19
335.227	114.19
335.455	92.19
335.684	100.19
335.912	100.19
336.14	90.19
336.369	98.19
336.597	107.19
336.825	108.19
337.053	97.19
337.281	101.19
337.51	93.19
337.738	112.19
337.966	100.19
338.194	98.19
338.422	102.19
338.65	84.19
338.878	95.19
339.106	92.19
339.334	99.19
339.562	90.19
339.79	93.19
340.018	100.19
340.246	101.19
340.474	86.19
340.702	92.19
340.93	106.19
341.158	86.19
341.386	99.19
341.614	101.19
341.842	90.19
342.07	114.19
342.298	86.19
342.526	97.19
342.754	97.19
342.981	84.19
343.209	98.19
343.437	111.19
343.665	88.19
343.893	93.19
344.12	104.19
344.348	88.19
344.576	85.19
344.804	93.19
345.031	100.19
345.259	97.19
345.487	103.19
345.714	96.19
345.942	84.19
346.17	86.19
346.397	88.19
346.625	96.19
346.853	105.19
347.08	100.19
347.308	97.19
347.535	101.19
347.763	114.19
347.99	104.19
348.218	101.19
348.445	104.19
348.673	88.19
348.9	98.19
349.128	103.19
349.355	95.19
349.583	98.19
349.81	95.19
350.037	108.19
350.265	103.19
350.492	96.19
350.72	93.19
350.947	100.19
351.174	116.19
351.402	111.19
351.629	98.19
351.856	127.19
352.083	108.19
352.311	101.19
352.538	118.19
352.765	122.19
352.992	115.19
353.22	103.19
353.447	106.19
353.674	106.19
353.901	95.19
354.128	92.19
354.355	102.19
354.583	108.19
354.81	89.19
355.037	90.19
355.264	95.19
355.491	76.19
355.718	90.19
355.945	90.19
356.172	97.19
356.399	91.19
356.626	100.19
356.853	92.19
357.08	90.19
357.307	88.19
357.534	102.19
357.761	101.19
357.988	99.19
358.215	98.19
358.441	98.19
358.668	96.19
358.895	93.19
359.122	85.19
359.349	91.19
359.576	94.19
359.802	103.19
360.029	111.19
360.256	133.19
360.483	107.19
360.709	95.19
360.936	106.19
361.163	104.19
361.39	92.19
361.616	109.19
361.843	98.19
362.07	87.19
362.296	113.19
362.523	106.19
362.749	105.19
362.976	98.19
363.203	87.19
363.429	94.19
363.656	100.19
363.882	88.19
364.109	91.19
364.335	98.19
364.562	90.19
364.788	97.19
365.015	103.19
365.241	113.19
365.468	116.19
365.694	108.19
365.92	108.19
366.147	107.19
366.373	88.19
366.599	89.19
366.826	99.19
367.052	79.19
367.278	94.19
367.505	102.19
367.731	102.19
367.957	96.19
368.184	98.19
368.41	98.19
368.636	110.19
368.862	123.19
369.089	117.19
369.315	106.19
369.541	100.19
369.767	106.19
369.993	97.19
370.219	87.19
370.445	78.19
370.672	81.19
370.898	90.19
371.124	87.19
371.35	83.19
371.576	94.19
371.802	87.19
372.028	111.19
372.254	103.19
372.48	80.19
372.706	76.19
372.932	94.19
373.158	83.19
373.384	95.19
373.61	83.19
373.835	96.19
374.061	85.19
374.287	92.19
374.513	88.19
374.739	76.19
374.965	87.19
375.191	88.19
375.416	91.19
375.642	91.19
375.868	98.19
376.094	102.19
376.319	96.19
376.545	107.19
376.771	88.19
376.997	79.19
377.222	95.19
377.448	93.19
377.674	107.19
377.899	95.19
378.125	91.19
378.35	97.19
378.576	91.19
378.802	84.19
379.027	89.19
379.253	86.19
379.478	94.19
379.704	100.19
379.929	102.19
380.155	93.19
380.38	101.19
380.606	101.19
380.831	91.19
381.057	102.19
381.282	110.19
381.507	97.19
381.733	105.19
381.958	96.19
382.184	105.19
382.409	123.19
382.634	98.19
382.86	82.19
383.085	96.19
383.31	111.19
383.535	111.19
383.761	96.19
383.986	102.19
384.211	99.19
384.436	90.19
384.662	105.19
384.887	110.19
385.112	116.19
385.337	122.19
385.562	105.19
385.787	104.19
386.013	133.19
386.238	137.19
386.463	117.19
386.688	132.19
386.913	121.19
387.138	107.19
387.363	101.19
387.588	118.19
387.813	110.19
388.038	119.19
388.263	128.19
388.488	125.19
388.713	114.19
388.938	96.19
389.163	102.19
389.387	96.19
389.612	92.19
389.837	90.19
390.062	97.19
390.287	97.19
390.512	103.19
390.736	100.19
390.961	84.19
391.186	86.19
391.411	98.19
391.636	88.19
391.86	75.19
392.085	99.19
392.31	96.19
392.534	83.19
392.759	81.19
392.984	95.19
393.208	98.19
393.433	107.19
393.658	85.19
393.882	87.19
394.107	80.19
394.331	86.19
394.556	98.19
394.78	103.19
395.005	84.19
395.229	98.19
395.454	87.19
395.678	77.19
395.903	93.19
396.127	88.19
396.352	94.19
396.576	86.19
396.801	91.19
397.025	100.19
397.249	87.19
397.474	101.19
397.698	95.19
397.922	104.19
398.147	91.19
398.371	87.19
398.595	98.19
398.82	74.19
399.044	80.19
399.268	78.19
399.492	69.19
399.717	81.19
399.941	95.19
400.165	98.19
400.389	101.19
400.613	92.19
400.837	84.19
401.062	79.19
401.286	83.19
401.51	88.19
401.734	88.19
401.958	106.19
402.182	109.19
402.406	171.19
402.63	144.19
402.854	102.19
403.078	102.19
403.302	83.19
403.526	86.19
403.75	87.19
403.974	72.19
404.198	91.19
404.422	86.19
404.645	78.19
404.869	87.19
405.093	111.19
405.317	116.19
405.541	124.19
405.765	115.19
405.988	128.19
406.212	185.19
406.436	262.19
406.66	186.19
406.883	108.19
407.107	93.19
407.331	97.19
407.555	98.19
407.778	89.19
408.002	94.19
408.226	84.19
408.449	86.19
408.673	91.19
408.896	101.19
409.12	79.19
409.344	114.19
409.567	102.19
409.791	90.19
410.014	86.19
410.238	92.19
410.461	83.19
410.685	101.19
410.908	100.19
411.132	92.19
411.355	97.19
411.578	111.19
411.802	88.19
412.025	93.19
412.249	95.19
412.472	107.19
412.695	118.19
412.919	99.19
413.142	91.19
413.365	101.19
413.589	81.19
413.812	83.19
414.035	106.19
414.258	98.19
414.482	87.19
414.705	89.19
414.928	83.19
415.151	101.19
415.374	91.19
415.597	79.19
415.821	89.19
416.044	100.19
416.267	91.19
416.49	99.19
416.713	92.19
416.936	91.19
417.159	93.19
417.382	83.19
417.605	90.19
417.828	112.19
418.051	100.19
418.274	94.19
418.497	75.19
418.72	75.19
418.943	96.19
419.166	95.19
419.389	99.19
419.611	80.19
419.834	94.19
420.057	90.19
420.28	92.19
420.503	94.19
420.726	90.19
420.948	88.19
421.171	90.19
421.394	86.19
421.617	97.19
421.839	91.19
422.062	95.19
422.285	87.19
422.507	104.19
422.73	98.19
422.953	101.19
423.175	90.19
423.398	79.19
423.621	97.19
423.843	85.19
424.066	94.19
424.288	86.19
424.511	93.19
424.733	96.19
424.956	117.19
425.178	93.19
425.401	106.19
425.623	100.19
425.846	86.19
426.068	85.19
426.291	98.19
426.513	93.19
426.735	98.19
426.958	92.19
427.18	102.19
427.402	148.19
427.625	210.19
427.847	194.19
428.069	174.19
428.292	114.19
428.514	83.19
428.736	73.19
428.958	96.19
429.181	94.19
429.403	114.19
429.625	89.19
429.847	102.19
430.069	101.19
430.292	84.19
430.514	77.19
430.736	75.19
430.958	80.19
431.18	79.19
431.402	86.19
431.624	94.19
431.846	81.19
432.068	95.19
432.29	87.19
432.512	97.19
432.734	87.19
432.956	87.19
433.178	103.19
433.4	90.19
433.622	88.19
433.844	72.19
434.066	84.19
434.287	96.19
434.509	99.19
434.731	99.19
434.953	94.19
435.175	85.19
435.397	98.19
435.618	91.19
435.84	102.19
436.062	126.19
436.284	107.19
436.505	110.19
436.727	107.19
436.949	85.19
437.17	88.19
437.392	78.19
437.614	97.19
437.835	120.19
438.057	130.19
438.278	142.19
438.5	114.19
438.721	123.19
438.943	100.19
439.165	90.19
439.386	93.19
439.608	103.19
439.829	105.19
440.05	105.19
440.272	167.19
440.493	102.19
440.715	80.19
440.936	88.19
441.158	78.19
441.379	97.19
441.6	101.19
441.822	102.19
442.043	126.19
442.264	120.19
442.486	109.19
442.707	78.19
442.928	104.19
443.149	153.19
443.371	144.19
443.592	118.19
443.813	123.19
444.034	103.19
444.255	97.19
444.476	94.19
444.698	85.19
444.919	102.19
445.14	141.19
445.361	119.19
445.582	124.19
445.803	159.19
446.024	140.19
446.245	144.19
446.466	122.19
446.687	98.19
446.908	104.19
447.129	95.19
447.35	85.19
447.571	106.19
447.792	83.19
448.013	103.19
448.234	92.19
448.455	102.19
448.675	104.19
448.896	122.19
449.117	99.19
449.338	103.19
449.559	114.19
449.779	143.19
450	96.19
450.221	99.19
450.442	89.19
450.662	102.19
450.883	114.19
451.104	136.19
451.324	109.19
451.545	77.19
451.766	81.19
451.986	74.19
452.207	86.19
452.428	95.19
452.648	103.19
452.869	111.19
453.089	138.19
453.31	121.19
453.53	89.19
453.751	96.19
453.971	106.19
454.192	121.19
454.412	91.19
454.633	108.19
454.853	93.19
455.073	98.19
455.294	82.19
455.514	98.19
455.734	92.19
455.955	85.19
456.175	85.19
456.395	89.19
456.616	98.19
456.836	88.19
457.056	98.19
457.276	88.19
457.497	94.19
457.717	104.19
457.937	103.19
458.157	90.19
458.377	100.19
458.598	119.19
458.818	178.19
459.038	197.19
459.258	132.19
459.478	97.19
459.698	91.19
459.918	86.19
460.138	86.19
460.358	80.19
460.578	94.19
460.798	91.19
461.018	100.19
461.238	87.19
461.458	89.19
461.678	81.19
461.898	83.19
462.118	84.19
462.338	88.19
462.558	102.19
462.777	83.19
462.997	94.19
463.217	109.19
463.437	103.19
463.657	94.19
463.876	89.19
464.096	99.19
464.316	100.19
464.536	106.19
464.755	106.19
464.975	106.19
465.195	203.19
465.414	201.19
465.634	102.19
465.854	96.19
466.073	93.19
466.293	92.19
466.512	96.19
466.732	81.19
466.951	95.19
467.171	83.19
467.391	91.19
467.61	114.19
467.829	126.19
468.049	191.19
468.268	299.19
468.488	139.19
468.707	98.19
468.927	88.19
469.146	89.19
469.365	92.19
469.585	86.19
469.804	110.19
470.023	97.19
470.243	79.19
470.462	109.19
470.681	129.19
470.901	87.19
471.12	75.19
471.339	96.19
471.558	94.19
471.777	90.19
471.997	130.19
472.216	358.19
472.435	772.19
472.654	238.19
472.873	103.19
473.092	100.19
473.311	84.19
473.53	78.19
473.749	95.19
473.968	96.19
474.187	110.19
474.406	93.19
474.625	82.19
474.844	87.19
475.063	83.19
475.282	87.19
475.501	80.19
475.72	87.19
475.939	80.19
476.158	89.19
476.377	98.19
476.596	90.19
476.814	95.19
477.033	78.19
477.252	92.19
477.471	90.19
477.69	88.19
477.908	98.19
478.127	100.19
478.346	77.19
478.564	88.19
478.783	101.19
479.002	94.19
479.22	98.19
479.439	105.19
479.658	111.19
479.876	100.19
480.095	98.19
480.313	85.19
480.532	106.19
480.751	152.19
480.969	342.19
481.188	1261.19
481.406	847.19
481.624	191.19
481.843	101.19
482.061	101.19
482.28	92.19
482.498	102.19
482.717	94.19
482.935	89.19
483.153	91.19
483.372	84.19
483.59	92.19
483.808	88.19
484.027	79.19
484.245	88.19
484.463	82.19
484.681	104.19
484.9	92.19
485.118	100.19
485.336	87.19
485.554	79.19
485.772	83.19
485.99	115.19
486.209	115.19
486.427	106.19
486.645	119.19
486.863	141.19
487.081	98.19
487.299	88.19
487.517	100.19
487.735	86.19
487.953	100.19
488.171	102.19
488.389	99.19
488.607	104.19
488.825	91.19
489.043	85.19
489.261	77.19
489.479	75.19
489.696	93.19
489.914	86.19
490.132	86.19
490.35	94.19
490.568	88.19
490.786	79.19
491.003	92.19
491.221	89.19
491.439	88.19
491.657	92.19
491.874	87.19
492.092	98.19
492.31	100.19
492.527	99.19
492.745	90.19
492.963	90.19
493.18	92.19
493.398	92.19
493.615	93.19
493.833	101.19
494.05	101.19
494.268	106.19
494.485	77.19
494.703	98.19
494.92	69.19
495.138	79.19
495.355	80.19
495.573	87.19
495.79	74.19
496.008	97.19
496.225	81.19
496.442	93.19
496.66	79.19
496.877	103.19
497.094	100.19
497.312	85.19
497.529	87.19
497.746	109.19
497.963	88.19
498.181	92.19
498.398	91.19
498.615	112.19
498.832	119.19
499.049	96.19
499.267	84.19
499.484	90.19
499.701	102.19
499.918	90.19
500.135	91.19
500.352	90.19
500.569	91.19
500.786	102.19
501.003	90.19
501.22	85.19
501.437	85.19
501.654	96.19
501.871	121.19
502.088	97.19
502.305	104.19
502.522	88.19
502.739	83.19
502.956	96.19
503.172	87.19
503.389	103.19
503.606	118.19
503.823	103.19
504.04	90.19
504.256	100.19
504.473	80.19
504.69	101.19
504.907	101.19
505.123	86.19
505.34	97.19
505.557	90.19
505.773	96.19
505.99	91.19
506.207	88.19
506.423	79.19
506.64	87.19
506.856	99.19
507.073	93.19
507.289	100.19
507.506	87.19
507.722	130.19
507.939	115.19
508.155	97.19
508.372	104.19
508.588	99.19
508.805	101.19
509.021	108.19
509.238	103.19
509.454	97.19
509.67	93.19
509.887	118.19
510.103	123.19
510.319	208.19
510.536	790.19
510.752	2690.19
510.968	790.19
511.184	173.19
511.401	118.19
511.617	103.19
511.833	85.19
512.049	102.19
512.265	85.19
512.481	92.19
512.698	83.19
512.914	89.19
513.13	101.19
513.346	80.19
513.562	111.19
513.778	95.19
513.994	98.19
