Data from Circ_2013_H10_HRD10591_00021.txt Node
Date: Wed Jan 03 10:04:04 EST 2024
User: Yrep
Spectrometer: HR+D1059
Trigger mode: 1
Integration Time (sec): 1.000000E-1
Scans to average: 1
Electric dark correction enabled: true
Nonlinearity correction enabled: false
Boxcar width: 0
XAxis mode: Wavelengths
Number of Pixels in Spectrum: 2048
>>>>>Begin Spectral Data<<<<<
223.165	-22.75
223.4	-22.75
223.635	-22.75
223.869	-11.75
224.104	-9.75
224.338	-18.75
224.573	-5.75
224.808	-10.75
225.042	-15.75
225.277	-7.75
225.511	-5.75
225.746	-11.75
225.98	-0.75
226.215	27.25
226.449	23.25
226.683	11.25
226.918	23.25
227.152	36.25
227.387	29.25
227.621	18.25
227.856	46.25
228.09	29.25
228.324	52.25
228.559	64.25
228.793	65.25
229.027	70.25
229.262	70.25
229.496	80.25
229.73	103.25
229.964	73.25
230.199	83.25
230.433	71.25
230.667	74.25
230.901	82.25
231.136	73.25
231.37	76.25
231.604	87.25
231.838	74.25
232.072	78.25
232.306	88.25
232.541	76.25
232.775	91.25
233.009	80.25
233.243	80.25
233.477	74.25
233.711	84.25
233.945	78.25
234.179	85.25
234.413	84.25
234.647	77.25
234.881	77.25
235.115	81.25
235.349	70.25
235.583	68.25
235.817	75.25
236.051	89.25
236.285	76.25
236.519	75.25
236.753	73.25
236.987	83.25
237.221	89.25
237.455	91.25
237.689	64.25
237.922	82.25
238.156	77.25
238.39	64.25
238.624	70.25
238.858	69.25
239.091	78.25
239.325	78.25
239.559	62.25
239.793	67.25
240.027	84.25
240.26	84.25
240.494	79.25
240.728	74.25
240.961	82.25
241.195	76.25
241.429	68.25
241.662	86.25
241.896	83.25
242.13	81.25
242.363	69.25
242.597	59.25
242.83	63.25
243.064	80.25
243.298	74.25
243.531	79.25
243.765	77.25
243.998	75.25
244.232	94.25
244.465	92.25
244.699	75.25
244.932	77.25
245.166	72.25
245.399	76.25
245.633	78.25
245.866	71.25
246.099	72.25
246.333	81.25
246.566	69.25
246.8	73.25
247.033	73.25
247.266	83.25
247.5	67.25
247.733	88.25
247.966	75.25
248.2	77.25
248.433	85.25
248.666	79.25
248.899	71.25
249.133	84.25
249.366	96.25
249.599	73.25
249.832	86.25
250.066	73.25
250.299	80.25
250.532	75.25
250.765	65.25
250.998	66.25
251.231	87.25
251.465	78.25
251.698	71.25
251.931	82.25
252.164	80.25
252.397	92.25
252.63	92.25
252.863	78.25
253.096	73.25
253.329	66.25
253.562	84.25
253.795	86.25
254.028	86.25
254.261	73.25
254.494	77.25
254.727	81.25
254.96	86.25
255.193	73.25
255.426	73.25
255.659	76.25
255.892	69.25
256.124	84.25
256.357	85.25
256.59	90.25
256.823	75.25
257.056	79.25
257.289	77.25
257.521	75.25
257.754	81.25
257.987	71.25
258.22	81.25
258.452	86.25
258.685	88.25
258.918	100.25
259.151	73.25
259.383	70.25
259.616	75.25
259.849	89.25
260.081	83.25
260.314	82.25
260.547	87.25
260.779	89.25
261.012	90.25
261.244	95.25
261.477	72.25
261.71	95.25
261.942	118.25
262.175	128.25
262.407	88.25
262.64	92.25
262.872	88.25
263.105	84.25
263.337	90.25
263.57	77.25
263.802	69.25
264.035	68.25
264.267	90.25
264.499	79.25
264.732	74.25
264.964	85.25
265.197	77.25
265.429	78.25
265.661	87.25
265.894	80.25
266.126	87.25
266.358	82.25
266.591	82.25
266.823	83.25
267.055	87.25
267.287	80.25
267.52	88.25
267.752	75.25
267.984	82.25
268.216	82.25
268.448	82.25
268.681	83.25
268.913	85.25
269.145	81.25
269.377	91.25
269.609	92.25
269.841	92.25
270.073	81.25
270.306	85.25
270.538	88.25
270.77	88.25
271.002	80.25
271.234	76.25
271.466	91.25
271.698	85.25
271.93	88.25
272.162	86.25
272.394	90.25
272.626	98.25
272.858	78.25
273.09	89.25
273.322	74.25
273.553	85.25
273.785	93.25
274.017	89.25
274.249	91.25
274.481	73.25
274.713	78.25
274.945	90.25
275.176	89.25
275.408	77.25
275.64	93.25
275.872	84.25
276.104	91.25
276.335	87.25
276.567	106.25
276.799	102.25
277.031	126.25
277.262	115.25
277.494	107.25
277.726	91.25
277.957	91.25
278.189	89.25
278.421	83.25
278.652	83.25
278.884	82.25
279.115	77.25
279.347	85.25
279.579	75.25
279.81	92.25
280.042	119.25
280.273	135.25
280.505	125.25
280.736	93.25
280.968	76.25
281.199	90.25
281.431	82.25
281.662	93.25
281.894	89.25
282.125	99.25
282.356	124.25
282.588	136.25
282.819	112.25
283.051	92.25
283.282	79.25
283.513	81.25
283.745	89.25
283.976	95.25
284.207	97.25
284.439	85.25
284.67	92.25
284.901	80.25
285.132	89.25
285.364	94.25
285.595	91.25
285.826	83.25
286.057	78.25
286.288	93.25
286.52	97.25
286.751	85.25
286.982	89.25
287.213	87.25
287.444	89.25
287.675	93.25
287.906	92.25
288.138	92.25
288.369	90.25
288.6	94.25
288.831	101.25
289.062	92.25
289.293	86.25
289.524	103.25
289.755	87.25
289.986	83.25
290.217	90.25
290.448	84.25
290.679	83.25
290.91	84.25
291.141	81.25
291.371	98.25
291.602	101.25
291.833	70.25
292.064	96.25
292.295	89.25
292.526	86.25
292.757	88.25
292.987	77.25
293.218	88.25
293.449	91.25
293.68	92.25
293.91	73.25
294.141	91.25
294.372	78.25
294.603	85.25
294.833	83.25
295.064	86.25
295.295	85.25
295.525	95.25
295.756	102.25
295.987	118.25
296.217	136.25
296.448	115.25
296.679	88.25
296.909	81.25
297.14	88.25
297.37	88.25
297.601	85.25
297.831	93.25
298.062	101.25
298.292	67.25
298.523	89.25
298.753	83.25
298.984	96.25
299.214	90.25
299.445	82.25
299.675	103.25
299.905	109.25
300.136	84.25
300.366	88.25
300.597	100.25
300.827	88.25
301.057	90.25
301.288	97.25
301.518	98.25
301.748	102.25
301.979	89.25
302.209	102.25
302.439	98.25
302.669	87.25
302.9	82.25
303.13	86.25
303.36	84.25
303.59	107.25
303.82	116.25
304.051	98.25
304.281	93.25
304.511	91.25
304.741	99.25
304.971	77.25
305.201	55.25
305.431	94.25
305.661	81.25
305.891	78.25
306.121	88.25
306.352	96.25
306.582	100.25
306.812	94.25
307.042	90.25
307.272	87.25
307.502	107.25
307.731	108.25
307.961	96.25
308.191	71.25
308.421	73.25
308.651	88.25
308.881	89.25
309.111	88.25
309.341	83.25
309.571	88.25
309.8	99.25
310.03	95.25
310.26	99.25
310.49	96.25
310.72	102.25
310.949	98.25
311.179	98.25
311.409	107.25
311.639	76.25
311.868	89.25
312.098	103.25
312.328	93.25
312.557	100.25
312.787	110.25
313.017	98.25
313.246	113.25
313.476	92.25
313.706	101.25
313.935	101.25
314.165	103.25
314.394	90.25
314.624	91.25
314.853	104.25
315.083	96.25
315.312	88.25
315.542	92.25
315.771	96.25
316.001	89.25
316.23	112.25
316.46	95.25
316.689	92.25
316.919	85.25
317.148	96.25
317.377	78.25
317.607	95.25
317.836	108.25
318.065	105.25
318.295	91.25
318.524	84.25
318.753	82.25
318.983	101.25
319.212	109.25
319.441	116.25
319.67	116.25
319.9	106.25
320.129	79.25
320.358	94.25
320.587	85.25
320.816	100.25
321.046	93.25
321.275	115.25
321.504	101.25
321.733	93.25
321.962	118.25
322.191	92.25
322.42	118.25
322.649	126.25
322.878	108.25
323.108	115.25
323.337	117.25
323.566	129.25
323.795	166.25
324.024	236.25
324.253	446.25
324.482	948.25
324.71	1970.25
324.939	2609.25
325.168	949.25
325.397	269.25
325.626	153.25
325.855	129.25
326.084	151.25
326.313	140.25
326.542	156.25
326.77	252.25
326.999	521.25
327.228	1093.25
327.457	1973.25
327.686	1568.25
327.914	470.25
328.143	296.25
328.372	308.25
328.6	201.25
328.829	140.25
329.058	148.25
329.287	144.25
329.515	117.25
329.744	157.25
329.972	233.25
330.201	393.25
330.43	541.25
330.658	297.25
330.887	194.25
331.115	134.25
331.344	103.25
331.572	110.25
331.801	108.25
332.03	99.25
332.258	84.25
332.486	98.25
332.715	93.25
332.943	104.25
333.172	103.25
333.4	95.25
333.629	129.25
333.857	136.25
334.085	211.25
334.314	387.25
334.542	669.25
334.771	632.25
334.999	218.25
335.227	119.25
335.455	113.25
335.684	107.25
335.912	104.25
336.14	94.25
336.369	95.25
336.597	93.25
336.825	103.25
337.053	101.25
337.281	97.25
337.51	101.25
337.738	92.25
337.966	87.25
338.194	101.25
338.422	102.25
338.65	89.25
338.878	95.25
339.106	84.25
339.334	99.25
339.562	80.25
339.79	106.25
340.018	98.25
340.246	89.25
340.474	83.25
340.702	81.25
340.93	82.25
341.158	85.25
341.386	99.25
341.614	116.25
341.842	99.25
342.07	105.25
342.298	105.25
342.526	95.25
342.754	88.25
342.981	91.25
343.209	84.25
343.437	104.25
343.665	84.25
343.893	90.25
344.12	94.25
344.348	80.25
344.576	74.25
344.804	86.25
345.031	97.25
345.259	91.25
345.487	115.25
345.714	104.25
345.942	94.25
346.17	80.25
346.397	75.25
346.625	100.25
346.853	82.25
347.08	86.25
347.308	96.25
347.535	99.25
347.763	107.25
347.99	101.25
348.218	103.25
348.445	102.25
348.673	109.25
348.9	90.25
349.128	103.25
349.355	93.25
349.583	89.25
349.81	67.25
350.037	82.25
350.265	90.25
350.492	101.25
350.72	92.25
350.947	105.25
351.174	107.25
351.402	112.25
351.629	96.25
351.856	93.25
352.083	99.25
352.311	109.25
352.538	100.25
352.765	109.25
352.992	108.25
353.22	111.25
353.447	117.25
353.674	104.25
353.901	88.25
354.128	78.25
354.355	93.25
354.583	106.25
354.81	85.25
355.037	104.25
355.264	89.25
355.491	100.25
355.718	92.25
355.945	98.25
356.172	93.25
356.399	92.25
356.626	84.25
356.853	89.25
357.08	89.25
357.307	91.25
357.534	82.25
357.761	93.25
357.988	85.25
358.215	91.25
358.441	101.25
358.668	92.25
358.895	87.25
359.122	94.25
359.349	96.25
359.576	78.25
359.802	104.25
360.029	118.25
360.256	125.25
360.483	88.25
360.709	91.25
360.936	85.25
361.163	100.25
361.39	98.25
361.616	108.25
361.843	88.25
362.07	89.25
362.296	112.25
362.523	103.25
362.749	91.25
362.976	78.25
363.203	96.25
363.429	93.25
363.656	75.25
363.882	101.25
364.109	91.25
364.335	103.25
364.562	103.25
364.788	83.25
365.015	95.25
365.241	91.25
365.468	103.25
365.694	97.25
365.92	96.25
366.147	100.25
366.373	86.25
366.599	100.25
366.826	90.25
367.052	87.25
367.278	108.25
367.505	100.25
367.731	95.25
367.957	99.25
368.184	86.25
368.41	97.25
368.636	116.25
368.862	120.25
369.089	133.25
369.315	102.25
369.541	96.25
369.767	82.25
369.993	93.25
370.219	97.25
370.445	81.25
370.672	86.25
370.898	91.25
371.124	82.25
371.35	81.25
371.576	76.25
371.802	92.25
372.028	80.25
372.254	83.25
372.48	89.25
372.706	82.25
372.932	85.25
373.158	87.25
373.384	109.25
373.61	118.25
373.835	96.25
374.061	88.25
374.287	88.25
374.513	83.25
374.739	89.25
374.965	88.25
375.191	96.25
375.416	94.25
375.642	82.25
375.868	92.25
376.094	94.25
376.319	86.25
376.545	96.25
376.771	99.25
376.997	97.25
377.222	96.25
377.448	96.25
377.674	94.25
377.899	92.25
378.125	100.25
378.35	96.25
378.576	89.25
378.802	102.25
379.027	90.25
379.253	88.25
379.478	86.25
379.704	89.25
379.929	103.25
380.155	103.25
380.38	104.25
380.606	86.25
380.831	81.25
381.057	103.25
381.282	89.25
381.507	89.25
381.733	108.25
381.958	100.25
382.184	96.25
382.409	99.25
382.634	98.25
382.86	97.25
383.085	98.25
383.31	101.25
383.535	98.25
383.761	98.25
383.986	112.25
384.211	110.25
384.436	90.25
384.662	101.25
384.887	101.25
385.112	115.25
385.337	113.25
385.562	103.25
385.787	117.25
386.013	122.25
386.238	128.25
386.463	106.25
386.688	103.25
386.913	95.25
387.138	113.25
387.363	109.25
387.588	100.25
387.813	110.25
388.038	98.25
388.263	107.25
388.488	121.25
388.713	104.25
388.938	81.25
389.163	93.25
389.387	97.25
389.612	102.25
389.837	100.25
390.062	89.25
390.287	94.25
390.512	102.25
390.736	85.25
390.961	78.25
391.186	86.25
391.411	75.25
391.636	91.25
391.86	84.25
392.085	88.25
392.31	84.25
392.534	93.25
392.759	78.25
392.984	98.25
393.208	82.25
393.433	100.25
393.658	100.25
393.882	99.25
394.107	71.25
394.331	88.25
394.556	86.25
394.78	102.25
395.005	94.25
395.229	82.25
395.454	85.25
395.678	85.25
395.903	89.25
396.127	83.25
396.352	97.25
396.576	90.25
396.801	92.25
397.025	102.25
397.249	83.25
397.474	88.25
397.698	72.25
397.922	88.25
398.147	105.25
398.371	97.25
398.595	93.25
398.82	79.25
399.044	75.25
399.268	89.25
399.492	88.25
399.717	97.25
399.941	91.25
400.165	89.25
400.389	99.25
400.613	85.25
400.837	90.25
401.062	75.25
401.286	83.25
401.51	84.25
401.734	93.25
401.958	115.25
402.182	122.25
402.406	154.25
402.63	128.25
402.854	97.25
403.078	84.25
403.302	72.25
403.526	70.25
403.75	82.25
403.974	77.25
404.198	86.25
404.422	86.25
404.645	78.25
404.869	93.25
405.093	93.25
405.317	114.25
405.541	121.25
405.765	114.25
405.988	126.25
406.212	165.25
406.436	246.25
406.66	160.25
406.883	107.25
407.107	92.25
407.331	101.25
407.555	114.25
407.778	110.25
408.002	97.25
408.226	82.25
408.449	78.25
408.673	99.25
408.896	106.25
409.12	105.25
409.344	88.25
409.567	88.25
409.791	96.25
410.014	100.25
410.238	99.25
410.461	81.25
410.685	100.25
410.908	105.25
411.132	110.25
411.355	102.25
411.578	88.25
411.802	95.25
412.025	88.25
412.249	103.25
412.472	95.25
412.695	119.25
412.919	97.25
413.142	93.25
413.365	89.25
413.589	86.25
413.812	84.25
414.035	94.25
414.258	88.25
414.482	77.25
414.705	78.25
414.928	96.25
415.151	88.25
415.374	86.25
415.597	95.25
415.821	100.25
416.044	102.25
416.267	98.25
416.49	88.25
416.713	85.25
416.936	88.25
417.159	92.25
417.382	92.25
417.605	106.25
417.828	107.25
418.051	97.25
418.274	86.25
418.497	77.25
418.72	80.25
418.943	95.25
419.166	100.25
419.389	85.25
419.611	91.25
419.834	105.25
420.057	91.25
420.28	92.25
420.503	75.25
420.726	77.25
420.948	111.25
421.171	100.25
421.394	101.25
421.617	98.25
421.839	88.25
422.062	74.25
422.285	96.25
422.507	104.25
422.73	102.25
422.953	102.25
423.175	92.25
423.398	89.25
423.621	87.25
423.843	94.25
424.066	89.25
424.288	68.25
424.511	75.25
424.733	119.25
424.956	109.25
425.178	128.25
425.401	89.25
425.623	96.25
425.846	94.25
426.068	99.25
426.291	101.25
426.513	106.25
426.735	94.25
426.958	86.25
427.18	108.25
427.402	144.25
427.625	208.25
427.847	178.25
428.069	164.25
428.292	100.25
428.514	98.25
428.736	86.25
428.958	82.25
429.181	87.25
429.403	68.25
429.625	86.25
429.847	86.25
430.069	115.25
430.292	82.25
430.514	75.25
430.736	90.25
430.958	66.25
431.18	75.25
431.402	83.25
431.624	86.25
431.846	71.25
432.068	82.25
432.29	93.25
432.512	101.25
432.734	93.25
432.956	100.25
433.178	103.25
433.4	105.25
433.622	79.25
433.844	89.25
434.066	104.25
434.287	85.25
434.509	90.25
434.731	91.25
434.953	90.25
435.175	88.25
435.397	102.25
435.618	81.25
435.84	106.25
436.062	137.25
436.284	123.25
436.505	108.25
436.727	101.25
436.949	97.25
437.17	81.25
437.392	91.25
437.614	94.25
437.835	107.25
438.057	127.25
438.278	116.25
438.5	107.25
438.721	120.25
438.943	113.25
439.165	67.25
439.386	88.25
439.608	84.25
439.829	110.25
440.05	156.25
440.272	178.25
440.493	89.25
440.715	84.25
440.936	87.25
441.158	84.25
441.379	76.25
441.6	85.25
441.822	105.25
442.043	98.25
442.264	114.25
442.486	120.25
442.707	102.25
442.928	104.25
443.149	154.25
443.371	139.25
443.592	113.25
443.813	128.25
444.034	113.25
444.255	91.25
444.476	76.25
444.698	78.25
444.919	93.25
445.14	149.25
445.361	132.25
445.582	112.25
445.803	172.25
446.024	174.25
446.245	162.25
446.466	140.25
446.687	90.25
446.908	92.25
447.129	88.25
447.35	93.25
447.571	89.25
447.792	87.25
448.013	102.25
448.234	108.25
448.455	112.25
448.675	121.25
448.896	139.25
449.117	106.25
449.338	115.25
449.559	142.25
449.779	165.25
450	97.25
450.221	89.25
450.442	86.25
450.662	96.25
450.883	101.25
451.104	113.25
451.324	105.25
451.545	85.25
451.766	93.25
451.986	90.25
452.207	74.25
452.428	99.25
452.648	104.25
452.869	105.25
453.089	117.25
453.31	111.25
453.53	96.25
453.751	88.25
453.971	113.25
454.192	132.25
454.412	92.25
454.633	72.25
454.853	74.25
455.073	97.25
455.294	79.25
455.514	94.25
455.734	96.25
455.955	77.25
456.175	93.25
456.395	93.25
456.616	86.25
456.836	90.25
457.056	83.25
457.276	81.25
457.497	87.25
457.717	77.25
457.937	89.25
458.157	90.25
458.377	87.25
458.598	96.25
458.818	168.25
459.038	193.25
459.258	122.25
459.478	83.25
459.698	86.25
459.918	89.25
460.138	77.25
460.358	75.25
460.578	97.25
460.798	89.25
461.018	98.25
461.238	84.25
461.458	98.25
461.678	101.25
461.898	77.25
462.118	85.25
462.338	94.25
462.558	81.25
462.777	84.25
462.997	100.25
463.217	83.25
463.437	87.25
463.657	90.25
463.876	90.25
464.096	94.25
464.316	81.25
464.536	100.25
464.755	92.25
464.975	119.25
465.195	189.25
465.414	188.25
465.634	94.25
465.854	88.25
466.073	103.25
466.293	92.25
466.512	80.25
466.732	81.25
466.951	86.25
467.171	86.25
467.391	90.25
467.61	112.25
467.829	114.25
468.049	218.25
468.268	295.25
468.488	111.25
468.707	83.25
468.927	87.25
469.146	98.25
469.365	100.25
469.585	90.25
469.804	94.25
470.023	114.25
470.243	93.25
470.462	107.25
470.681	122.25
470.901	104.25
471.12	91.25
471.339	103.25
471.558	93.25
471.777	92.25
471.997	149.25
472.216	370.25
472.435	793.25
472.654	235.25
472.873	115.25
473.092	90.25
473.311	85.25
473.53	90.25
473.749	95.25
473.968	89.25
474.187	97.25
474.406	112.25
474.625	91.25
474.844	100.25
475.063	85.25
475.282	86.25
475.501	96.25
475.72	90.25
475.939	86.25
476.158	94.25
476.377	88.25
476.596	86.25
476.814	88.25
477.033	89.25
477.252	93.25
477.471	80.25
477.69	79.25
477.908	85.25
478.127	74.25
478.346	94.25
478.564	90.25
478.783	103.25
479.002	82.25
479.22	79.25
479.439	121.25
479.658	116.25
479.876	116.25
480.095	108.25
480.313	116.25
480.532	108.25
480.751	149.25
480.969	376.25
481.188	1346.25
481.406	879.25
481.624	179.25
481.843	97.25
482.061	92.25
482.28	97.25
482.498	82.25
482.717	86.25
482.935	93.25
483.153	96.25
483.372	93.25
483.59	81.25
483.808	87.25
484.027	85.25
484.245	92.25
484.463	95.25
484.681	98.25
484.9	94.25
485.118	96.25
485.336	100.25
485.554	96.25
485.772	92.25
485.99	100.25
486.209	101.25
486.427	102.25
486.645	100.25
486.863	113.25
487.081	109.25
487.299	94.25
487.517	89.25
487.735	91.25
487.953	84.25
488.171	90.25
488.389	106.25
488.607	102.25
488.825	92.25
489.043	85.25
489.261	90.25
489.479	87.25
489.696	82.25
489.914	84.25
490.132	90.25
490.35	84.25
490.568	86.25
490.786	90.25
491.003	104.25
491.221	69.25
491.439	100.25
491.657	100.25
491.874	100.25
492.092	89.25
492.31	90.25
492.527	92.25
492.745	99.25
492.963	93.25
493.18	89.25
493.398	84.25
493.615	88.25
493.833	96.25
494.05	92.25
494.268	89.25
494.485	89.25
494.703	109.25
494.92	73.25
495.138	80.25
495.355	86.25
495.573	107.25
495.79	76.25
496.008	92.25
496.225	79.25
496.442	90.25
496.66	91.25
496.877	86.25
497.094	78.25
497.312	83.25
497.529	94.25
497.746	89.25
497.963	69.25
498.181	87.25
498.398	92.25
498.615	112.25
498.832	95.25
499.049	101.25
499.267	80.25
499.484	89.25
499.701	92.25
499.918	82.25
500.135	87.25
500.352	96.25
500.569	85.25
500.786	87.25
501.003	83.25
501.22	80.25
501.437	103.25
501.654	96.25
501.871	110.25
502.088	96.25
502.305	100.25
502.522	90.25
502.739	90.25
502.956	84.25
503.172	88.25
503.389	85.25
503.606	122.25
503.823	106.25
504.04	89.25
504.256	84.25
504.473	102.25
504.69	87.25
504.907	90.25
505.123	94.25
505.34	83.25
505.557	92.25
505.773	84.25
505.99	85.25
506.207	88.25
506.423	82.25
506.64	82.25
506.856	86.25
507.073	95.25
507.289	101.25
507.506	103.25
507.722	121.25
507.939	116.25
508.155	95.25
508.372	101.25
508.588	83.25
508.805	94.25
509.021	96.25
509.238	100.25
509.454	102.25
509.67	89.25
509.887	97.25
510.103	131.25
510.319	203.25
510.536	745.25
510.752	2416.25
510.968	718.25
511.184	172.25
511.401	113.25
511.617	97.25
511.833	106.25
512.049	92.25
512.265	100.25
512.481	103.25
512.698	81.25
512.914	101.25
513.13	84.25
513.346	86.25
513.562	95.25
513.778	91.25
513.994	93.25
514.21	103.25
514.426	112.25
