Data from Circ_2013_H10_HRD10591_00088.txt Node
Date: Wed Jan 03 10:04:17 EST 2024
User: Yrep
Spectrometer: HR+D1059
Trigger mode: 1
Integration Time (sec): 1.000000E-1
Scans to average: 1
Electric dark correction enabled: true
Nonlinearity correction enabled: false
Boxcar width: 0
XAxis mode: Wavelengths
Number of Pixels in Spectrum: 2048
>>>>>Begin Spectral Data<<<<<
223.165	-13.56
223.4	-13.56
223.635	-13.56
223.869	-19.56
224.104	-17.56
224.338	-24.56
224.573	-20.56
224.808	-9.56
225.042	-13.56
225.277	-17.56
225.511	5.44
225.746	9.44
225.98	3.44
226.215	17.44
226.449	17.44
226.683	21.44
226.918	27.44
227.152	34.44
227.387	36.44
227.621	46.44
227.856	31.44
228.09	36.44
228.324	50.44
228.559	52.44
228.793	53.44
229.027	58.44
229.262	51.44
229.496	84.44
229.73	83.44
229.964	93.44
230.199	86.44
230.433	84.44
230.667	84.44
230.901	84.44
231.136	80.44
231.37	76.44
231.604	79.44
231.838	75.44
232.072	83.44
232.306	77.44
232.541	80.44
232.775	76.44
233.009	84.44
233.243	94.44
233.477	75.44
233.711	70.44
233.945	81.44
234.179	79.44
234.413	84.44
234.647	79.44
234.881	84.44
235.115	84.44
235.349	73.44
235.583	83.44
235.817	86.44
236.051	94.44
236.285	78.44
236.519	66.44
236.753	70.44
236.987	79.44
237.221	89.44
237.455	92.44
237.689	83.44
237.922	69.44
238.156	85.44
238.39	85.44
238.624	82.44
238.858	73.44
239.091	76.44
239.325	77.44
239.559	83.44
239.793	73.44
240.027	87.44
240.26	84.44
240.494	75.44
240.728	53.44
240.961	84.44
241.195	73.44
241.429	89.44
241.662	75.44
241.896	80.44
242.13	70.44
242.363	58.44
242.597	71.44
242.83	78.44
243.064	81.44
243.298	83.44
243.531	73.44
243.765	93.44
243.998	72.44
244.232	103.44
244.465	81.44
244.699	71.44
244.932	76.44
245.166	85.44
245.399	77.44
245.633	78.44
245.866	78.44
246.099	78.44
246.333	82.44
246.566	80.44
246.8	68.44
247.033	73.44
247.266	67.44
247.5	74.44
247.733	75.44
247.966	73.44
248.2	83.44
248.433	75.44
248.666	74.44
248.899	86.44
249.133	105.44
249.366	110.44
249.599	122.44
249.832	84.44
250.066	88.44
250.299	79.44
250.532	92.44
250.765	75.44
250.998	96.44
251.231	73.44
251.465	76.44
251.698	78.44
251.931	95.44
252.164	80.44
252.397	82.44
252.63	90.44
252.863	67.44
253.096	86.44
253.329	81.44
253.562	90.44
253.795	91.44
254.028	96.44
254.261	81.44
254.494	78.44
254.727	79.44
254.96	87.44
255.193	93.44
255.426	73.44
255.659	92.44
255.892	88.44
256.124	94.44
256.357	91.44
256.59	92.44
256.823	76.44
257.056	91.44
257.289	93.44
257.521	94.44
257.754	86.44
257.987	80.44
258.22	90.44
258.452	95.44
258.685	100.44
258.918	83.44
259.151	107.44
259.383	90.44
259.616	79.44
259.849	74.44
260.081	97.44
260.314	90.44
260.547	92.44
260.779	79.44
261.012	93.44
261.244	110.44
261.477	102.44
261.71	101.44
261.942	144.44
262.175	146.44
262.407	110.44
262.64	80.44
262.872	91.44
263.105	83.44
263.337	91.44
263.57	94.44
263.802	82.44
264.035	67.44
264.267	78.44
264.499	77.44
264.732	88.44
264.964	83.44
265.197	91.44
265.429	74.44
265.661	93.44
265.894	83.44
266.126	76.44
266.358	91.44
266.591	78.44
266.823	87.44
267.055	79.44
267.287	86.44
267.52	87.44
267.752	87.44
267.984	87.44
268.216	72.44
268.448	81.44
268.681	84.44
268.913	80.44
269.145	81.44
269.377	88.44
269.609	82.44
269.841	86.44
270.073	76.44
270.306	79.44
270.538	84.44
270.77	81.44
271.002	78.44
271.234	88.44
271.466	86.44
271.698	82.44
271.93	108.44
272.162	88.44
272.394	91.44
272.626	84.44
272.858	76.44
273.09	74.44
273.322	93.44
273.553	81.44
273.785	79.44
274.017	72.44
274.249	85.44
274.481	82.44
274.713	78.44
274.945	82.44
275.176	84.44
275.408	94.44
275.64	102.44
275.872	125.44
276.104	115.44
276.335	122.44
276.567	112.44
276.799	133.44
277.031	179.44
277.262	193.44
277.494	131.44
277.726	113.44
277.957	93.44
278.189	93.44
278.421	93.44
278.652	80.44
278.884	89.44
279.115	96.44
279.347	110.44
279.579	100.44
279.81	134.44
280.042	190.44
280.273	253.44
280.505	195.44
280.736	108.44
280.968	101.44
281.199	86.44
281.431	84.44
281.662	78.44
281.894	91.44
282.125	103.44
282.356	157.44
282.588	183.44
282.819	118.44
283.051	92.44
283.282	95.44
283.513	105.44
283.745	92.44
283.976	83.44
284.207	95.44
284.439	86.44
284.67	99.44
284.901	95.44
285.132	91.44
285.364	85.44
285.595	86.44
285.826	83.44
286.057	86.44
286.288	90.44
286.52	85.44
286.751	103.44
286.982	76.44
287.213	87.44
287.444	85.44
287.675	77.44
287.906	81.44
288.138	96.44
288.369	78.44
288.6	81.44
288.831	89.44
289.062	84.44
289.293	99.44
289.524	95.44
289.755	101.44
289.986	85.44
290.217	100.44
290.448	93.44
290.679	77.44
290.91	91.44
291.141	86.44
291.371	93.44
291.602	89.44
291.833	95.44
292.064	95.44
292.295	100.44
292.526	95.44
292.757	86.44
292.987	68.44
293.218	87.44
293.449	79.44
293.68	95.44
293.91	78.44
294.141	86.44
294.372	84.44
294.603	78.44
294.833	83.44
295.064	95.44
295.295	104.44
295.525	84.44
295.756	99.44
295.987	132.44
296.217	175.44
296.448	168.44
296.679	90.44
296.909	83.44
297.14	90.44
297.37	92.44
297.601	101.44
297.831	93.44
298.062	87.44
298.292	84.44
298.523	99.44
298.753	91.44
298.984	83.44
299.214	87.44
299.445	100.44
299.675	99.44
299.905	105.44
300.136	91.44
300.366	89.44
300.597	78.44
300.827	98.44
301.057	104.44
301.288	130.44
301.518	99.44
301.748	115.44
301.979	110.44
302.209	99.44
302.439	90.44
302.669	85.44
302.9	98.44
303.13	104.44
303.36	115.44
303.59	142.44
303.82	135.44
304.051	110.44
304.281	90.44
304.511	108.44
304.741	87.44
304.971	96.44
305.201	89.44
305.431	86.44
305.661	86.44
305.891	93.44
306.121	94.44
306.352	98.44
306.582	126.44
306.812	120.44
307.042	114.44
307.272	147.44
307.502	166.44
307.731	163.44
307.961	124.44
308.191	107.44
308.421	94.44
308.651	70.44
308.881	100.44
309.111	95.44
309.341	108.44
309.571	99.44
309.8	100.44
310.03	105.44
310.26	109.44
310.49	100.44
310.72	118.44
310.949	126.44
311.179	109.44
311.409	97.44
311.639	91.44
311.868	118.44
312.098	98.44
312.328	76.44
312.557	109.44
312.787	118.44
313.017	111.44
313.246	127.44
313.476	100.44
313.706	106.44
313.935	102.44
314.165	103.44
314.394	129.44
314.624	97.44
314.853	110.44
315.083	94.44
315.312	90.44
315.542	95.44
315.771	97.44
316.001	102.44
316.23	98.44
316.46	89.44
316.689	94.44
316.919	93.44
317.148	101.44
317.377	95.44
317.607	110.44
317.836	97.44
318.065	83.44
318.295	90.44
318.524	101.44
318.753	103.44
318.983	102.44
319.212	102.44
319.441	124.44
319.67	120.44
319.9	105.44
320.129	94.44
320.358	92.44
320.587	98.44
320.816	121.44
321.046	103.44
321.275	108.44
321.504	104.44
321.733	96.44
321.962	119.44
322.191	108.44
322.42	115.44
322.649	114.44
322.878	128.44
323.108	130.44
323.337	154.44
323.566	164.44
323.795	193.44
324.024	270.44
324.253	535.44
324.482	1171.44
324.71	2461.44
324.939	3245.44
325.168	1201.44
325.397	334.44
325.626	195.44
325.855	153.44
326.084	143.44
326.313	157.44
326.542	190.44
326.77	305.44
326.999	620.44
327.228	1274.44
327.457	2380.44
327.686	1913.44
327.914	608.44
328.143	544.44
328.372	674.44
328.6	394.44
328.829	199.44
329.058	206.44
329.287	223.44
329.515	195.44
329.744	258.44
329.972	459.44
330.201	958.44
330.43	1421.44
330.658	639.44
330.887	335.44
331.115	213.44
331.344	139.44
331.572	144.44
331.801	131.44
332.03	107.44
332.258	131.44
332.486	121.44
332.715	126.44
332.943	107.44
333.172	118.44
333.4	139.44
333.629	159.44
333.857	228.44
334.085	426.44
334.314	868.44
334.542	1785.44
334.771	1693.44
334.999	449.44
335.227	177.44
335.455	128.44
335.684	104.44
335.912	109.44
336.14	110.44
336.369	125.44
336.597	113.44
336.825	105.44
337.053	95.44
337.281	102.44
337.51	97.44
337.738	99.44
337.966	98.44
338.194	109.44
338.422	105.44
338.65	84.44
338.878	80.44
339.106	94.44
339.334	98.44
339.562	87.44
339.79	86.44
340.018	95.44
340.246	92.44
340.474	108.44
340.702	92.44
340.93	97.44
341.158	85.44
341.386	106.44
341.614	90.44
341.842	109.44
342.07	105.44
342.298	94.44
342.526	102.44
342.754	91.44
342.981	83.44
343.209	84.44
343.437	91.44
343.665	97.44
343.893	82.44
344.12	91.44
344.348	92.44
344.576	82.44
344.804	97.44
345.031	114.44
345.259	103.44
345.487	114.44
345.714	97.44
345.942	89.44
346.17	86.44
346.397	106.44
346.625	94.44
346.853	93.44
347.08	99.44
347.308	113.44
347.535	104.44
347.763	121.44
347.99	109.44
348.218	105.44
348.445	129.44
348.673	113.44
348.9	99.44
349.128	99.44
349.355	86.44
349.583	90.44
349.81	97.44
350.037	108.44
350.265	96.44
350.492	98.44
350.72	101.44
350.947	103.44
351.174	114.44
351.402	130.44
351.629	114.44
351.856	108.44
352.083	105.44
352.311	138.44
352.538	122.44
352.765	131.44
352.992	133.44
353.22	127.44
353.447	108.44
353.674	84.44
353.901	72.44
354.128	86.44
354.355	94.44
354.583	95.44
354.81	90.44
355.037	101.44
355.264	108.44
355.491	99.44
355.718	83.44
355.945	99.44
356.172	102.44
356.399	108.44
356.626	99.44
356.853	82.44
357.08	97.44
357.307	89.44
357.534	88.44
357.761	82.44
357.988	106.44
358.215	91.44
358.441	85.44
358.668	99.44
358.895	89.44
359.122	77.44
359.349	89.44
359.576	94.44
359.802	121.44
360.029	165.44
360.256	141.44
360.483	126.44
360.709	98.44
360.936	101.44
361.163	109.44
361.39	102.44
361.616	116.44
361.843	100.44
362.07	96.44
362.296	114.44
362.523	103.44
362.749	99.44
362.976	91.44
363.203	93.44
363.429	91.44
363.656	98.44
363.882	93.44
364.109	81.44
364.335	91.44
364.562	94.44
364.788	89.44
365.015	94.44
365.241	110.44
365.468	105.44
365.694	118.44
365.92	113.44
366.147	92.44
366.373	96.44
366.599	93.44
366.826	82.44
367.052	102.44
367.278	107.44
367.505	85.44
367.731	95.44
367.957	87.44
368.184	105.44
368.41	120.44
368.636	133.44
368.862	141.44
369.089	121.44
369.315	114.44
369.541	91.44
369.767	94.44
369.993	101.44
370.219	110.44
370.445	95.44
370.672	87.44
370.898	98.44
371.124	102.44
371.35	98.44
371.576	100.44
371.802	97.44
372.028	89.44
372.254	86.44
372.48	91.44
372.706	89.44
372.932	88.44
373.158	95.44
373.384	86.44
373.61	86.44
373.835	88.44
374.061	89.44
374.287	100.44
374.513	91.44
374.739	97.44
374.965	76.44
375.191	92.44
375.416	88.44
375.642	90.44
375.868	95.44
376.094	93.44
376.319	92.44
376.545	94.44
376.771	77.44
376.997	96.44
377.222	87.44
377.448	90.44
377.674	91.44
377.899	93.44
378.125	95.44
378.35	86.44
378.576	89.44
378.802	85.44
379.027	89.44
379.253	98.44
379.478	79.44
379.704	76.44
379.929	84.44
380.155	107.44
380.38	96.44
380.606	106.44
380.831	86.44
381.057	83.44
381.282	99.44
381.507	81.44
381.733	95.44
381.958	91.44
382.184	106.44
382.409	101.44
382.634	106.44
382.86	104.44
383.085	91.44
383.31	105.44
383.535	87.44
383.761	94.44
383.986	88.44
384.211	99.44
384.436	76.44
384.662	97.44
384.887	99.44
385.112	93.44
385.337	102.44
385.562	101.44
385.787	109.44
386.013	118.44
386.238	119.44
386.463	95.44
386.688	109.44
386.913	103.44
387.138	99.44
387.363	111.44
387.588	106.44
387.813	103.44
388.038	102.44
388.263	113.44
388.488	90.44
388.713	87.44
388.938	89.44
389.163	103.44
389.387	97.44
389.612	91.44
389.837	95.44
390.062	86.44
390.287	76.44
390.512	79.44
390.736	84.44
390.961	87.44
391.186	98.44
391.411	91.44
391.636	97.44
391.86	90.44
392.085	81.44
392.31	73.44
392.534	73.44
392.759	89.44
392.984	104.44
393.208	94.44
393.433	90.44
393.658	94.44
393.882	78.44
394.107	86.44
394.331	86.44
394.556	97.44
394.78	91.44
395.005	98.44
395.229	98.44
395.454	86.44
395.678	97.44
395.903	93.44
396.127	72.44
396.352	85.44
396.576	90.44
396.801	72.44
397.025	88.44
397.249	79.44
397.474	77.44
397.698	81.44
397.922	94.44
398.147	89.44
398.371	78.44
398.595	92.44
398.82	90.44
399.044	98.44
399.268	100.44
399.492	87.44
399.717	92.44
399.941	97.44
400.165	104.44
400.389	93.44
400.613	98.44
400.837	98.44
401.062	90.44
401.286	98.44
401.51	87.44
401.734	97.44
401.958	118.44
402.182	147.44
402.406	221.44
402.63	147.44
402.854	116.44
403.078	100.44
403.302	97.44
403.526	90.44
403.75	77.44
403.974	96.44
404.198	96.44
404.422	102.44
404.645	96.44
404.869	111.44
405.093	130.44
405.317	149.44
405.541	147.44
405.765	119.44
405.988	142.44
406.212	249.44
406.436	341.44
406.66	231.44
406.883	124.44
407.107	107.44
407.331	110.44
407.555	103.44
407.778	98.44
408.002	106.44
408.226	97.44
408.449	92.44
408.673	89.44
408.896	102.44
409.12	101.44
409.344	102.44
409.567	82.44
409.791	85.44
410.014	97.44
410.238	85.44
410.461	91.44
410.685	94.44
410.908	100.44
411.132	108.44
411.355	106.44
411.578	105.44
411.802	79.44
412.025	81.44
412.249	104.44
412.472	115.44
412.695	127.44
412.919	103.44
413.142	92.44
413.365	94.44
413.589	86.44
413.812	109.44
414.035	83.44
414.258	106.44
414.482	87.44
414.705	86.44
414.928	95.44
415.151	83.44
415.374	90.44
415.597	88.44
415.821	90.44
416.044	83.44
416.267	92.44
416.49	90.44
416.713	106.44
416.936	92.44
417.159	95.44
417.382	91.44
417.605	111.44
417.828	113.44
418.051	100.44
418.274	82.44
418.497	89.44
418.72	94.44
418.943	84.44
419.166	82.44
419.389	94.44
419.611	92.44
419.834	83.44
420.057	94.44
420.28	93.44
420.503	91.44
420.726	85.44
420.948	91.44
421.171	102.44
421.394	93.44
421.617	93.44
421.839	89.44
422.062	103.44
422.285	88.44
422.507	104.44
422.73	102.44
422.953	95.44
423.175	87.44
423.398	102.44
423.621	91.44
423.843	94.44
424.066	91.44
424.288	77.44
424.511	103.44
424.733	123.44
424.956	117.44
425.178	120.44
425.401	124.44
425.623	111.44
425.846	106.44
426.068	106.44
426.291	96.44
426.513	101.44
426.735	79.44
426.958	98.44
427.18	132.44
427.402	188.44
427.625	282.44
427.847	263.44
428.069	228.44
428.292	125.44
428.514	106.44
428.736	94.44
428.958	92.44
429.181	104.44
429.403	97.44
429.625	93.44
429.847	97.44
430.069	116.44
430.292	95.44
430.514	84.44
430.736	92.44
430.958	89.44
431.18	97.44
431.402	88.44
431.624	81.44
431.846	90.44
432.068	84.44
432.29	96.44
432.512	90.44
432.734	87.44
432.956	100.44
433.178	117.44
433.4	100.44
433.622	116.44
433.844	98.44
434.066	97.44
434.287	95.44
434.509	96.44
434.731	92.44
434.953	105.44
435.175	82.44
435.397	101.44
435.618	105.44
435.84	106.44
436.062	139.44
436.284	137.44
436.505	105.44
436.727	115.44
436.949	97.44
437.17	97.44
437.392	82.44
437.614	98.44
437.835	137.44
438.057	161.44
438.278	144.44
438.5	134.44
438.721	151.44
438.943	130.44
439.165	102.44
439.386	103.44
439.608	97.44
439.829	119.44
440.05	160.44
440.272	192.44
440.493	109.44
440.715	116.44
440.936	92.44
441.158	83.44
441.379	99.44
441.6	103.44
441.822	112.44
442.043	127.44
442.264	127.44
442.486	117.44
442.707	101.44
442.928	119.44
443.149	189.44
443.371	177.44
443.592	147.44
443.813	142.44
444.034	110.44
444.255	96.44
444.476	96.44
444.698	82.44
444.919	91.44
445.14	150.44
445.361	122.44
445.582	126.44
445.803	195.44
446.024	209.44
446.245	185.44
446.466	136.44
446.687	100.44
446.908	88.44
447.129	92.44
447.35	77.44
447.571	92.44
447.792	102.44
448.013	104.44
448.234	134.44
448.455	117.44
448.675	126.44
448.896	139.44
449.117	105.44
449.338	127.44
449.559	118.44
449.779	165.44
450	95.44
450.221	91.44
450.442	94.44
450.662	122.44
450.883	129.44
451.104	149.44
451.324	102.44
451.545	91.44
451.766	75.44
451.986	86.44
452.207	98.44
452.428	109.44
452.648	99.44
452.869	134.44
453.089	148.44
453.31	153.44
453.53	98.44
453.751	91.44
453.971	118.44
454.192	144.44
454.412	102.44
454.633	97.44
454.853	97.44
455.073	98.44
455.294	92.44
455.514	120.44
455.734	99.44
455.955	97.44
456.175	87.44
456.395	78.44
456.616	95.44
456.836	92.44
457.056	83.44
457.276	87.44
457.497	86.44
457.717	85.44
457.937	101.44
458.157	98.44
458.377	102.44
458.598	156.44
458.818	230.44
459.038	252.44
459.258	157.44
459.478	89.44
459.698	86.44
459.918	90.44
460.138	82.44
460.358	91.44
460.578	101.44
460.798	104.44
461.018	98.44
461.238	92.44
461.458	92.44
461.678	89.44
461.898	82.44
462.118	95.44
462.338	96.44
462.558	77.44
462.777	75.44
462.997	87.44
463.217	99.44
463.437	105.44
463.657	97.44
463.876	91.44
464.096	87.44
464.316	100.44
464.536	102.44
464.755	117.44
464.975	122.44
465.195	278.44
465.414	265.44
465.634	122.44
465.854	92.44
466.073	89.44
466.293	94.44
466.512	77.44
466.732	82.44
466.951	88.44
467.171	82.44
467.391	126.44
467.61	156.44
467.829	183.44
468.049	501.44
468.268	781.44
468.488	225.44
468.707	113.44
468.927	92.44
469.146	89.44
469.365	100.44
469.585	92.44
469.804	123.44
470.023	107.44
470.243	106.44
470.462	122.44
470.681	158.44
470.901	100.44
471.12	102.44
471.339	104.44
471.558	117.44
471.777	147.44
471.997	270.44
472.216	957.44
472.435	2383.44
472.654	573.44
472.873	156.44
473.092	111.44
473.311	116.44
473.53	116.44
473.749	93.44
473.968	101.44
474.187	132.44
474.406	121.44
474.625	106.44
474.844	80.44
475.063	104.44
475.282	91.44
475.501	111.44
475.72	96.44
475.939	88.44
476.158	93.44
476.377	86.44
476.596	94.44
476.814	111.44
477.033	110.44
477.252	92.44
477.471	92.44
477.69	105.44
477.908	85.44
478.127	93.44
478.346	93.44
478.564	106.44
478.783	115.44
479.002	102.44
479.22	109.44
479.439	118.44
479.658	125.44
479.876	127.44
480.095	121.44
480.313	131.44
480.532	156.44
480.751	271.44
480.969	922.44
481.188	3925.44
481.406	2439.44
481.624	368.44
481.843	131.44
482.061	101.44
482.28	94.44
482.498	91.44
482.717	99.44
482.935	95.44
483.153	84.44
483.372	89.44
483.59	99.44
483.808	100.44
484.027	101.44
484.245	90.44
484.463	105.44
484.681	99.44
484.9	107.44
485.118	94.44
485.336	88.44
485.554	90.44
485.772	98.44
485.99	107.44
486.209	105.44
486.427	106.44
486.645	116.44
486.863	135.44
487.081	106.44
487.299	94.44
487.517	100.44
487.735	96.44
487.953	101.44
488.171	93.44
488.389	91.44
488.607	96.44
488.825	89.44
489.043	81.44
489.261	94.44
489.479	102.44
489.696	96.44
489.914	84.44
490.132	79.44
490.35	93.44
490.568	91.44
490.786	84.44
491.003	71.44
491.221	79.44
491.439	109.44
491.657	91.44
491.874	96.44
492.092	85.44
492.31	97.44
492.527	91.44
492.745	86.44
492.963	103.44
493.18	86.44
493.398	82.44
493.615	99.44
493.833	102.44
494.05	100.44
494.268	85.44
494.485	86.44
494.703	106.44
494.92	72.44
495.138	99.44
495.355	89.44
495.573	87.44
495.79	89.44
496.008	101.44
496.225	90.44
496.442	83.44
496.66	82.44
496.877	97.44
497.094	89.44
497.312	99.44
497.529	93.44
497.746	95.44
497.963	92.44
498.181	92.44
498.398	81.44
498.615	125.44
498.832	123.44
499.049	88.44
499.267	93.44
499.484	76.44
499.701	89.44
499.918	87.44
500.135	81.44
500.352	77.44
500.569	95.44
500.786	102.44
501.003	91.44
501.22	93.44
501.437	93.44
501.654	125.44
501.871	130.44
502.088	101.44
502.305	105.44
502.522	95.44
502.739	94.44
502.956	98.44
503.172	101.44
503.389	103.44
503.606	115.44
503.823	112.44
504.04	89.44
504.256	97.44
504.473	84.44
504.69	94.44
504.907	99.44
505.123	87.44
505.34	89.44
505.557	89.44
505.773	95.44
505.99	78.44
506.207	83.44
506.423	84.44
506.64	84.44
506.856	81.44
507.073	85.44
507.289	79.44
507.506	97.44
507.722	134.44
507.939	140.44
508.155	99.44
508.372	94.44
508.588	91.44
508.805	108.44
509.021	110.44
509.238	107.44
509.454	111.44
509.67	108.44
509.887	115.44
510.103	135.44
510.319	257.44
510.536	998.44
510.752	3489.44
510.968	993.44
511.184	194.44
511.401	135.44
511.617	117.44
511.833	110.44
512.049	101.44
512.265	107.44
512.481	93.44
512.698	89.44
