Data from Circ_2013_H10_HRD10591_00029.txt Node
Date: Wed Jan 03 10:04:06 EST 2024
User: Yrep
Spectrometer: HR+D1059
Trigger mode: 1
Integration Time (sec): 1.000000E-1
Scans to average: 1
Electric dark correction enabled: true
Nonlinearity correction enabled: false
Boxcar width: 0
XAxis mode: Wavelengths
Number of Pixels in Spectrum: 2048
>>>>>Begin Spectral Data<<<<<
223.165	-16.5
223.4	-16.5
223.635	-16.5
223.869	-12.5
224.104	-17.5
224.338	-7.5
224.573	-14.5
224.808	-15.5
225.042	-9.5
225.277	-11.5
225.511	0.5
225.746	1.5
225.98	11.5
226.215	9.5
226.449	-0.5
226.683	26.5
226.918	29.5
227.152	26.5
227.387	32.5
227.621	35.5
227.856	40.5
228.09	44.5
228.324	41.5
228.559	54.5
228.793	49.5
229.027	52.5
229.262	76.5
229.496	81.5
229.73	90.5
229.964	96.5
230.199	68.5
230.433	80.5
230.667	86.5
230.901	78.5
231.136	76.5
231.37	80.5
231.604	67.5
231.838	72.5
232.072	84.5
232.306	79.5
232.541	88.5
232.775	81.5
233.009	66.5
233.243	71.5
233.477	79.5
233.711	89.5
233.945	87.5
234.179	72.5
234.413	71.5
234.647	82.5
234.881	85.5
235.115	77.5
235.349	71.5
235.583	67.5
235.817	69.5
236.051	82.5
236.285	71.5
236.519	77.5
236.753	73.5
236.987	64.5
237.221	66.5
237.455	75.5
237.689	78.5
237.922	75.5
238.156	81.5
238.39	76.5
238.624	69.5
238.858	71.5
239.091	68.5
239.325	69.5
239.559	84.5
239.793	82.5
240.027	78.5
240.26	73.5
240.494	75.5
240.728	69.5
240.961	78.5
241.195	77.5
241.429	81.5
241.662	70.5
241.896	77.5
242.13	70.5
242.363	66.5
242.597	72.5
242.83	83.5
243.064	74.5
243.298	74.5
243.531	65.5
243.765	77.5
243.998	78.5
244.232	88.5
244.465	81.5
244.699	92.5
244.932	72.5
245.166	84.5
245.399	80.5
245.633	67.5
245.866	72.5
246.099	65.5
246.333	80.5
246.566	70.5
246.8	60.5
247.033	71.5
247.266	65.5
247.5	83.5
247.733	88.5
247.966	85.5
248.2	84.5
248.433	82.5
248.666	83.5
248.899	75.5
249.133	83.5
249.366	95.5
249.599	98.5
249.832	72.5
250.066	79.5
250.299	81.5
250.532	82.5
250.765	80.5
250.998	81.5
251.231	81.5
251.465	72.5
251.698	79.5
251.931	89.5
252.164	94.5
252.397	69.5
252.63	79.5
252.863	73.5
253.096	72.5
253.329	74.5
253.562	71.5
253.795	85.5
254.028	75.5
254.261	72.5
254.494	79.5
254.727	73.5
254.96	80.5
255.193	79.5
255.426	95.5
255.659	87.5
255.892	85.5
256.124	88.5
256.357	72.5
256.59	86.5
256.823	69.5
257.056	71.5
257.289	86.5
257.521	83.5
257.754	63.5
257.987	94.5
258.22	85.5
258.452	100.5
258.685	86.5
258.918	71.5
259.151	83.5
259.383	74.5
259.616	71.5
259.849	84.5
260.081	83.5
260.314	65.5
260.547	81.5
260.779	82.5
261.012	90.5
261.244	93.5
261.477	94.5
261.71	98.5
261.942	137.5
262.175	128.5
262.407	98.5
262.64	77.5
262.872	87.5
263.105	76.5
263.337	93.5
263.57	96.5
263.802	80.5
264.035	72.5
264.267	80.5
264.499	75.5
264.732	80.5
264.964	82.5
265.197	74.5
265.429	87.5
265.661	82.5
265.894	81.5
266.126	86.5
266.358	77.5
266.591	90.5
266.823	85.5
267.055	73.5
267.287	82.5
267.52	83.5
267.752	81.5
267.984	104.5
268.216	80.5
268.448	76.5
268.681	83.5
268.913	68.5
269.145	87.5
269.377	94.5
269.609	74.5
269.841	86.5
270.073	69.5
270.306	86.5
270.538	82.5
270.77	55.5
271.002	78.5
271.234	94.5
271.466	78.5
271.698	82.5
271.93	89.5
272.162	84.5
272.394	97.5
272.626	82.5
272.858	82.5
273.09	70.5
273.322	78.5
273.553	83.5
273.785	71.5
274.017	79.5
274.249	94.5
274.481	72.5
274.713	91.5
274.945	100.5
275.176	90.5
275.408	102.5
275.64	86.5
275.872	92.5
276.104	97.5
276.335	87.5
276.567	111.5
276.799	121.5
277.031	119.5
277.262	125.5
277.494	112.5
277.726	96.5
277.957	76.5
278.189	78.5
278.421	93.5
278.652	94.5
278.884	86.5
279.115	67.5
279.347	79.5
279.579	77.5
279.81	100.5
280.042	127.5
280.273	145.5
280.505	109.5
280.736	89.5
280.968	84.5
281.199	74.5
281.431	90.5
281.662	73.5
281.894	94.5
282.125	114.5
282.356	142.5
282.588	170.5
282.819	126.5
283.051	91.5
283.282	77.5
283.513	97.5
283.745	96.5
283.976	89.5
284.207	95.5
284.439	90.5
284.67	87.5
284.901	83.5
285.132	89.5
285.364	85.5
285.595	79.5
285.826	85.5
286.057	78.5
286.288	74.5
286.52	82.5
286.751	83.5
286.982	96.5
287.213	78.5
287.444	72.5
287.675	76.5
287.906	76.5
288.138	81.5
288.369	96.5
288.6	95.5
288.831	91.5
289.062	86.5
289.293	84.5
289.524	80.5
289.755	87.5
289.986	80.5
290.217	81.5
290.448	66.5
290.679	95.5
290.91	93.5
291.141	85.5
291.371	86.5
291.602	100.5
291.833	83.5
292.064	97.5
292.295	78.5
292.526	100.5
292.757	76.5
292.987	89.5
293.218	89.5
293.449	84.5
293.68	90.5
293.91	89.5
294.141	101.5
294.372	75.5
294.603	87.5
294.833	86.5
295.064	83.5
295.295	92.5
295.525	89.5
295.756	113.5
295.987	119.5
296.217	168.5
296.448	149.5
296.679	103.5
296.909	82.5
297.14	80.5
297.37	89.5
297.601	80.5
297.831	102.5
298.062	90.5
298.292	92.5
298.523	93.5
298.753	72.5
298.984	90.5
299.214	86.5
299.445	93.5
299.675	103.5
299.905	95.5
300.136	101.5
300.366	88.5
300.597	74.5
300.827	102.5
301.057	104.5
301.288	122.5
301.518	97.5
301.748	88.5
301.979	102.5
302.209	98.5
302.439	89.5
302.669	99.5
302.9	90.5
303.13	80.5
303.36	101.5
303.59	112.5
303.82	114.5
304.051	84.5
304.281	84.5
304.511	88.5
304.741	87.5
304.971	86.5
305.201	90.5
305.431	74.5
305.661	70.5
305.891	83.5
306.121	106.5
306.352	113.5
306.582	100.5
306.812	96.5
307.042	87.5
307.272	107.5
307.502	112.5
307.731	115.5
307.961	113.5
308.191	88.5
308.421	94.5
308.651	94.5
308.881	99.5
309.111	97.5
309.341	107.5
309.571	112.5
309.8	111.5
310.03	94.5
310.26	95.5
310.49	104.5
310.72	104.5
310.949	113.5
311.179	101.5
311.409	85.5
311.639	86.5
311.868	102.5
312.098	85.5
312.328	93.5
312.557	109.5
312.787	132.5
313.017	97.5
313.246	90.5
313.476	97.5
313.706	100.5
313.935	121.5
314.165	102.5
314.394	121.5
314.624	94.5
314.853	95.5
315.083	98.5
315.312	111.5
315.542	87.5
315.771	83.5
316.001	92.5
316.23	82.5
316.46	99.5
316.689	82.5
316.919	95.5
317.148	100.5
317.377	90.5
317.607	118.5
317.836	89.5
318.065	88.5
318.295	94.5
318.524	94.5
318.753	86.5
318.983	89.5
319.212	78.5
319.441	115.5
319.67	93.5
319.9	96.5
320.129	92.5
320.358	91.5
320.587	81.5
320.816	112.5
321.046	109.5
321.275	107.5
321.504	93.5
321.733	101.5
321.962	97.5
322.191	99.5
322.42	104.5
322.649	117.5
322.878	115.5
323.108	117.5
323.337	130.5
323.566	150.5
323.795	191.5
324.024	232.5
324.253	479.5
324.482	998.5
324.71	2034.5
324.939	2638.5
325.168	969.5
325.397	284.5
325.626	158.5
325.855	142.5
326.084	127.5
326.313	134.5
326.542	159.5
326.77	261.5
326.999	534.5
327.228	1107.5
327.457	1961.5
327.686	1541.5
327.914	461.5
328.143	338.5
328.372	366.5
328.6	210.5
328.829	149.5
329.058	159.5
329.287	166.5
329.515	148.5
329.744	142.5
329.972	253.5
330.201	437.5
330.43	662.5
330.658	357.5
330.887	219.5
331.115	169.5
331.344	107.5
331.572	115.5
331.801	111.5
332.03	125.5
332.258	110.5
332.486	99.5
332.715	86.5
332.943	102.5
333.172	116.5
333.4	103.5
333.629	131.5
333.857	164.5
334.085	238.5
334.314	408.5
334.542	772.5
334.771	777.5
334.999	247.5
335.227	135.5
335.455	95.5
335.684	100.5
335.912	98.5
336.14	79.5
336.369	101.5
336.597	83.5
336.825	99.5
337.053	106.5
337.281	90.5
337.51	94.5
337.738	95.5
337.966	84.5
338.194	100.5
338.422	106.5
338.65	92.5
338.878	105.5
339.106	91.5
339.334	82.5
339.562	88.5
339.79	75.5
340.018	106.5
340.246	90.5
340.474	98.5
340.702	102.5
340.93	88.5
341.158	97.5
341.386	90.5
341.614	93.5
341.842	82.5
342.07	93.5
342.298	96.5
342.526	81.5
342.754	89.5
342.981	85.5
343.209	83.5
343.437	91.5
343.665	75.5
343.893	79.5
344.12	89.5
344.348	88.5
344.576	74.5
344.804	93.5
345.031	98.5
345.259	112.5
345.487	97.5
345.714	103.5
345.942	88.5
346.17	91.5
346.397	94.5
346.625	97.5
346.853	91.5
347.08	94.5
347.308	79.5
347.535	105.5
347.763	97.5
347.99	103.5
348.218	113.5
348.445	106.5
348.673	101.5
348.9	85.5
349.128	93.5
349.355	74.5
349.583	90.5
349.81	97.5
350.037	99.5
350.265	78.5
350.492	88.5
350.72	98.5
350.947	109.5
351.174	112.5
351.402	144.5
351.629	106.5
351.856	91.5
352.083	114.5
352.311	111.5
352.538	107.5
352.765	111.5
352.992	136.5
353.22	116.5
353.447	119.5
353.674	106.5
353.901	94.5
354.128	95.5
354.355	90.5
354.583	108.5
354.81	96.5
355.037	83.5
355.264	88.5
355.491	96.5
355.718	80.5
355.945	87.5
356.172	84.5
356.399	86.5
356.626	99.5
356.853	94.5
357.08	94.5
357.307	83.5
357.534	70.5
357.761	79.5
357.988	91.5
358.215	110.5
358.441	93.5
358.668	68.5
358.895	79.5
359.122	75.5
359.349	85.5
359.576	95.5
359.802	128.5
360.029	141.5
360.256	128.5
360.483	113.5
360.709	93.5
360.936	104.5
361.163	87.5
361.39	94.5
361.616	103.5
361.843	94.5
362.07	83.5
362.296	98.5
362.523	91.5
362.749	95.5
362.976	95.5
363.203	88.5
363.429	82.5
363.656	97.5
363.882	92.5
364.109	80.5
364.335	86.5
364.562	89.5
364.788	101.5
365.015	98.5
365.241	107.5
365.468	120.5
365.694	117.5
365.92	99.5
366.147	92.5
366.373	86.5
366.599	96.5
366.826	99.5
367.052	79.5
367.278	90.5
367.505	85.5
367.731	94.5
367.957	75.5
368.184	101.5
368.41	107.5
368.636	128.5
368.862	126.5
369.089	111.5
369.315	95.5
369.541	96.5
369.767	94.5
369.993	92.5
370.219	87.5
370.445	89.5
370.672	88.5
370.898	85.5
371.124	98.5
371.35	85.5
371.576	84.5
371.802	69.5
372.028	88.5
372.254	106.5
372.48	86.5
372.706	78.5
372.932	89.5
373.158	84.5
373.384	98.5
373.61	96.5
373.835	95.5
374.061	82.5
374.287	93.5
374.513	76.5
374.739	83.5
374.965	75.5
375.191	78.5
375.416	80.5
375.642	93.5
375.868	95.5
376.094	84.5
376.319	89.5
376.545	93.5
376.771	90.5
376.997	90.5
377.222	74.5
377.448	98.5
377.674	97.5
377.899	95.5
378.125	109.5
378.35	90.5
378.576	80.5
378.802	75.5
379.027	91.5
379.253	86.5
379.478	86.5
379.704	89.5
379.929	81.5
380.155	97.5
380.38	94.5
380.606	105.5
380.831	95.5
381.057	93.5
381.282	83.5
381.507	93.5
381.733	95.5
381.958	97.5
382.184	92.5
382.409	96.5
382.634	102.5
382.86	98.5
383.085	101.5
383.31	84.5
383.535	103.5
383.761	101.5
383.986	105.5
384.211	85.5
384.436	102.5
384.662	105.5
384.887	109.5
385.112	100.5
385.337	98.5
385.562	122.5
385.787	99.5
386.013	134.5
386.238	111.5
386.463	101.5
386.688	109.5
386.913	85.5
387.138	97.5
387.363	101.5
387.588	113.5
387.813	101.5
388.038	105.5
388.263	122.5
388.488	119.5
388.713	91.5
388.938	91.5
389.163	82.5
389.387	95.5
389.612	89.5
389.837	82.5
390.062	91.5
390.287	84.5
390.512	72.5
390.736	91.5
390.961	81.5
391.186	88.5
391.411	81.5
391.636	94.5
391.86	86.5
392.085	78.5
392.31	81.5
392.534	84.5
392.759	88.5
392.984	84.5
393.208	82.5
393.433	95.5
393.658	106.5
393.882	72.5
394.107	80.5
394.331	72.5
394.556	84.5
394.78	77.5
395.005	82.5
395.229	83.5
395.454	83.5
395.678	82.5
395.903	88.5
396.127	83.5
396.352	83.5
396.576	71.5
396.801	95.5
397.025	88.5
397.249	85.5
397.474	80.5
397.698	91.5
397.922	100.5
398.147	76.5
398.371	72.5
398.595	85.5
398.82	93.5
399.044	83.5
399.268	85.5
399.492	91.5
399.717	95.5
399.941	81.5
400.165	92.5
400.389	82.5
400.613	82.5
400.837	89.5
401.062	72.5
401.286	75.5
401.51	87.5
401.734	104.5
401.958	97.5
402.182	158.5
402.406	205.5
402.63	153.5
402.854	106.5
403.078	93.5
403.302	69.5
403.526	91.5
403.75	83.5
403.974	81.5
404.198	97.5
404.422	85.5
404.645	88.5
404.869	81.5
405.093	93.5
405.317	119.5
405.541	131.5
405.765	93.5
405.988	143.5
406.212	219.5
406.436	325.5
406.66	191.5
406.883	103.5
407.107	90.5
407.331	108.5
407.555	103.5
407.778	92.5
408.002	99.5
408.226	86.5
408.449	98.5
408.673	95.5
408.896	94.5
409.12	106.5
409.344	99.5
409.567	89.5
409.791	88.5
410.014	97.5
410.238	84.5
410.461	71.5
410.685	107.5
410.908	98.5
411.132	99.5
411.355	99.5
411.578	99.5
411.802	82.5
412.025	90.5
412.249	84.5
412.472	116.5
412.695	115.5
412.919	97.5
413.142	79.5
413.365	90.5
413.589	80.5
413.812	84.5
414.035	100.5
414.258	95.5
414.482	86.5
414.705	98.5
414.928	88.5
415.151	95.5
415.374	87.5
415.597	98.5
415.821	92.5
416.044	81.5
416.267	84.5
416.49	92.5
416.713	95.5
416.936	85.5
417.159	81.5
417.382	89.5
417.605	99.5
417.828	103.5
418.051	99.5
418.274	91.5
418.497	90.5
418.72	79.5
418.943	83.5
419.166	82.5
419.389	81.5
419.611	81.5
419.834	92.5
420.057	88.5
420.28	93.5
420.503	90.5
420.726	95.5
420.948	91.5
421.171	86.5
421.394	87.5
421.617	91.5
421.839	74.5
422.062	90.5
422.285	95.5
422.507	103.5
422.73	109.5
422.953	90.5
423.175	87.5
423.398	87.5
423.621	88.5
423.843	81.5
424.066	89.5
424.288	96.5
424.511	91.5
424.733	97.5
424.956	109.5
425.178	103.5
425.401	112.5
425.623	123.5
425.846	84.5
426.068	89.5
426.291	95.5
426.513	95.5
426.735	81.5
426.958	87.5
427.18	115.5
427.402	165.5
427.625	230.5
427.847	178.5
428.069	165.5
428.292	104.5
428.514	93.5
428.736	86.5
428.958	81.5
429.181	82.5
429.403	73.5
429.625	77.5
429.847	97.5
430.069	112.5
430.292	96.5
430.514	83.5
430.736	72.5
430.958	67.5
431.18	91.5
431.402	82.5
431.624	89.5
431.846	77.5
432.068	86.5
432.29	98.5
432.512	97.5
432.734	78.5
432.956	87.5
433.178	107.5
433.4	99.5
433.622	80.5
433.844	86.5
434.066	89.5
434.287	89.5
434.509	75.5
434.731	86.5
434.953	81.5
435.175	94.5
435.397	80.5
435.618	85.5
435.84	122.5
436.062	127.5
436.284	118.5
436.505	103.5
436.727	95.5
436.949	82.5
437.17	89.5
437.392	84.5
437.614	96.5
437.835	119.5
438.057	151.5
438.278	117.5
438.5	121.5
438.721	114.5
438.943	94.5
439.165	92.5
439.386	94.5
439.608	99.5
439.829	113.5
440.05	135.5
440.272	175.5
440.493	94.5
440.715	91.5
440.936	90.5
441.158	93.5
441.379	78.5
441.6	94.5
441.822	112.5
442.043	110.5
442.264	116.5
442.486	99.5
442.707	85.5
442.928	122.5
443.149	171.5
443.371	167.5
443.592	143.5
443.813	124.5
444.034	103.5
444.255	82.5
444.476	106.5
444.698	85.5
444.919	93.5
445.14	139.5
445.361	134.5
445.582	135.5
445.803	169.5
446.024	155.5
446.245	158.5
446.466	128.5
446.687	86.5
446.908	87.5
447.129	70.5
447.35	79.5
447.571	78.5
447.792	111.5
448.013	111.5
448.234	109.5
448.455	112.5
448.675	115.5
448.896	131.5
449.117	109.5
449.338	107.5
449.559	142.5
449.779	164.5
450	97.5
450.221	95.5
450.442	90.5
450.662	92.5
450.883	122.5
451.104	121.5
451.324	87.5
451.545	77.5
451.766	85.5
451.986	81.5
452.207	88.5
452.428	94.5
452.648	98.5
452.869	135.5
453.089	135.5
453.31	153.5
453.53	97.5
453.751	92.5
453.971	111.5
454.192	128.5
454.412	109.5
454.633	90.5
454.853	74.5
455.073	83.5
455.294	88.5
455.514	113.5
455.734	95.5
455.955	85.5
456.175	101.5
456.395	80.5
456.616	68.5
456.836	83.5
457.056	96.5
457.276	95.5
457.497	91.5
457.717	81.5
457.937	91.5
458.157	84.5
458.377	95.5
458.598	121.5
458.818	189.5
459.038	215.5
459.258	124.5
459.478	82.5
459.698	74.5
459.918	94.5
460.138	89.5
460.358	85.5
460.578	93.5
460.798	100.5
461.018	90.5
461.238	86.5
461.458	76.5
461.678	90.5
461.898	87.5
462.118	75.5
462.338	82.5
462.558	77.5
462.777	88.5
462.997	85.5
463.217	95.5
463.437	91.5
463.657	90.5
463.876	93.5
464.096	93.5
464.316	98.5
464.536	105.5
464.755	106.5
464.975	130.5
465.195	229.5
465.414	233.5
465.634	113.5
465.854	90.5
466.073	96.5
466.293	81.5
466.512	85.5
466.732	84.5
466.951	88.5
467.171	110.5
467.391	102.5
467.61	147.5
467.829	134.5
468.049	255.5
468.268	381.5
468.488	143.5
468.707	93.5
468.927	86.5
469.146	85.5
469.365	91.5
469.585	93.5
469.804	96.5
470.023	112.5
470.243	96.5
470.462	116.5
470.681	147.5
470.901	99.5
471.12	109.5
471.339	92.5
471.558	97.5
471.777	114.5
471.997	161.5
472.216	471.5
472.435	1035.5
472.654	302.5
472.873	115.5
473.092	90.5
473.311	85.5
473.53	87.5
473.749	93.5
473.968	106.5
474.187	118.5
474.406	102.5
474.625	93.5
474.844	86.5
475.063	95.5
475.282	92.5
475.501	93.5
475.72	81.5
475.939	78.5
476.158	85.5
476.377	75.5
476.596	86.5
476.814	99.5
477.033	92.5
477.252	82.5
477.471	80.5
477.69	88.5
477.908	100.5
478.127	96.5
478.346	83.5
478.564	89.5
478.783	98.5
479.002	95.5
479.22	93.5
479.439	103.5
479.658	113.5
479.876	101.5
480.095	102.5
480.313	111.5
480.532	123.5
480.751	163.5
480.969	454.5
481.188	1741.5
481.406	1145.5
481.624	213.5
481.843	104.5
482.061	97.5
482.28	81.5
482.498	85.5
482.717	101.5
482.935	83.5
483.153	102.5
483.372	92.5
483.59	82.5
483.808	85.5
484.027	94.5
484.245	90.5
484.463	88.5
484.681	78.5
484.9	88.5
485.118	98.5
485.336	96.5
485.554	88.5
485.772	98.5
485.99	92.5
486.209	104.5
486.427	99.5
486.645	93.5
486.863	117.5
487.081	98.5
487.299	100.5
487.517	91.5
487.735	76.5
487.953	90.5
488.171	90.5
488.389	116.5
488.607	112.5
488.825	86.5
489.043	87.5
489.261	86.5
489.479	91.5
489.696	80.5
489.914	88.5
490.132	73.5
490.35	81.5
490.568	80.5
490.786	76.5
491.003	95.5
491.221	82.5
491.439	91.5
491.657	96.5
491.874	81.5
492.092	86.5
492.31	96.5
492.527	110.5
492.745	102.5
492.963	96.5
493.18	90.5
493.398	75.5
493.615	87.5
493.833	90.5
494.05	85.5
494.268	84.5
494.485	89.5
494.703	85.5
494.92	83.5
495.138	81.5
495.355	99.5
495.573	76.5
495.79	81.5
496.008	81.5
496.225	90.5
496.442	96.5
496.66	92.5
496.877	89.5
497.094	77.5
497.312	82.5
497.529	78.5
497.746	75.5
497.963	92.5
498.181	97.5
498.398	93.5
498.615	113.5
498.832	108.5
499.049	90.5
499.267	83.5
499.484	95.5
499.701	85.5
499.918	81.5
500.135	78.5
500.352	86.5
500.569	85.5
500.786	92.5
501.003	94.5
501.22	89.5
501.437	84.5
501.654	94.5
501.871	126.5
502.088	93.5
502.305	98.5
502.522	84.5
502.739	93.5
502.956	86.5
503.172	85.5
503.389	96.5
503.606	126.5
503.823	112.5
504.04	101.5
504.256	94.5
504.473	96.5
504.69	86.5
504.907	89.5
505.123	82.5
505.34	92.5
505.557	90.5
505.773	97.5
505.99	87.5
506.207	83.5
506.423	90.5
506.64	94.5
506.856	78.5
507.073	91.5
507.289	96.5
507.506	83.5
507.722	136.5
507.939	135.5
508.155	109.5
508.372	81.5
508.588	90.5
508.805	102.5
509.021	95.5
509.238	103.5
509.454	106.5
509.67	100.5
509.887	120.5
510.103	131.5
510.319	249.5
510.536	967.5
510.752	3357.5
510.968	919.5
511.184	187.5
511.401	133.5
511.617	103.5
511.833	77.5
512.049	99.5
512.265	84.5
512.481	91.5
512.698	87.5
512.914	90.5
513.13	100.5
513.346	87.5
513.562	93.5
513.778	96.5
513.994	102.5
514.21	98.5
514.426	133.5
514.642	161.5
514.858	165.5
515.074	199.5
515.29	696.5
515.506	2543.5
515.721	925.5
515.937	224.5
516.153	115.5
516.369	113.5
516.585	88.5
516.801	105.5
517.016	97.5
517.232	109.5
517.448	85.5
517.664	89.5
517.879	93.5
518.095	92.5
518.311	82.5
518.527	93.5
518.742	95.5
518.958	94.5
519.173	86.5
519.389	96.5
519.605	75.5
519.82	96.5
520.036	115.5
520.251	145.5
520.467	145.5
520.682	114.5
520.898	114.5
521.113	131.5
521.329	158.5
521.544	278.5
521.76	873.5
521.975	4204.5
522.19	2579.5
522.406	513.5
522.621	151.5
522.836	118.5
523.052	103.5
523.267	92.5
523.482	101.5
523.698	106.5
523.913	138.5
524.128	106.5
524.343	92.5
524.559	87.5
524.774	87.5
524.989	100.5
525.204	115.5
525.419	110.5
525.634	79.5
525.849	83.5
526.064	66.5
526.28	95.5
526.495	89.5
526.71	90.5
526.925	87.5
527.14	75.5
527.355	83.5
527.57	97.5
527.785	90.5
527.999	86.5
528.214	84.5
528.429	97.5
528.644	95.5
528.859	83.5
529.074	100.5
529.289	152.5
529.503	264.5
529.718	101.5
529.933	87.5
530.148	87.5
530.363	97.5
530.577	85.5
530.792	78.5
531.007	76.5
531.221	97.5
531.436	87.5
531.651	101.5
531.865	103.5
532.08	90.5
532.295	77.5
532.509	99.5
532.724	95.5
532.938	78.5
533.153	94.5
533.367	84.5
533.582	83.5
533.796	84.5
534.011	102.5
534.225	89.5
534.44	91.5
