Data from Circ_2013_H10_HRD10591_00039.txt Node
Date: Wed Jan 03 10:04:08 EST 2024
User: Yrep
Spectrometer: HR+D1059
Trigger mode: 1
Integration Time (sec): 1.000000E-1
Scans to average: 1
Electric dark correction enabled: true
Nonlinearity correction enabled: false
Boxcar width: 0
XAxis mode: Wavelengths
Number of Pixels in Spectrum: 2048
>>>>>Begin Spectral Data<<<<<
223.165	-8.44
223.4	-8.44
223.635	-8.44
223.869	-21.44
224.104	-27.44
224.338	-25.44
224.573	-8.44
224.808	-1.44
225.042	-8.44
225.277	2.56
225.511	-2.44
225.746	1.56
225.98	7.56
226.215	8.56
226.449	24.56
226.683	17.56
226.918	11.56
227.152	29.56
227.387	25.56
227.621	34.56
227.856	29.56
228.09	47.56
228.324	40.56
228.559	53.56
228.793	53.56
229.027	69.56
229.262	76.56
229.496	83.56
229.73	93.56
229.964	88.56
230.199	80.56
230.433	65.56
230.667	78.56
230.901	67.56
231.136	67.56
231.37	78.56
231.604	77.56
231.838	67.56
232.072	85.56
232.306	73.56
232.541	72.56
232.775	82.56
233.009	67.56
233.243	77.56
233.477	85.56
233.711	82.56
233.945	74.56
234.179	74.56
234.413	71.56
234.647	77.56
234.881	86.56
235.115	77.56
235.349	78.56
235.583	63.56
235.817	84.56
236.051	66.56
236.285	66.56
236.519	75.56
236.753	71.56
236.987	65.56
237.221	75.56
237.455	100.56
237.689	77.56
237.922	69.56
238.156	75.56
238.39	78.56
238.624	78.56
238.858	72.56
239.091	79.56
239.325	77.56
239.559	75.56
239.793	73.56
240.027	77.56
240.26	71.56
240.494	72.56
240.728	74.56
240.961	74.56
241.195	69.56
241.429	76.56
241.662	78.56
241.896	71.56
242.13	75.56
242.363	72.56
242.597	70.56
242.83	82.56
243.064	82.56
243.298	82.56
243.531	78.56
243.765	77.56
243.998	61.56
244.232	61.56
244.465	83.56
244.699	72.56
244.932	65.56
245.166	72.56
245.399	80.56
245.633	90.56
245.866	63.56
246.099	57.56
246.333	87.56
246.566	82.56
246.8	58.56
247.033	66.56
247.266	76.56
247.5	82.56
247.733	79.56
247.966	77.56
248.2	68.56
248.433	78.56
248.666	71.56
248.899	88.56
249.133	76.56
249.366	91.56
249.599	113.56
249.832	94.56
250.066	73.56
250.299	77.56
250.532	76.56
250.765	73.56
250.998	78.56
251.231	87.56
251.465	84.56
251.698	74.56
251.931	85.56
252.164	82.56
252.397	96.56
252.63	77.56
252.863	74.56
253.096	76.56
253.329	75.56
253.562	67.56
253.795	74.56
254.028	64.56
254.261	50.56
254.494	67.56
254.727	75.56
254.96	82.56
255.193	80.56
255.426	89.56
255.659	79.56
255.892	78.56
256.124	78.56
256.357	75.56
256.59	89.56
256.823	78.56
257.056	67.56
257.289	82.56
257.521	77.56
257.754	80.56
257.987	69.56
258.22	90.56
258.452	88.56
258.685	81.56
258.918	67.56
259.151	79.56
259.383	82.56
259.616	90.56
259.849	70.56
260.081	77.56
260.314	83.56
260.547	64.56
260.779	107.56
261.012	97.56
261.244	85.56
261.477	98.56
261.71	125.56
261.942	133.56
262.175	134.56
262.407	96.56
262.64	88.56
262.872	71.56
263.105	92.56
263.337	82.56
263.57	73.56
263.802	71.56
264.035	80.56
264.267	65.56
264.499	80.56
264.732	69.56
264.964	66.56
265.197	72.56
265.429	70.56
265.661	72.56
265.894	79.56
266.126	91.56
266.358	73.56
266.591	80.56
266.823	83.56
267.055	82.56
267.287	72.56
267.52	86.56
267.752	72.56
267.984	54.56
268.216	80.56
268.448	78.56
268.681	90.56
268.913	80.56
269.145	65.56
269.377	85.56
269.609	74.56
269.841	77.56
270.073	74.56
270.306	77.56
270.538	87.56
270.77	78.56
271.002	74.56
271.234	77.56
271.466	68.56
271.698	85.56
271.93	79.56
272.162	97.56
272.394	89.56
272.626	90.56
272.858	78.56
273.09	73.56
273.322	80.56
273.553	72.56
273.785	75.56
274.017	83.56
274.249	71.56
274.481	77.56
274.713	76.56
274.945	78.56
275.176	73.56
275.408	86.56
275.64	95.56
275.872	85.56
276.104	101.56
276.335	83.56
276.567	112.56
276.799	118.56
277.031	123.56
277.262	159.56
277.494	116.56
277.726	91.56
277.957	74.56
278.189	85.56
278.421	84.56
278.652	88.56
278.884	83.56
279.115	92.56
279.347	86.56
279.579	84.56
279.81	101.56
280.042	130.56
280.273	156.56
280.505	120.56
280.736	89.56
280.968	89.56
281.199	77.56
281.431	81.56
281.662	81.56
281.894	72.56
282.125	91.56
282.356	124.56
282.588	173.56
282.819	133.56
283.051	99.56
283.282	78.56
283.513	81.56
283.745	90.56
283.976	76.56
284.207	81.56
284.439	83.56
284.67	93.56
284.901	84.56
285.132	85.56
285.364	95.56
285.595	68.56
285.826	81.56
286.057	87.56
286.288	88.56
286.52	87.56
286.751	78.56
286.982	82.56
287.213	73.56
287.444	84.56
287.675	86.56
287.906	98.56
288.138	87.56
288.369	80.56
288.6	94.56
288.831	94.56
289.062	92.56
289.293	87.56
289.524	86.56
289.755	85.56
289.986	81.56
290.217	79.56
290.448	79.56
290.679	79.56
290.91	81.56
291.141	83.56
291.371	100.56
291.602	90.56
291.833	75.56
292.064	76.56
292.295	69.56
292.526	83.56
292.757	84.56
292.987	79.56
293.218	87.56
293.449	70.56
293.68	85.56
293.91	86.56
294.141	69.56
294.372	71.56
294.603	100.56
294.833	93.56
295.064	86.56
295.295	88.56
295.525	87.56
295.756	97.56
295.987	123.56
296.217	169.56
296.448	131.56
296.679	88.56
296.909	88.56
297.14	89.56
297.37	86.56
297.601	77.56
297.831	86.56
298.062	85.56
298.292	99.56
298.523	90.56
298.753	95.56
298.984	74.56
299.214	84.56
299.445	86.56
299.675	79.56
299.905	90.56
300.136	93.56
300.366	83.56
300.597	81.56
300.827	83.56
301.057	112.56
301.288	103.56
301.518	87.56
301.748	78.56
301.979	92.56
302.209	93.56
302.439	92.56
302.669	89.56
302.9	83.56
303.13	94.56
303.36	98.56
303.59	115.56
303.82	125.56
304.051	102.56
304.281	82.56
304.511	88.56
304.741	96.56
304.971	87.56
305.201	80.56
305.431	79.56
305.661	75.56
305.891	86.56
306.121	97.56
306.352	101.56
306.582	95.56
306.812	97.56
307.042	100.56
307.272	128.56
307.502	129.56
307.731	114.56
307.961	93.56
308.191	88.56
308.421	85.56
308.651	78.56
308.881	91.56
309.111	90.56
309.341	99.56
309.571	97.56
309.8	101.56
310.03	100.56
310.26	100.56
310.49	83.56
310.72	95.56
310.949	125.56
311.179	98.56
311.409	86.56
311.639	92.56
311.868	90.56
312.098	86.56
312.328	100.56
312.557	96.56
312.787	109.56
313.017	94.56
313.246	86.56
313.476	93.56
313.706	86.56
313.935	94.56
314.165	101.56
314.394	92.56
314.624	109.56
314.853	102.56
315.083	100.56
315.312	89.56
315.542	91.56
315.771	84.56
316.001	101.56
316.23	94.56
316.46	82.56
316.689	98.56
316.919	82.56
317.148	97.56
317.377	102.56
317.607	86.56
317.836	93.56
318.065	88.56
318.295	85.56
318.524	89.56
318.753	109.56
318.983	91.56
319.212	98.56
319.441	110.56
319.67	111.56
319.9	90.56
320.129	90.56
320.358	94.56
320.587	86.56
320.816	97.56
321.046	101.56
321.275	101.56
321.504	87.56
321.733	91.56
321.962	99.56
322.191	101.56
322.42	96.56
322.649	107.56
322.878	121.56
323.108	128.56
323.337	141.56
323.566	144.56
323.795	171.56
324.024	227.56
324.253	462.56
324.482	964.56
324.71	1844.56
324.939	2517.56
325.168	933.56
325.397	259.56
325.626	157.56
325.855	125.56
326.084	125.56
326.313	139.56
326.542	150.56
326.77	239.56
326.999	491.56
327.228	983.56
327.457	1833.56
327.686	1482.56
327.914	473.56
328.143	358.56
328.372	408.56
328.6	249.56
328.829	160.56
329.058	170.56
329.287	166.56
329.515	123.56
329.744	179.56
329.972	286.56
330.201	505.56
330.43	751.56
330.658	387.56
330.887	240.56
331.115	188.56
331.344	126.56
331.572	114.56
331.801	107.56
332.03	117.56
332.258	106.56
332.486	96.56
332.715	85.56
332.943	103.56
333.172	104.56
333.4	103.56
333.629	135.56
333.857	177.56
334.085	265.56
334.314	454.56
334.542	900.56
334.771	906.56
334.999	275.56
335.227	127.56
335.455	95.56
335.684	94.56
335.912	95.56
336.14	89.56
336.369	85.56
336.597	95.56
336.825	94.56
337.053	90.56
337.281	102.56
337.51	85.56
337.738	95.56
337.966	93.56
338.194	111.56
338.422	98.56
338.65	93.56
338.878	92.56
339.106	78.56
339.334	73.56
339.562	87.56
339.79	85.56
340.018	80.56
340.246	87.56
340.474	80.56
340.702	79.56
340.93	78.56
341.158	79.56
341.386	87.56
341.614	92.56
341.842	103.56
342.07	99.56
342.298	103.56
342.526	99.56
342.754	97.56
342.981	86.56
343.209	86.56
343.437	93.56
343.665	80.56
343.893	89.56
344.12	88.56
344.348	80.56
344.576	87.56
344.804	76.56
345.031	89.56
345.259	104.56
345.487	90.56
345.714	90.56
345.942	89.56
346.17	90.56
346.397	92.56
346.625	97.56
346.853	89.56
347.08	89.56
347.308	96.56
347.535	105.56
347.763	98.56
347.99	101.56
348.218	91.56
348.445	127.56
348.673	99.56
348.9	89.56
349.128	89.56
349.355	83.56
349.583	85.56
349.81	101.56
350.037	96.56
350.265	90.56
350.492	83.56
350.72	90.56
350.947	84.56
351.174	96.56
351.402	115.56
351.629	95.56
351.856	97.56
352.083	95.56
352.311	117.56
352.538	117.56
352.765	117.56
352.992	125.56
353.22	107.56
353.447	105.56
353.674	109.56
353.901	102.56
354.128	106.56
354.355	96.56
354.583	91.56
354.81	90.56
355.037	89.56
355.264	95.56
355.491	83.56
355.718	86.56
355.945	78.56
356.172	77.56
356.399	95.56
356.626	86.56
356.853	76.56
357.08	87.56
357.307	86.56
357.534	85.56
357.761	87.56
357.988	90.56
358.215	101.56
358.441	80.56
358.668	86.56
358.895	91.56
359.122	77.56
359.349	94.56
359.576	93.56
359.802	95.56
360.029	128.56
360.256	125.56
360.483	89.56
360.709	85.56
360.936	91.56
361.163	92.56
361.39	95.56
361.616	95.56
361.843	98.56
362.07	107.56
362.296	95.56
362.523	96.56
362.749	103.56
362.976	103.56
363.203	85.56
363.429	64.56
363.656	81.56
363.882	91.56
364.109	95.56
364.335	102.56
364.562	85.56
364.788	95.56
365.015	97.56
365.241	106.56
365.468	109.56
365.694	115.56
365.92	89.56
366.147	93.56
366.373	89.56
366.599	97.56
366.826	86.56
367.052	89.56
367.278	82.56
367.505	82.56
367.731	93.56
367.957	88.56
368.184	111.56
368.41	107.56
368.636	108.56
368.862	121.56
369.089	125.56
369.315	94.56
369.541	89.56
369.767	93.56
369.993	70.56
370.219	97.56
370.445	89.56
370.672	79.56
370.898	95.56
371.124	80.56
371.35	88.56
371.576	75.56
371.802	91.56
372.028	93.56
372.254	76.56
372.48	97.56
372.706	83.56
372.932	77.56
373.158	79.56
373.384	96.56
373.61	102.56
373.835	89.56
374.061	90.56
374.287	81.56
374.513	86.56
374.739	68.56
374.965	82.56
375.191	81.56
375.416	77.56
375.642	75.56
375.868	81.56
376.094	90.56
376.319	75.56
376.545	75.56
376.771	81.56
376.997	90.56
377.222	90.56
377.448	85.56
377.674	92.56
377.899	89.56
378.125	87.56
378.35	85.56
378.576	87.56
378.802	91.56
379.027	100.56
379.253	89.56
379.478	83.56
379.704	101.56
379.929	87.56
380.155	87.56
380.38	75.56
380.606	82.56
380.831	100.56
381.057	98.56
381.282	84.56
381.507	77.56
381.733	86.56
381.958	92.56
382.184	93.56
382.409	98.56
382.634	91.56
382.86	86.56
383.085	90.56
383.31	103.56
383.535	93.56
383.761	84.56
383.986	100.56
384.211	95.56
384.436	84.56
384.662	100.56
384.887	91.56
385.112	100.56
385.337	98.56
385.562	109.56
385.787	85.56
386.013	110.56
386.238	121.56
386.463	103.56
386.688	99.56
386.913	83.56
387.138	95.56
387.363	120.56
387.588	91.56
387.813	95.56
388.038	98.56
388.263	97.56
388.488	104.56
388.713	95.56
388.938	83.56
389.163	83.56
389.387	99.56
389.612	102.56
389.837	81.56
390.062	100.56
390.287	95.56
390.512	99.56
390.736	75.56
390.961	88.56
391.186	88.56
391.411	86.56
391.636	84.56
391.86	94.56
392.085	94.56
392.31	87.56
392.534	86.56
392.759	77.56
392.984	86.56
393.208	88.56
393.433	102.56
393.658	79.56
393.882	82.56
394.107	89.56
394.331	83.56
394.556	86.56
394.78	99.56
395.005	90.56
395.229	76.56
395.454	81.56
395.678	78.56
395.903	82.56
396.127	77.56
396.352	87.56
396.576	67.56
396.801	86.56
397.025	95.56
397.249	92.56
397.474	94.56
397.698	79.56
397.922	90.56
398.147	85.56
398.371	88.56
398.595	75.56
398.82	81.56
399.044	88.56
399.268	79.56
399.492	90.56
399.717	89.56
399.941	76.56
400.165	86.56
400.389	97.56
400.613	90.56
400.837	98.56
401.062	85.56
401.286	92.56
401.51	84.56
401.734	91.56
401.958	100.56
402.182	173.56
402.406	207.56
402.63	141.56
402.854	90.56
403.078	90.56
403.302	81.56
403.526	92.56
403.75	72.56
403.974	78.56
404.198	93.56
404.422	79.56
404.645	79.56
404.869	96.56
405.093	106.56
405.317	115.56
405.541	121.56
405.765	112.56
405.988	133.56
406.212	202.56
406.436	335.56
406.66	211.56
406.883	117.56
407.107	96.56
407.331	100.56
407.555	98.56
407.778	108.56
408.002	80.56
408.226	79.56
408.449	79.56
408.673	78.56
408.896	80.56
409.12	96.56
409.344	103.56
409.567	90.56
409.791	90.56
410.014	74.56
410.238	88.56
410.461	89.56
410.685	82.56
410.908	93.56
411.132	98.56
411.355	98.56
411.578	85.56
411.802	100.56
412.025	86.56
412.249	84.56
412.472	105.56
412.695	99.56
412.919	95.56
413.142	103.56
413.365	80.56
413.589	96.56
413.812	86.56
414.035	88.56
414.258	97.56
414.482	88.56
414.705	69.56
414.928	80.56
415.151	81.56
415.374	83.56
415.597	81.56
415.821	75.56
416.044	95.56
416.267	91.56
416.49	74.56
416.713	73.56
416.936	75.56
417.159	89.56
417.382	79.56
417.605	102.56
417.828	102.56
418.051	87.56
418.274	91.56
418.497	83.56
418.72	74.56
418.943	99.56
419.166	75.56
419.389	88.56
419.611	97.56
419.834	88.56
420.057	86.56
420.28	85.56
420.503	72.56
420.726	83.56
420.948	74.56
421.171	96.56
421.394	72.56
421.617	101.56
421.839	79.56
422.062	71.56
422.285	104.56
422.507	94.56
422.73	106.56
422.953	103.56
423.175	89.56
423.398	91.56
423.621	91.56
423.843	65.56
424.066	90.56
424.288	79.56
424.511	88.56
424.733	95.56
424.956	106.56
425.178	95.56
425.401	105.56
425.623	101.56
425.846	91.56
426.068	94.56
426.291	85.56
426.513	84.56
426.735	83.56
426.958	94.56
427.18	107.56
427.402	147.56
427.625	230.56
427.847	180.56
428.069	151.56
428.292	98.56
428.514	75.56
428.736	87.56
428.958	96.56
429.181	88.56
429.403	88.56
429.625	102.56
429.847	95.56
430.069	104.56
430.292	109.56
430.514	86.56
430.736	93.56
430.958	96.56
431.18	83.56
431.402	90.56
431.624	78.56
431.846	78.56
432.068	85.56
432.29	89.56
432.512	86.56
432.734	79.56
432.956	95.56
433.178	100.56
433.4	93.56
433.622	94.56
433.844	91.56
434.066	91.56
434.287	83.56
434.509	89.56
434.731	94.56
434.953	88.56
435.175	83.56
435.397	88.56
435.618	98.56
435.84	91.56
436.062	134.56
436.284	111.56
436.505	104.56
436.727	80.56
436.949	93.56
437.17	85.56
437.392	101.56
437.614	75.56
437.835	125.56
438.057	143.56
438.278	122.56
438.5	114.56
438.721	122.56
438.943	98.56
439.165	89.56
439.386	83.56
439.608	92.56
439.829	93.56
440.05	142.56
440.272	161.56
440.493	110.56
440.715	98.56
440.936	81.56
441.158	88.56
441.379	80.56
441.6	95.56
441.822	91.56
442.043	100.56
442.264	94.56
442.486	103.56
442.707	92.56
442.928	107.56
443.149	152.56
443.371	169.56
443.592	133.56
443.813	112.56
444.034	99.56
444.255	77.56
444.476	74.56
444.698	83.56
444.919	74.56
445.14	135.56
445.361	129.56
445.582	128.56
445.803	150.56
446.024	144.56
446.245	149.56
446.466	123.56
446.687	91.56
446.908	89.56
447.129	84.56
447.35	80.56
447.571	94.56
447.792	106.56
448.013	93.56
448.234	107.56
448.455	89.56
448.675	110.56
448.896	119.56
449.117	95.56
449.338	97.56
449.559	123.56
449.779	131.56
450	102.56
450.221	93.56
450.442	101.56
450.662	98.56
450.883	127.56
451.104	127.56
451.324	97.56
451.545	78.56
451.766	88.56
451.986	87.56
452.207	87.56
452.428	88.56
452.648	103.56
452.869	113.56
453.089	131.56
453.31	153.56
453.53	95.56
453.751	82.56
453.971	124.56
454.192	133.56
454.412	104.56
454.633	93.56
454.853	96.56
455.073	102.56
455.294	82.56
455.514	104.56
455.734	106.56
455.955	80.56
456.175	78.56
456.395	95.56
456.616	78.56
456.836	82.56
457.056	83.56
457.276	93.56
457.497	69.56
457.717	80.56
457.937	75.56
458.157	89.56
458.377	106.56
458.598	107.56
458.818	197.56
459.038	233.56
459.258	136.56
459.478	79.56
459.698	85.56
459.918	96.56
460.138	77.56
460.358	86.56
460.578	86.56
460.798	89.56
461.018	76.56
461.238	86.56
461.458	91.56
461.678	94.56
461.898	100.56
462.118	79.56
462.338	92.56
462.558	77.56
462.777	78.56
462.997	86.56
463.217	71.56
463.437	77.56
463.657	94.56
463.876	72.56
464.096	80.56
464.316	87.56
464.536	99.56
464.755	100.56
464.975	125.56
465.195	237.56
465.414	238.56
465.634	101.56
465.854	83.56
466.073	75.56
466.293	92.56
466.512	86.56
466.732	95.56
466.951	106.56
467.171	95.56
467.391	107.56
467.61	130.56
467.829	127.56
468.049	296.56
468.268	477.56
468.488	145.56
468.707	111.56
468.927	74.56
469.146	75.56
469.365	88.56
469.585	90.56
469.804	118.56
470.023	110.56
470.243	91.56
470.462	106.56
470.681	139.56
470.901	107.56
471.12	93.56
471.339	81.56
471.558	97.56
471.777	121.56
471.997	187.56
472.216	579.56
472.435	1273.56
472.654	336.56
472.873	115.56
473.092	94.56
473.311	71.56
473.53	73.56
473.749	89.56
473.968	91.56
474.187	104.56
474.406	97.56
474.625	95.56
474.844	81.56
475.063	68.56
475.282	67.56
475.501	90.56
475.72	96.56
475.939	91.56
476.158	97.56
476.377	98.56
476.596	88.56
476.814	96.56
477.033	94.56
477.252	83.56
477.471	88.56
477.69	81.56
477.908	86.56
478.127	80.56
478.346	87.56
478.564	94.56
478.783	102.56
479.002	107.56
479.22	105.56
479.439	112.56
479.658	116.56
479.876	104.56
480.095	117.56
480.313	118.56
480.532	129.56
480.751	174.56
480.969	513.56
481.188	2113.56
481.406	1394.56
481.624	234.56
481.843	116.56
482.061	93.56
482.28	96.56
482.498	99.56
482.717	84.56
482.935	84.56
483.153	89.56
483.372	98.56
483.59	87.56
483.808	79.56
484.027	83.56
484.245	90.56
484.463	84.56
484.681	88.56
484.9	73.56
485.118	90.56
485.336	98.56
485.554	89.56
485.772	93.56
485.99	94.56
486.209	95.56
486.427	101.56
486.645	117.56
486.863	112.56
487.081	98.56
487.299	89.56
487.517	93.56
487.735	75.56
487.953	94.56
488.171	94.56
488.389	113.56
488.607	113.56
488.825	99.56
489.043	87.56
489.261	105.56
489.479	82.56
489.696	86.56
489.914	91.56
490.132	86.56
490.35	77.56
490.568	77.56
490.786	78.56
491.003	80.56
491.221	102.56
491.439	96.56
491.657	97.56
491.874	86.56
492.092	101.56
492.31	81.56
492.527	94.56
492.745	89.56
492.963	98.56
493.18	95.56
493.398	88.56
493.615	110.56
493.833	100.56
494.05	83.56
494.268	83.56
494.485	103.56
494.703	93.56
494.92	91.56
495.138	86.56
495.355	92.56
495.573	86.56
495.79	83.56
496.008	100.56
496.225	93.56
496.442	90.56
496.66	102.56
496.877	87.56
497.094	94.56
497.312	82.56
497.529	85.56
497.746	81.56
497.963	97.56
498.181	73.56
498.398	97.56
498.615	115.56
498.832	94.56
499.049	95.56
499.267	86.56
499.484	90.56
499.701	86.56
499.918	80.56
500.135	80.56
500.352	84.56
500.569	78.56
500.786	94.56
501.003	86.56
501.22	109.56
501.437	79.56
501.654	105.56
501.871	130.56
502.088	88.56
502.305	79.56
502.522	84.56
502.739	86.56
502.956	79.56
503.172	71.56
503.389	97.56
503.606	128.56
503.823	100.56
504.04	84.56
504.256	82.56
504.473	70.56
504.69	66.56
504.907	88.56
505.123	95.56
505.34	86.56
505.557	88.56
505.773	66.56
505.99	103.56
506.207	90.56
506.423	83.56
506.64	95.56
506.856	84.56
507.073	98.56
507.289	90.56
507.506	95.56
507.722	130.56
507.939	138.56
508.155	106.56
508.372	68.56
508.588	86.56
508.805	95.56
509.021	87.56
509.238	103.56
509.454	90.56
509.67	104.56
509.887	104.56
510.103	148.56
510.319	254.56
510.536	968.56
510.752	3552.56
510.968	963.56
511.184	183.56
511.401	125.56
511.617	108.56
511.833	94.56
512.049	108.56
512.265	85.56
512.481	90.56
512.698	96.56
512.914	91.56
513.13	93.56
513.346	82.56
513.562	89.56
513.778	117.56
513.994	96.56
514.21	105.56
514.426	126.56
514.642	177.56
514.858	149.56
515.074	214.56
515.29	731.56
515.506	2750.56
