Data from Circ_2013_H10_HRD10591_00095.txt Node
Date: Wed Jan 03 10:04:19 EST 2024
User: Yrep
Spectrometer: HR+D1059
Trigger mode: 1
Integration Time (sec): 1.000000E-1
Scans to average: 1
Electric dark correction enabled: true
Nonlinearity correction enabled: false
Boxcar width: 0
XAxis mode: Wavelengths
Number of Pixels in Spectrum: 2048
>>>>>Begin Spectral Data<<<<<
223.165	-22.12
223.4	-22.12
223.635	-22.12
223.869	-8.12
224.104	-14.12
224.338	-21.12
224.573	-21.12
224.808	-6.12
225.042	-11.12
225.277	-6.12
225.511	-6.12
225.746	-1.12
225.98	15.88
226.215	12.88
226.449	14.88
226.683	20.88
226.918	24.88
227.152	27.88
227.387	33.88
227.621	22.88
227.856	30.88
228.09	37.88
228.324	58.88
228.559	38.88
228.793	63.88
229.027	65.88
229.262	62.88
229.496	72.88
229.73	85.88
229.964	82.88
230.199	64.88
230.433	68.88
230.667	75.88
230.901	86.88
231.136	78.88
231.37	67.88
231.604	69.88
231.838	71.88
232.072	88.88
232.306	87.88
232.541	73.88
232.775	83.88
233.009	80.88
233.243	74.88
233.477	72.88
233.711	82.88
233.945	68.88
234.179	68.88
234.413	71.88
234.647	75.88
234.881	62.88
235.115	76.88
235.349	61.88
235.583	86.88
235.817	75.88
236.051	73.88
236.285	67.88
236.519	80.88
236.753	87.88
236.987	83.88
237.221	81.88
237.455	93.88
237.689	84.88
237.922	66.88
238.156	77.88
238.39	75.88
238.624	79.88
238.858	78.88
239.091	87.88
239.325	75.88
239.559	69.88
239.793	76.88
240.027	72.88
240.26	80.88
240.494	82.88
240.728	78.88
240.961	69.88
241.195	81.88
241.429	77.88
241.662	61.88
241.896	73.88
242.13	76.88
242.363	73.88
242.597	69.88
242.83	71.88
243.064	86.88
243.298	75.88
243.531	74.88
243.765	86.88
243.998	85.88
244.232	62.88
244.465	95.88
244.699	82.88
244.932	84.88
245.166	86.88
245.399	83.88
245.633	93.88
245.866	79.88
246.099	73.88
246.333	80.88
246.566	85.88
246.8	76.88
247.033	67.88
247.266	74.88
247.5	83.88
247.733	72.88
247.966	75.88
248.2	81.88
248.433	86.88
248.666	78.88
248.899	77.88
249.133	98.88
249.366	107.88
249.599	111.88
249.832	84.88
250.066	89.88
250.299	80.88
250.532	80.88
250.765	81.88
250.998	78.88
251.231	72.88
251.465	80.88
251.698	96.88
251.931	86.88
252.164	91.88
252.397	88.88
252.63	85.88
252.863	82.88
253.096	83.88
253.329	88.88
253.562	75.88
253.795	82.88
254.028	81.88
254.261	65.88
254.494	91.88
254.727	80.88
254.96	71.88
255.193	77.88
255.426	84.88
255.659	97.88
255.892	85.88
256.124	97.88
256.357	81.88
256.59	74.88
256.823	82.88
257.056	81.88
257.289	88.88
257.521	75.88
257.754	79.88
257.987	80.88
258.22	88.88
258.452	77.88
258.685	93.88
258.918	93.88
259.151	86.88
259.383	70.88
259.616	85.88
259.849	95.88
260.081	87.88
260.314	74.88
260.547	82.88
260.779	74.88
261.012	89.88
261.244	84.88
261.477	94.88
261.71	100.88
261.942	118.88
262.175	136.88
262.407	74.88
262.64	101.88
262.872	82.88
263.105	74.88
263.337	91.88
263.57	77.88
263.802	84.88
264.035	85.88
264.267	76.88
264.499	90.88
264.732	86.88
264.964	73.88
265.197	62.88
265.429	86.88
265.661	86.88
265.894	84.88
266.126	78.88
266.358	68.88
266.591	74.88
266.823	95.88
267.055	91.88
267.287	93.88
267.52	94.88
267.752	88.88
267.984	86.88
268.216	77.88
268.448	73.88
268.681	77.88
268.913	100.88
269.145	74.88
269.377	68.88
269.609	78.88
269.841	93.88
270.073	66.88
270.306	91.88
270.538	87.88
270.77	69.88
271.002	84.88
271.234	91.88
271.466	75.88
271.698	90.88
271.93	78.88
272.162	69.88
272.394	92.88
272.626	80.88
272.858	78.88
273.09	72.88
273.322	84.88
273.553	93.88
273.785	70.88
274.017	78.88
274.249	91.88
274.481	89.88
274.713	85.88
274.945	97.88
275.176	88.88
275.408	81.88
275.64	104.88
275.872	96.88
276.104	99.88
276.335	100.88
276.567	107.88
276.799	123.88
277.031	131.88
277.262	154.88
277.494	125.88
277.726	87.88
277.957	70.88
278.189	80.88
278.421	81.88
278.652	86.88
278.884	83.88
279.115	89.88
279.347	79.88
279.579	90.88
279.81	120.88
280.042	154.88
280.273	199.88
280.505	132.88
280.736	96.88
280.968	97.88
281.199	85.88
281.431	84.88
281.662	98.88
281.894	92.88
282.125	89.88
282.356	113.88
282.588	152.88
282.819	130.88
283.051	82.88
283.282	79.88
283.513	101.88
283.745	77.88
283.976	89.88
284.207	75.88
284.439	84.88
284.67	75.88
284.901	76.88
285.132	91.88
285.364	93.88
285.595	88.88
285.826	86.88
286.057	93.88
286.288	85.88
286.52	94.88
286.751	91.88
286.982	82.88
287.213	75.88
287.444	101.88
287.675	83.88
287.906	76.88
288.138	78.88
288.369	76.88
288.6	90.88
288.831	97.88
289.062	89.88
289.293	100.88
289.524	93.88
289.755	91.88
289.986	88.88
290.217	71.88
290.448	81.88
290.679	83.88
290.91	81.88
291.141	87.88
291.371	86.88
291.602	92.88
291.833	85.88
292.064	84.88
292.295	89.88
292.526	99.88
292.757	88.88
292.987	89.88
293.218	83.88
293.449	88.88
293.68	86.88
293.91	95.88
294.141	91.88
294.372	82.88
294.603	81.88
294.833	102.88
295.064	89.88
295.295	82.88
295.525	87.88
295.756	91.88
295.987	102.88
296.217	166.88
296.448	147.88
296.679	101.88
296.909	83.88
297.14	90.88
297.37	92.88
297.601	83.88
297.831	72.88
298.062	94.88
298.292	94.88
298.523	110.88
298.753	91.88
298.984	88.88
299.214	94.88
299.445	80.88
299.675	89.88
299.905	93.88
300.136	87.88
300.366	104.88
300.597	88.88
300.827	84.88
301.057	102.88
301.288	113.88
301.518	107.88
301.748	99.88
301.979	105.88
302.209	105.88
302.439	96.88
302.669	89.88
302.9	90.88
303.13	93.88
303.36	114.88
303.59	109.88
303.82	112.88
304.051	119.88
304.281	96.88
304.511	100.88
304.741	97.88
304.971	77.88
305.201	91.88
305.431	94.88
305.661	100.88
305.891	85.88
306.121	96.88
306.352	108.88
306.582	115.88
306.812	112.88
307.042	103.88
307.272	126.88
307.502	144.88
307.731	127.88
307.961	117.88
308.191	95.88
308.421	92.88
308.651	88.88
308.881	90.88
309.111	81.88
309.341	80.88
309.571	98.88
309.8	104.88
310.03	93.88
310.26	97.88
310.49	113.88
310.72	106.88
310.949	95.88
311.179	112.88
311.409	85.88
311.639	98.88
311.868	95.88
312.098	98.88
312.328	84.88
312.557	104.88
312.787	118.88
313.017	94.88
313.246	92.88
313.476	96.88
313.706	97.88
313.935	101.88
314.165	93.88
314.394	125.88
314.624	103.88
314.853	87.88
315.083	85.88
315.312	107.88
315.542	96.88
315.771	86.88
316.001	84.88
316.23	100.88
316.46	77.88
316.689	96.88
316.919	99.88
317.148	94.88
317.377	97.88
317.607	80.88
317.836	86.88
318.065	90.88
318.295	101.88
318.524	91.88
318.753	90.88
318.983	104.88
319.212	102.88
319.441	115.88
319.67	100.88
319.9	77.88
320.129	97.88
320.358	97.88
320.587	89.88
320.816	88.88
321.046	92.88
321.275	108.88
321.504	87.88
321.733	97.88
321.962	101.88
322.191	96.88
322.42	102.88
322.649	108.88
322.878	126.88
323.108	116.88
323.337	121.88
323.566	140.88
323.795	178.88
324.024	231.88
324.253	417.88
324.482	913.88
324.71	1864.88
324.939	2406.88
325.168	910.88
325.397	280.88
325.626	161.88
325.855	144.88
326.084	146.88
326.313	152.88
326.542	162.88
326.77	252.88
326.999	485.88
327.228	976.88
327.457	1760.88
327.686	1393.88
327.914	465.88
328.143	392.88
328.372	455.88
328.6	271.88
328.829	166.88
329.058	158.88
329.287	168.88
329.515	149.88
329.744	201.88
329.972	339.88
330.201	650.88
330.43	932.88
330.658	451.88
330.887	249.88
331.115	160.88
331.344	130.88
331.572	113.88
331.801	102.88
332.03	121.88
332.258	105.88
332.486	98.88
332.715	103.88
332.943	105.88
333.172	108.88
333.4	132.88
333.629	135.88
333.857	183.88
334.085	302.88
334.314	580.88
334.542	1136.88
334.771	1087.88
334.999	321.88
335.227	153.88
335.455	102.88
335.684	108.88
335.912	105.88
336.14	108.88
336.369	107.88
336.597	110.88
336.825	99.88
337.053	86.88
337.281	83.88
337.51	91.88
337.738	108.88
337.966	78.88
338.194	101.88
338.422	99.88
338.65	84.88
338.878	75.88
339.106	91.88
339.334	86.88
339.562	94.88
339.79	87.88
340.018	95.88
340.246	89.88
340.474	80.88
340.702	90.88
340.93	95.88
341.158	80.88
341.386	93.88
341.614	93.88
341.842	97.88
342.07	96.88
342.298	96.88
342.526	96.88
342.754	96.88
342.981	88.88
343.209	89.88
343.437	97.88
343.665	90.88
343.893	103.88
344.12	115.88
344.348	77.88
344.576	85.88
344.804	88.88
345.031	92.88
345.259	101.88
345.487	101.88
345.714	99.88
345.942	85.88
346.17	105.88
346.397	92.88
346.625	87.88
346.853	90.88
347.08	95.88
347.308	96.88
347.535	86.88
347.763	108.88
347.99	89.88
348.218	104.88
348.445	108.88
348.673	99.88
348.9	87.88
349.128	88.88
349.355	90.88
349.583	103.88
349.81	105.88
350.037	100.88
350.265	94.88
350.492	89.88
350.72	104.88
350.947	104.88
351.174	116.88
351.402	98.88
351.629	110.88
351.856	110.88
352.083	108.88
352.311	124.88
352.538	116.88
352.765	108.88
352.992	115.88
353.22	104.88
353.447	113.88
353.674	100.88
353.901	95.88
354.128	100.88
354.355	101.88
354.583	95.88
354.81	93.88
355.037	107.88
355.264	77.88
355.491	82.88
355.718	90.88
355.945	97.88
356.172	104.88
356.399	83.88
356.626	105.88
356.853	90.88
357.08	85.88
357.307	86.88
357.534	82.88
357.761	96.88
357.988	105.88
358.215	97.88
358.441	90.88
358.668	96.88
358.895	90.88
359.122	88.88
359.349	99.88
359.576	84.88
359.802	109.88
360.029	128.88
360.256	134.88
360.483	100.88
360.709	101.88
360.936	88.88
361.163	88.88
361.39	107.88
361.616	100.88
361.843	102.88
362.07	101.88
362.296	108.88
362.523	84.88
362.749	92.88
362.976	94.88
363.203	109.88
363.429	104.88
363.656	96.88
363.882	109.88
364.109	99.88
364.335	91.88
364.562	82.88
364.788	88.88
365.015	92.88
365.241	100.88
365.468	96.88
365.694	120.88
365.92	108.88
366.147	99.88
366.373	85.88
366.599	91.88
366.826	89.88
367.052	88.88
367.278	79.88
367.505	83.88
367.731	96.88
367.957	88.88
368.184	80.88
368.41	103.88
368.636	107.88
368.862	127.88
369.089	128.88
369.315	103.88
369.541	97.88
369.767	88.88
369.993	99.88
370.219	91.88
370.445	88.88
370.672	89.88
370.898	94.88
371.124	90.88
371.35	82.88
371.576	93.88
371.802	88.88
372.028	76.88
372.254	66.88
372.48	88.88
372.706	90.88
372.932	102.88
373.158	82.88
373.384	85.88
373.61	88.88
373.835	98.88
374.061	97.88
374.287	80.88
374.513	84.88
374.739	85.88
374.965	94.88
375.191	85.88
375.416	88.88
375.642	90.88
375.868	87.88
376.094	99.88
376.319	95.88
376.545	85.88
376.771	91.88
376.997	99.88
377.222	87.88
377.448	96.88
377.674	90.88
377.899	87.88
378.125	88.88
378.35	86.88
378.576	82.88
378.802	90.88
379.027	88.88
379.253	91.88
379.478	94.88
379.704	89.88
379.929	94.88
380.155	95.88
380.38	89.88
380.606	93.88
380.831	100.88
381.057	103.88
381.282	83.88
381.507	86.88
381.733	97.88
381.958	98.88
382.184	104.88
382.409	87.88
382.634	109.88
382.86	100.88
383.085	98.88
383.31	97.88
383.535	93.88
383.761	112.88
383.986	92.88
384.211	94.88
384.436	104.88
384.662	116.88
384.887	98.88
385.112	106.88
385.337	103.88
385.562	103.88
385.787	107.88
386.013	101.88
386.238	118.88
386.463	94.88
386.688	107.88
386.913	102.88
387.138	104.88
387.363	85.88
387.588	89.88
387.813	91.88
388.038	104.88
388.263	118.88
388.488	113.88
388.713	97.88
388.938	86.88
389.163	104.88
389.387	98.88
389.612	86.88
389.837	94.88
390.062	81.88
390.287	100.88
390.512	86.88
390.736	83.88
390.961	85.88
391.186	87.88
391.411	92.88
391.636	85.88
391.86	98.88
392.085	87.88
392.31	72.88
392.534	95.88
392.759	88.88
392.984	84.88
393.208	85.88
393.433	87.88
393.658	92.88
393.882	76.88
394.107	87.88
394.331	87.88
394.556	74.88
394.78	96.88
395.005	83.88
395.229	71.88
395.454	78.88
395.678	100.88
395.903	91.88
396.127	108.88
396.352	103.88
396.576	78.88
396.801	90.88
397.025	74.88
397.249	76.88
397.474	106.88
397.698	86.88
397.922	80.88
398.147	90.88
398.371	100.88
398.595	95.88
398.82	88.88
399.044	93.88
399.268	93.88
399.492	83.88
399.717	81.88
399.941	89.88
400.165	99.88
400.389	93.88
400.613	84.88
400.837	92.88
401.062	88.88
401.286	78.88
401.51	85.88
401.734	97.88
401.958	111.88
402.182	129.88
402.406	161.88
402.63	109.88
402.854	91.88
403.078	87.88
403.302	74.88
403.526	73.88
403.75	101.88
403.974	78.88
404.198	68.88
404.422	94.88
404.645	92.88
404.869	88.88
405.093	104.88
405.317	130.88
405.541	126.88
405.765	128.88
405.988	129.88
406.212	193.88
406.436	269.88
406.66	176.88
406.883	116.88
407.107	90.88
407.331	112.88
407.555	106.88
407.778	82.88
408.002	89.88
408.226	95.88
408.449	94.88
408.673	83.88
408.896	93.88
409.12	84.88
409.344	82.88
409.567	88.88
409.791	81.88
410.014	105.88
410.238	103.88
410.461	83.88
410.685	110.88
410.908	84.88
411.132	80.88
411.355	112.88
411.578	99.88
411.802	90.88
412.025	100.88
412.249	100.88
412.472	91.88
412.695	130.88
412.919	101.88
413.142	97.88
413.365	98.88
413.589	78.88
413.812	90.88
414.035	101.88
414.258	102.88
414.482	81.88
414.705	98.88
414.928	72.88
415.151	81.88
415.374	93.88
415.597	83.88
415.821	89.88
416.044	90.88
416.267	101.88
416.49	76.88
416.713	90.88
416.936	81.88
417.159	89.88
417.382	102.88
417.605	96.88
417.828	106.88
418.051	96.88
418.274	81.88
418.497	92.88
418.72	81.88
418.943	87.88
419.166	95.88
419.389	85.88
419.611	93.88
419.834	96.88
420.057	87.88
420.28	82.88
420.503	90.88
420.726	82.88
420.948	96.88
421.171	108.88
421.394	89.88
421.617	82.88
421.839	86.88
422.062	89.88
422.285	95.88
422.507	101.88
422.73	91.88
422.953	96.88
423.175	93.88
423.398	93.88
423.621	92.88
423.843	89.88
424.066	84.88
424.288	81.88
424.511	99.88
424.733	91.88
424.956	102.88
425.178	108.88
425.401	94.88
425.623	117.88
425.846	100.88
426.068	99.88
426.291	100.88
426.513	93.88
426.735	98.88
426.958	101.88
427.18	104.88
427.402	148.88
427.625	227.88
427.847	213.88
428.069	188.88
428.292	103.88
428.514	99.88
428.736	90.88
428.958	75.88
429.181	86.88
429.403	74.88
429.625	96.88
429.847	93.88
430.069	100.88
430.292	93.88
430.514	70.88
430.736	93.88
430.958	72.88
431.18	82.88
431.402	88.88
431.624	75.88
431.846	91.88
432.068	73.88
432.29	82.88
432.512	90.88
432.734	77.88
432.956	98.88
433.178	99.88
433.4	86.88
433.622	96.88
433.844	84.88
434.066	97.88
434.287	96.88
434.509	86.88
434.731	108.88
434.953	101.88
435.175	100.88
435.397	84.88
435.618	85.88
435.84	99.88
436.062	130.88
436.284	114.88
436.505	96.88
436.727	103.88
436.949	84.88
437.17	89.88
437.392	104.88
437.614	80.88
437.835	113.88
438.057	123.88
438.278	135.88
438.5	113.88
438.721	134.88
438.943	90.88
439.165	84.88
439.386	85.88
439.608	101.88
439.829	95.88
440.05	129.88
440.272	157.88
440.493	111.88
440.715	84.88
440.936	83.88
441.158	74.88
441.379	85.88
441.6	93.88
441.822	99.88
442.043	105.88
442.264	110.88
442.486	112.88
442.707	94.88
442.928	120.88
443.149	154.88
443.371	157.88
443.592	109.88
443.813	116.88
444.034	124.88
444.255	90.88
444.476	88.88
444.698	80.88
444.919	82.88
445.14	120.88
445.361	119.88
445.582	118.88
445.803	157.88
446.024	149.88
446.245	148.88
446.466	117.88
446.687	95.88
446.908	91.88
447.129	89.88
447.35	78.88
447.571	98.88
447.792	95.88
448.013	107.88
448.234	131.88
448.455	109.88
448.675	127.88
448.896	136.88
449.117	117.88
449.338	107.88
449.559	148.88
449.779	148.88
450	92.88
450.221	77.88
450.442	84.88
450.662	100.88
450.883	117.88
451.104	125.88
451.324	114.88
451.545	100.88
451.766	85.88
451.986	88.88
452.207	78.88
452.428	99.88
452.648	93.88
452.869	126.88
453.089	123.88
453.31	144.88
453.53	113.88
453.751	90.88
453.971	122.88
454.192	138.88
454.412	90.88
454.633	86.88
454.853	88.88
455.073	92.88
455.294	91.88
455.514	111.88
455.734	96.88
455.955	72.88
456.175	75.88
456.395	85.88
456.616	78.88
456.836	85.88
457.056	90.88
457.276	77.88
457.497	92.88
457.717	98.88
457.937	92.88
458.157	80.88
458.377	88.88
458.598	113.88
458.818	169.88
459.038	187.88
459.258	132.88
459.478	83.88
459.698	86.88
459.918	79.88
460.138	94.88
460.358	74.88
460.578	94.88
460.798	95.88
461.018	98.88
461.238	87.88
461.458	71.88
461.678	93.88
461.898	99.88
462.118	84.88
462.338	85.88
462.558	87.88
462.777	89.88
462.997	94.88
463.217	101.88
463.437	96.88
463.657	88.88
463.876	96.88
464.096	90.88
464.316	86.88
464.536	82.88
464.755	105.88
464.975	108.88
465.195	204.88
465.414	224.88
465.634	104.88
465.854	86.88
466.073	85.88
466.293	83.88
466.512	88.88
466.732	101.88
466.951	92.88
467.171	106.88
467.391	109.88
467.61	107.88
467.829	160.88
468.049	360.88
468.268	570.88
468.488	179.88
468.707	107.88
468.927	99.88
469.146	81.88
469.365	85.88
469.585	112.88
469.804	105.88
470.023	96.88
470.243	97.88
470.462	112.88
470.681	135.88
470.901	103.88
471.12	96.88
471.339	97.88
471.558	101.88
471.777	124.88
471.997	219.88
472.216	709.88
472.435	1552.88
472.654	421.88
472.873	134.88
473.092	112.88
473.311	100.88
473.53	93.88
473.749	96.88
473.968	99.88
474.187	113.88
474.406	100.88
474.625	100.88
474.844	102.88
475.063	89.88
475.282	81.88
475.501	86.88
475.72	96.88
475.939	82.88
476.158	91.88
476.377	80.88
476.596	95.88
476.814	102.88
477.033	82.88
477.252	91.88
477.471	86.88
477.69	91.88
477.908	92.88
478.127	97.88
478.346	75.88
478.564	94.88
478.783	105.88
479.002	97.88
479.22	86.88
479.439	112.88
479.658	111.88
479.876	123.88
480.095	108.88
480.313	113.88
480.532	136.88
480.751	195.88
480.969	641.88
481.188	2647.88
481.406	1668.88
481.624	270.88
481.843	110.88
482.061	106.88
482.28	102.88
482.498	84.88
482.717	86.88
482.935	91.88
483.153	80.88
483.372	91.88
483.59	93.88
483.808	92.88
484.027	91.88
484.245	100.88
484.463	94.88
484.681	93.88
484.9	91.88
485.118	84.88
485.336	86.88
485.554	98.88
485.772	99.88
485.99	103.88
486.209	94.88
486.427	94.88
486.645	114.88
486.863	126.88
487.081	109.88
487.299	97.88
487.517	92.88
487.735	88.88
487.953	92.88
488.171	89.88
488.389	73.88
488.607	104.88
488.825	92.88
489.043	84.88
489.261	89.88
489.479	96.88
489.696	86.88
489.914	80.88
490.132	87.88
490.35	93.88
490.568	90.88
490.786	92.88
491.003	86.88
491.221	89.88
491.439	82.88
491.657	98.88
491.874	83.88
492.092	85.88
492.31	94.88
492.527	85.88
492.745	84.88
492.963	88.88
493.18	88.88
493.398	105.88
493.615	98.88
493.833	87.88
494.05	89.88
494.268	82.88
494.485	94.88
494.703	86.88
494.92	88.88
495.138	90.88
495.355	94.88
495.573	85.88
495.79	77.88
496.008	95.88
496.225	91.88
496.442	82.88
496.66	88.88
496.877	95.88
497.094	95.88
497.312	99.88
497.529	85.88
497.746	81.88
497.963	86.88
498.181	92.88
498.398	97.88
498.615	97.88
498.832	93.88
499.049	93.88
499.267	74.88
499.484	69.88
499.701	89.88
499.918	85.88
500.135	87.88
500.352	107.88
500.569	77.88
500.786	98.88
501.003	89.88
501.22	87.88
501.437	106.88
501.654	91.88
501.871	109.88
502.088	97.88
502.305	96.88
502.522	89.88
502.739	98.88
502.956	96.88
503.172	82.88
503.389	97.88
503.606	106.88
503.823	91.88
504.04	89.88
504.256	89.88
504.473	90.88
504.69	88.88
504.907	96.88
505.123	79.88
505.34	90.88
505.557	85.88
505.773	77.88
505.99	98.88
506.207	86.88
506.423	88.88
506.64	92.88
506.856	93.88
507.073	111.88
507.289	103.88
507.506	98.88
507.722	128.88
507.939	113.88
508.155	102.88
508.372	89.88
508.588	99.88
508.805	91.88
509.021	94.88
509.238	91.88
509.454	96.88
509.67	96.88
509.887	103.88
510.103	122.88
510.319	184.88
510.536	767.88
510.752	2728.88
510.968	792.88
511.184	167.88
511.401	131.88
511.617	95.88
511.833	101.88
512.049	95.88
512.265	93.88
512.481	101.88
512.698	94.88
512.914	102.88
513.13	90.88
513.346	95.88
513.562	86.88
513.778	100.88
513.994	110.88
514.21	105.88
514.426	129.88
