Data from Circ_2013_H10_HRD10591_00036.txt Node
Date: Wed Jan 03 10:04:07 EST 2024
User: Yrep
Spectrometer: HR+D1059
Trigger mode: 1
Integration Time (sec): 1.000000E-1
Scans to average: 1
Electric dark correction enabled: true
Nonlinearity correction enabled: false
Boxcar width: 0
XAxis mode: Wavelengths
Number of Pixels in Spectrum: 2048
>>>>>Begin Spectral Data<<<<<
223.165	-10.06
223.4	-10.06
223.635	-10.06
223.869	-13.06
224.104	-21.06
224.338	-9.06
224.573	-11.06
224.808	-22.06
225.042	-13.06
225.277	5.94
225.511	2.94
225.746	10.94
225.98	3.94
226.215	12.94
226.449	8.94
226.683	11.94
226.918	20.94
227.152	20.94
227.387	41.94
227.621	45.94
227.856	30.94
228.09	46.94
228.324	41.94
228.559	56.94
228.793	56.94
229.027	69.94
229.262	66.94
229.496	73.94
229.73	78.94
229.964	96.94
230.199	76.94
230.433	62.94
230.667	66.94
230.901	73.94
231.136	68.94
231.37	83.94
231.604	90.94
231.838	74.94
232.072	77.94
232.306	78.94
232.541	74.94
232.775	97.94
233.009	65.94
233.243	69.94
233.477	68.94
233.711	85.94
233.945	72.94
234.179	71.94
234.413	77.94
234.647	65.94
234.881	75.94
235.115	61.94
235.349	56.94
235.583	66.94
235.817	80.94
236.051	67.94
236.285	74.94
236.519	83.94
236.753	72.94
236.987	69.94
237.221	64.94
237.455	75.94
237.689	84.94
237.922	62.94
238.156	69.94
238.39	63.94
238.624	68.94
238.858	55.94
239.091	60.94
239.325	82.94
239.559	78.94
239.793	88.94
240.027	84.94
240.26	74.94
240.494	61.94
240.728	83.94
240.961	78.94
241.195	77.94
241.429	70.94
241.662	72.94
241.896	66.94
242.13	72.94
242.363	82.94
242.597	72.94
242.83	78.94
243.064	83.94
243.298	66.94
243.531	54.94
243.765	67.94
243.998	81.94
244.232	90.94
244.465	69.94
244.699	80.94
244.932	85.94
245.166	87.94
245.399	83.94
245.633	70.94
245.866	71.94
246.099	67.94
246.333	90.94
246.566	69.94
246.8	73.94
247.033	74.94
247.266	82.94
247.5	74.94
247.733	78.94
247.966	66.94
248.2	70.94
248.433	71.94
248.666	64.94
248.899	68.94
249.133	80.94
249.366	101.94
249.599	108.94
249.832	68.94
250.066	81.94
250.299	78.94
250.532	70.94
250.765	85.94
250.998	72.94
251.231	95.94
251.465	87.94
251.698	78.94
251.931	65.94
252.164	69.94
252.397	79.94
252.63	77.94
252.863	82.94
253.096	90.94
253.329	87.94
253.562	61.94
253.795	70.94
254.028	65.94
254.261	75.94
254.494	77.94
254.727	86.94
254.96	77.94
255.193	77.94
255.426	88.94
255.659	70.94
255.892	81.94
256.124	78.94
256.357	72.94
256.59	70.94
256.823	67.94
257.056	84.94
257.289	72.94
257.521	79.94
257.754	78.94
257.987	92.94
258.22	65.94
258.452	72.94
258.685	81.94
258.918	74.94
259.151	62.94
259.383	80.94
259.616	80.94
259.849	81.94
260.081	90.94
260.314	82.94
260.547	68.94
260.779	81.94
261.012	99.94
261.244	78.94
261.477	80.94
261.71	93.94
261.942	116.94
262.175	130.94
262.407	93.94
262.64	84.94
262.872	86.94
263.105	81.94
263.337	79.94
263.57	75.94
263.802	88.94
264.035	88.94
264.267	79.94
264.499	89.94
264.732	73.94
264.964	79.94
265.197	94.94
265.429	78.94
265.661	73.94
265.894	92.94
266.126	71.94
266.358	75.94
266.591	69.94
266.823	72.94
267.055	82.94
267.287	87.94
267.52	93.94
267.752	86.94
267.984	80.94
268.216	77.94
268.448	89.94
268.681	83.94
268.913	67.94
269.145	83.94
269.377	73.94
269.609	73.94
269.841	79.94
270.073	92.94
270.306	77.94
270.538	78.94
270.77	70.94
271.002	74.94
271.234	85.94
271.466	99.94
271.698	97.94
271.93	88.94
272.162	89.94
272.394	92.94
272.626	73.94
272.858	70.94
273.09	80.94
273.322	74.94
273.553	82.94
273.785	76.94
274.017	84.94
274.249	98.94
274.481	80.94
274.713	82.94
274.945	81.94
275.176	63.94
275.408	90.94
275.64	89.94
275.872	89.94
276.104	101.94
276.335	103.94
276.567	105.94
276.799	124.94
277.031	136.94
277.262	131.94
277.494	110.94
277.726	94.94
277.957	87.94
278.189	75.94
278.421	79.94
278.652	80.94
278.884	93.94
279.115	90.94
279.347	95.94
279.579	94.94
279.81	103.94
280.042	121.94
280.273	151.94
280.505	116.94
280.736	89.94
280.968	79.94
281.199	97.94
281.431	88.94
281.662	75.94
281.894	80.94
282.125	86.94
282.356	120.94
282.588	165.94
282.819	135.94
283.051	87.94
283.282	91.94
283.513	87.94
283.745	97.94
283.976	86.94
284.207	73.94
284.439	94.94
284.67	84.94
284.901	86.94
285.132	87.94
285.364	81.94
285.595	71.94
285.826	85.94
286.057	80.94
286.288	74.94
286.52	80.94
286.751	80.94
286.982	81.94
287.213	80.94
287.444	99.94
287.675	82.94
287.906	80.94
288.138	77.94
288.369	90.94
288.6	74.94
288.831	90.94
289.062	84.94
289.293	73.94
289.524	101.94
289.755	92.94
289.986	69.94
290.217	81.94
290.448	75.94
290.679	80.94
290.91	69.94
291.141	89.94
291.371	86.94
291.602	88.94
291.833	82.94
292.064	78.94
292.295	83.94
292.526	82.94
292.757	92.94
292.987	94.94
293.218	81.94
293.449	85.94
293.68	75.94
293.91	82.94
294.141	100.94
294.372	74.94
294.603	68.94
294.833	72.94
295.064	88.94
295.295	89.94
295.525	94.94
295.756	104.94
295.987	125.94
296.217	146.94
296.448	142.94
296.679	95.94
296.909	88.94
297.14	86.94
297.37	84.94
297.601	91.94
297.831	89.94
298.062	87.94
298.292	75.94
298.523	89.94
298.753	79.94
298.984	90.94
299.214	83.94
299.445	93.94
299.675	99.94
299.905	82.94
300.136	92.94
300.366	90.94
300.597	85.94
300.827	89.94
301.057	99.94
301.288	108.94
301.518	82.94
301.748	96.94
301.979	89.94
302.209	89.94
302.439	92.94
302.669	90.94
302.9	101.94
303.13	93.94
303.36	88.94
303.59	98.94
303.82	114.94
304.051	93.94
304.281	74.94
304.511	87.94
304.741	72.94
304.971	82.94
305.201	94.94
305.431	88.94
305.661	98.94
305.891	100.94
306.121	85.94
306.352	88.94
306.582	114.94
306.812	96.94
307.042	103.94
307.272	128.94
307.502	123.94
307.731	116.94
307.961	98.94
308.191	89.94
308.421	85.94
308.651	79.94
308.881	78.94
309.111	92.94
309.341	108.94
309.571	102.94
309.8	89.94
310.03	92.94
310.26	91.94
310.49	100.94
310.72	99.94
310.949	101.94
311.179	97.94
311.409	99.94
311.639	98.94
311.868	81.94
312.098	96.94
312.328	96.94
312.557	103.94
312.787	117.94
313.017	104.94
313.246	89.94
313.476	96.94
313.706	98.94
313.935	92.94
314.165	87.94
314.394	104.94
314.624	94.94
314.853	107.94
315.083	89.94
315.312	79.94
315.542	86.94
315.771	85.94
316.001	80.94
316.23	79.94
316.46	79.94
316.689	89.94
316.919	84.94
317.148	88.94
317.377	94.94
317.607	88.94
317.836	99.94
318.065	72.94
318.295	82.94
318.524	79.94
318.753	77.94
318.983	80.94
319.212	91.94
319.441	105.94
319.67	126.94
319.9	87.94
320.129	76.94
320.358	89.94
320.587	80.94
320.816	95.94
321.046	109.94
321.275	110.94
321.504	83.94
321.733	86.94
321.962	96.94
322.191	93.94
322.42	106.94
322.649	118.94
322.878	118.94
323.108	104.94
323.337	120.94
323.566	143.94
323.795	166.94
324.024	219.94
324.253	425.94
324.482	958.94
324.71	1964.94
324.939	2551.94
325.168	925.94
325.397	268.94
325.626	163.94
325.855	124.94
326.084	122.94
326.313	125.94
326.542	156.94
326.77	239.94
326.999	508.94
327.228	1016.94
327.457	1872.94
327.686	1486.94
327.914	476.94
328.143	352.94
328.372	364.94
328.6	239.94
328.829	146.94
329.058	160.94
329.287	151.94
329.515	139.94
329.744	148.94
329.972	252.94
330.201	460.94
330.43	688.94
330.658	358.94
330.887	225.94
331.115	159.94
331.344	103.94
331.572	112.94
331.801	126.94
332.03	96.94
332.258	88.94
332.486	87.94
332.715	79.94
332.943	99.94
333.172	117.94
333.4	116.94
333.629	117.94
333.857	159.94
334.085	245.94
334.314	448.94
334.542	798.94
334.771	836.94
334.999	256.94
335.227	124.94
335.455	97.94
335.684	86.94
335.912	96.94
336.14	91.94
336.369	98.94
336.597	108.94
336.825	97.94
337.053	86.94
337.281	96.94
337.51	88.94
337.738	90.94
337.966	95.94
338.194	97.94
338.422	84.94
338.65	79.94
338.878	78.94
339.106	82.94
339.334	83.94
339.562	84.94
339.79	90.94
340.018	93.94
340.246	85.94
340.474	100.94
340.702	89.94
340.93	100.94
341.158	90.94
341.386	88.94
341.614	92.94
341.842	98.94
342.07	103.94
342.298	95.94
342.526	81.94
342.754	95.94
342.981	83.94
343.209	90.94
343.437	92.94
343.665	77.94
343.893	90.94
344.12	74.94
344.348	79.94
344.576	88.94
344.804	91.94
345.031	110.94
345.259	96.94
345.487	88.94
345.714	91.94
345.942	73.94
346.17	102.94
346.397	76.94
346.625	89.94
346.853	73.94
347.08	80.94
347.308	77.94
347.535	84.94
347.763	103.94
347.99	103.94
348.218	108.94
348.445	109.94
348.673	97.94
348.9	87.94
349.128	100.94
349.355	95.94
349.583	91.94
349.81	74.94
350.037	95.94
350.265	80.94
350.492	96.94
350.72	96.94
350.947	93.94
351.174	114.94
351.402	104.94
351.629	101.94
351.856	103.94
352.083	108.94
352.311	106.94
352.538	110.94
352.765	122.94
352.992	111.94
353.22	98.94
353.447	98.94
353.674	91.94
353.901	85.94
354.128	96.94
354.355	91.94
354.583	94.94
354.81	98.94
355.037	95.94
355.264	90.94
355.491	98.94
355.718	87.94
355.945	97.94
356.172	65.94
356.399	91.94
356.626	101.94
356.853	94.94
357.08	86.94
357.307	75.94
357.534	82.94
357.761	88.94
357.988	77.94
358.215	85.94
358.441	92.94
358.668	88.94
358.895	61.94
359.122	92.94
359.349	73.94
359.576	96.94
359.802	114.94
360.029	113.94
360.256	114.94
360.483	121.94
360.709	89.94
360.936	87.94
361.163	85.94
361.39	93.94
361.616	95.94
361.843	100.94
362.07	85.94
362.296	96.94
362.523	92.94
362.749	105.94
362.976	83.94
363.203	88.94
363.429	89.94
363.656	86.94
363.882	81.94
364.109	100.94
364.335	103.94
364.562	92.94
364.788	78.94
365.015	93.94
365.241	102.94
365.468	104.94
365.694	105.94
365.92	107.94
366.147	85.94
366.373	86.94
366.599	84.94
366.826	91.94
367.052	96.94
367.278	105.94
367.505	84.94
367.731	88.94
367.957	85.94
368.184	86.94
368.41	114.94
368.636	134.94
368.862	135.94
369.089	116.94
369.315	100.94
369.541	79.94
369.767	77.94
369.993	100.94
370.219	88.94
370.445	92.94
370.672	87.94
370.898	73.94
371.124	99.94
371.35	73.94
371.576	77.94
371.802	84.94
372.028	83.94
372.254	81.94
372.48	79.94
372.706	80.94
372.932	78.94
373.158	78.94
373.384	91.94
373.61	73.94
373.835	87.94
374.061	94.94
374.287	97.94
374.513	78.94
374.739	84.94
374.965	92.94
375.191	81.94
375.416	73.94
375.642	65.94
375.868	73.94
376.094	87.94
376.319	83.94
376.545	85.94
376.771	93.94
376.997	82.94
377.222	92.94
377.448	72.94
377.674	69.94
377.899	88.94
378.125	97.94
378.35	87.94
378.576	96.94
378.802	85.94
379.027	80.94
379.253	100.94
379.478	85.94
379.704	81.94
379.929	99.94
380.155	88.94
380.38	87.94
380.606	89.94
380.831	92.94
381.057	90.94
381.282	99.94
381.507	95.94
381.733	87.94
381.958	95.94
382.184	93.94
382.409	84.94
382.634	91.94
382.86	83.94
383.085	99.94
383.31	110.94
383.535	97.94
383.761	93.94
383.986	88.94
384.211	82.94
384.436	90.94
384.662	85.94
384.887	89.94
385.112	89.94
385.337	104.94
385.562	102.94
385.787	97.94
386.013	104.94
386.238	138.94
386.463	91.94
386.688	95.94
386.913	105.94
387.138	96.94
387.363	101.94
387.588	95.94
387.813	97.94
388.038	111.94
388.263	99.94
388.488	101.94
388.713	87.94
388.938	85.94
389.163	82.94
389.387	83.94
389.612	101.94
389.837	78.94
390.062	74.94
390.287	88.94
390.512	69.94
390.736	85.94
390.961	86.94
391.186	77.94
391.411	87.94
391.636	98.94
391.86	86.94
392.085	78.94
392.31	91.94
392.534	84.94
392.759	77.94
392.984	103.94
393.208	103.94
393.433	98.94
393.658	77.94
393.882	83.94
394.107	85.94
394.331	73.94
394.556	86.94
394.78	98.94
395.005	93.94
395.229	81.94
395.454	70.94
395.678	86.94
395.903	82.94
396.127	79.94
396.352	82.94
396.576	80.94
396.801	85.94
397.025	102.94
397.249	89.94
397.474	82.94
397.698	73.94
397.922	81.94
398.147	68.94
398.371	76.94
398.595	87.94
398.82	75.94
399.044	80.94
399.268	84.94
399.492	74.94
399.717	67.94
399.941	76.94
400.165	77.94
400.389	77.94
400.613	81.94
400.837	92.94
401.062	83.94
401.286	81.94
401.51	79.94
401.734	98.94
401.958	85.94
402.182	151.94
402.406	196.94
402.63	133.94
402.854	101.94
403.078	74.94
403.302	79.94
403.526	86.94
403.75	82.94
403.974	76.94
404.198	82.94
404.422	81.94
404.645	98.94
404.869	91.94
405.093	101.94
405.317	110.94
405.541	121.94
405.765	100.94
405.988	131.94
406.212	196.94
406.436	284.94
406.66	192.94
406.883	100.94
407.107	86.94
407.331	87.94
407.555	90.94
407.778	90.94
408.002	92.94
408.226	89.94
408.449	99.94
408.673	93.94
408.896	97.94
409.12	95.94
409.344	80.94
409.567	70.94
409.791	60.94
410.014	73.94
410.238	83.94
410.461	94.94
410.685	87.94
410.908	102.94
411.132	85.94
411.355	101.94
411.578	98.94
411.802	81.94
412.025	75.94
412.249	89.94
412.472	98.94
412.695	113.94
412.919	93.94
413.142	90.94
413.365	79.94
413.589	79.94
413.812	79.94
414.035	91.94
414.258	80.94
414.482	88.94
414.705	76.94
414.928	83.94
415.151	81.94
415.374	81.94
415.597	82.94
415.821	88.94
416.044	86.94
416.267	74.94
416.49	91.94
416.713	83.94
416.936	80.94
417.159	73.94
417.382	93.94
417.605	100.94
417.828	88.94
418.051	85.94
418.274	90.94
418.497	92.94
418.72	72.94
418.943	87.94
419.166	90.94
419.389	86.94
419.611	93.94
419.834	82.94
420.057	93.94
420.28	78.94
420.503	72.94
420.726	79.94
420.948	85.94
421.171	97.94
421.394	97.94
421.617	71.94
421.839	71.94
422.062	97.94
422.285	81.94
422.507	105.94
422.73	100.94
422.953	82.94
423.175	76.94
423.398	86.94
423.621	89.94
423.843	80.94
424.066	84.94
424.288	97.94
424.511	81.94
424.733	102.94
424.956	102.94
425.178	93.94
425.401	93.94
425.623	88.94
425.846	86.94
426.068	96.94
426.291	73.94
426.513	82.94
426.735	96.94
426.958	92.94
427.18	100.94
427.402	146.94
427.625	217.94
427.847	173.94
428.069	156.94
428.292	123.94
428.514	86.94
428.736	74.94
428.958	82.94
429.181	73.94
429.403	71.94
429.625	79.94
429.847	97.94
430.069	110.94
430.292	91.94
430.514	76.94
430.736	83.94
430.958	73.94
431.18	82.94
431.402	83.94
431.624	86.94
431.846	62.94
432.068	70.94
432.29	79.94
432.512	79.94
432.734	95.94
432.956	79.94
433.178	92.94
433.4	92.94
433.622	73.94
433.844	102.94
434.066	81.94
434.287	77.94
434.509	94.94
434.731	74.94
434.953	88.94
435.175	80.94
435.397	76.94
435.618	86.94
435.84	109.94
436.062	125.94
436.284	119.94
436.505	95.94
436.727	95.94
436.949	91.94
437.17	88.94
437.392	90.94
437.614	98.94
437.835	105.94
438.057	124.94
438.278	117.94
438.5	101.94
438.721	126.94
438.943	99.94
439.165	84.94
439.386	79.94
439.608	93.94
439.829	106.94
440.05	115.94
440.272	150.94
440.493	106.94
440.715	79.94
440.936	85.94
441.158	84.94
441.379	79.94
441.6	96.94
441.822	84.94
442.043	101.94
442.264	112.94
442.486	94.94
442.707	93.94
442.928	113.94
443.149	137.94
443.371	132.94
443.592	117.94
443.813	122.94
444.034	103.94
444.255	101.94
444.476	84.94
444.698	77.94
444.919	77.94
445.14	145.94
445.361	129.94
445.582	136.94
445.803	148.94
446.024	169.94
446.245	144.94
446.466	109.94
446.687	91.94
446.908	90.94
447.129	84.94
447.35	83.94
447.571	65.94
447.792	93.94
448.013	101.94
448.234	118.94
448.455	104.94
448.675	111.94
448.896	126.94
449.117	110.94
449.338	108.94
449.559	120.94
449.779	127.94
450	93.94
450.221	91.94
450.442	80.94
450.662	101.94
450.883	112.94
451.104	125.94
451.324	111.94
451.545	98.94
451.766	78.94
451.986	79.94
452.207	93.94
452.428	92.94
452.648	89.94
452.869	114.94
453.089	127.94
453.31	126.94
453.53	91.94
453.751	94.94
453.971	105.94
454.192	132.94
454.412	96.94
454.633	65.94
454.853	76.94
455.073	85.94
455.294	92.94
455.514	101.94
455.734	81.94
455.955	73.94
456.175	83.94
456.395	94.94
456.616	66.94
456.836	73.94
457.056	73.94
457.276	74.94
457.497	75.94
457.717	83.94
457.937	90.94
458.157	88.94
458.377	91.94
458.598	115.94
458.818	177.94
459.038	187.94
459.258	137.94
459.478	88.94
459.698	74.94
459.918	74.94
460.138	70.94
460.358	81.94
460.578	89.94
460.798	86.94
461.018	92.94
461.238	103.94
461.458	74.94
461.678	79.94
461.898	87.94
462.118	93.94
462.338	73.94
462.558	81.94
462.777	90.94
462.997	69.94
463.217	84.94
463.437	94.94
463.657	79.94
463.876	79.94
464.096	88.94
464.316	88.94
464.536	90.94
464.755	99.94
464.975	110.94
465.195	217.94
465.414	215.94
465.634	91.94
465.854	85.94
466.073	63.94
466.293	78.94
466.512	72.94
466.732	75.94
466.951	89.94
467.171	93.94
467.391	101.94
467.61	113.94
467.829	127.94
468.049	270.94
468.268	409.94
468.488	136.94
468.707	99.94
468.927	81.94
469.146	86.94
469.365	77.94
469.585	76.94
469.804	100.94
470.023	109.94
470.243	95.94
470.462	113.94
470.681	131.94
470.901	95.94
471.12	93.94
471.339	95.94
471.558	94.94
471.777	100.94
471.997	163.94
472.216	486.94
472.435	1146.94
472.654	311.94
472.873	134.94
473.092	81.94
473.311	75.94
473.53	80.94
473.749	95.94
473.968	92.94
474.187	117.94
474.406	95.94
474.625	86.94
474.844	82.94
475.063	77.94
475.282	80.94
475.501	84.94
475.72	86.94
475.939	93.94
476.158	75.94
476.377	94.94
476.596	86.94
476.814	93.94
477.033	84.94
477.252	87.94
477.471	89.94
477.69	83.94
477.908	76.94
478.127	84.94
478.346	87.94
478.564	80.94
478.783	105.94
479.002	92.94
479.22	92.94
479.439	113.94
479.658	124.94
479.876	110.94
480.095	120.94
480.313	112.94
480.532	116.94
480.751	167.94
480.969	465.94
481.188	1858.94
481.406	1194.94
481.624	208.94
481.843	106.94
482.061	97.94
482.28	88.94
482.498	90.94
482.717	94.94
482.935	87.94
483.153	81.94
483.372	89.94
483.59	82.94
483.808	100.94
484.027	87.94
484.245	86.94
484.463	89.94
484.681	82.94
484.9	72.94
485.118	96.94
485.336	94.94
485.554	87.94
485.772	91.94
485.99	95.94
486.209	103.94
486.427	92.94
486.645	98.94
486.863	109.94
487.081	112.94
487.299	86.94
487.517	83.94
487.735	96.94
487.953	94.94
488.171	85.94
488.389	103.94
488.607	91.94
488.825	93.94
489.043	86.94
489.261	84.94
489.479	98.94
489.696	97.94
489.914	85.94
490.132	83.94
490.35	86.94
490.568	80.94
490.786	77.94
491.003	73.94
491.221	95.94
491.439	79.94
491.657	96.94
491.874	95.94
492.092	82.94
492.31	90.94
492.527	86.94
492.745	86.94
492.963	90.94
493.18	95.94
493.398	86.94
493.615	82.94
493.833	91.94
494.05	84.94
494.268	85.94
494.485	80.94
494.703	84.94
494.92	82.94
495.138	95.94
495.355	103.94
495.573	71.94
495.79	91.94
496.008	95.94
496.225	80.94
496.442	78.94
496.66	86.94
496.877	91.94
497.094	80.94
497.312	82.94
497.529	84.94
497.746	81.94
497.963	81.94
498.181	88.94
498.398	86.94
498.615	106.94
498.832	95.94
499.049	91.94
499.267	91.94
499.484	85.94
499.701	96.94
499.918	87.94
500.135	79.94
500.352	96.94
500.569	71.94
500.786	105.94
501.003	81.94
501.22	86.94
501.437	88.94
501.654	95.94
501.871	103.94
502.088	92.94
502.305	82.94
502.522	82.94
502.739	88.94
502.956	91.94
503.172	89.94
503.389	108.94
503.606	95.94
503.823	106.94
504.04	103.94
504.256	88.94
504.473	77.94
504.69	69.94
504.907	83.94
505.123	92.94
505.34	91.94
505.557	88.94
505.773	74.94
505.99	86.94
506.207	80.94
506.423	84.94
506.64	89.94
506.856	87.94
507.073	95.94
507.289	107.94
507.506	84.94
507.722	133.94
507.939	132.94
508.155	102.94
508.372	96.94
508.588	71.94
508.805	96.94
509.021	108.94
509.238	87.94
509.454	86.94
509.67	97.94
509.887	114.94
510.103	134.94
510.319	230.94
510.536	884.94
510.752	3159.94
510.968	863.94
511.184	173.94
511.401	108.94
511.617	110.94
511.833	91.94
512.049	100.94
512.265	80.94
512.481	96.94
512.698	86.94
512.914	99.94
513.13	97.94
513.346	74.94
513.562	93.94
513.778	80.94
513.994	84.94
514.21	101.94
514.426	141.94
514.642	148.94
514.858	136.94
515.074	180.94
515.29	640.94
515.506	2335.94
515.721	849.94
