Data from Circ_2013_H10_HRD10591_00094.txt Node
Date: Wed Jan 03 10:04:19 EST 2024
User: Yrep
Spectrometer: HR+D1059
Trigger mode: 1
Integration Time (sec): 1.000000E-1
Scans to average: 1
Electric dark correction enabled: true
Nonlinearity correction enabled: false
Boxcar width: 0
XAxis mode: Wavelengths
Number of Pixels in Spectrum: 2048
>>>>>Begin Spectral Data<<<<<
223.165	-11.75
223.4	-11.75
223.635	-11.75
223.869	-30.75
224.104	-14.75
224.338	-18.75
224.573	-12.75
224.808	-5.75
225.042	-2.75
225.277	-11.75
225.511	-8.75
225.746	-1.75
225.98	21.25
226.215	18.25
226.449	4.25
226.683	29.25
226.918	26.25
227.152	20.25
227.387	29.25
227.621	29.25
227.856	48.25
228.09	50.25
228.324	54.25
228.559	62.25
228.793	67.25
229.027	58.25
229.262	69.25
229.496	82.25
229.73	110.25
229.964	92.25
230.199	72.25
230.433	79.25
230.667	80.25
230.901	86.25
231.136	93.25
231.37	84.25
231.604	85.25
231.838	88.25
232.072	73.25
232.306	89.25
232.541	96.25
232.775	75.25
233.009	74.25
233.243	80.25
233.477	93.25
233.711	72.25
233.945	65.25
234.179	78.25
234.413	85.25
234.647	83.25
234.881	82.25
235.115	87.25
235.349	82.25
235.583	88.25
235.817	84.25
236.051	84.25
236.285	85.25
236.519	100.25
236.753	82.25
236.987	69.25
237.221	82.25
237.455	106.25
237.689	81.25
237.922	72.25
238.156	74.25
238.39	82.25
238.624	73.25
238.858	74.25
239.091	70.25
239.325	77.25
239.559	85.25
239.793	82.25
240.027	81.25
240.26	87.25
240.494	74.25
240.728	82.25
240.961	78.25
241.195	78.25
241.429	86.25
241.662	68.25
241.896	76.25
242.13	82.25
242.363	84.25
242.597	90.25
242.83	71.25
243.064	74.25
243.298	91.25
243.531	64.25
243.765	79.25
243.998	78.25
244.232	81.25
244.465	96.25
244.699	81.25
244.932	80.25
245.166	77.25
245.399	99.25
245.633	78.25
245.866	76.25
246.099	78.25
246.333	104.25
246.566	81.25
246.8	78.25
247.033	65.25
247.266	59.25
247.5	84.25
247.733	71.25
247.966	82.25
248.2	66.25
248.433	79.25
248.666	79.25
248.899	88.25
249.133	89.25
249.366	94.25
249.599	95.25
249.832	92.25
250.066	84.25
250.299	88.25
250.532	93.25
250.765	86.25
250.998	72.25
251.231	84.25
251.465	70.25
251.698	68.25
251.931	95.25
252.164	91.25
252.397	81.25
252.63	81.25
252.863	93.25
253.096	89.25
253.329	89.25
253.562	81.25
253.795	82.25
254.028	82.25
254.261	93.25
254.494	68.25
254.727	86.25
254.96	97.25
255.193	76.25
255.426	84.25
255.659	86.25
255.892	91.25
256.124	108.25
256.357	95.25
256.59	84.25
256.823	88.25
257.056	90.25
257.289	69.25
257.521	78.25
257.754	80.25
257.987	81.25
258.22	82.25
258.452	98.25
258.685	93.25
258.918	81.25
259.151	68.25
259.383	62.25
259.616	85.25
259.849	96.25
260.081	92.25
260.314	74.25
260.547	99.25
260.779	87.25
261.012	97.25
261.244	105.25
261.477	92.25
261.71	110.25
261.942	126.25
262.175	153.25
262.407	101.25
262.64	92.25
262.872	76.25
263.105	75.25
263.337	96.25
263.57	86.25
263.802	90.25
264.035	90.25
264.267	89.25
264.499	83.25
264.732	90.25
264.964	85.25
265.197	86.25
265.429	83.25
265.661	81.25
265.894	77.25
266.126	86.25
266.358	82.25
266.591	88.25
266.823	82.25
267.055	78.25
267.287	62.25
267.52	91.25
267.752	78.25
267.984	88.25
268.216	86.25
268.448	97.25
268.681	86.25
268.913	71.25
269.145	69.25
269.377	81.25
269.609	84.25
269.841	86.25
270.073	90.25
270.306	96.25
270.538	86.25
270.77	83.25
271.002	90.25
271.234	85.25
271.466	105.25
271.698	89.25
271.93	82.25
272.162	87.25
272.394	77.25
272.626	87.25
272.858	92.25
273.09	86.25
273.322	82.25
273.553	88.25
273.785	89.25
274.017	94.25
274.249	81.25
274.481	88.25
274.713	103.25
274.945	96.25
275.176	96.25
275.408	96.25
275.64	110.25
275.872	118.25
276.104	112.25
276.335	107.25
276.567	122.25
276.799	151.25
277.031	170.25
277.262	168.25
277.494	157.25
277.726	105.25
277.957	92.25
278.189	91.25
278.421	92.25
278.652	93.25
278.884	92.25
279.115	87.25
279.347	77.25
279.579	89.25
279.81	148.25
280.042	171.25
280.273	241.25
280.505	179.25
280.736	96.25
280.968	87.25
281.199	104.25
281.431	85.25
281.662	93.25
281.894	99.25
282.125	99.25
282.356	152.25
282.588	186.25
282.819	140.25
283.051	96.25
283.282	89.25
283.513	83.25
283.745	83.25
283.976	90.25
284.207	104.25
284.439	91.25
284.67	90.25
284.901	88.25
285.132	82.25
285.364	88.25
285.595	98.25
285.826	89.25
286.057	86.25
286.288	78.25
286.52	96.25
286.751	90.25
286.982	93.25
287.213	82.25
287.444	94.25
287.675	77.25
287.906	97.25
288.138	87.25
288.369	89.25
288.6	102.25
288.831	84.25
289.062	82.25
289.293	77.25
289.524	79.25
289.755	89.25
289.986	92.25
290.217	83.25
290.448	91.25
290.679	90.25
290.91	91.25
291.141	88.25
291.371	106.25
291.602	83.25
291.833	92.25
292.064	89.25
292.295	98.25
292.526	97.25
292.757	86.25
292.987	77.25
293.218	92.25
293.449	88.25
293.68	89.25
293.91	102.25
294.141	99.25
294.372	81.25
294.603	85.25
294.833	88.25
295.064	102.25
295.295	93.25
295.525	92.25
295.756	121.25
295.987	125.25
296.217	165.25
296.448	144.25
296.679	100.25
296.909	93.25
297.14	87.25
297.37	88.25
297.601	85.25
297.831	92.25
298.062	106.25
298.292	92.25
298.523	87.25
298.753	92.25
298.984	82.25
299.214	98.25
299.445	89.25
299.675	101.25
299.905	103.25
300.136	87.25
300.366	90.25
300.597	88.25
300.827	101.25
301.057	112.25
301.288	107.25
301.518	95.25
301.748	105.25
301.979	115.25
302.209	98.25
302.439	95.25
302.669	98.25
302.9	84.25
303.13	98.25
303.36	117.25
303.59	133.25
303.82	140.25
304.051	91.25
304.281	94.25
304.511	110.25
304.741	88.25
304.971	79.25
305.201	91.25
305.431	87.25
305.661	101.25
305.891	84.25
306.121	98.25
306.352	119.25
306.582	118.25
306.812	105.25
307.042	115.25
307.272	150.25
307.502	159.25
307.731	158.25
307.961	119.25
308.191	115.25
308.421	93.25
308.651	99.25
308.881	93.25
309.111	83.25
309.341	104.25
309.571	103.25
309.8	99.25
310.03	112.25
310.26	112.25
310.49	92.25
310.72	118.25
310.949	101.25
311.179	112.25
311.409	91.25
311.639	107.25
311.868	108.25
312.098	107.25
312.328	108.25
312.557	120.25
312.787	137.25
313.017	102.25
313.246	117.25
313.476	90.25
313.706	118.25
313.935	100.25
314.165	106.25
314.394	125.25
314.624	103.25
314.853	102.25
315.083	93.25
315.312	97.25
315.542	84.25
315.771	97.25
316.001	97.25
316.23	101.25
316.46	82.25
316.689	108.25
316.919	93.25
317.148	98.25
317.377	117.25
317.607	90.25
317.836	109.25
318.065	98.25
318.295	100.25
318.524	91.25
318.753	90.25
318.983	101.25
319.212	114.25
319.441	114.25
319.67	129.25
319.9	117.25
320.129	95.25
320.358	100.25
320.587	103.25
320.816	103.25
321.046	122.25
321.275	100.25
321.504	116.25
321.733	86.25
321.962	117.25
322.191	107.25
322.42	103.25
322.649	131.25
322.878	127.25
323.108	139.25
323.337	152.25
323.566	158.25
323.795	195.25
324.024	264.25
324.253	550.25
324.482	1205.25
324.71	2482.25
324.939	3264.25
325.168	1184.25
325.397	328.25
325.626	178.25
325.855	153.25
326.084	154.25
326.313	152.25
326.542	202.25
326.77	284.25
326.999	633.25
327.228	1280.25
327.457	2412.25
327.686	1882.25
327.914	591.25
328.143	504.25
328.372	628.25
328.6	377.25
328.829	183.25
329.058	195.25
329.287	209.25
329.515	204.25
329.744	247.25
329.972	472.25
330.201	954.25
330.43	1401.25
330.658	626.25
330.887	313.25
331.115	205.25
331.344	149.25
331.572	132.25
331.801	145.25
332.03	128.25
332.258	116.25
332.486	98.25
332.715	122.25
332.943	109.25
333.172	134.25
333.4	138.25
333.629	160.25
333.857	225.25
334.085	452.25
334.314	888.25
334.542	1752.25
334.771	1700.25
334.999	455.25
335.227	184.25
335.455	110.25
335.684	113.25
335.912	107.25
336.14	108.25
336.369	115.25
336.597	118.25
336.825	113.25
337.053	97.25
337.281	92.25
337.51	87.25
337.738	116.25
337.966	103.25
338.194	101.25
338.422	97.25
338.65	89.25
338.878	93.25
339.106	97.25
339.334	99.25
339.562	105.25
339.79	93.25
340.018	98.25
340.246	84.25
340.474	124.25
340.702	101.25
340.93	99.25
341.158	96.25
341.386	111.25
341.614	104.25
341.842	96.25
342.07	89.25
342.298	82.25
342.526	96.25
342.754	109.25
342.981	88.25
343.209	96.25
343.437	101.25
343.665	89.25
343.893	83.25
344.12	96.25
344.348	82.25
344.576	92.25
344.804	93.25
345.031	91.25
345.259	104.25
345.487	93.25
345.714	99.25
345.942	92.25
346.17	82.25
346.397	89.25
346.625	101.25
346.853	97.25
347.08	85.25
347.308	104.25
347.535	110.25
347.763	102.25
347.99	103.25
348.218	115.25
348.445	118.25
348.673	115.25
348.9	104.25
349.128	102.25
349.355	95.25
349.583	79.25
349.81	96.25
350.037	96.25
350.265	98.25
350.492	106.25
350.72	92.25
350.947	108.25
351.174	127.25
351.402	134.25
351.629	122.25
351.856	110.25
352.083	120.25
352.311	123.25
352.538	132.25
352.765	130.25
352.992	122.25
353.22	121.25
353.447	109.25
353.674	104.25
353.901	108.25
354.128	105.25
354.355	106.25
354.583	101.25
354.81	85.25
355.037	102.25
355.264	98.25
355.491	105.25
355.718	86.25
355.945	104.25
356.172	99.25
356.399	97.25
356.626	79.25
356.853	85.25
357.08	83.25
357.307	96.25
357.534	82.25
357.761	91.25
357.988	84.25
358.215	101.25
358.441	82.25
358.668	112.25
358.895	100.25
359.122	93.25
359.349	94.25
359.576	89.25
359.802	120.25
360.029	136.25
360.256	152.25
360.483	129.25
360.709	101.25
360.936	83.25
361.163	107.25
361.39	110.25
361.616	111.25
361.843	92.25
362.07	94.25
362.296	102.25
362.523	100.25
362.749	116.25
362.976	102.25
363.203	98.25
363.429	92.25
363.656	88.25
363.882	77.25
364.109	92.25
364.335	96.25
364.562	100.25
364.788	97.25
365.015	109.25
365.241	110.25
365.468	121.25
365.694	120.25
365.92	100.25
366.147	84.25
366.373	92.25
366.599	108.25
366.826	98.25
367.052	94.25
367.278	99.25
367.505	81.25
367.731	94.25
367.957	93.25
368.184	89.25
368.41	127.25
368.636	132.25
368.862	149.25
369.089	124.25
369.315	106.25
369.541	99.25
369.767	102.25
369.993	98.25
370.219	96.25
370.445	87.25
370.672	92.25
370.898	99.25
371.124	84.25
371.35	88.25
371.576	85.25
371.802	74.25
372.028	79.25
372.254	66.25
372.48	90.25
372.706	87.25
372.932	75.25
373.158	89.25
373.384	97.25
373.61	86.25
373.835	89.25
374.061	85.25
374.287	116.25
374.513	90.25
374.739	88.25
374.965	105.25
375.191	91.25
375.416	86.25
375.642	88.25
375.868	106.25
376.094	92.25
376.319	85.25
376.545	92.25
376.771	86.25
376.997	101.25
377.222	90.25
377.448	100.25
377.674	74.25
377.899	86.25
378.125	87.25
378.35	95.25
378.576	91.25
378.802	86.25
379.027	95.25
379.253	82.25
379.478	87.25
379.704	83.25
379.929	96.25
380.155	89.25
380.38	99.25
380.606	88.25
380.831	85.25
381.057	100.25
381.282	91.25
381.507	104.25
381.733	116.25
381.958	90.25
382.184	93.25
382.409	87.25
382.634	89.25
382.86	89.25
383.085	100.25
383.31	107.25
383.535	108.25
383.761	100.25
383.986	100.25
384.211	90.25
384.436	99.25
384.662	101.25
384.887	101.25
385.112	101.25
385.337	97.25
385.562	83.25
385.787	103.25
386.013	120.25
386.238	106.25
386.463	104.25
386.688	95.25
386.913	98.25
387.138	112.25
387.363	105.25
387.588	97.25
387.813	88.25
388.038	94.25
388.263	89.25
388.488	102.25
388.713	91.25
388.938	97.25
389.163	87.25
389.387	96.25
389.612	90.25
389.837	83.25
390.062	90.25
390.287	76.25
390.512	92.25
390.736	98.25
390.961	89.25
391.186	99.25
391.411	85.25
391.636	83.25
391.86	86.25
392.085	94.25
392.31	97.25
392.534	89.25
392.759	96.25
392.984	87.25
393.208	86.25
393.433	89.25
393.658	84.25
393.882	91.25
394.107	90.25
394.331	82.25
394.556	98.25
394.78	83.25
395.005	99.25
395.229	82.25
395.454	93.25
395.678	91.25
395.903	89.25
396.127	101.25
396.352	95.25
396.576	91.25
396.801	96.25
397.025	76.25
397.249	83.25
397.474	81.25
397.698	87.25
397.922	82.25
398.147	80.25
398.371	104.25
398.595	82.25
398.82	94.25
399.044	81.25
399.268	82.25
399.492	91.25
399.717	99.25
399.941	96.25
400.165	97.25
400.389	91.25
400.613	95.25
400.837	83.25
401.062	82.25
401.286	88.25
401.51	97.25
401.734	94.25
401.958	117.25
402.182	160.25
402.406	224.25
402.63	155.25
402.854	107.25
403.078	97.25
403.302	84.25
403.526	79.25
403.75	91.25
403.974	85.25
404.198	87.25
404.422	90.25
404.645	106.25
404.869	100.25
405.093	128.25
405.317	151.25
405.541	144.25
405.765	121.25
405.988	122.25
406.212	232.25
406.436	346.25
406.66	226.25
406.883	121.25
407.107	114.25
407.331	103.25
407.555	112.25
407.778	108.25
408.002	97.25
408.226	82.25
408.449	81.25
408.673	78.25
408.896	107.25
409.12	98.25
409.344	100.25
409.567	81.25
409.791	81.25
410.014	91.25
410.238	91.25
410.461	84.25
410.685	84.25
410.908	96.25
411.132	108.25
411.355	113.25
411.578	108.25
411.802	85.25
412.025	79.25
412.249	100.25
412.472	121.25
412.695	134.25
412.919	117.25
413.142	95.25
413.365	99.25
413.589	89.25
413.812	89.25
414.035	92.25
414.258	88.25
414.482	94.25
414.705	96.25
414.928	98.25
415.151	88.25
415.374	98.25
415.597	93.25
415.821	84.25
416.044	88.25
416.267	77.25
416.49	82.25
416.713	82.25
416.936	94.25
417.159	83.25
417.382	93.25
417.605	110.25
417.828	108.25
418.051	96.25
418.274	96.25
418.497	90.25
418.72	81.25
418.943	87.25
419.166	76.25
419.389	88.25
419.611	78.25
419.834	97.25
420.057	92.25
420.28	99.25
420.503	98.25
420.726	84.25
420.948	85.25
421.171	110.25
421.394	96.25
421.617	96.25
421.839	92.25
422.062	96.25
422.285	94.25
422.507	113.25
422.73	112.25
422.953	105.25
423.175	92.25
423.398	73.25
423.621	99.25
423.843	86.25
424.066	87.25
424.288	98.25
424.511	97.25
424.733	106.25
424.956	116.25
425.178	101.25
425.401	92.25
425.623	105.25
425.846	105.25
426.068	105.25
426.291	85.25
426.513	104.25
426.735	107.25
426.958	92.25
427.18	117.25
427.402	197.25
427.625	263.25
427.847	252.25
428.069	243.25
428.292	108.25
428.514	108.25
428.736	88.25
428.958	85.25
429.181	92.25
429.403	77.25
429.625	80.25
429.847	102.25
430.069	108.25
430.292	102.25
430.514	92.25
430.736	84.25
430.958	92.25
431.18	76.25
431.402	78.25
431.624	94.25
431.846	85.25
432.068	82.25
432.29	80.25
432.512	89.25
432.734	100.25
432.956	101.25
433.178	108.25
433.4	100.25
433.622	84.25
433.844	89.25
434.066	92.25
434.287	90.25
434.509	86.25
434.731	76.25
434.953	84.25
435.175	78.25
435.397	104.25
435.618	100.25
435.84	112.25
436.062	148.25
436.284	151.25
436.505	125.25
436.727	105.25
436.949	97.25
437.17	89.25
437.392	86.25
437.614	113.25
437.835	141.25
438.057	166.25
438.278	148.25
438.5	130.25
438.721	142.25
438.943	122.25
439.165	97.25
439.386	78.25
439.608	86.25
439.829	118.25
440.05	165.25
440.272	184.25
440.493	124.25
440.715	91.25
440.936	72.25
441.158	92.25
441.379	95.25
441.6	76.25
441.822	91.25
442.043	106.25
442.264	122.25
442.486	101.25
442.707	102.25
442.928	136.25
443.149	181.25
443.371	188.25
443.592	144.25
443.813	144.25
444.034	135.25
444.255	83.25
444.476	82.25
444.698	75.25
444.919	85.25
445.14	122.25
445.361	142.25
445.582	157.25
445.803	204.25
446.024	186.25
446.245	179.25
446.466	129.25
446.687	86.25
446.908	102.25
447.129	88.25
447.35	104.25
447.571	97.25
447.792	104.25
448.013	112.25
448.234	120.25
448.455	107.25
448.675	132.25
448.896	130.25
449.117	113.25
449.338	124.25
449.559	171.25
449.779	167.25
450	101.25
450.221	81.25
450.442	87.25
450.662	115.25
450.883	124.25
451.104	166.25
451.324	117.25
451.545	92.25
451.766	85.25
451.986	76.25
452.207	101.25
452.428	102.25
452.648	118.25
452.869	126.25
453.089	136.25
453.31	156.25
453.53	102.25
453.751	98.25
453.971	103.25
454.192	138.25
454.412	93.25
454.633	96.25
454.853	103.25
455.073	81.25
455.294	93.25
455.514	98.25
455.734	101.25
455.955	92.25
456.175	77.25
456.395	66.25
456.616	79.25
456.836	85.25
457.056	83.25
457.276	89.25
457.497	90.25
457.717	80.25
457.937	99.25
458.157	100.25
458.377	105.25
458.598	124.25
458.818	220.25
459.038	244.25
459.258	154.25
459.478	92.25
459.698	78.25
459.918	88.25
460.138	89.25
460.358	88.25
460.578	82.25
460.798	84.25
461.018	102.25
461.238	98.25
461.458	89.25
461.678	82.25
461.898	82.25
462.118	75.25
462.338	80.25
462.558	84.25
462.777	88.25
462.997	97.25
463.217	96.25
463.437	101.25
463.657	77.25
463.876	87.25
464.096	101.25
464.316	108.25
464.536	91.25
464.755	99.25
464.975	143.25
465.195	267.25
465.414	250.25
465.634	120.25
465.854	98.25
466.073	96.25
466.293	91.25
466.512	101.25
466.732	81.25
466.951	102.25
467.171	107.25
467.391	108.25
467.61	143.25
467.829	201.25
468.049	488.25
468.268	779.25
468.488	217.25
468.707	110.25
468.927	92.25
469.146	85.25
469.365	90.25
469.585	98.25
469.804	125.25
470.023	109.25
470.243	107.25
470.462	132.25
470.681	133.25
470.901	89.25
471.12	98.25
471.339	114.25
471.558	110.25
471.777	148.25
471.997	292.25
472.216	1028.25
472.435	2277.25
472.654	582.25
472.873	164.25
473.092	105.25
473.311	96.25
473.53	99.25
473.749	97.25
473.968	112.25
474.187	133.25
474.406	117.25
474.625	78.25
474.844	81.25
475.063	77.25
475.282	89.25
475.501	106.25
475.72	100.25
475.939	84.25
476.158	81.25
476.377	89.25
476.596	94.25
476.814	113.25
477.033	110.25
477.252	105.25
477.471	92.25
477.69	88.25
477.908	100.25
478.127	98.25
478.346	100.25
478.564	98.25
478.783	114.25
479.002	105.25
479.22	115.25
479.439	142.25
479.658	139.25
479.876	125.25
480.095	113.25
480.313	132.25
480.532	160.25
480.751	273.25
480.969	924.25
481.188	3907.25
481.406	2395.25
481.624	357.25
481.843	121.25
482.061	108.25
482.28	92.25
482.498	82.25
482.717	81.25
482.935	96.25
483.153	102.25
483.372	87.25
483.59	94.25
483.808	95.25
484.027	101.25
484.245	96.25
484.463	117.25
484.681	101.25
484.9	101.25
485.118	91.25
485.336	89.25
485.554	101.25
485.772	93.25
485.99	115.25
486.209	115.25
486.427	103.25
486.645	140.25
486.863	135.25
487.081	101.25
487.299	91.25
487.517	99.25
487.735	82.25
487.953	82.25
488.171	106.25
488.389	82.25
488.607	114.25
488.825	89.25
489.043	82.25
489.261	116.25
489.479	91.25
489.696	82.25
489.914	85.25
490.132	105.25
490.35	85.25
490.568	86.25
490.786	104.25
491.003	86.25
491.221	88.25
491.439	101.25
491.657	101.25
491.874	93.25
492.092	97.25
492.31	93.25
492.527	108.25
492.745	102.25
492.963	87.25
493.18	85.25
493.398	89.25
493.615	89.25
493.833	93.25
494.05	93.25
494.268	84.25
494.485	89.25
494.703	95.25
494.92	99.25
495.138	92.25
495.355	96.25
495.573	90.25
495.79	100.25
496.008	85.25
496.225	99.25
496.442	82.25
496.66	103.25
496.877	98.25
497.094	80.25
497.312	91.25
497.529	99.25
497.746	90.25
497.963	88.25
498.181	109.25
498.398	95.25
498.615	136.25
498.832	112.25
499.049	91.25
499.267	90.25
499.484	94.25
499.701	103.25
499.918	86.25
500.135	96.25
500.352	95.25
500.569	96.25
500.786	99.25
501.003	96.25
501.22	90.25
501.437	87.25
501.654	105.25
501.871	129.25
502.088	118.25
502.305	88.25
502.522	88.25
502.739	83.25
502.956	84.25
503.172	90.25
503.389	100.25
503.606	135.25
503.823	112.25
504.04	92.25
504.256	93.25
504.473	87.25
504.69	102.25
504.907	93.25
505.123	94.25
505.34	88.25
505.557	97.25
505.773	88.25
505.99	92.25
506.207	83.25
506.423	85.25
506.64	92.25
506.856	80.25
507.073	90.25
507.289	81.25
507.506	102.25
507.722	128.25
507.939	133.25
508.155	109.25
508.372	95.25
508.588	85.25
508.805	92.25
509.021	96.25
509.238	103.25
509.454	105.25
509.67	106.25
509.887	120.25
510.103	128.25
510.319	239.25
510.536	935.25
510.752	3393.25
510.968	935.25
511.184	199.25
511.401	146.25
511.617	106.25
511.833	112.25
512.049	105.25
512.265	89.25
512.481	106.25
512.698	93.25
