Data from Circ_2013_H10_HRD10591_00009.txt Node
Date: Wed Jan 03 10:04:02 EST 2024
User: Yrep
Spectrometer: HR+D1059
Trigger mode: 1
Integration Time (sec): 1.000000E-1
Scans to average: 1
Electric dark correction enabled: true
Nonlinearity correction enabled: false
Boxcar width: 0
XAxis mode: Wavelengths
Number of Pixels in Spectrum: 2048
>>>>>Begin Spectral Data<<<<<
223.165	-23.88
223.4	-23.88
223.635	-23.88
223.869	-16.88
224.104	-14.88
224.338	-28.88
224.573	-25.88
224.808	-14.88
225.042	-9.88
225.277	3.12
225.511	9.12
225.746	10.12
225.98	1.12
226.215	6.12
226.449	28.12
226.683	27.12
226.918	30.12
227.152	20.12
227.387	25.12
227.621	35.12
227.856	43.12
228.09	27.12
228.324	48.12
228.559	43.12
228.793	53.12
229.027	53.12
229.262	63.12
229.496	80.12
229.73	79.12
229.964	78.12
230.199	56.12
230.433	64.12
230.667	70.12
230.901	79.12
231.136	84.12
231.37	72.12
231.604	72.12
231.838	71.12
232.072	86.12
232.306	77.12
232.541	73.12
232.775	79.12
233.009	80.12
233.243	70.12
233.477	72.12
233.711	82.12
233.945	85.12
234.179	75.12
234.413	71.12
234.647	70.12
234.881	75.12
235.115	68.12
235.349	69.12
235.583	70.12
235.817	73.12
236.051	84.12
236.285	79.12
236.519	84.12
236.753	66.12
236.987	76.12
237.221	88.12
237.455	80.12
237.689	80.12
237.922	71.12
238.156	67.12
238.39	71.12
238.624	73.12
238.858	79.12
239.091	80.12
239.325	88.12
239.559	84.12
239.793	73.12
240.027	59.12
240.26	79.12
240.494	65.12
240.728	66.12
240.961	81.12
241.195	75.12
241.429	82.12
241.662	84.12
241.896	67.12
242.13	61.12
242.363	65.12
242.597	78.12
242.83	90.12
243.064	62.12
243.298	63.12
243.531	67.12
243.765	72.12
243.998	94.12
244.232	61.12
244.465	86.12
244.699	81.12
244.932	91.12
245.166	83.12
245.399	64.12
245.633	78.12
245.866	82.12
246.099	74.12
246.333	71.12
246.566	79.12
246.8	85.12
247.033	75.12
247.266	65.12
247.5	72.12
247.733	61.12
247.966	81.12
248.2	67.12
248.433	75.12
248.666	86.12
248.899	70.12
249.133	66.12
249.366	94.12
249.599	87.12
249.832	79.12
250.066	80.12
250.299	65.12
250.532	80.12
250.765	73.12
250.998	88.12
251.231	65.12
251.465	87.12
251.698	81.12
251.931	72.12
252.164	70.12
252.397	66.12
252.63	90.12
252.863	77.12
253.096	80.12
253.329	78.12
253.562	81.12
253.795	74.12
254.028	81.12
254.261	90.12
254.494	81.12
254.727	82.12
254.96	80.12
255.193	82.12
255.426	76.12
255.659	71.12
255.892	80.12
256.124	80.12
256.357	82.12
256.59	94.12
256.823	87.12
257.056	67.12
257.289	87.12
257.521	71.12
257.754	74.12
257.987	64.12
258.22	84.12
258.452	98.12
258.685	84.12
258.918	84.12
259.151	82.12
259.383	83.12
259.616	70.12
259.849	82.12
260.081	74.12
260.314	85.12
260.547	79.12
260.779	88.12
261.012	83.12
261.244	89.12
261.477	73.12
261.71	86.12
261.942	106.12
262.175	103.12
262.407	87.12
262.64	91.12
262.872	77.12
263.105	83.12
263.337	65.12
263.57	81.12
263.802	68.12
264.035	77.12
264.267	83.12
264.499	88.12
264.732	86.12
264.964	63.12
265.197	78.12
265.429	79.12
265.661	72.12
265.894	77.12
266.126	77.12
266.358	66.12
266.591	96.12
266.823	81.12
267.055	79.12
267.287	70.12
267.52	75.12
267.752	84.12
267.984	74.12
268.216	77.12
268.448	77.12
268.681	85.12
268.913	82.12
269.145	71.12
269.377	77.12
269.609	70.12
269.841	86.12
270.073	69.12
270.306	97.12
270.538	78.12
270.77	66.12
271.002	85.12
271.234	77.12
271.466	65.12
271.698	70.12
271.93	72.12
272.162	85.12
272.394	92.12
272.626	83.12
272.858	81.12
273.09	75.12
273.322	89.12
273.553	73.12
273.785	93.12
274.017	79.12
274.249	88.12
274.481	74.12
274.713	81.12
274.945	72.12
275.176	88.12
275.408	82.12
275.64	107.12
275.872	112.12
276.104	73.12
276.335	94.12
276.567	94.12
276.799	105.12
277.031	99.12
277.262	122.12
277.494	91.12
277.726	90.12
277.957	81.12
278.189	77.12
278.421	73.12
278.652	95.12
278.884	86.12
279.115	72.12
279.347	89.12
279.579	79.12
279.81	85.12
280.042	94.12
280.273	128.12
280.505	109.12
280.736	78.12
280.968	82.12
281.199	74.12
281.431	88.12
281.662	89.12
281.894	95.12
282.125	99.12
282.356	114.12
282.588	139.12
282.819	114.12
283.051	98.12
283.282	81.12
283.513	85.12
283.745	83.12
283.976	92.12
284.207	67.12
284.439	82.12
284.67	72.12
284.901	71.12
285.132	89.12
285.364	81.12
285.595	96.12
285.826	78.12
286.057	104.12
286.288	79.12
286.52	84.12
286.751	84.12
286.982	75.12
287.213	79.12
287.444	80.12
287.675	81.12
287.906	90.12
288.138	89.12
288.369	85.12
288.6	86.12
288.831	89.12
289.062	72.12
289.293	78.12
289.524	87.12
289.755	66.12
289.986	83.12
290.217	87.12
290.448	89.12
290.679	88.12
290.91	85.12
291.141	68.12
291.371	81.12
291.602	80.12
291.833	90.12
292.064	97.12
292.295	81.12
292.526	88.12
292.757	77.12
292.987	81.12
293.218	85.12
293.449	83.12
293.68	92.12
293.91	87.12
294.141	91.12
294.372	85.12
294.603	93.12
294.833	69.12
295.064	81.12
295.295	83.12
295.525	81.12
295.756	94.12
295.987	117.12
296.217	112.12
296.448	125.12
296.679	93.12
296.909	88.12
297.14	86.12
297.37	80.12
297.601	70.12
297.831	90.12
298.062	87.12
298.292	83.12
298.523	100.12
298.753	90.12
298.984	94.12
299.214	94.12
299.445	85.12
299.675	87.12
299.905	97.12
300.136	90.12
300.366	81.12
300.597	78.12
300.827	78.12
301.057	96.12
301.288	90.12
301.518	90.12
301.748	73.12
301.979	97.12
302.209	77.12
302.439	92.12
302.669	82.12
302.9	91.12
303.13	93.12
303.36	83.12
303.59	95.12
303.82	103.12
304.051	94.12
304.281	83.12
304.511	87.12
304.741	79.12
304.971	90.12
305.201	88.12
305.431	97.12
305.661	91.12
305.891	81.12
306.121	93.12
306.352	105.12
306.582	107.12
306.812	99.12
307.042	94.12
307.272	110.12
307.502	90.12
307.731	106.12
307.961	101.12
308.191	81.12
308.421	84.12
308.651	89.12
308.881	92.12
309.111	109.12
309.341	93.12
309.571	92.12
309.8	88.12
310.03	106.12
310.26	90.12
310.49	112.12
310.72	90.12
310.949	97.12
311.179	101.12
311.409	77.12
311.639	85.12
311.868	87.12
312.098	104.12
312.328	103.12
312.557	110.12
312.787	112.12
313.017	103.12
313.246	87.12
313.476	78.12
313.706	80.12
313.935	85.12
314.165	106.12
314.394	101.12
314.624	85.12
314.853	82.12
315.083	79.12
315.312	81.12
315.542	80.12
315.771	100.12
316.001	92.12
316.23	79.12
316.46	94.12
316.689	75.12
316.919	102.12
317.148	96.12
317.377	92.12
317.607	89.12
317.836	95.12
318.065	90.12
318.295	83.12
318.524	89.12
318.753	84.12
318.983	95.12
319.212	106.12
319.441	105.12
319.67	91.12
319.9	91.12
320.129	87.12
320.358	93.12
320.587	97.12
320.816	94.12
321.046	109.12
321.275	91.12
321.504	111.12
321.733	85.12
321.962	86.12
322.191	101.12
322.42	101.12
322.649	111.12
322.878	102.12
323.108	123.12
323.337	133.12
323.566	118.12
323.795	146.12
324.024	203.12
324.253	392.12
324.482	776.12
324.71	1613.12
324.939	2178.12
325.168	788.12
325.397	257.12
325.626	145.12
325.855	130.12
326.084	129.12
326.313	131.12
326.542	142.12
326.77	219.12
326.999	458.12
327.228	877.12
327.457	1674.12
327.686	1343.12
327.914	407.12
328.143	259.12
328.372	253.12
328.6	171.12
328.829	129.12
329.058	137.12
329.287	132.12
329.515	110.12
329.744	129.12
329.972	163.12
330.201	286.12
330.43	432.12
330.658	267.12
330.887	170.12
331.115	141.12
331.344	104.12
331.572	108.12
331.801	105.12
332.03	96.12
332.258	101.12
332.486	98.12
332.715	95.12
332.943	111.12
333.172	109.12
333.4	101.12
333.629	109.12
333.857	126.12
334.085	189.12
334.314	286.12
334.542	522.12
334.771	530.12
334.999	192.12
335.227	113.12
335.455	98.12
335.684	101.12
335.912	102.12
336.14	102.12
336.369	106.12
336.597	100.12
336.825	106.12
337.053	79.12
337.281	99.12
337.51	93.12
337.738	95.12
337.966	87.12
338.194	81.12
338.422	88.12
338.65	94.12
338.878	97.12
339.106	82.12
339.334	94.12
339.562	93.12
339.79	91.12
340.018	94.12
340.246	93.12
340.474	78.12
340.702	110.12
340.93	84.12
341.158	93.12
341.386	86.12
341.614	89.12
341.842	91.12
342.07	81.12
342.298	70.12
342.526	92.12
342.754	91.12
342.981	97.12
343.209	87.12
343.437	96.12
343.665	95.12
343.893	75.12
344.12	94.12
344.348	88.12
344.576	83.12
344.804	70.12
345.031	105.12
345.259	102.12
345.487	97.12
345.714	92.12
345.942	87.12
346.17	87.12
346.397	67.12
346.625	96.12
346.853	99.12
347.08	94.12
347.308	93.12
347.535	80.12
347.763	94.12
347.99	92.12
348.218	98.12
348.445	93.12
348.673	100.12
348.9	88.12
349.128	93.12
349.355	83.12
349.583	74.12
349.81	92.12
350.037	82.12
350.265	76.12
350.492	94.12
350.72	97.12
350.947	82.12
351.174	88.12
351.402	114.12
351.629	86.12
351.856	100.12
352.083	110.12
352.311	102.12
352.538	104.12
352.765	94.12
352.992	102.12
353.22	106.12
353.447	116.12
353.674	113.12
353.901	83.12
354.128	83.12
354.355	70.12
354.583	98.12
354.81	98.12
355.037	96.12
355.264	92.12
355.491	94.12
355.718	91.12
355.945	86.12
356.172	75.12
356.399	87.12
356.626	90.12
356.853	89.12
357.08	95.12
357.307	93.12
357.534	99.12
357.761	90.12
357.988	93.12
358.215	90.12
358.441	88.12
358.668	92.12
358.895	80.12
359.122	80.12
359.349	79.12
359.576	88.12
359.802	85.12
360.029	124.12
360.256	105.12
360.483	98.12
360.709	87.12
360.936	87.12
361.163	94.12
361.39	86.12
361.616	86.12
361.843	83.12
362.07	81.12
362.296	85.12
362.523	88.12
362.749	91.12
362.976	84.12
363.203	80.12
363.429	86.12
363.656	90.12
363.882	71.12
364.109	93.12
364.335	84.12
364.562	93.12
364.788	92.12
365.015	90.12
365.241	77.12
365.468	97.12
365.694	94.12
365.92	98.12
366.147	85.12
366.373	67.12
366.599	85.12
366.826	82.12
367.052	87.12
367.278	86.12
367.505	98.12
367.731	77.12
367.957	92.12
368.184	91.12
368.41	88.12
368.636	112.12
368.862	124.12
369.089	104.12
369.315	89.12
369.541	75.12
369.767	74.12
369.993	86.12
370.219	95.12
370.445	84.12
370.672	76.12
370.898	96.12
371.124	85.12
371.35	78.12
371.576	87.12
371.802	82.12
372.028	76.12
372.254	94.12
372.48	84.12
372.706	72.12
372.932	79.12
373.158	97.12
373.384	87.12
373.61	98.12
373.835	83.12
374.061	97.12
374.287	93.12
374.513	105.12
374.739	82.12
374.965	87.12
375.191	87.12
375.416	86.12
375.642	85.12
375.868	82.12
376.094	76.12
376.319	85.12
376.545	66.12
376.771	75.12
376.997	100.12
377.222	97.12
377.448	88.12
377.674	100.12
377.899	91.12
378.125	93.12
378.35	85.12
378.576	85.12
378.802	101.12
379.027	92.12
379.253	95.12
379.478	94.12
379.704	82.12
379.929	88.12
380.155	86.12
380.38	96.12
380.606	97.12
380.831	83.12
381.057	101.12
381.282	90.12
381.507	94.12
381.733	89.12
381.958	96.12
382.184	106.12
382.409	105.12
382.634	102.12
382.86	117.12
383.085	101.12
383.31	92.12
383.535	101.12
383.761	90.12
383.986	106.12
384.211	107.12
384.436	109.12
384.662	104.12
384.887	104.12
385.112	116.12
385.337	120.12
385.562	110.12
385.787	100.12
386.013	100.12
386.238	97.12
386.463	114.12
386.688	118.12
386.913	111.12
387.138	122.12
387.363	115.12
387.588	113.12
387.813	98.12
388.038	111.12
388.263	152.12
388.488	118.12
388.713	97.12
388.938	88.12
389.163	96.12
389.387	101.12
389.612	87.12
389.837	86.12
390.062	91.12
390.287	93.12
390.512	96.12
390.736	99.12
390.961	105.12
391.186	87.12
391.411	77.12
391.636	92.12
391.86	74.12
392.085	89.12
392.31	82.12
392.534	75.12
392.759	89.12
392.984	93.12
393.208	96.12
393.433	120.12
393.658	93.12
393.882	82.12
394.107	78.12
394.331	74.12
394.556	96.12
394.78	89.12
395.005	80.12
395.229	86.12
395.454	80.12
395.678	78.12
395.903	87.12
396.127	93.12
396.352	82.12
396.576	89.12
396.801	90.12
397.025	93.12
397.249	93.12
397.474	77.12
397.698	81.12
397.922	86.12
398.147	91.12
398.371	67.12
398.595	90.12
398.82	81.12
399.044	83.12
399.268	76.12
399.492	90.12
399.717	97.12
399.941	89.12
400.165	95.12
400.389	81.12
400.613	87.12
400.837	77.12
401.062	84.12
401.286	86.12
401.51	81.12
401.734	79.12
401.958	86.12
402.182	125.12
402.406	149.12
402.63	122.12
402.854	91.12
403.078	73.12
403.302	90.12
403.526	77.12
403.75	85.12
403.974	79.12
404.198	87.12
404.422	80.12
404.645	89.12
404.869	100.12
405.093	88.12
405.317	105.12
405.541	117.12
405.765	113.12
405.988	106.12
406.212	161.12
406.436	229.12
406.66	154.12
406.883	100.12
407.107	93.12
407.331	105.12
407.555	98.12
407.778	85.12
408.002	98.12
408.226	82.12
408.449	74.12
408.673	83.12
408.896	98.12
409.12	97.12
409.344	89.12
409.567	91.12
409.791	74.12
410.014	90.12
410.238	78.12
410.461	85.12
410.685	73.12
410.908	93.12
411.132	99.12
411.355	85.12
411.578	97.12
411.802	80.12
412.025	86.12
412.249	81.12
412.472	92.12
412.695	105.12
412.919	88.12
413.142	95.12
413.365	82.12
413.589	94.12
413.812	99.12
414.035	82.12
414.258	89.12
414.482	80.12
414.705	97.12
414.928	95.12
415.151	87.12
415.374	93.12
415.597	86.12
415.821	82.12
416.044	92.12
416.267	92.12
416.49	86.12
416.713	86.12
416.936	95.12
417.159	91.12
417.382	82.12
417.605	81.12
417.828	92.12
418.051	82.12
418.274	87.12
418.497	80.12
418.72	74.12
418.943	75.12
419.166	68.12
419.389	82.12
419.611	86.12
419.834	74.12
420.057	79.12
420.28	77.12
420.503	80.12
420.726	82.12
420.948	88.12
421.171	94.12
421.394	102.12
421.617	75.12
421.839	85.12
422.062	90.12
422.285	90.12
422.507	90.12
422.73	96.12
422.953	102.12
423.175	82.12
423.398	97.12
423.621	93.12
423.843	85.12
424.066	83.12
424.288	80.12
424.511	95.12
424.733	102.12
424.956	113.12
425.178	83.12
425.401	101.12
425.623	91.12
425.846	75.12
426.068	87.12
426.291	85.12
426.513	93.12
426.735	91.12
426.958	95.12
427.18	89.12
427.402	135.12
427.625	186.12
427.847	170.12
428.069	155.12
428.292	103.12
428.514	84.12
428.736	70.12
428.958	82.12
429.181	85.12
429.403	70.12
429.625	78.12
429.847	97.12
430.069	93.12
430.292	76.12
430.514	75.12
430.736	67.12
430.958	73.12
431.18	81.12
431.402	77.12
431.624	68.12
431.846	82.12
432.068	64.12
432.29	79.12
432.512	90.12
432.734	73.12
432.956	87.12
433.178	77.12
433.4	88.12
433.622	89.12
433.844	100.12
434.066	78.12
434.287	83.12
434.509	75.12
434.731	72.12
434.953	74.12
435.175	95.12
435.397	86.12
435.618	97.12
435.84	93.12
436.062	126.12
436.284	109.12
436.505	103.12
436.727	104.12
436.949	96.12
437.17	83.12
437.392	80.12
437.614	94.12
437.835	104.12
438.057	115.12
438.278	102.12
438.5	99.12
438.721	118.12
438.943	98.12
439.165	85.12
439.386	73.12
439.608	81.12
439.829	81.12
440.05	116.12
440.272	152.12
440.493	79.12
440.715	93.12
440.936	81.12
441.158	80.12
441.379	84.12
441.6	83.12
441.822	84.12
442.043	89.12
442.264	99.12
442.486	115.12
442.707	84.12
442.928	87.12
443.149	133.12
443.371	127.12
443.592	122.12
443.813	105.12
444.034	105.12
444.255	81.12
444.476	72.12
444.698	86.12
444.919	73.12
445.14	121.12
445.361	122.12
445.582	115.12
445.803	145.12
446.024	131.12
446.245	143.12
446.466	115.12
446.687	91.12
446.908	94.12
447.129	91.12
447.35	84.12
447.571	88.12
447.792	88.12
448.013	99.12
448.234	91.12
448.455	101.12
448.675	103.12
448.896	114.12
449.117	89.12
449.338	85.12
449.559	112.12
449.779	139.12
450	93.12
450.221	85.12
450.442	83.12
450.662	96.12
450.883	100.12
451.104	115.12
451.324	90.12
451.545	71.12
451.766	102.12
451.986	83.12
452.207	88.12
452.428	87.12
452.648	88.12
452.869	111.12
453.089	104.12
453.31	125.12
453.53	88.12
453.751	74.12
453.971	86.12
454.192	101.12
454.412	71.12
454.633	88.12
454.853	84.12
455.073	86.12
455.294	85.12
455.514	101.12
455.734	97.12
455.955	87.12
456.175	94.12
456.395	91.12
456.616	78.12
456.836	79.12
457.056	86.12
457.276	75.12
457.497	87.12
457.717	86.12
457.937	80.12
458.157	103.12
458.377	94.12
458.598	106.12
458.818	163.12
459.038	166.12
459.258	115.12
459.478	93.12
459.698	99.12
459.918	90.12
460.138	74.12
460.358	78.12
460.578	95.12
460.798	85.12
461.018	87.12
461.238	83.12
461.458	81.12
461.678	73.12
461.898	82.12
462.118	82.12
462.338	80.12
462.558	74.12
462.777	77.12
462.997	96.12
463.217	89.12
463.437	84.12
463.657	81.12
463.876	74.12
464.096	92.12
464.316	89.12
464.536	97.12
464.755	101.12
464.975	102.12
465.195	176.12
465.414	173.12
465.634	99.12
465.854	89.12
466.073	94.12
466.293	94.12
466.512	94.12
466.732	94.12
466.951	93.12
467.171	88.12
467.391	97.12
467.61	94.12
467.829	128.12
468.049	187.12
468.268	242.12
468.488	115.12
468.707	94.12
468.927	90.12
469.146	79.12
469.365	83.12
469.585	90.12
469.804	96.12
470.023	123.12
470.243	98.12
470.462	107.12
470.681	111.12
470.901	79.12
471.12	80.12
471.339	87.12
471.558	95.12
471.777	101.12
471.997	125.12
472.216	290.12
472.435	627.12
472.654	200.12
472.873	100.12
473.092	92.12
473.311	79.12
473.53	78.12
473.749	86.12
473.968	82.12
474.187	102.12
474.406	78.12
474.625	91.12
474.844	72.12
475.063	77.12
475.282	89.12
475.501	73.12
475.72	70.12
475.939	83.12
476.158	87.12
476.377	93.12
476.596	84.12
476.814	90.12
477.033	97.12
477.252	83.12
477.471	82.12
477.69	71.12
477.908	85.12
478.127	94.12
478.346	74.12
478.564	89.12
478.783	81.12
479.002	91.12
479.22	89.12
479.439	103.12
479.658	99.12
479.876	100.12
480.095	95.12
480.313	96.12
480.532	102.12
480.751	119.12
480.969	311.12
481.188	1047.12
481.406	722.12
481.624	162.12
481.843	91.12
482.061	79.12
482.28	84.12
482.498	99.12
482.717	75.12
482.935	75.12
483.153	86.12
483.372	88.12
483.59	89.12
483.808	76.12
484.027	81.12
484.245	88.12
484.463	92.12
484.681	83.12
484.9	77.12
485.118	82.12
485.336	87.12
485.554	87.12
485.772	91.12
485.99	107.12
486.209	110.12
486.427	91.12
486.645	100.12
486.863	114.12
487.081	93.12
487.299	91.12
487.517	80.12
487.735	90.12
487.953	105.12
488.171	93.12
488.389	96.12
488.607	86.12
488.825	89.12
489.043	87.12
489.261	88.12
489.479	90.12
489.696	96.12
489.914	85.12
490.132	72.12
490.35	78.12
490.568	85.12
490.786	80.12
491.003	86.12
491.221	91.12
491.439	90.12
491.657	89.12
491.874	82.12
492.092	86.12
492.31	82.12
492.527	82.12
492.745	101.12
492.963	77.12
493.18	97.12
493.398	94.12
493.615	91.12
493.833	88.12
494.05	89.12
494.268	80.12
494.485	95.12
494.703	85.12
494.92	78.12
495.138	90.12
495.355	77.12
495.573	91.12
495.79	84.12
496.008	74.12
496.225	84.12
496.442	97.12
496.66	87.12
496.877	80.12
497.094	80.12
497.312	78.12
497.529	86.12
497.746	83.12
497.963	85.12
498.181	78.12
498.398	87.12
498.615	103.12
498.832	99.12
499.049	88.12
499.267	76.12
499.484	73.12
499.701	85.12
499.918	66.12
500.135	81.12
500.352	77.12
500.569	95.12
500.786	89.12
501.003	85.12
501.22	93.12
501.437	88.12
501.654	91.12
501.871	101.12
502.088	75.12
502.305	88.12
502.522	90.12
502.739	89.12
502.956	97.12
503.172	104.12
503.389	90.12
503.606	101.12
503.823	98.12
504.04	86.12
504.256	83.12
504.473	96.12
504.69	91.12
504.907	89.12
505.123	85.12
505.34	84.12
505.557	88.12
505.773	100.12
505.99	99.12
506.207	80.12
506.423	85.12
506.64	80.12
506.856	74.12
507.073	96.12
507.289	91.12
507.506	83.12
507.722	94.12
507.939	114.12
508.155	95.12
508.372	90.12
508.588	80.12
508.805	95.12
509.021	87.12
509.238	97.12
509.454	95.12
509.67	90.12
509.887	105.12
510.103	104.12
510.319	192.12
510.536	674.12
510.752	2309.12
510.968	663.12
511.184	157.12
511.401	99.12
511.617	100.12
511.833	89.12
512.049	89.12
512.265	70.12
512.481	83.12
512.698	85.12
512.914	82.12
513.13	91.12
513.346	84.12
513.562	89.12
513.778	89.12
513.994	99.12
514.21	95.12
514.426	110.12
514.642	125.12
514.858	125.12
515.074	179.12
515.29	454.12
515.506	1637.12
515.721	623.12
515.937	162.12
516.153	106.12
