Data from Circ_2013_H10_HRD10591_00044.txt Node
Date: Wed Jan 03 10:04:09 EST 2024
User: Yrep
Spectrometer: HR+D1059
Trigger mode: 1
Integration Time (sec): 1.000000E-1
Scans to average: 1
Electric dark correction enabled: true
Nonlinearity correction enabled: false
Boxcar width: 0
XAxis mode: Wavelengths
Number of Pixels in Spectrum: 2048
>>>>>Begin Spectral Data<<<<<
223.165	-39.69
223.4	-39.69
223.635	-39.69
223.869	-17.69
224.104	-20.69
224.338	-11.69
224.573	-17.69
224.808	-18.69
225.042	-8.69
225.277	-3.69
225.511	-0.69
225.746	9.31
225.98	15.31
226.215	19.31
226.449	15.31
226.683	26.31
226.918	45.31
227.152	8.31
227.387	36.31
227.621	47.31
227.856	50.31
228.09	55.31
228.324	51.31
228.559	54.31
228.793	63.31
229.027	66.31
229.262	69.31
229.496	66.31
229.73	97.31
229.964	88.31
230.199	74.31
230.433	67.31
230.667	73.31
230.901	84.31
231.136	83.31
231.37	70.31
231.604	82.31
231.838	83.31
232.072	72.31
232.306	76.31
232.541	87.31
232.775	73.31
233.009	80.31
233.243	79.31
233.477	89.31
233.711	81.31
233.945	81.31
234.179	79.31
234.413	84.31
234.647	95.31
234.881	93.31
235.115	75.31
235.349	79.31
235.583	93.31
235.817	83.31
236.051	67.31
236.285	77.31
236.519	85.31
236.753	59.31
236.987	75.31
237.221	81.31
237.455	83.31
237.689	61.31
237.922	73.31
238.156	76.31
238.39	77.31
238.624	78.31
238.858	64.31
239.091	72.31
239.325	76.31
239.559	77.31
239.793	84.31
240.027	98.31
240.26	71.31
240.494	68.31
240.728	84.31
240.961	80.31
241.195	85.31
241.429	79.31
241.662	74.31
241.896	86.31
242.13	71.31
242.363	71.31
242.597	65.31
242.83	88.31
243.064	80.31
243.298	80.31
243.531	79.31
243.765	62.31
243.998	66.31
244.232	91.31
244.465	86.31
244.699	83.31
244.932	71.31
245.166	75.31
245.399	73.31
245.633	82.31
245.866	74.31
246.099	71.31
246.333	85.31
246.566	90.31
246.8	70.31
247.033	85.31
247.266	79.31
247.5	71.31
247.733	73.31
247.966	68.31
248.2	87.31
248.433	89.31
248.666	77.31
248.899	79.31
249.133	98.31
249.366	95.31
249.599	90.31
249.832	86.31
250.066	91.31
250.299	71.31
250.532	74.31
250.765	87.31
250.998	84.31
251.231	90.31
251.465	85.31
251.698	85.31
251.931	87.31
252.164	90.31
252.397	63.31
252.63	74.31
252.863	86.31
253.096	80.31
253.329	74.31
253.562	83.31
253.795	78.31
254.028	84.31
254.261	80.31
254.494	85.31
254.727	90.31
254.96	92.31
255.193	79.31
255.426	74.31
255.659	74.31
255.892	93.31
256.124	94.31
256.357	78.31
256.59	80.31
256.823	85.31
257.056	74.31
257.289	82.31
257.521	100.31
257.754	85.31
257.987	81.31
258.22	84.31
258.452	95.31
258.685	88.31
258.918	97.31
259.151	76.31
259.383	66.31
259.616	76.31
259.849	67.31
260.081	85.31
260.314	90.31
260.547	79.31
260.779	101.31
261.012	99.31
261.244	100.31
261.477	87.31
261.71	104.31
261.942	127.31
262.175	146.31
262.407	104.31
262.64	90.31
262.872	84.31
263.105	83.31
263.337	87.31
263.57	69.31
263.802	87.31
264.035	92.31
264.267	66.31
264.499	73.31
264.732	89.31
264.964	73.31
265.197	84.31
265.429	73.31
265.661	84.31
265.894	78.31
266.126	80.31
266.358	83.31
266.591	86.31
266.823	83.31
267.055	83.31
267.287	84.31
267.52	75.31
267.752	87.31
267.984	84.31
268.216	88.31
268.448	76.31
268.681	83.31
268.913	78.31
269.145	96.31
269.377	95.31
269.609	99.31
269.841	83.31
270.073	85.31
270.306	89.31
270.538	91.31
270.77	85.31
271.002	76.31
271.234	97.31
271.466	79.31
271.698	84.31
271.93	84.31
272.162	91.31
272.394	88.31
272.626	78.31
272.858	84.31
273.09	87.31
273.322	86.31
273.553	78.31
273.785	73.31
274.017	76.31
274.249	88.31
274.481	90.31
274.713	77.31
274.945	94.31
275.176	89.31
275.408	88.31
275.64	106.31
275.872	100.31
276.104	92.31
276.335	99.31
276.567	100.31
276.799	114.31
277.031	150.31
277.262	152.31
277.494	106.31
277.726	98.31
277.957	98.31
278.189	74.31
278.421	83.31
278.652	90.31
278.884	86.31
279.115	89.31
279.347	89.31
279.579	86.31
279.81	91.31
280.042	150.31
280.273	162.31
280.505	131.31
280.736	97.31
280.968	86.31
281.199	86.31
281.431	95.31
281.662	90.31
281.894	88.31
282.125	102.31
282.356	138.31
282.588	140.31
282.819	131.31
283.051	82.31
283.282	92.31
283.513	92.31
283.745	78.31
283.976	90.31
284.207	88.31
284.439	71.31
284.67	96.31
284.901	97.31
285.132	85.31
285.364	95.31
285.595	100.31
285.826	91.31
286.057	80.31
286.288	82.31
286.52	95.31
286.751	84.31
286.982	80.31
287.213	87.31
287.444	91.31
287.675	77.31
287.906	102.31
288.138	82.31
288.369	94.31
288.6	93.31
288.831	95.31
289.062	86.31
289.293	100.31
289.524	86.31
289.755	95.31
289.986	81.31
290.217	89.31
290.448	87.31
290.679	97.31
290.91	83.31
291.141	86.31
291.371	79.31
291.602	93.31
291.833	86.31
292.064	70.31
292.295	82.31
292.526	85.31
292.757	89.31
292.987	92.31
293.218	95.31
293.449	85.31
293.68	87.31
293.91	87.31
294.141	91.31
294.372	83.31
294.603	86.31
294.833	96.31
295.064	86.31
295.295	84.31
295.525	87.31
295.756	98.31
295.987	128.31
296.217	167.31
296.448	149.31
296.679	102.31
296.909	87.31
297.14	92.31
297.37	82.31
297.601	92.31
297.831	87.31
298.062	76.31
298.292	102.31
298.523	100.31
298.753	94.31
298.984	83.31
299.214	84.31
299.445	93.31
299.675	87.31
299.905	103.31
300.136	93.31
300.366	88.31
300.597	96.31
300.827	97.31
301.057	97.31
301.288	120.31
301.518	87.31
301.748	85.31
301.979	106.31
302.209	103.31
302.439	103.31
302.669	100.31
302.9	89.31
303.13	86.31
303.36	107.31
303.59	108.31
303.82	132.31
304.051	111.31
304.281	86.31
304.511	102.31
304.741	95.31
304.971	81.31
305.201	94.31
305.431	87.31
305.661	88.31
305.891	86.31
306.121	103.31
306.352	102.31
306.582	119.31
306.812	109.31
307.042	101.31
307.272	132.31
307.502	134.31
307.731	130.31
307.961	104.31
308.191	89.31
308.421	90.31
308.651	95.31
308.881	102.31
309.111	105.31
309.341	86.31
309.571	95.31
309.8	97.31
310.03	98.31
310.26	104.31
310.49	109.31
310.72	110.31
310.949	113.31
311.179	115.31
311.409	92.31
311.639	90.31
311.868	111.31
312.098	106.31
312.328	118.31
312.557	99.31
312.787	125.31
313.017	114.31
313.246	93.31
313.476	90.31
313.706	88.31
313.935	107.31
314.165	110.31
314.394	90.31
314.624	96.31
314.853	96.31
315.083	96.31
315.312	82.31
315.542	92.31
315.771	91.31
316.001	90.31
316.23	97.31
316.46	101.31
316.689	90.31
316.919	94.31
317.148	96.31
317.377	109.31
317.607	97.31
317.836	83.31
318.065	96.31
318.295	81.31
318.524	93.31
318.753	87.31
318.983	100.31
319.212	118.31
319.441	108.31
319.67	121.31
319.9	89.31
320.129	98.31
320.358	91.31
320.587	92.31
320.816	105.31
321.046	106.31
321.275	100.31
321.504	98.31
321.733	86.31
321.962	99.31
322.191	96.31
322.42	121.31
322.649	107.31
322.878	118.31
323.108	132.31
323.337	127.31
323.566	136.31
323.795	174.31
324.024	220.31
324.253	419.31
324.482	896.31
324.71	1829.31
324.939	2329.31
325.168	888.31
325.397	257.31
325.626	150.31
325.855	122.31
326.084	122.31
326.313	139.31
326.542	168.31
326.77	250.31
326.999	461.31
327.228	971.31
327.457	1716.31
327.686	1410.31
327.914	461.31
328.143	356.31
328.372	383.31
328.6	255.31
328.829	162.31
329.058	144.31
329.287	162.31
329.515	138.31
329.744	175.31
329.972	266.31
330.201	488.31
330.43	745.31
330.658	382.31
330.887	217.31
331.115	160.31
331.344	119.31
331.572	127.31
331.801	104.31
332.03	109.31
332.258	121.31
332.486	95.31
332.715	89.31
332.943	106.31
333.172	116.31
333.4	124.31
333.629	144.31
333.857	176.31
334.085	260.31
334.314	444.31
334.542	872.31
334.771	876.31
334.999	273.31
335.227	136.31
335.455	98.31
335.684	92.31
335.912	95.31
336.14	105.31
336.369	101.31
336.597	108.31
336.825	121.31
337.053	94.31
337.281	98.31
337.51	108.31
337.738	88.31
337.966	96.31
338.194	98.31
338.422	107.31
338.65	94.31
338.878	89.31
339.106	92.31
339.334	101.31
339.562	99.31
339.79	93.31
340.018	103.31
340.246	93.31
340.474	105.31
340.702	101.31
340.93	79.31
341.158	107.31
341.386	102.31
341.614	88.31
341.842	101.31
342.07	91.31
342.298	94.31
342.526	99.31
342.754	93.31
342.981	86.31
343.209	96.31
343.437	115.31
343.665	106.31
343.893	87.31
344.12	93.31
344.348	83.31
344.576	72.31
344.804	84.31
345.031	95.31
345.259	106.31
345.487	87.31
345.714	83.31
345.942	89.31
346.17	100.31
346.397	91.31
346.625	102.31
346.853	92.31
347.08	92.31
347.308	95.31
347.535	99.31
347.763	103.31
347.99	94.31
348.218	107.31
348.445	115.31
348.673	117.31
348.9	107.31
349.128	100.31
349.355	105.31
349.583	100.31
349.81	99.31
350.037	91.31
350.265	96.31
350.492	101.31
350.72	104.31
350.947	107.31
351.174	134.31
351.402	138.31
351.629	109.31
351.856	99.31
352.083	107.31
352.311	103.31
352.538	135.31
352.765	119.31
352.992	118.31
353.22	119.31
353.447	111.31
353.674	104.31
353.901	101.31
354.128	95.31
354.355	77.31
354.583	100.31
354.81	104.31
355.037	102.31
355.264	110.31
355.491	107.31
355.718	90.31
355.945	100.31
356.172	90.31
356.399	112.31
356.626	98.31
356.853	89.31
357.08	98.31
357.307	100.31
357.534	95.31
357.761	80.31
357.988	92.31
358.215	80.31
358.441	84.31
358.668	94.31
358.895	92.31
359.122	91.31
359.349	93.31
359.576	105.31
359.802	96.31
360.029	138.31
360.256	131.31
360.483	120.31
360.709	102.31
360.936	89.31
361.163	91.31
361.39	92.31
361.616	115.31
361.843	91.31
362.07	99.31
362.296	115.31
362.523	94.31
362.749	100.31
362.976	93.31
363.203	96.31
363.429	96.31
363.656	102.31
363.882	85.31
364.109	95.31
364.335	93.31
364.562	98.31
364.788	103.31
365.015	84.31
365.241	120.31
365.468	134.31
365.694	111.31
365.92	102.31
366.147	98.31
366.373	80.31
366.599	90.31
366.826	88.31
367.052	97.31
367.278	97.31
367.505	99.31
367.731	88.31
367.957	89.31
368.184	97.31
368.41	98.31
368.636	118.31
368.862	131.31
369.089	115.31
369.315	108.31
369.541	92.31
369.767	83.31
369.993	106.31
370.219	99.31
370.445	95.31
370.672	83.31
370.898	85.31
371.124	88.31
371.35	84.31
371.576	108.31
371.802	96.31
372.028	92.31
372.254	99.31
372.48	89.31
372.706	82.31
372.932	87.31
373.158	87.31
373.384	84.31
373.61	98.31
373.835	77.31
374.061	92.31
374.287	98.31
374.513	91.31
374.739	96.31
374.965	91.31
375.191	73.31
375.416	73.31
375.642	88.31
375.868	76.31
376.094	80.31
376.319	92.31
376.545	94.31
376.771	74.31
376.997	94.31
377.222	111.31
377.448	95.31
377.674	101.31
377.899	78.31
378.125	74.31
378.35	98.31
378.576	90.31
378.802	87.31
379.027	103.31
379.253	85.31
379.478	93.31
379.704	91.31
379.929	89.31
380.155	105.31
380.38	111.31
380.606	107.31
380.831	79.31
381.057	91.31
381.282	95.31
381.507	98.31
381.733	106.31
381.958	100.31
382.184	107.31
382.409	85.31
382.634	98.31
382.86	101.31
383.085	105.31
383.31	110.31
383.535	92.31
383.761	104.31
383.986	100.31
384.211	102.31
384.436	86.31
384.662	108.31
384.887	103.31
385.112	99.31
385.337	98.31
385.562	92.31
385.787	98.31
386.013	114.31
386.238	130.31
386.463	116.31
386.688	119.31
386.913	114.31
387.138	106.31
387.363	104.31
387.588	106.31
387.813	103.31
388.038	100.31
388.263	108.31
388.488	96.31
388.713	103.31
388.938	99.31
389.163	94.31
389.387	105.31
389.612	101.31
389.837	92.31
390.062	100.31
390.287	79.31
390.512	95.31
390.736	89.31
390.961	87.31
391.186	86.31
391.411	109.31
391.636	96.31
391.86	95.31
392.085	100.31
392.31	104.31
392.534	86.31
392.759	81.31
392.984	83.31
393.208	85.31
393.433	80.31
393.658	92.31
393.882	90.31
394.107	80.31
394.331	90.31
394.556	89.31
394.78	86.31
395.005	80.31
395.229	87.31
395.454	102.31
395.678	86.31
395.903	90.31
396.127	95.31
396.352	99.31
396.576	82.31
396.801	96.31
397.025	91.31
397.249	87.31
397.474	81.31
397.698	107.31
397.922	89.31
398.147	101.31
398.371	108.31
398.595	75.31
398.82	95.31
399.044	91.31
399.268	84.31
399.492	90.31
399.717	81.31
399.941	94.31
400.165	81.31
400.389	98.31
400.613	96.31
400.837	99.31
401.062	79.31
401.286	98.31
401.51	101.31
401.734	95.31
401.958	107.31
402.182	154.31
402.406	196.31
402.63	151.31
402.854	99.31
403.078	114.31
403.302	88.31
403.526	82.31
403.75	87.31
403.974	84.31
404.198	84.31
404.422	90.31
404.645	109.31
404.869	109.31
405.093	104.31
405.317	126.31
405.541	131.31
405.765	120.31
405.988	144.31
406.212	221.31
406.436	309.31
406.66	199.31
406.883	114.31
407.107	103.31
407.331	112.31
407.555	104.31
407.778	104.31
408.002	113.31
408.226	97.31
408.449	75.31
408.673	87.31
408.896	106.31
409.12	96.31
409.344	88.31
409.567	90.31
409.791	92.31
410.014	91.31
410.238	85.31
410.461	91.31
410.685	94.31
410.908	102.31
411.132	90.31
411.355	96.31
411.578	100.31
411.802	85.31
412.025	94.31
412.249	88.31
412.472	117.31
412.695	108.31
412.919	94.31
413.142	98.31
413.365	86.31
413.589	98.31
413.812	100.31
414.035	92.31
414.258	97.31
414.482	93.31
414.705	120.31
414.928	92.31
415.151	87.31
415.374	98.31
415.597	104.31
415.821	98.31
416.044	89.31
416.267	101.31
416.49	98.31
416.713	98.31
416.936	93.31
417.159	98.31
417.382	92.31
417.605	88.31
417.828	94.31
418.051	87.31
418.274	96.31
418.497	87.31
418.72	98.31
418.943	90.31
419.166	104.31
419.389	102.31
419.611	94.31
419.834	87.31
420.057	92.31
420.28	84.31
420.503	94.31
420.726	85.31
420.948	104.31
421.171	106.31
421.394	119.31
421.617	79.31
421.839	101.31
422.062	78.31
422.285	88.31
422.507	90.31
422.73	94.31
422.953	92.31
423.175	87.31
423.398	100.31
423.621	92.31
423.843	75.31
424.066	80.31
424.288	88.31
424.511	108.31
424.733	100.31
424.956	101.31
425.178	106.31
425.401	110.31
425.623	99.31
425.846	94.31
426.068	110.31
426.291	104.31
426.513	100.31
426.735	99.31
426.958	101.31
427.18	121.31
427.402	166.31
427.625	187.31
427.847	206.31
428.069	180.31
428.292	114.31
428.514	91.31
428.736	89.31
428.958	83.31
429.181	94.31
429.403	96.31
429.625	90.31
429.847	98.31
430.069	104.31
430.292	86.31
430.514	89.31
430.736	103.31
430.958	87.31
431.18	86.31
431.402	86.31
431.624	87.31
431.846	78.31
432.068	98.31
432.29	93.31
432.512	84.31
432.734	81.31
432.956	93.31
433.178	104.31
433.4	113.31
433.622	87.31
433.844	86.31
434.066	97.31
434.287	80.31
434.509	90.31
434.731	96.31
434.953	91.31
435.175	99.31
435.397	79.31
435.618	99.31
435.84	112.31
436.062	136.31
436.284	117.31
436.505	124.31
436.727	104.31
436.949	90.31
437.17	80.31
437.392	90.31
437.614	106.31
437.835	115.31
438.057	143.31
438.278	127.31
438.5	99.31
438.721	120.31
438.943	101.31
439.165	90.31
439.386	99.31
439.608	108.31
439.829	94.31
440.05	131.31
440.272	152.31
440.493	107.31
440.715	96.31
440.936	80.31
441.158	98.31
441.379	103.31
441.6	101.31
441.822	89.31
442.043	92.31
442.264	101.31
442.486	107.31
442.707	92.31
442.928	100.31
443.149	158.31
443.371	154.31
443.592	124.31
443.813	121.31
444.034	106.31
444.255	101.31
444.476	91.31
444.698	92.31
444.919	83.31
445.14	132.31
445.361	123.31
445.582	125.31
445.803	137.31
446.024	151.31
446.245	134.31
446.466	115.31
446.687	85.31
446.908	85.31
447.129	89.31
447.35	88.31
447.571	103.31
447.792	102.31
448.013	116.31
448.234	112.31
448.455	119.31
448.675	127.31
448.896	128.31
449.117	103.31
449.338	102.31
449.559	132.31
449.779	132.31
450	98.31
450.221	86.31
450.442	98.31
450.662	93.31
450.883	105.31
451.104	124.31
451.324	103.31
451.545	107.31
451.766	93.31
451.986	85.31
452.207	80.31
452.428	101.31
452.648	132.31
452.869	130.31
453.089	143.31
453.31	141.31
453.53	99.31
453.751	94.31
453.971	101.31
454.192	122.31
454.412	110.31
454.633	87.31
454.853	96.31
455.073	83.31
455.294	83.31
455.514	114.31
455.734	97.31
455.955	96.31
456.175	87.31
456.395	75.31
456.616	86.31
456.836	93.31
457.056	92.31
457.276	94.31
457.497	84.31
457.717	83.31
457.937	101.31
458.157	99.31
458.377	82.31
458.598	125.31
458.818	172.31
459.038	217.31
459.258	141.31
459.478	105.31
459.698	87.31
459.918	97.31
460.138	91.31
460.358	85.31
460.578	90.31
460.798	101.31
461.018	89.31
461.238	103.31
461.458	84.31
461.678	70.31
461.898	89.31
462.118	85.31
462.338	83.31
462.558	98.31
462.777	86.31
462.997	84.31
463.217	104.31
463.437	86.31
463.657	80.31
463.876	103.31
464.096	88.31
464.316	98.31
464.536	109.31
464.755	109.31
464.975	120.31
465.195	202.31
465.414	220.31
465.634	114.31
465.854	89.31
466.073	95.31
466.293	91.31
466.512	90.31
466.732	92.31
466.951	101.31
467.171	98.31
467.391	103.31
467.61	112.31
467.829	154.31
468.049	294.31
468.268	463.31
468.488	160.31
468.707	95.31
468.927	88.31
469.146	91.31
469.365	83.31
469.585	98.31
469.804	107.31
470.023	121.31
470.243	99.31
470.462	111.31
470.681	129.31
470.901	101.31
471.12	84.31
471.339	109.31
471.558	102.31
471.777	119.31
471.997	198.31
472.216	552.31
472.435	1288.31
472.654	372.31
472.873	120.31
473.092	112.31
473.311	110.31
473.53	102.31
473.749	99.31
473.968	103.31
474.187	127.31
474.406	107.31
474.625	79.31
474.844	98.31
475.063	77.31
475.282	92.31
475.501	91.31
475.72	101.31
475.939	92.31
476.158	91.31
476.377	91.31
476.596	101.31
476.814	110.31
477.033	112.31
477.252	109.31
477.471	102.31
477.69	89.31
477.908	95.31
478.127	104.31
478.346	104.31
478.564	87.31
478.783	105.31
479.002	113.31
479.22	92.31
479.439	115.31
479.658	114.31
479.876	120.31
480.095	114.31
480.313	105.31
480.532	115.31
480.751	176.31
480.969	516.31
481.188	2032.31
481.406	1370.31
481.624	233.31
481.843	119.31
482.061	91.31
482.28	98.31
482.498	87.31
482.717	91.31
482.935	80.31
483.153	94.31
483.372	85.31
483.59	87.31
483.808	74.31
484.027	94.31
484.245	90.31
484.463	92.31
484.681	93.31
484.9	98.31
485.118	86.31
485.336	93.31
485.554	101.31
485.772	98.31
485.99	84.31
486.209	103.31
486.427	122.31
486.645	104.31
486.863	119.31
487.081	101.31
487.299	100.31
487.517	92.31
487.735	99.31
487.953	93.31
488.171	95.31
488.389	94.31
488.607	99.31
488.825	104.31
489.043	102.31
489.261	98.31
489.479	91.31
489.696	79.31
489.914	75.31
490.132	91.31
490.35	90.31
490.568	79.31
490.786	80.31
491.003	95.31
491.221	87.31
491.439	90.31
491.657	96.31
491.874	90.31
492.092	100.31
492.31	106.31
492.527	100.31
492.745	105.31
492.963	77.31
493.18	98.31
493.398	85.31
493.615	86.31
493.833	98.31
494.05	101.31
494.268	94.31
494.485	95.31
494.703	88.31
494.92	103.31
495.138	100.31
495.355	81.31
495.573	99.31
495.79	88.31
496.008	92.31
496.225	85.31
496.442	81.31
496.66	80.31
496.877	93.31
497.094	92.31
497.312	95.31
497.529	96.31
497.746	97.31
497.963	74.31
498.181	80.31
498.398	87.31
498.615	124.31
498.832	111.31
499.049	92.31
499.267	92.31
499.484	98.31
499.701	95.31
499.918	100.31
500.135	83.31
500.352	87.31
500.569	88.31
500.786	87.31
501.003	93.31
501.22	97.31
501.437	91.31
501.654	92.31
501.871	128.31
502.088	85.31
502.305	86.31
502.522	98.31
502.739	86.31
502.956	101.31
503.172	106.31
503.389	112.31
503.606	127.31
503.823	100.31
504.04	90.31
504.256	94.31
504.473	84.31
504.69	75.31
504.907	99.31
505.123	107.31
505.34	88.31
505.557	86.31
505.773	92.31
505.99	86.31
506.207	91.31
506.423	97.31
506.64	94.31
506.856	93.31
507.073	92.31
507.289	102.31
507.506	103.31
507.722	126.31
507.939	126.31
508.155	103.31
508.372	94.31
508.588	90.31
508.805	99.31
509.021	103.31
509.238	102.31
509.454	116.31
509.67	102.31
509.887	114.31
510.103	148.31
510.319	241.31
510.536	886.31
510.752	3085.31
510.968	853.31
511.184	178.31
511.401	123.31
511.617	124.31
511.833	98.31
512.049	94.31
512.265	103.31
512.481	105.31
512.698	92.31
512.914	91.31
513.13	91.31
513.346	94.31
