Data from Circ_2013_H10_HRD10591_00049.txt Node
Date: Wed Jan 03 10:04:10 EST 2024
User: Yrep
Spectrometer: HR+D1059
Trigger mode: 1
Integration Time (sec): 1.000000E-1
Scans to average: 1
Electric dark correction enabled: true
Nonlinearity correction enabled: false
Boxcar width: 0
XAxis mode: Wavelengths
Number of Pixels in Spectrum: 2048
>>>>>Begin Spectral Data<<<<<
223.165	-20.31
223.4	-20.31
223.635	-20.31
223.869	-23.31
224.104	-14.31
224.338	-5.31
224.573	-14.31
224.808	-8.31
225.042	2.69
225.277	-6.31
225.511	-15.31
225.746	-3.31
225.98	-2.31
226.215	6.69
226.449	19.69
226.683	23.69
226.918	19.69
227.152	40.69
227.387	50.69
227.621	48.69
227.856	60.69
228.09	47.69
228.324	61.69
228.559	57.69
228.793	57.69
229.027	78.69
229.262	73.69
229.496	65.69
229.73	89.69
229.964	77.69
230.199	83.69
230.433	81.69
230.667	96.69
230.901	76.69
231.136	87.69
231.37	93.69
231.604	65.69
231.838	73.69
232.072	82.69
232.306	81.69
232.541	77.69
232.775	74.69
233.009	79.69
233.243	92.69
233.477	62.69
233.711	84.69
233.945	85.69
234.179	83.69
234.413	86.69
234.647	69.69
234.881	74.69
235.115	78.69
235.349	77.69
235.583	63.69
235.817	76.69
236.051	75.69
236.285	81.69
236.519	81.69
236.753	84.69
236.987	85.69
237.221	80.69
237.455	89.69
237.689	82.69
237.922	74.69
238.156	83.69
238.39	80.69
238.624	60.69
238.858	84.69
239.091	67.69
239.325	74.69
239.559	70.69
239.793	76.69
240.027	78.69
240.26	79.69
240.494	76.69
240.728	66.69
240.961	72.69
241.195	76.69
241.429	77.69
241.662	76.69
241.896	87.69
242.13	73.69
242.363	87.69
242.597	85.69
242.83	73.69
243.064	77.69
243.298	76.69
243.531	74.69
243.765	78.69
243.998	73.69
244.232	81.69
244.465	82.69
244.699	88.69
244.932	77.69
245.166	86.69
245.399	72.69
245.633	49.69
245.866	81.69
246.099	76.69
246.333	85.69
246.566	71.69
246.8	77.69
247.033	76.69
247.266	84.69
247.5	78.69
247.733	66.69
247.966	85.69
248.2	80.69
248.433	78.69
248.666	73.69
248.899	64.69
249.133	84.69
249.366	89.69
249.599	101.69
249.832	86.69
250.066	77.69
250.299	71.69
250.532	92.69
250.765	81.69
250.998	78.69
251.231	86.69
251.465	68.69
251.698	68.69
251.931	91.69
252.164	89.69
252.397	90.69
252.63	83.69
252.863	90.69
253.096	77.69
253.329	75.69
253.562	83.69
253.795	90.69
254.028	86.69
254.261	78.69
254.494	79.69
254.727	91.69
254.96	71.69
255.193	79.69
255.426	72.69
255.659	78.69
255.892	76.69
256.124	90.69
256.357	92.69
256.59	74.69
256.823	83.69
257.056	91.69
257.289	75.69
257.521	67.69
257.754	68.69
257.987	82.69
258.22	78.69
258.452	97.69
258.685	89.69
258.918	73.69
259.151	78.69
259.383	71.69
259.616	78.69
259.849	76.69
260.081	85.69
260.314	81.69
260.547	82.69
260.779	77.69
261.012	90.69
261.244	76.69
261.477	83.69
261.71	81.69
261.942	119.69
262.175	118.69
262.407	90.69
262.64	82.69
262.872	73.69
263.105	80.69
263.337	88.69
263.57	73.69
263.802	67.69
264.035	74.69
264.267	73.69
264.499	83.69
264.732	78.69
264.964	86.69
265.197	98.69
265.429	96.69
265.661	74.69
265.894	94.69
266.126	85.69
266.358	87.69
266.591	77.69
266.823	67.69
267.055	68.69
267.287	84.69
267.52	70.69
267.752	71.69
267.984	65.69
268.216	80.69
268.448	83.69
268.681	81.69
268.913	88.69
269.145	87.69
269.377	77.69
269.609	73.69
269.841	81.69
270.073	73.69
270.306	79.69
270.538	84.69
270.77	79.69
271.002	81.69
271.234	53.69
271.466	88.69
271.698	86.69
271.93	79.69
272.162	72.69
272.394	88.69
272.626	85.69
272.858	76.69
273.09	87.69
273.322	108.69
273.553	80.69
273.785	74.69
274.017	82.69
274.249	84.69
274.481	85.69
274.713	65.69
274.945	89.69
275.176	81.69
275.408	94.69
275.64	96.69
275.872	82.69
276.104	85.69
276.335	87.69
276.567	111.69
276.799	124.69
277.031	132.69
277.262	115.69
277.494	113.69
277.726	82.69
277.957	79.69
278.189	85.69
278.421	88.69
278.652	91.69
278.884	86.69
279.115	92.69
279.347	88.69
279.579	95.69
279.81	98.69
280.042	106.69
280.273	130.69
280.505	120.69
280.736	90.69
280.968	92.69
281.199	93.69
281.431	69.69
281.662	93.69
281.894	75.69
282.125	92.69
282.356	118.69
282.588	138.69
282.819	99.69
283.051	78.69
283.282	86.69
283.513	77.69
283.745	86.69
283.976	88.69
284.207	86.69
284.439	77.69
284.67	90.69
284.901	85.69
285.132	92.69
285.364	82.69
285.595	79.69
285.826	87.69
286.057	77.69
286.288	90.69
286.52	97.69
286.751	93.69
286.982	83.69
287.213	81.69
287.444	81.69
287.675	78.69
287.906	98.69
288.138	94.69
288.369	89.69
288.6	105.69
288.831	94.69
289.062	99.69
289.293	87.69
289.524	73.69
289.755	85.69
289.986	103.69
290.217	99.69
290.448	87.69
290.679	73.69
290.91	87.69
291.141	101.69
291.371	84.69
291.602	60.69
291.833	82.69
292.064	85.69
292.295	105.69
292.526	77.69
292.757	88.69
292.987	82.69
293.218	85.69
293.449	84.69
293.68	83.69
293.91	94.69
294.141	82.69
294.372	89.69
294.603	89.69
294.833	103.69
295.064	87.69
295.295	84.69
295.525	89.69
295.756	98.69
295.987	117.69
296.217	148.69
296.448	132.69
296.679	101.69
296.909	78.69
297.14	81.69
297.37	90.69
297.601	91.69
297.831	100.69
298.062	103.69
298.292	99.69
298.523	92.69
298.753	88.69
298.984	99.69
299.214	90.69
299.445	80.69
299.675	83.69
299.905	101.69
300.136	88.69
300.366	93.69
300.597	104.69
300.827	88.69
301.057	96.69
301.288	99.69
301.518	87.69
301.748	86.69
301.979	92.69
302.209	91.69
302.439	96.69
302.669	86.69
302.9	90.69
303.13	86.69
303.36	91.69
303.59	101.69
303.82	103.69
304.051	98.69
304.281	95.69
304.511	88.69
304.741	84.69
304.971	75.69
305.201	93.69
305.431	97.69
305.661	98.69
305.891	96.69
306.121	100.69
306.352	96.69
306.582	105.69
306.812	95.69
307.042	96.69
307.272	106.69
307.502	115.69
307.731	115.69
307.961	101.69
308.191	81.69
308.421	73.69
308.651	102.69
308.881	88.69
309.111	107.69
309.341	93.69
309.571	97.69
309.8	88.69
310.03	97.69
310.26	102.69
310.49	97.69
310.72	94.69
310.949	105.69
311.179	94.69
311.409	84.69
311.639	94.69
311.868	89.69
312.098	102.69
312.328	99.69
312.557	99.69
312.787	108.69
313.017	109.69
313.246	103.69
313.476	84.69
313.706	83.69
313.935	87.69
314.165	82.69
314.394	103.69
314.624	103.69
314.853	88.69
315.083	98.69
315.312	80.69
315.542	89.69
315.771	99.69
316.001	103.69
316.23	95.69
316.46	85.69
316.689	80.69
316.919	88.69
317.148	91.69
317.377	99.69
317.607	99.69
317.836	92.69
318.065	88.69
318.295	76.69
318.524	93.69
318.753	83.69
318.983	85.69
319.212	104.69
319.441	103.69
319.67	102.69
319.9	90.69
320.129	88.69
320.358	98.69
320.587	91.69
320.816	106.69
321.046	112.69
321.275	99.69
321.504	108.69
321.733	105.69
321.962	87.69
322.191	110.69
322.42	93.69
322.649	105.69
322.878	107.69
323.108	115.69
323.337	131.69
323.566	130.69
323.795	146.69
324.024	207.69
324.253	388.69
324.482	824.69
324.71	1633.69
324.939	2160.69
325.168	822.69
325.397	236.69
325.626	153.69
325.855	140.69
326.084	126.69
326.313	140.69
326.542	147.69
326.77	221.69
326.999	454.69
327.228	910.69
327.457	1675.69
327.686	1346.69
327.914	422.69
328.143	285.69
328.372	325.69
328.6	195.69
328.829	133.69
329.058	128.69
329.287	137.69
329.515	140.69
329.744	145.69
329.972	223.69
330.201	399.69
330.43	560.69
330.658	291.69
330.887	184.69
331.115	153.69
331.344	117.69
331.572	97.69
331.801	109.69
332.03	105.69
332.258	96.69
332.486	89.69
332.715	107.69
332.943	102.69
333.172	96.69
333.4	99.69
333.629	115.69
333.857	136.69
334.085	217.69
334.314	368.69
334.542	698.69
334.771	690.69
334.999	240.69
335.227	117.69
335.455	119.69
335.684	88.69
335.912	100.69
336.14	108.69
336.369	97.69
336.597	86.69
336.825	75.69
337.053	93.69
337.281	90.69
337.51	87.69
337.738	94.69
337.966	99.69
338.194	94.69
338.422	97.69
338.65	105.69
338.878	93.69
339.106	93.69
339.334	83.69
339.562	92.69
339.79	85.69
340.018	79.69
340.246	90.69
340.474	86.69
340.702	101.69
340.93	104.69
341.158	99.69
341.386	87.69
341.614	84.69
341.842	100.69
342.07	83.69
342.298	88.69
342.526	97.69
342.754	77.69
342.981	89.69
343.209	88.69
343.437	92.69
343.665	90.69
343.893	84.69
344.12	102.69
344.348	92.69
344.576	92.69
344.804	79.69
345.031	100.69
345.259	114.69
345.487	104.69
345.714	100.69
345.942	91.69
346.17	92.69
346.397	87.69
346.625	92.69
346.853	98.69
347.08	102.69
347.308	104.69
347.535	102.69
347.763	89.69
347.99	92.69
348.218	101.69
348.445	98.69
348.673	101.69
348.9	100.69
349.128	89.69
349.355	91.69
349.583	108.69
349.81	101.69
350.037	98.69
350.265	104.69
350.492	87.69
350.72	93.69
350.947	103.69
351.174	106.69
351.402	112.69
351.629	99.69
351.856	81.69
352.083	99.69
352.311	88.69
352.538	101.69
352.765	110.69
352.992	128.69
353.22	103.69
353.447	85.69
353.674	112.69
353.901	96.69
354.128	88.69
354.355	86.69
354.583	97.69
354.81	97.69
355.037	94.69
355.264	78.69
355.491	100.69
355.718	93.69
355.945	96.69
356.172	100.69
356.399	92.69
356.626	86.69
356.853	90.69
357.08	95.69
357.307	96.69
357.534	99.69
357.761	82.69
357.988	104.69
358.215	85.69
358.441	89.69
358.668	85.69
358.895	84.69
359.122	78.69
359.349	84.69
359.576	105.69
359.802	112.69
360.029	109.69
360.256	114.69
360.483	99.69
360.709	97.69
360.936	98.69
361.163	105.69
361.39	90.69
361.616	93.69
361.843	98.69
362.07	99.69
362.296	92.69
362.523	89.69
362.749	76.69
362.976	91.69
363.203	76.69
363.429	82.69
363.656	80.69
363.882	79.69
364.109	99.69
364.335	94.69
364.562	89.69
364.788	103.69
365.015	107.69
365.241	103.69
365.468	109.69
365.694	107.69
365.92	86.69
366.147	69.69
366.373	77.69
366.599	87.69
366.826	90.69
367.052	85.69
367.278	84.69
367.505	83.69
367.731	79.69
367.957	96.69
368.184	92.69
368.41	91.69
368.636	110.69
368.862	122.69
369.089	116.69
369.315	103.69
369.541	96.69
369.767	80.69
369.993	86.69
370.219	92.69
370.445	70.69
370.672	81.69
370.898	79.69
371.124	82.69
371.35	80.69
371.576	78.69
371.802	88.69
372.028	86.69
372.254	70.69
372.48	90.69
372.706	98.69
372.932	96.69
373.158	92.69
373.384	96.69
373.61	76.69
373.835	97.69
374.061	89.69
374.287	96.69
374.513	81.69
374.739	86.69
374.965	96.69
375.191	91.69
375.416	75.69
375.642	84.69
375.868	78.69
376.094	94.69
376.319	84.69
376.545	89.69
376.771	83.69
376.997	94.69
377.222	89.69
377.448	86.69
377.674	77.69
377.899	94.69
378.125	85.69
378.35	78.69
378.576	91.69
378.802	83.69
379.027	69.69
379.253	93.69
379.478	91.69
379.704	89.69
379.929	90.69
380.155	89.69
380.38	97.69
380.606	101.69
380.831	94.69
381.057	92.69
381.282	73.69
381.507	80.69
381.733	83.69
381.958	87.69
382.184	101.69
382.409	101.69
382.634	97.69
382.86	98.69
383.085	108.69
383.31	82.69
383.535	105.69
383.761	81.69
383.986	82.69
384.211	97.69
384.436	90.69
384.662	92.69
384.887	91.69
385.112	103.69
385.337	82.69
385.562	94.69
385.787	98.69
386.013	101.69
386.238	130.69
386.463	109.69
386.688	104.69
386.913	100.69
387.138	100.69
387.363	94.69
387.588	84.69
387.813	95.69
388.038	102.69
388.263	100.69
388.488	101.69
388.713	110.69
388.938	107.69
389.163	96.69
389.387	91.69
389.612	83.69
389.837	88.69
390.062	90.69
390.287	92.69
390.512	88.69
390.736	93.69
390.961	103.69
391.186	98.69
391.411	86.69
391.636	84.69
391.86	78.69
392.085	89.69
392.31	78.69
392.534	91.69
392.759	79.69
392.984	87.69
393.208	72.69
393.433	86.69
393.658	87.69
393.882	86.69
394.107	87.69
394.331	84.69
394.556	91.69
394.78	84.69
395.005	80.69
395.229	82.69
395.454	85.69
395.678	87.69
395.903	93.69
396.127	97.69
396.352	80.69
396.576	70.69
396.801	90.69
397.025	95.69
397.249	80.69
397.474	91.69
397.698	74.69
397.922	80.69
398.147	83.69
398.371	80.69
398.595	82.69
398.82	93.69
399.044	69.69
399.268	84.69
399.492	87.69
399.717	95.69
399.941	90.69
400.165	88.69
400.389	87.69
400.613	86.69
400.837	78.69
401.062	91.69
401.286	91.69
401.51	89.69
401.734	99.69
401.958	96.69
402.182	136.69
402.406	169.69
402.63	120.69
402.854	108.69
403.078	85.69
403.302	70.69
403.526	78.69
403.75	93.69
403.974	83.69
404.198	88.69
404.422	90.69
404.645	68.69
404.869	99.69
405.093	107.69
405.317	112.69
405.541	113.69
405.765	89.69
405.988	107.69
406.212	159.69
406.436	256.69
406.66	161.69
406.883	117.69
407.107	76.69
407.331	84.69
407.555	104.69
407.778	104.69
408.002	102.69
408.226	90.69
408.449	86.69
408.673	76.69
408.896	92.69
409.12	85.69
409.344	105.69
409.567	88.69
409.791	81.69
410.014	89.69
410.238	85.69
410.461	101.69
410.685	93.69
410.908	99.69
411.132	112.69
411.355	107.69
411.578	98.69
411.802	78.69
412.025	85.69
412.249	90.69
412.472	79.69
412.695	92.69
412.919	93.69
413.142	74.69
413.365	91.69
413.589	84.69
413.812	89.69
414.035	76.69
414.258	89.69
414.482	81.69
414.705	90.69
414.928	75.69
415.151	86.69
415.374	77.69
415.597	86.69
415.821	92.69
416.044	90.69
416.267	81.69
416.49	92.69
416.713	88.69
416.936	86.69
417.159	76.69
417.382	82.69
417.605	90.69
417.828	91.69
418.051	96.69
418.274	78.69
418.497	78.69
418.72	87.69
418.943	84.69
419.166	77.69
419.389	88.69
419.611	83.69
419.834	84.69
420.057	73.69
420.28	71.69
420.503	80.69
420.726	85.69
420.948	89.69
421.171	97.69
421.394	81.69
421.617	92.69
421.839	89.69
422.062	72.69
422.285	77.69
422.507	88.69
422.73	97.69
422.953	102.69
423.175	80.69
423.398	92.69
423.621	90.69
423.843	86.69
424.066	87.69
424.288	87.69
424.511	90.69
424.733	97.69
424.956	104.69
425.178	94.69
425.401	95.69
425.623	100.69
425.846	97.69
426.068	90.69
426.291	92.69
426.513	92.69
426.735	99.69
426.958	94.69
427.18	105.69
427.402	154.69
427.625	185.69
427.847	172.69
428.069	148.69
428.292	104.69
428.514	103.69
428.736	86.69
428.958	83.69
429.181	89.69
429.403	81.69
429.625	84.69
429.847	94.69
430.069	91.69
430.292	75.69
430.514	76.69
430.736	82.69
430.958	79.69
431.18	77.69
431.402	90.69
431.624	88.69
431.846	97.69
432.068	84.69
432.29	91.69
432.512	83.69
432.734	82.69
432.956	95.69
433.178	87.69
433.4	113.69
433.622	79.69
433.844	89.69
434.066	87.69
434.287	92.69
434.509	82.69
434.731	80.69
434.953	85.69
435.175	89.69
435.397	77.69
435.618	93.69
435.84	104.69
436.062	109.69
436.284	113.69
436.505	86.69
436.727	110.69
436.949	94.69
437.17	87.69
437.392	84.69
437.614	90.69
437.835	125.69
438.057	116.69
438.278	115.69
438.5	103.69
438.721	111.69
438.943	103.69
439.165	95.69
439.386	81.69
439.608	87.69
439.829	114.69
440.05	120.69
440.272	138.69
440.493	104.69
440.715	69.69
440.936	73.69
441.158	76.69
441.379	89.69
441.6	96.69
441.822	76.69
442.043	84.69
442.264	117.69
442.486	112.69
442.707	98.69
442.928	106.69
443.149	134.69
443.371	144.69
443.592	119.69
443.813	114.69
444.034	96.69
444.255	92.69
444.476	99.69
444.698	86.69
444.919	89.69
445.14	138.69
445.361	114.69
445.582	124.69
445.803	125.69
446.024	141.69
446.245	147.69
446.466	115.69
446.687	85.69
446.908	85.69
447.129	80.69
447.35	96.69
447.571	90.69
447.792	97.69
448.013	105.69
448.234	118.69
448.455	90.69
448.675	102.69
448.896	103.69
449.117	110.69
449.338	105.69
449.559	119.69
449.779	134.69
450	94.69
450.221	99.69
450.442	80.69
450.662	99.69
450.883	116.69
451.104	117.69
451.324	100.69
451.545	77.69
451.766	76.69
451.986	89.69
452.207	89.69
452.428	79.69
452.648	89.69
452.869	109.69
453.089	100.69
453.31	126.69
453.53	78.69
453.751	87.69
453.971	88.69
454.192	107.69
454.412	90.69
454.633	89.69
454.853	83.69
455.073	80.69
455.294	78.69
455.514	93.69
455.734	104.69
455.955	79.69
456.175	84.69
456.395	83.69
456.616	84.69
456.836	74.69
457.056	83.69
457.276	78.69
457.497	80.69
457.717	71.69
457.937	76.69
458.157	80.69
458.377	97.69
458.598	107.69
458.818	165.69
459.038	162.69
459.258	125.69
459.478	89.69
459.698	78.69
459.918	83.69
460.138	93.69
460.358	97.69
460.578	78.69
460.798	79.69
461.018	98.69
461.238	93.69
461.458	98.69
461.678	99.69
461.898	84.69
462.118	79.69
462.338	81.69
462.558	77.69
462.777	85.69
462.997	97.69
463.217	100.69
463.437	80.69
463.657	81.69
463.876	83.69
464.096	84.69
464.316	86.69
464.536	92.69
464.755	99.69
464.975	120.69
465.195	191.69
465.414	167.69
465.634	98.69
465.854	103.69
466.073	83.69
466.293	91.69
466.512	91.69
466.732	93.69
466.951	88.69
467.171	87.69
467.391	93.69
467.61	118.69
467.829	124.69
468.049	234.69
468.268	344.69
468.488	136.69
468.707	94.69
468.927	79.69
469.146	92.69
469.365	76.69
469.585	84.69
469.804	91.69
470.023	97.69
470.243	89.69
470.462	99.69
470.681	120.69
470.901	102.69
471.12	90.69
471.339	98.69
471.558	101.69
471.777	100.69
471.997	150.69
472.216	427.69
472.435	948.69
472.654	274.69
472.873	123.69
473.092	94.69
473.311	86.69
473.53	91.69
473.749	89.69
473.968	83.69
474.187	102.69
474.406	107.69
474.625	80.69
474.844	99.69
475.063	82.69
475.282	85.69
475.501	83.69
475.72	88.69
475.939	87.69
476.158	76.69
476.377	92.69
476.596	85.69
476.814	87.69
477.033	86.69
477.252	83.69
477.471	91.69
477.69	91.69
477.908	87.69
478.127	99.69
478.346	88.69
478.564	94.69
478.783	102.69
479.002	102.69
479.22	90.69
479.439	118.69
479.658	97.69
479.876	101.69
480.095	95.69
480.313	102.69
480.532	110.69
480.751	168.69
480.969	426.69
481.188	1556.69
481.406	1034.69
481.624	195.69
481.843	99.69
482.061	89.69
482.28	91.69
482.498	94.69
482.717	92.69
482.935	86.69
483.153	99.69
483.372	88.69
483.59	93.69
483.808	80.69
484.027	91.69
484.245	88.69
484.463	84.69
484.681	89.69
484.9	75.69
485.118	108.69
485.336	96.69
485.554	98.69
485.772	99.69
485.99	96.69
486.209	101.69
486.427	90.69
486.645	105.69
486.863	122.69
487.081	97.69
487.299	94.69
487.517	95.69
487.735	92.69
487.953	101.69
488.171	98.69
488.389	106.69
488.607	101.69
488.825	92.69
489.043	72.69
489.261	97.69
489.479	79.69
489.696	101.69
489.914	82.69
490.132	84.69
490.35	84.69
490.568	93.69
490.786	85.69
491.003	86.69
491.221	93.69
491.439	93.69
491.657	83.69
491.874	91.69
492.092	93.69
492.31	90.69
492.527	92.69
492.745	98.69
492.963	81.69
493.18	88.69
493.398	92.69
493.615	98.69
493.833	89.69
494.05	87.69
494.268	84.69
494.485	95.69
494.703	90.69
494.92	89.69
495.138	78.69
495.355	102.69
495.573	93.69
495.79	96.69
496.008	89.69
496.225	91.69
496.442	98.69
496.66	98.69
496.877	99.69
497.094	84.69
497.312	93.69
497.529	81.69
497.746	99.69
497.963	96.69
498.181	88.69
498.398	97.69
498.615	96.69
498.832	108.69
499.049	97.69
499.267	88.69
499.484	90.69
499.701	85.69
499.918	99.69
500.135	84.69
500.352	100.69
500.569	89.69
500.786	106.69
501.003	75.69
501.22	95.69
501.437	95.69
501.654	89.69
501.871	118.69
502.088	100.69
502.305	81.69
502.522	106.69
502.739	100.69
502.956	82.69
503.172	76.69
503.389	99.69
503.606	99.69
503.823	104.69
504.04	93.69
504.256	94.69
504.473	94.69
504.69	90.69
504.907	85.69
505.123	94.69
505.34	82.69
505.557	81.69
505.773	86.69
505.99	96.69
506.207	79.69
506.423	94.69
506.64	96.69
506.856	76.69
507.073	75.69
507.289	89.69
507.506	91.69
507.722	112.69
507.939	114.69
508.155	103.69
508.372	102.69
508.588	92.69
508.805	89.69
509.021	86.69
509.238	99.69
509.454	100.69
509.67	97.69
509.887	105.69
510.103	127.69
510.319	195.69
510.536	734.69
510.752	2489.69
510.968	730.69
511.184	158.69
511.401	103.69
511.617	96.69
511.833	93.69
512.049	94.69
512.265	104.69
512.481	98.69
512.698	82.69
512.914	87.69
513.13	93.69
513.346	100.69
513.562	94.69
513.778	98.69
513.994	95.69
514.21	91.69
514.426	122.69
514.642	149.69
514.858	125.69
515.074	183.69
515.29	534.69
515.506	1810.69
