Data from Circ_2013_H10_HRD10591_00031.txt Node
Date: Wed Jan 03 10:04:06 EST 2024
User: Yrep
Spectrometer: HR+D1059
Trigger mode: 1
Integration Time (sec): 1.000000E-1
Scans to average: 1
Electric dark correction enabled: true
Nonlinearity correction enabled: false
Boxcar width: 0
XAxis mode: Wavelengths
Number of Pixels in Spectrum: 2048
>>>>>Begin Spectral Data<<<<<
223.165	-16.31
223.4	-16.31
223.635	-16.31
223.869	-24.31
224.104	-21.31
224.338	-7.31
224.573	-2.31
224.808	-3.31
225.042	-21.31
225.277	-7.31
225.511	-11.31
225.746	11.69
225.98	6.69
226.215	12.69
226.449	8.69
226.683	19.69
226.918	25.69
227.152	29.69
227.387	31.69
227.621	28.69
227.856	44.69
228.09	44.69
228.324	51.69
228.559	47.69
228.793	52.69
229.027	70.69
229.262	54.69
229.496	61.69
229.73	88.69
229.964	98.69
230.199	64.69
230.433	82.69
230.667	71.69
230.901	77.69
231.136	77.69
231.37	77.69
231.604	85.69
231.838	91.69
232.072	77.69
232.306	75.69
232.541	73.69
232.775	65.69
233.009	65.69
233.243	79.69
233.477	71.69
233.711	79.69
233.945	95.69
234.179	77.69
234.413	79.69
234.647	67.69
234.881	67.69
235.115	76.69
235.349	87.69
235.583	70.69
235.817	92.69
236.051	91.69
236.285	84.69
236.519	79.69
236.753	71.69
236.987	73.69
237.221	85.69
237.455	86.69
237.689	77.69
237.922	83.69
238.156	73.69
238.39	66.69
238.624	76.69
238.858	72.69
239.091	83.69
239.325	70.69
239.559	74.69
239.793	102.69
240.027	92.69
240.26	74.69
240.494	72.69
240.728	69.69
240.961	67.69
241.195	80.69
241.429	74.69
241.662	70.69
241.896	62.69
242.13	81.69
242.363	74.69
242.597	71.69
242.83	63.69
243.064	72.69
243.298	75.69
243.531	78.69
243.765	80.69
243.998	89.69
244.232	81.69
244.465	79.69
244.699	91.69
244.932	74.69
245.166	79.69
245.399	84.69
245.633	69.69
245.866	74.69
246.099	66.69
246.333	73.69
246.566	71.69
246.8	72.69
247.033	68.69
247.266	86.69
247.5	91.69
247.733	74.69
247.966	74.69
248.2	94.69
248.433	78.69
248.666	72.69
248.899	82.69
249.133	103.69
249.366	83.69
249.599	90.69
249.832	79.69
250.066	77.69
250.299	74.69
250.532	85.69
250.765	81.69
250.998	87.69
251.231	87.69
251.465	73.69
251.698	71.69
251.931	79.69
252.164	72.69
252.397	73.69
252.63	71.69
252.863	83.69
253.096	78.69
253.329	88.69
253.562	73.69
253.795	76.69
254.028	83.69
254.261	75.69
254.494	96.69
254.727	79.69
254.96	98.69
255.193	80.69
255.426	99.69
255.659	84.69
255.892	110.69
256.124	79.69
256.357	77.69
256.59	86.69
256.823	82.69
257.056	89.69
257.289	79.69
257.521	77.69
257.754	65.69
257.987	82.69
258.22	74.69
258.452	77.69
258.685	97.69
258.918	70.69
259.151	75.69
259.383	77.69
259.616	77.69
259.849	71.69
260.081	79.69
260.314	77.69
260.547	81.69
260.779	82.69
261.012	75.69
261.244	82.69
261.477	96.69
261.71	95.69
261.942	104.69
262.175	116.69
262.407	79.69
262.64	70.69
262.872	75.69
263.105	79.69
263.337	93.69
263.57	81.69
263.802	69.69
264.035	71.69
264.267	65.69
264.499	95.69
264.732	79.69
264.964	77.69
265.197	82.69
265.429	72.69
265.661	88.69
265.894	85.69
266.126	88.69
266.358	88.69
266.591	72.69
266.823	81.69
267.055	76.69
267.287	83.69
267.52	62.69
267.752	65.69
267.984	81.69
268.216	69.69
268.448	96.69
268.681	96.69
268.913	90.69
269.145	72.69
269.377	84.69
269.609	80.69
269.841	90.69
270.073	87.69
270.306	81.69
270.538	72.69
270.77	88.69
271.002	70.69
271.234	79.69
271.466	90.69
271.698	84.69
271.93	93.69
272.162	79.69
272.394	84.69
272.626	91.69
272.858	90.69
273.09	74.69
273.322	78.69
273.553	72.69
273.785	70.69
274.017	90.69
274.249	82.69
274.481	87.69
274.713	84.69
274.945	89.69
275.176	101.69
275.408	98.69
275.64	80.69
275.872	99.69
276.104	92.69
276.335	86.69
276.567	91.69
276.799	136.69
277.031	137.69
277.262	134.69
277.494	113.69
277.726	75.69
277.957	91.69
278.189	78.69
278.421	84.69
278.652	87.69
278.884	97.69
279.115	88.69
279.347	84.69
279.579	79.69
279.81	104.69
280.042	131.69
280.273	151.69
280.505	112.69
280.736	87.69
280.968	76.69
281.199	87.69
281.431	77.69
281.662	89.69
281.894	100.69
282.125	108.69
282.356	120.69
282.588	163.69
282.819	115.69
283.051	96.69
283.282	100.69
283.513	93.69
283.745	81.69
283.976	84.69
284.207	95.69
284.439	97.69
284.67	73.69
284.901	100.69
285.132	95.69
285.364	82.69
285.595	79.69
285.826	71.69
286.057	90.69
286.288	74.69
286.52	80.69
286.751	76.69
286.982	82.69
287.213	79.69
287.444	90.69
287.675	95.69
287.906	80.69
288.138	85.69
288.369	94.69
288.6	87.69
288.831	74.69
289.062	83.69
289.293	82.69
289.524	75.69
289.755	80.69
289.986	88.69
290.217	90.69
290.448	89.69
290.679	77.69
290.91	83.69
291.141	79.69
291.371	85.69
291.602	85.69
291.833	78.69
292.064	88.69
292.295	98.69
292.526	90.69
292.757	82.69
292.987	77.69
293.218	71.69
293.449	82.69
293.68	91.69
293.91	96.69
294.141	94.69
294.372	88.69
294.603	87.69
294.833	103.69
295.064	93.69
295.295	87.69
295.525	72.69
295.756	90.69
295.987	107.69
296.217	149.69
296.448	139.69
296.679	102.69
296.909	64.69
297.14	77.69
297.37	90.69
297.601	80.69
297.831	83.69
298.062	94.69
298.292	82.69
298.523	96.69
298.753	92.69
298.984	81.69
299.214	92.69
299.445	86.69
299.675	101.69
299.905	105.69
300.136	95.69
300.366	98.69
300.597	78.69
300.827	106.69
301.057	99.69
301.288	119.69
301.518	98.69
301.748	97.69
301.979	96.69
302.209	108.69
302.439	98.69
302.669	92.69
302.9	89.69
303.13	88.69
303.36	108.69
303.59	106.69
303.82	133.69
304.051	103.69
304.281	97.69
304.511	74.69
304.741	80.69
304.971	79.69
305.201	103.69
305.431	80.69
305.661	88.69
305.891	91.69
306.121	90.69
306.352	89.69
306.582	99.69
306.812	88.69
307.042	101.69
307.272	106.69
307.502	133.69
307.731	114.69
307.961	112.69
308.191	83.69
308.421	86.69
308.651	98.69
308.881	87.69
309.111	91.69
309.341	96.69
309.571	95.69
309.8	87.69
310.03	100.69
310.26	83.69
310.49	96.69
310.72	101.69
310.949	102.69
311.179	85.69
311.409	90.69
311.639	88.69
311.868	84.69
312.098	93.69
312.328	107.69
312.557	107.69
312.787	108.69
313.017	104.69
313.246	85.69
313.476	94.69
313.706	99.69
313.935	104.69
314.165	97.69
314.394	99.69
314.624	108.69
314.853	94.69
315.083	90.69
315.312	78.69
315.542	100.69
315.771	75.69
316.001	77.69
316.23	84.69
316.46	75.69
316.689	85.69
316.919	84.69
317.148	102.69
317.377	93.69
317.607	97.69
317.836	88.69
318.065	81.69
318.295	88.69
318.524	80.69
318.753	92.69
318.983	115.69
319.212	94.69
319.441	100.69
319.67	111.69
319.9	90.69
320.129	86.69
320.358	105.69
320.587	97.69
320.816	94.69
321.046	97.69
321.275	84.69
321.504	86.69
321.733	94.69
321.962	96.69
322.191	108.69
322.42	92.69
322.649	121.69
322.878	114.69
323.108	118.69
323.337	120.69
323.566	146.69
323.795	167.69
324.024	200.69
324.253	421.69
324.482	867.69
324.71	1732.69
324.939	2249.69
325.168	865.69
325.397	270.69
325.626	141.69
325.855	127.69
326.084	121.69
326.313	139.69
326.542	151.69
326.77	237.69
326.999	466.69
327.228	931.69
327.457	1682.69
327.686	1383.69
327.914	423.69
328.143	314.69
328.372	377.69
328.6	213.69
328.829	141.69
329.058	147.69
329.287	162.69
329.515	117.69
329.744	159.69
329.972	249.69
330.201	443.69
330.43	665.69
330.658	367.69
330.887	204.69
331.115	167.69
331.344	116.69
331.572	107.69
331.801	130.69
332.03	100.69
332.258	112.69
332.486	100.69
332.715	92.69
332.943	108.69
333.172	103.69
333.4	100.69
333.629	124.69
333.857	169.69
334.085	220.69
334.314	435.69
334.542	763.69
334.771	783.69
334.999	247.69
335.227	135.69
335.455	101.69
335.684	98.69
335.912	98.69
336.14	89.69
336.369	88.69
336.597	104.69
336.825	117.69
337.053	93.69
337.281	101.69
337.51	92.69
337.738	98.69
337.966	86.69
338.194	104.69
338.422	93.69
338.65	87.69
338.878	83.69
339.106	87.69
339.334	97.69
339.562	84.69
339.79	95.69
340.018	90.69
340.246	89.69
340.474	98.69
340.702	82.69
340.93	90.69
341.158	94.69
341.386	93.69
341.614	81.69
341.842	93.69
342.07	85.69
342.298	82.69
342.526	87.69
342.754	96.69
342.981	73.69
343.209	86.69
343.437	92.69
343.665	83.69
343.893	79.69
344.12	85.69
344.348	97.69
344.576	80.69
344.804	92.69
345.031	90.69
345.259	108.69
345.487	104.69
345.714	95.69
345.942	90.69
346.17	86.69
346.397	93.69
346.625	83.69
346.853	97.69
347.08	99.69
347.308	89.69
347.535	95.69
347.763	103.69
347.99	84.69
348.218	103.69
348.445	107.69
348.673	113.69
348.9	91.69
349.128	105.69
349.355	103.69
349.583	89.69
349.81	69.69
350.037	75.69
350.265	80.69
350.492	83.69
350.72	93.69
350.947	101.69
351.174	121.69
351.402	101.69
351.629	103.69
351.856	111.69
352.083	97.69
352.311	101.69
352.538	107.69
352.765	123.69
352.992	105.69
353.22	118.69
353.447	103.69
353.674	95.69
353.901	83.69
354.128	93.69
354.355	96.69
354.583	97.69
354.81	104.69
355.037	114.69
355.264	106.69
355.491	97.69
355.718	97.69
355.945	96.69
356.172	91.69
356.399	84.69
356.626	92.69
356.853	93.69
357.08	92.69
357.307	74.69
357.534	93.69
357.761	86.69
357.988	102.69
358.215	92.69
358.441	85.69
358.668	105.69
358.895	86.69
359.122	82.69
359.349	92.69
359.576	85.69
359.802	99.69
360.029	120.69
360.256	120.69
360.483	115.69
360.709	107.69
360.936	91.69
361.163	105.69
361.39	98.69
361.616	105.69
361.843	103.69
362.07	95.69
362.296	104.69
362.523	113.69
362.749	95.69
362.976	99.69
363.203	99.69
363.429	90.69
363.656	87.69
363.882	88.69
364.109	90.69
364.335	102.69
364.562	95.69
364.788	93.69
365.015	107.69
365.241	102.69
365.468	105.69
365.694	110.69
365.92	97.69
366.147	85.69
366.373	88.69
366.599	90.69
366.826	86.69
367.052	83.69
367.278	82.69
367.505	81.69
367.731	98.69
367.957	91.69
368.184	91.69
368.41	99.69
368.636	111.69
368.862	137.69
369.089	123.69
369.315	83.69
369.541	110.69
369.767	83.69
369.993	80.69
370.219	96.69
370.445	85.69
370.672	99.69
370.898	92.69
371.124	82.69
371.35	96.69
371.576	73.69
371.802	88.69
372.028	98.69
372.254	91.69
372.48	77.69
372.706	99.69
372.932	79.69
373.158	79.69
373.384	83.69
373.61	83.69
373.835	100.69
374.061	79.69
374.287	80.69
374.513	86.69
374.739	96.69
374.965	93.69
375.191	70.69
375.416	88.69
375.642	95.69
375.868	90.69
376.094	88.69
376.319	97.69
376.545	84.69
376.771	82.69
376.997	81.69
377.222	87.69
377.448	100.69
377.674	84.69
377.899	84.69
378.125	81.69
378.35	100.69
378.576	78.69
378.802	96.69
379.027	82.69
379.253	97.69
379.478	102.69
379.704	89.69
379.929	88.69
380.155	88.69
380.38	97.69
380.606	88.69
380.831	94.69
381.057	95.69
381.282	83.69
381.507	102.69
381.733	106.69
381.958	91.69
382.184	102.69
382.409	90.69
382.634	118.69
382.86	107.69
383.085	105.69
383.31	108.69
383.535	96.69
383.761	92.69
383.986	105.69
384.211	98.69
384.436	100.69
384.662	93.69
384.887	98.69
385.112	107.69
385.337	100.69
385.562	109.69
385.787	113.69
386.013	121.69
386.238	119.69
386.463	111.69
386.688	104.69
386.913	109.69
387.138	109.69
387.363	111.69
387.588	89.69
387.813	92.69
388.038	101.69
388.263	111.69
388.488	117.69
388.713	88.69
388.938	83.69
389.163	102.69
389.387	89.69
389.612	100.69
389.837	113.69
390.062	74.69
390.287	83.69
390.512	89.69
390.736	84.69
390.961	76.69
391.186	87.69
391.411	90.69
391.636	91.69
391.86	84.69
392.085	84.69
392.31	98.69
392.534	69.69
392.759	91.69
392.984	73.69
393.208	86.69
393.433	90.69
393.658	87.69
393.882	82.69
394.107	96.69
394.331	78.69
394.556	79.69
394.78	83.69
395.005	82.69
395.229	79.69
395.454	85.69
395.678	98.69
395.903	82.69
396.127	104.69
396.352	84.69
396.576	96.69
396.801	74.69
397.025	88.69
397.249	77.69
397.474	103.69
397.698	98.69
397.922	87.69
398.147	84.69
398.371	84.69
398.595	72.69
398.82	79.69
399.044	83.69
399.268	92.69
399.492	87.69
399.717	92.69
399.941	88.69
400.165	81.69
400.389	102.69
400.613	95.69
400.837	95.69
401.062	96.69
401.286	95.69
401.51	88.69
401.734	89.69
401.958	112.69
402.182	144.69
402.406	195.69
402.63	151.69
402.854	111.69
403.078	92.69
403.302	82.69
403.526	92.69
403.75	101.69
403.974	90.69
404.198	99.69
404.422	73.69
404.645	82.69
404.869	99.69
405.093	114.69
405.317	114.69
405.541	124.69
405.765	92.69
405.988	118.69
406.212	203.69
406.436	309.69
406.66	193.69
406.883	116.69
407.107	101.69
407.331	106.69
407.555	86.69
407.778	92.69
408.002	99.69
408.226	75.69
408.449	88.69
408.673	82.69
408.896	92.69
409.12	91.69
409.344	95.69
409.567	77.69
409.791	94.69
410.014	86.69
410.238	90.69
410.461	91.69
410.685	87.69
410.908	99.69
411.132	104.69
411.355	101.69
411.578	82.69
411.802	83.69
412.025	103.69
412.249	96.69
412.472	105.69
412.695	105.69
412.919	99.69
413.142	93.69
413.365	98.69
413.589	87.69
413.812	85.69
414.035	96.69
414.258	79.69
414.482	87.69
414.705	91.69
414.928	99.69
415.151	82.69
415.374	92.69
415.597	77.69
415.821	93.69
416.044	95.69
416.267	90.69
416.49	85.69
416.713	88.69
416.936	90.69
417.159	83.69
417.382	96.69
417.605	98.69
417.828	96.69
418.051	106.69
418.274	94.69
418.497	76.69
418.72	87.69
418.943	88.69
419.166	92.69
419.389	85.69
419.611	88.69
419.834	97.69
420.057	83.69
420.28	76.69
420.503	97.69
420.726	88.69
420.948	105.69
421.171	101.69
421.394	84.69
421.617	93.69
421.839	86.69
422.062	95.69
422.285	81.69
422.507	92.69
422.73	100.69
422.953	111.69
423.175	79.69
423.398	79.69
423.621	89.69
423.843	85.69
424.066	97.69
424.288	89.69
424.511	83.69
424.733	86.69
424.956	101.69
425.178	104.69
425.401	114.69
425.623	112.69
425.846	94.69
426.068	100.69
426.291	98.69
426.513	89.69
426.735	85.69
426.958	83.69
427.18	118.69
427.402	124.69
427.625	220.69
427.847	190.69
428.069	156.69
428.292	101.69
428.514	91.69
428.736	84.69
428.958	82.69
429.181	84.69
429.403	93.69
429.625	82.69
429.847	84.69
430.069	95.69
430.292	88.69
430.514	100.69
430.736	87.69
430.958	76.69
431.18	79.69
431.402	91.69
431.624	89.69
431.846	83.69
432.068	78.69
432.29	93.69
432.512	89.69
432.734	77.69
432.956	95.69
433.178	97.69
433.4	93.69
433.622	76.69
433.844	78.69
434.066	85.69
434.287	90.69
434.509	94.69
434.731	85.69
434.953	85.69
435.175	72.69
435.397	74.69
435.618	96.69
435.84	104.69
436.062	127.69
436.284	107.69
436.505	89.69
436.727	99.69
436.949	83.69
437.17	94.69
437.392	87.69
437.614	95.69
437.835	118.69
438.057	132.69
438.278	115.69
438.5	106.69
438.721	122.69
438.943	88.69
439.165	82.69
439.386	94.69
439.608	96.69
439.829	99.69
440.05	127.69
440.272	165.69
440.493	89.69
440.715	91.69
440.936	77.69
441.158	89.69
441.379	101.69
441.6	104.69
441.822	104.69
442.043	100.69
442.264	116.69
442.486	84.69
442.707	94.69
442.928	104.69
443.149	144.69
443.371	155.69
443.592	117.69
443.813	111.69
444.034	124.69
444.255	107.69
444.476	100.69
444.698	84.69
444.919	98.69
445.14	135.69
445.361	127.69
445.582	124.69
445.803	150.69
446.024	147.69
446.245	135.69
446.466	109.69
446.687	96.69
446.908	92.69
447.129	93.69
447.35	95.69
447.571	83.69
447.792	100.69
448.013	96.69
448.234	124.69
448.455	108.69
448.675	109.69
448.896	118.69
449.117	97.69
449.338	99.69
449.559	132.69
449.779	129.69
450	104.69
450.221	92.69
450.442	104.69
450.662	93.69
450.883	111.69
451.104	144.69
451.324	116.69
451.545	96.69
451.766	87.69
451.986	74.69
452.207	105.69
452.428	98.69
452.648	99.69
452.869	131.69
453.089	127.69
453.31	149.69
453.53	98.69
453.751	88.69
453.971	104.69
454.192	133.69
454.412	104.69
454.633	91.69
454.853	85.69
455.073	92.69
455.294	89.69
455.514	108.69
455.734	75.69
455.955	83.69
456.175	91.69
456.395	90.69
456.616	77.69
456.836	85.69
457.056	88.69
457.276	87.69
457.497	87.69
457.717	70.69
457.937	81.69
458.157	88.69
458.377	99.69
458.598	132.69
458.818	178.69
459.038	211.69
459.258	138.69
459.478	100.69
459.698	101.69
459.918	70.69
460.138	83.69
460.358	98.69
460.578	94.69
460.798	85.69
461.018	91.69
461.238	89.69
461.458	77.69
461.678	84.69
461.898	80.69
462.118	88.69
462.338	95.69
462.558	83.69
462.777	81.69
462.997	81.69
463.217	97.69
463.437	86.69
463.657	88.69
463.876	84.69
464.096	85.69
464.316	91.69
464.536	80.69
464.755	101.69
464.975	118.69
465.195	213.69
465.414	203.69
465.634	104.69
465.854	95.69
466.073	78.69
466.293	91.69
466.512	92.69
466.732	95.69
466.951	92.69
467.171	82.69
467.391	93.69
467.61	105.69
467.829	147.69
468.049	247.69
468.268	387.69
468.488	138.69
468.707	96.69
468.927	92.69
469.146	84.69
469.365	78.69
469.585	82.69
469.804	95.69
470.023	103.69
470.243	104.69
470.462	119.69
470.681	124.69
470.901	100.69
471.12	83.69
471.339	96.69
471.558	99.69
471.777	115.69
471.997	171.69
472.216	489.69
472.435	1127.69
472.654	297.69
472.873	121.69
473.092	105.69
473.311	75.69
473.53	84.69
473.749	101.69
473.968	93.69
474.187	121.69
474.406	116.69
474.625	95.69
474.844	76.69
475.063	86.69
475.282	83.69
475.501	90.69
475.72	91.69
475.939	72.69
476.158	83.69
476.377	88.69
476.596	101.69
476.814	93.69
477.033	105.69
477.252	96.69
477.471	98.69
477.69	72.69
477.908	107.69
478.127	96.69
478.346	91.69
478.564	92.69
478.783	104.69
479.002	74.69
479.22	105.69
479.439	117.69
479.658	114.69
479.876	96.69
480.095	85.69
480.313	97.69
480.532	116.69
480.751	159.69
480.969	437.69
481.188	1807.69
481.406	1173.69
481.624	212.69
481.843	105.69
482.061	92.69
482.28	101.69
482.498	97.69
482.717	102.69
482.935	93.69
483.153	98.69
483.372	91.69
483.59	92.69
483.808	83.69
484.027	94.69
484.245	93.69
484.463	91.69
484.681	101.69
484.9	90.69
485.118	90.69
485.336	89.69
485.554	93.69
485.772	92.69
485.99	89.69
486.209	103.69
486.427	101.69
486.645	116.69
486.863	122.69
487.081	106.69
487.299	98.69
487.517	106.69
487.735	88.69
487.953	89.69
488.171	92.69
488.389	99.69
488.607	103.69
488.825	87.69
489.043	100.69
489.261	90.69
489.479	83.69
489.696	85.69
489.914	83.69
490.132	74.69
490.35	95.69
490.568	77.69
490.786	77.69
491.003	74.69
491.221	74.69
491.439	89.69
491.657	95.69
491.874	90.69
492.092	74.69
492.31	89.69
492.527	81.69
492.745	84.69
492.963	82.69
493.18	80.69
493.398	97.69
493.615	89.69
493.833	99.69
494.05	80.69
494.268	83.69
494.485	99.69
494.703	86.69
494.92	88.69
495.138	87.69
495.355	91.69
495.573	88.69
495.79	82.69
496.008	86.69
496.225	76.69
496.442	88.69
496.66	87.69
496.877	84.69
497.094	91.69
497.312	95.69
497.529	91.69
497.746	95.69
497.963	85.69
498.181	90.69
498.398	100.69
498.615	109.69
498.832	122.69
499.049	89.69
499.267	85.69
499.484	91.69
499.701	93.69
499.918	80.69
500.135	100.69
500.352	90.69
500.569	87.69
500.786	96.69
501.003	88.69
501.22	92.69
501.437	80.69
501.654	78.69
501.871	116.69
502.088	86.69
502.305	95.69
502.522	100.69
502.739	74.69
502.956	90.69
503.172	92.69
503.389	100.69
503.606	119.69
503.823	115.69
504.04	89.69
504.256	83.69
504.473	90.69
504.69	90.69
504.907	76.69
505.123	93.69
505.34	85.69
505.557	91.69
505.773	82.69
505.99	103.69
506.207	87.69
506.423	70.69
506.64	90.69
506.856	90.69
507.073	107.69
507.289	98.69
507.506	100.69
507.722	113.69
507.939	131.69
508.155	99.69
508.372	89.69
508.588	95.69
508.805	94.69
509.021	99.69
509.238	93.69
509.454	84.69
509.67	103.69
509.887	107.69
510.103	141.69
510.319	208.69
510.536	862.69
510.752	3066.69
510.968	883.69
511.184	187.69
511.401	123.69
511.617	107.69
511.833	108.69
512.049	90.69
512.265	94.69
512.481	90.69
512.698	87.69
512.914	82.69
513.13	98.69
513.346	93.69
513.562	79.69
513.778	91.69
513.994	86.69
514.21	109.69
514.426	132.69
514.642	162.69
514.858	149.69
