Data from Circ_2013_H10_HRD10591_00046.txt Node
Date: Wed Jan 03 10:04:09 EST 2024
User: Yrep
Spectrometer: HR+D1059
Trigger mode: 1
Integration Time (sec): 1.000000E-1
Scans to average: 1
Electric dark correction enabled: true
Nonlinearity correction enabled: false
Boxcar width: 0
XAxis mode: Wavelengths
Number of Pixels in Spectrum: 2048
>>>>>Begin Spectral Data<<<<<
223.165	-12.88
223.4	-12.88
223.635	-12.88
223.869	-20.88
224.104	-10.88
224.338	-6.88
224.573	-23.88
224.808	-11.88
225.042	-11.88
225.277	-8.88
225.511	2.12
225.746	0.12
225.98	-5.88
226.215	23.12
226.449	16.12
226.683	25.12
226.918	24.12
227.152	23.12
227.387	35.12
227.621	45.12
227.856	34.12
228.09	45.12
228.324	48.12
228.559	44.12
228.793	74.12
229.027	64.12
229.262	52.12
229.496	79.12
229.73	87.12
229.964	90.12
230.199	73.12
230.433	57.12
230.667	87.12
230.901	82.12
231.136	63.12
231.37	80.12
231.604	87.12
231.838	72.12
232.072	89.12
232.306	82.12
232.541	85.12
232.775	72.12
233.009	67.12
233.243	75.12
233.477	83.12
233.711	78.12
233.945	70.12
234.179	76.12
234.413	80.12
234.647	82.12
234.881	82.12
235.115	80.12
235.349	53.12
235.583	71.12
235.817	59.12
236.051	72.12
236.285	74.12
236.519	76.12
236.753	77.12
236.987	67.12
237.221	72.12
237.455	72.12
237.689	80.12
237.922	75.12
238.156	80.12
238.39	62.12
238.624	67.12
238.858	70.12
239.091	67.12
239.325	73.12
239.559	83.12
239.793	77.12
240.027	79.12
240.26	81.12
240.494	84.12
240.728	61.12
240.961	98.12
241.195	76.12
241.429	64.12
241.662	72.12
241.896	76.12
242.13	74.12
242.363	86.12
242.597	76.12
242.83	63.12
243.064	70.12
243.298	87.12
243.531	73.12
243.765	82.12
243.998	71.12
244.232	86.12
244.465	94.12
244.699	74.12
244.932	83.12
245.166	70.12
245.399	73.12
245.633	65.12
245.866	68.12
246.099	84.12
246.333	75.12
246.566	86.12
246.8	80.12
247.033	82.12
247.266	76.12
247.5	74.12
247.733	64.12
247.966	87.12
248.2	87.12
248.433	71.12
248.666	87.12
248.899	67.12
249.133	89.12
249.366	103.12
249.599	95.12
249.832	90.12
250.066	94.12
250.299	89.12
250.532	87.12
250.765	89.12
250.998	81.12
251.231	81.12
251.465	91.12
251.698	83.12
251.931	94.12
252.164	80.12
252.397	90.12
252.63	76.12
252.863	71.12
253.096	88.12
253.329	81.12
253.562	79.12
253.795	93.12
254.028	82.12
254.261	76.12
254.494	90.12
254.727	95.12
254.96	94.12
255.193	92.12
255.426	77.12
255.659	81.12
255.892	83.12
256.124	94.12
256.357	89.12
256.59	79.12
256.823	90.12
257.056	92.12
257.289	94.12
257.521	79.12
257.754	78.12
257.987	76.12
258.22	83.12
258.452	94.12
258.685	89.12
258.918	88.12
259.151	79.12
259.383	86.12
259.616	83.12
259.849	90.12
260.081	78.12
260.314	80.12
260.547	89.12
260.779	85.12
261.012	98.12
261.244	97.12
261.477	98.12
261.71	90.12
261.942	128.12
262.175	137.12
262.407	78.12
262.64	81.12
262.872	77.12
263.105	77.12
263.337	90.12
263.57	79.12
263.802	69.12
264.035	71.12
264.267	75.12
264.499	70.12
264.732	87.12
264.964	80.12
265.197	83.12
265.429	89.12
265.661	76.12
265.894	83.12
266.126	88.12
266.358	83.12
266.591	74.12
266.823	71.12
267.055	74.12
267.287	90.12
267.52	78.12
267.752	79.12
267.984	75.12
268.216	88.12
268.448	83.12
268.681	95.12
268.913	75.12
269.145	92.12
269.377	84.12
269.609	86.12
269.841	92.12
270.073	88.12
270.306	75.12
270.538	91.12
270.77	76.12
271.002	82.12
271.234	78.12
271.466	98.12
271.698	83.12
271.93	83.12
272.162	76.12
272.394	86.12
272.626	90.12
272.858	87.12
273.09	82.12
273.322	88.12
273.553	78.12
273.785	86.12
274.017	81.12
274.249	88.12
274.481	89.12
274.713	81.12
274.945	88.12
275.176	84.12
275.408	92.12
275.64	96.12
275.872	108.12
276.104	87.12
276.335	87.12
276.567	111.12
276.799	134.12
277.031	142.12
277.262	151.12
277.494	107.12
277.726	89.12
277.957	95.12
278.189	83.12
278.421	95.12
278.652	98.12
278.884	97.12
279.115	90.12
279.347	93.12
279.579	110.12
279.81	101.12
280.042	144.12
280.273	184.12
280.505	144.12
280.736	105.12
280.968	110.12
281.199	77.12
281.431	82.12
281.662	103.12
281.894	88.12
282.125	90.12
282.356	135.12
282.588	150.12
282.819	110.12
283.051	89.12
283.282	71.12
283.513	91.12
283.745	103.12
283.976	81.12
284.207	90.12
284.439	82.12
284.67	75.12
284.901	98.12
285.132	89.12
285.364	70.12
285.595	90.12
285.826	81.12
286.057	82.12
286.288	83.12
286.52	100.12
286.751	83.12
286.982	78.12
287.213	94.12
287.444	99.12
287.675	82.12
287.906	102.12
288.138	82.12
288.369	99.12
288.6	97.12
288.831	85.12
289.062	86.12
289.293	90.12
289.524	86.12
289.755	74.12
289.986	87.12
290.217	69.12
290.448	86.12
290.679	87.12
290.91	83.12
291.141	70.12
291.371	91.12
291.602	71.12
291.833	68.12
292.064	80.12
292.295	83.12
292.526	82.12
292.757	87.12
292.987	91.12
293.218	83.12
293.449	89.12
293.68	83.12
293.91	76.12
294.141	106.12
294.372	86.12
294.603	89.12
294.833	84.12
295.064	68.12
295.295	82.12
295.525	87.12
295.756	88.12
295.987	124.12
296.217	169.12
296.448	138.12
296.679	86.12
296.909	86.12
297.14	81.12
297.37	85.12
297.601	96.12
297.831	84.12
298.062	93.12
298.292	83.12
298.523	92.12
298.753	89.12
298.984	101.12
299.214	105.12
299.445	91.12
299.675	110.12
299.905	94.12
300.136	82.12
300.366	90.12
300.597	98.12
300.827	90.12
301.057	107.12
301.288	114.12
301.518	104.12
301.748	76.12
301.979	96.12
302.209	90.12
302.439	86.12
302.669	91.12
302.9	118.12
303.13	83.12
303.36	93.12
303.59	122.12
303.82	122.12
304.051	99.12
304.281	83.12
304.511	96.12
304.741	87.12
304.971	77.12
305.201	93.12
305.431	92.12
305.661	96.12
305.891	90.12
306.121	80.12
306.352	97.12
306.582	105.12
306.812	95.12
307.042	102.12
307.272	122.12
307.502	150.12
307.731	128.12
307.961	115.12
308.191	83.12
308.421	101.12
308.651	97.12
308.881	99.12
309.111	84.12
309.341	90.12
309.571	88.12
309.8	91.12
310.03	86.12
310.26	99.12
310.49	97.12
310.72	94.12
310.949	113.12
311.179	110.12
311.409	102.12
311.639	110.12
311.868	110.12
312.098	84.12
312.328	99.12
312.557	114.12
312.787	115.12
313.017	108.12
313.246	103.12
313.476	99.12
313.706	84.12
313.935	96.12
314.165	105.12
314.394	100.12
314.624	110.12
314.853	88.12
315.083	83.12
315.312	73.12
315.542	94.12
315.771	91.12
316.001	86.12
316.23	90.12
316.46	94.12
316.689	86.12
316.919	93.12
317.148	91.12
317.377	94.12
317.607	103.12
317.836	110.12
318.065	97.12
318.295	86.12
318.524	98.12
318.753	89.12
318.983	94.12
319.212	99.12
319.441	124.12
319.67	140.12
319.9	102.12
320.129	83.12
320.358	88.12
320.587	110.12
320.816	107.12
321.046	91.12
321.275	104.12
321.504	101.12
321.733	101.12
321.962	108.12
322.191	107.12
322.42	99.12
322.649	117.12
322.878	110.12
323.108	130.12
323.337	130.12
323.566	145.12
323.795	176.12
324.024	248.12
324.253	482.12
324.482	1044.12
324.71	2120.12
324.939	2859.12
325.168	1044.12
325.397	301.12
325.626	169.12
325.855	136.12
326.084	127.12
326.313	146.12
326.542	166.12
326.77	272.12
326.999	508.12
327.228	1124.12
327.457	2080.12
327.686	1687.12
327.914	507.12
328.143	378.12
328.372	446.12
328.6	280.12
328.829	155.12
329.058	153.12
329.287	157.12
329.515	150.12
329.744	178.12
329.972	317.12
330.201	567.12
330.43	848.12
330.658	440.12
330.887	244.12
331.115	169.12
331.344	105.12
331.572	104.12
331.801	120.12
332.03	107.12
332.258	115.12
332.486	105.12
332.715	96.12
332.943	100.12
333.172	104.12
333.4	112.12
333.629	130.12
333.857	187.12
334.085	286.12
334.314	550.12
334.542	1066.12
334.771	1064.12
334.999	290.12
335.227	148.12
335.455	118.12
335.684	99.12
335.912	100.12
336.14	110.12
336.369	98.12
336.597	116.12
336.825	118.12
337.053	97.12
337.281	94.12
337.51	98.12
337.738	91.12
337.966	102.12
338.194	98.12
338.422	103.12
338.65	89.12
338.878	86.12
339.106	82.12
339.334	102.12
339.562	101.12
339.79	92.12
340.018	88.12
340.246	89.12
340.474	110.12
340.702	102.12
340.93	83.12
341.158	95.12
341.386	100.12
341.614	89.12
341.842	104.12
342.07	86.12
342.298	95.12
342.526	90.12
342.754	78.12
342.981	85.12
343.209	86.12
343.437	99.12
343.665	92.12
343.893	98.12
344.12	97.12
344.348	100.12
344.576	97.12
344.804	72.12
345.031	84.12
345.259	106.12
345.487	101.12
345.714	103.12
345.942	103.12
346.17	96.12
346.397	97.12
346.625	116.12
346.853	94.12
347.08	82.12
347.308	87.12
347.535	114.12
347.763	99.12
347.99	103.12
348.218	103.12
348.445	104.12
348.673	97.12
348.9	109.12
349.128	101.12
349.355	94.12
349.583	88.12
349.81	88.12
350.037	104.12
350.265	111.12
350.492	97.12
350.72	98.12
350.947	92.12
351.174	115.12
351.402	130.12
351.629	103.12
351.856	102.12
352.083	115.12
352.311	115.12
352.538	116.12
352.765	118.12
352.992	104.12
353.22	126.12
353.447	114.12
353.674	110.12
353.901	101.12
354.128	80.12
354.355	102.12
354.583	112.12
354.81	100.12
355.037	81.12
355.264	106.12
355.491	87.12
355.718	83.12
355.945	84.12
356.172	85.12
356.399	91.12
356.626	87.12
356.853	87.12
357.08	90.12
357.307	98.12
357.534	108.12
357.761	93.12
357.988	91.12
358.215	78.12
358.441	91.12
358.668	80.12
358.895	102.12
359.122	97.12
359.349	101.12
359.576	93.12
359.802	124.12
360.029	132.12
360.256	137.12
360.483	100.12
360.709	79.12
360.936	98.12
361.163	93.12
361.39	94.12
361.616	102.12
361.843	90.12
362.07	86.12
362.296	98.12
362.523	99.12
362.749	110.12
362.976	90.12
363.203	96.12
363.429	103.12
363.656	98.12
363.882	94.12
364.109	72.12
364.335	73.12
364.562	89.12
364.788	94.12
365.015	86.12
365.241	100.12
365.468	119.12
365.694	114.12
365.92	103.12
366.147	88.12
366.373	77.12
366.599	91.12
366.826	89.12
367.052	87.12
367.278	91.12
367.505	91.12
367.731	85.12
367.957	105.12
368.184	82.12
368.41	114.12
368.636	122.12
368.862	139.12
369.089	112.12
369.315	105.12
369.541	83.12
369.767	89.12
369.993	83.12
370.219	95.12
370.445	76.12
370.672	85.12
370.898	81.12
371.124	92.12
371.35	76.12
371.576	76.12
371.802	92.12
372.028	76.12
372.254	88.12
372.48	97.12
372.706	70.12
372.932	78.12
373.158	87.12
373.384	80.12
373.61	110.12
373.835	86.12
374.061	66.12
374.287	83.12
374.513	88.12
374.739	91.12
374.965	99.12
375.191	100.12
375.416	86.12
375.642	78.12
375.868	98.12
376.094	84.12
376.319	85.12
376.545	90.12
376.771	76.12
376.997	88.12
377.222	83.12
377.448	87.12
377.674	94.12
377.899	92.12
378.125	87.12
378.35	90.12
378.576	79.12
378.802	80.12
379.027	75.12
379.253	85.12
379.478	82.12
379.704	90.12
379.929	82.12
380.155	79.12
380.38	101.12
380.606	85.12
380.831	91.12
381.057	91.12
381.282	78.12
381.507	102.12
381.733	93.12
381.958	106.12
382.184	106.12
382.409	102.12
382.634	112.12
382.86	102.12
383.085	107.12
383.31	95.12
383.535	80.12
383.761	107.12
383.986	92.12
384.211	90.12
384.436	96.12
384.662	98.12
384.887	107.12
385.112	98.12
385.337	100.12
385.562	108.12
385.787	102.12
386.013	108.12
386.238	115.12
386.463	120.12
386.688	96.12
386.913	106.12
387.138	90.12
387.363	105.12
387.588	85.12
387.813	97.12
388.038	99.12
388.263	99.12
388.488	104.12
388.713	92.12
388.938	98.12
389.163	82.12
389.387	99.12
389.612	94.12
389.837	80.12
390.062	78.12
390.287	75.12
390.512	91.12
390.736	92.12
390.961	87.12
391.186	92.12
391.411	89.12
391.636	87.12
391.86	82.12
392.085	89.12
392.31	73.12
392.534	94.12
392.759	94.12
392.984	87.12
393.208	80.12
393.433	83.12
393.658	84.12
393.882	90.12
394.107	78.12
394.331	73.12
394.556	99.12
394.78	86.12
395.005	78.12
395.229	88.12
395.454	92.12
395.678	85.12
395.903	98.12
396.127	90.12
396.352	93.12
396.576	91.12
396.801	66.12
397.025	75.12
397.249	76.12
397.474	86.12
397.698	73.12
397.922	86.12
398.147	86.12
398.371	81.12
398.595	89.12
398.82	75.12
399.044	73.12
399.268	89.12
399.492	82.12
399.717	89.12
399.941	90.12
400.165	93.12
400.389	91.12
400.613	84.12
400.837	82.12
401.062	83.12
401.286	98.12
401.51	98.12
401.734	88.12
401.958	114.12
402.182	139.12
402.406	206.12
402.63	147.12
402.854	113.12
403.078	92.12
403.302	87.12
403.526	90.12
403.75	75.12
403.974	92.12
404.198	91.12
404.422	78.12
404.645	72.12
404.869	84.12
405.093	114.12
405.317	118.12
405.541	131.12
405.765	120.12
405.988	131.12
406.212	216.12
406.436	299.12
406.66	177.12
406.883	104.12
407.107	87.12
407.331	99.12
407.555	99.12
407.778	97.12
408.002	96.12
408.226	82.12
408.449	84.12
408.673	84.12
408.896	92.12
409.12	92.12
409.344	96.12
409.567	81.12
409.791	94.12
410.014	87.12
410.238	79.12
410.461	88.12
410.685	83.12
410.908	88.12
411.132	96.12
411.355	103.12
411.578	89.12
411.802	92.12
412.025	85.12
412.249	91.12
412.472	112.12
412.695	122.12
412.919	94.12
413.142	95.12
413.365	80.12
413.589	92.12
413.812	81.12
414.035	91.12
414.258	94.12
414.482	82.12
414.705	94.12
414.928	92.12
415.151	86.12
415.374	91.12
415.597	100.12
415.821	82.12
416.044	85.12
416.267	86.12
416.49	100.12
416.713	102.12
416.936	78.12
417.159	80.12
417.382	83.12
417.605	107.12
417.828	107.12
418.051	98.12
418.274	82.12
418.497	79.12
418.72	102.12
418.943	82.12
419.166	99.12
419.389	81.12
419.611	80.12
419.834	81.12
420.057	83.12
420.28	89.12
420.503	87.12
420.726	96.12
420.948	84.12
421.171	88.12
421.394	95.12
421.617	90.12
421.839	90.12
422.062	77.12
422.285	96.12
422.507	99.12
422.73	97.12
422.953	108.12
423.175	93.12
423.398	87.12
423.621	87.12
423.843	86.12
424.066	71.12
424.288	78.12
424.511	93.12
424.733	96.12
424.956	113.12
425.178	100.12
425.401	108.12
425.623	96.12
425.846	94.12
426.068	102.12
426.291	95.12
426.513	99.12
426.735	89.12
426.958	87.12
427.18	122.12
427.402	146.12
427.625	234.12
427.847	203.12
428.069	191.12
428.292	120.12
428.514	89.12
428.736	76.12
428.958	82.12
429.181	78.12
429.403	87.12
429.625	92.12
429.847	93.12
430.069	104.12
430.292	105.12
430.514	95.12
430.736	73.12
430.958	76.12
431.18	73.12
431.402	85.12
431.624	78.12
431.846	82.12
432.068	84.12
432.29	84.12
432.512	82.12
432.734	81.12
432.956	100.12
433.178	104.12
433.4	119.12
433.622	96.12
433.844	84.12
434.066	88.12
434.287	91.12
434.509	99.12
434.731	88.12
434.953	82.12
435.175	78.12
435.397	93.12
435.618	102.12
435.84	93.12
436.062	125.12
436.284	123.12
436.505	98.12
436.727	106.12
436.949	80.12
437.17	92.12
437.392	73.12
437.614	92.12
437.835	123.12
438.057	148.12
438.278	110.12
438.5	108.12
438.721	130.12
438.943	86.12
439.165	89.12
439.386	83.12
439.608	88.12
439.829	98.12
440.05	144.12
440.272	179.12
440.493	113.12
440.715	99.12
440.936	83.12
441.158	94.12
441.379	84.12
441.6	90.12
441.822	106.12
442.043	102.12
442.264	100.12
442.486	105.12
442.707	83.12
442.928	105.12
443.149	180.12
443.371	162.12
443.592	115.12
443.813	117.12
444.034	105.12
444.255	78.12
444.476	91.12
444.698	99.12
444.919	86.12
445.14	141.12
445.361	138.12
445.582	126.12
445.803	177.12
446.024	155.12
446.245	164.12
446.466	132.12
446.687	92.12
446.908	76.12
447.129	83.12
447.35	99.12
447.571	94.12
447.792	99.12
448.013	117.12
448.234	129.12
448.455	113.12
448.675	119.12
448.896	126.12
449.117	110.12
449.338	106.12
449.559	144.12
449.779	140.12
450	97.12
450.221	94.12
450.442	84.12
450.662	99.12
450.883	107.12
451.104	136.12
451.324	101.12
451.545	89.12
451.766	86.12
451.986	94.12
452.207	84.12
452.428	87.12
452.648	93.12
452.869	122.12
453.089	136.12
453.31	122.12
453.53	97.12
453.751	95.12
453.971	114.12
454.192	133.12
454.412	89.12
454.633	90.12
454.853	85.12
455.073	72.12
455.294	87.12
455.514	99.12
455.734	94.12
455.955	71.12
456.175	87.12
456.395	84.12
456.616	84.12
456.836	76.12
457.056	75.12
457.276	97.12
457.497	79.12
457.717	92.12
457.937	91.12
458.157	94.12
458.377	94.12
458.598	130.12
458.818	201.12
459.038	223.12
459.258	129.12
459.478	99.12
459.698	90.12
459.918	88.12
460.138	97.12
460.358	71.12
460.578	87.12
460.798	97.12
461.018	76.12
461.238	79.12
461.458	88.12
461.678	74.12
461.898	75.12
462.118	75.12
462.338	81.12
462.558	84.12
462.777	79.12
462.997	85.12
463.217	100.12
463.437	104.12
463.657	105.12
463.876	88.12
464.096	92.12
464.316	78.12
464.536	98.12
464.755	96.12
464.975	123.12
465.195	214.12
465.414	233.12
465.634	116.12
465.854	89.12
466.073	90.12
466.293	90.12
466.512	88.12
466.732	86.12
466.951	103.12
467.171	95.12
467.391	109.12
467.61	116.12
467.829	174.12
468.049	346.12
468.268	520.12
468.488	168.12
468.707	104.12
468.927	86.12
469.146	85.12
469.365	81.12
469.585	93.12
469.804	108.12
470.023	112.12
470.243	107.12
470.462	114.12
470.681	115.12
470.901	82.12
471.12	88.12
471.339	91.12
471.558	96.12
471.777	123.12
471.997	208.12
472.216	625.12
472.435	1458.12
472.654	404.12
472.873	127.12
473.092	95.12
473.311	76.12
473.53	89.12
473.749	98.12
473.968	99.12
474.187	119.12
474.406	102.12
474.625	98.12
474.844	77.12
475.063	91.12
475.282	87.12
475.501	90.12
475.72	82.12
475.939	76.12
476.158	95.12
476.377	93.12
476.596	93.12
476.814	96.12
477.033	87.12
477.252	78.12
477.471	74.12
477.69	104.12
477.908	93.12
478.127	92.12
478.346	88.12
478.564	95.12
478.783	112.12
479.002	110.12
479.22	89.12
479.439	115.12
479.658	115.12
479.876	104.12
480.095	105.12
480.313	97.12
480.532	134.12
480.751	188.12
480.969	599.12
481.188	2379.12
481.406	1593.12
481.624	267.12
481.843	112.12
482.061	89.12
482.28	100.12
482.498	96.12
482.717	95.12
482.935	85.12
483.153	84.12
483.372	88.12
483.59	92.12
483.808	86.12
484.027	83.12
484.245	91.12
484.463	94.12
484.681	90.12
484.9	75.12
485.118	93.12
485.336	103.12
485.554	117.12
485.772	98.12
485.99	96.12
486.209	85.12
486.427	103.12
486.645	112.12
486.863	124.12
487.081	100.12
487.299	101.12
487.517	95.12
487.735	87.12
487.953	78.12
488.171	90.12
488.389	88.12
488.607	105.12
488.825	91.12
489.043	88.12
489.261	92.12
489.479	97.12
489.696	80.12
489.914	83.12
490.132	65.12
490.35	91.12
490.568	97.12
490.786	83.12
491.003	86.12
491.221	111.12
491.439	92.12
491.657	83.12
491.874	85.12
492.092	98.12
492.31	92.12
492.527	80.12
492.745	86.12
492.963	90.12
493.18	91.12
493.398	98.12
493.615	96.12
493.833	95.12
494.05	86.12
494.268	91.12
494.485	103.12
494.703	106.12
494.92	92.12
495.138	78.12
495.355	99.12
495.573	88.12
495.79	78.12
496.008	101.12
496.225	88.12
496.442	83.12
496.66	79.12
496.877	75.12
497.094	90.12
497.312	89.12
497.529	98.12
497.746	92.12
497.963	86.12
498.181	93.12
498.398	95.12
498.615	117.12
498.832	107.12
499.049	105.12
499.267	94.12
499.484	84.12
499.701	94.12
499.918	88.12
500.135	84.12
500.352	94.12
500.569	82.12
500.786	94.12
501.003	87.12
501.22	101.12
501.437	106.12
501.654	91.12
501.871	116.12
502.088	89.12
502.305	94.12
502.522	98.12
502.739	90.12
502.956	100.12
503.172	80.12
503.389	94.12
503.606	118.12
503.823	90.12
504.04	97.12
504.256	94.12
504.473	92.12
504.69	99.12
504.907	90.12
505.123	87.12
505.34	74.12
505.557	89.12
505.773	79.12
505.99	87.12
506.207	76.12
506.423	97.12
506.64	98.12
506.856	98.12
507.073	86.12
507.289	96.12
507.506	99.12
507.722	126.12
507.939	136.12
508.155	87.12
508.372	106.12
508.588	91.12
508.805	96.12
509.021	99.12
509.238	82.12
509.454	100.12
509.67	102.12
509.887	111.12
510.103	138.12
510.319	224.12
510.536	853.12
510.752	3113.12
510.968	866.12
511.184	174.12
511.401	134.12
511.617	99.12
511.833	98.12
512.049	92.12
512.265	98.12
512.481	87.12
512.698	95.12
512.914	99.12
513.13	105.12
513.346	95.12
513.562	82.12
513.778	89.12
513.994	94.12
514.21	101.12
514.426	115.12
514.642	164.12
