Data from Circ_2013_H10_HRD10591_00074.txt Node
Date: Wed Jan 03 10:04:15 EST 2024
User: Yrep
Spectrometer: HR+D1059
Trigger mode: 1
Integration Time (sec): 1.000000E-1
Scans to average: 1
Electric dark correction enabled: true
Nonlinearity correction enabled: false
Boxcar width: 0
XAxis mode: Wavelengths
Number of Pixels in Spectrum: 2048
>>>>>Begin Spectral Data<<<<<
223.165	-14.62
223.4	-14.62
223.635	-14.62
223.869	-18.62
224.104	-25.62
224.338	-14.62
224.573	-11.62
224.808	-3.62
225.042	-17.62
225.277	-3.62
225.511	-3.62
225.746	4.38
225.98	17.38
226.215	13.38
226.449	12.38
226.683	14.38
226.918	13.38
227.152	38.38
227.387	37.38
227.621	44.38
227.856	41.38
228.09	51.38
228.324	47.38
228.559	51.38
228.793	56.38
229.027	58.38
229.262	63.38
229.496	66.38
229.73	88.38
229.964	82.38
230.199	80.38
230.433	83.38
230.667	83.38
230.901	72.38
231.136	81.38
231.37	91.38
231.604	86.38
231.838	91.38
232.072	79.38
232.306	85.38
232.541	84.38
232.775	84.38
233.009	83.38
233.243	89.38
233.477	89.38
233.711	89.38
233.945	74.38
234.179	91.38
234.413	83.38
234.647	91.38
234.881	66.38
235.115	70.38
235.349	86.38
235.583	77.38
235.817	89.38
236.051	90.38
236.285	85.38
236.519	75.38
236.753	92.38
236.987	88.38
237.221	74.38
237.455	88.38
237.689	89.38
237.922	78.38
238.156	89.38
238.39	75.38
238.624	71.38
238.858	86.38
239.091	95.38
239.325	90.38
239.559	85.38
239.793	87.38
240.027	86.38
240.26	81.38
240.494	76.38
240.728	87.38
240.961	89.38
241.195	74.38
241.429	72.38
241.662	83.38
241.896	83.38
242.13	91.38
242.363	89.38
242.597	78.38
242.83	66.38
243.064	87.38
243.298	73.38
243.531	70.38
243.765	73.38
243.998	92.38
244.232	95.38
244.465	88.38
244.699	82.38
244.932	87.38
245.166	83.38
245.399	87.38
245.633	77.38
245.866	82.38
246.099	90.38
246.333	76.38
246.566	76.38
246.8	94.38
247.033	71.38
247.266	78.38
247.5	74.38
247.733	89.38
247.966	79.38
248.2	94.38
248.433	79.38
248.666	73.38
248.899	77.38
249.133	105.38
249.366	100.38
249.599	90.38
249.832	83.38
250.066	88.38
250.299	82.38
250.532	82.38
250.765	87.38
250.998	96.38
251.231	85.38
251.465	93.38
251.698	81.38
251.931	98.38
252.164	85.38
252.397	90.38
252.63	86.38
252.863	87.38
253.096	98.38
253.329	94.38
253.562	80.38
253.795	96.38
254.028	94.38
254.261	74.38
254.494	85.38
254.727	91.38
254.96	91.38
255.193	84.38
255.426	82.38
255.659	97.38
255.892	101.38
256.124	89.38
256.357	98.38
256.59	91.38
256.823	78.38
257.056	90.38
257.289	102.38
257.521	97.38
257.754	93.38
257.987	83.38
258.22	103.38
258.452	102.38
258.685	94.38
258.918	89.38
259.151	81.38
259.383	75.38
259.616	88.38
259.849	87.38
260.081	76.38
260.314	89.38
260.547	91.38
260.779	85.38
261.012	97.38
261.244	106.38
261.477	92.38
261.71	111.38
261.942	133.38
262.175	133.38
262.407	97.38
262.64	106.38
262.872	84.38
263.105	88.38
263.337	95.38
263.57	84.38
263.802	95.38
264.035	79.38
264.267	87.38
264.499	71.38
264.732	89.38
264.964	90.38
265.197	82.38
265.429	92.38
265.661	88.38
265.894	101.38
266.126	86.38
266.358	94.38
266.591	91.38
266.823	88.38
267.055	85.38
267.287	80.38
267.52	96.38
267.752	84.38
267.984	83.38
268.216	85.38
268.448	90.38
268.681	79.38
268.913	87.38
269.145	87.38
269.377	97.38
269.609	96.38
269.841	93.38
270.073	90.38
270.306	75.38
270.538	96.38
270.77	89.38
271.002	96.38
271.234	93.38
271.466	93.38
271.698	96.38
271.93	77.38
272.162	93.38
272.394	77.38
272.626	87.38
272.858	93.38
273.09	87.38
273.322	110.38
273.553	91.38
273.785	82.38
274.017	80.38
274.249	75.38
274.481	101.38
274.713	82.38
274.945	87.38
275.176	109.38
275.408	95.38
275.64	113.38
275.872	109.38
276.104	93.38
276.335	125.38
276.567	106.38
276.799	139.38
277.031	150.38
277.262	159.38
277.494	124.38
277.726	82.38
277.957	101.38
278.189	104.38
278.421	85.38
278.652	94.38
278.884	76.38
279.115	105.38
279.347	99.38
279.579	107.38
279.81	117.38
280.042	142.38
280.273	195.38
280.505	141.38
280.736	90.38
280.968	93.38
281.199	101.38
281.431	85.38
281.662	94.38
281.894	106.38
282.125	103.38
282.356	104.38
282.588	158.38
282.819	121.38
283.051	97.38
283.282	95.38
283.513	94.38
283.745	89.38
283.976	94.38
284.207	105.38
284.439	93.38
284.67	101.38
284.901	95.38
285.132	103.38
285.364	92.38
285.595	87.38
285.826	93.38
286.057	94.38
286.288	91.38
286.52	89.38
286.751	89.38
286.982	82.38
287.213	92.38
287.444	82.38
287.675	88.38
287.906	92.38
288.138	104.38
288.369	91.38
288.6	92.38
288.831	83.38
289.062	95.38
289.293	97.38
289.524	91.38
289.755	76.38
289.986	89.38
290.217	79.38
290.448	95.38
290.679	103.38
290.91	95.38
291.141	73.38
291.371	80.38
291.602	88.38
291.833	93.38
292.064	87.38
292.295	94.38
292.526	93.38
292.757	95.38
292.987	93.38
293.218	96.38
293.449	105.38
293.68	95.38
293.91	107.38
294.141	101.38
294.372	95.38
294.603	97.38
294.833	103.38
295.064	90.38
295.295	98.38
295.525	104.38
295.756	114.38
295.987	130.38
296.217	168.38
296.448	139.38
296.679	107.38
296.909	100.38
297.14	97.38
297.37	96.38
297.601	93.38
297.831	93.38
298.062	96.38
298.292	110.38
298.523	97.38
298.753	80.38
298.984	96.38
299.214	91.38
299.445	85.38
299.675	96.38
299.905	98.38
300.136	90.38
300.366	95.38
300.597	92.38
300.827	97.38
301.057	109.38
301.288	128.38
301.518	119.38
301.748	86.38
301.979	107.38
302.209	95.38
302.439	89.38
302.669	93.38
302.9	82.38
303.13	112.38
303.36	99.38
303.59	124.38
303.82	119.38
304.051	113.38
304.281	103.38
304.511	117.38
304.741	94.38
304.971	96.38
305.201	89.38
305.431	99.38
305.661	103.38
305.891	88.38
306.121	92.38
306.352	103.38
306.582	110.38
306.812	113.38
307.042	119.38
307.272	144.38
307.502	162.38
307.731	144.38
307.961	123.38
308.191	87.38
308.421	84.38
308.651	91.38
308.881	87.38
309.111	80.38
309.341	95.38
309.571	105.38
309.8	91.38
310.03	98.38
310.26	99.38
310.49	101.38
310.72	112.38
310.949	114.38
311.179	130.38
311.409	90.38
311.639	118.38
311.868	102.38
312.098	96.38
312.328	112.38
312.557	117.38
312.787	118.38
313.017	109.38
313.246	99.38
313.476	95.38
313.706	101.38
313.935	106.38
314.165	117.38
314.394	118.38
314.624	111.38
314.853	97.38
315.083	83.38
315.312	98.38
315.542	90.38
315.771	93.38
316.001	92.38
316.23	86.38
316.46	98.38
316.689	95.38
316.919	88.38
317.148	103.38
317.377	94.38
317.607	116.38
317.836	91.38
318.065	87.38
318.295	92.38
318.524	111.38
318.753	98.38
318.983	108.38
319.212	99.38
319.441	120.38
319.67	114.38
319.9	106.38
320.129	103.38
320.358	96.38
320.587	98.38
320.816	96.38
321.046	122.38
321.275	101.38
321.504	98.38
321.733	102.38
321.962	103.38
322.191	101.38
322.42	114.38
322.649	128.38
322.878	127.38
323.108	131.38
323.337	132.38
323.566	150.38
323.795	159.38
324.024	218.38
324.253	414.38
324.482	926.38
324.71	1857.38
324.939	2403.38
325.168	885.38
325.397	263.38
325.626	153.38
325.855	136.38
326.084	134.38
326.313	133.38
326.542	169.38
326.77	249.38
326.999	487.38
327.228	973.38
327.457	1761.38
327.686	1386.38
327.914	450.38
328.143	390.38
328.372	450.38
328.6	273.38
328.829	169.38
329.058	173.38
329.287	172.38
329.515	150.38
329.744	200.38
329.972	350.38
330.201	652.38
330.43	919.38
330.658	439.38
330.887	233.38
331.115	173.38
331.344	127.38
331.572	114.38
331.801	114.38
332.03	105.38
332.258	122.38
332.486	119.38
332.715	110.38
332.943	117.38
333.172	113.38
333.4	122.38
333.629	136.38
333.857	183.38
334.085	332.38
334.314	602.38
334.542	1161.38
334.771	1083.38
334.999	311.38
335.227	151.38
335.455	131.38
335.684	108.38
335.912	107.38
336.14	93.38
336.369	109.38
336.597	107.38
336.825	125.38
337.053	100.38
337.281	92.38
337.51	99.38
337.738	106.38
337.966	95.38
338.194	111.38
338.422	104.38
338.65	97.38
338.878	105.38
339.106	88.38
339.334	88.38
339.562	90.38
339.79	95.38
340.018	95.38
340.246	99.38
340.474	104.38
340.702	97.38
340.93	78.38
341.158	99.38
341.386	120.38
341.614	103.38
341.842	94.38
342.07	96.38
342.298	85.38
342.526	108.38
342.754	98.38
342.981	96.38
343.209	99.38
343.437	86.38
343.665	78.38
343.893	107.38
344.12	99.38
344.348	88.38
344.576	86.38
344.804	99.38
345.031	98.38
345.259	84.38
345.487	103.38
345.714	103.38
345.942	106.38
346.17	106.38
346.397	99.38
346.625	92.38
346.853	112.38
347.08	95.38
347.308	92.38
347.535	99.38
347.763	121.38
347.99	103.38
348.218	121.38
348.445	127.38
348.673	118.38
348.9	103.38
349.128	117.38
349.355	79.38
349.583	104.38
349.81	95.38
350.037	98.38
350.265	82.38
350.492	100.38
350.72	117.38
350.947	114.38
351.174	114.38
351.402	126.38
351.629	105.38
351.856	108.38
352.083	110.38
352.311	117.38
352.538	129.38
352.765	126.38
352.992	122.38
353.22	109.38
353.447	106.38
353.674	96.38
353.901	100.38
354.128	108.38
354.355	97.38
354.583	98.38
354.81	99.38
355.037	98.38
355.264	99.38
355.491	83.38
355.718	90.38
355.945	83.38
356.172	86.38
356.399	91.38
356.626	86.38
356.853	88.38
357.08	90.38
357.307	94.38
357.534	88.38
357.761	94.38
357.988	103.38
358.215	94.38
358.441	81.38
358.668	93.38
358.895	95.38
359.122	87.38
359.349	86.38
359.576	91.38
359.802	105.38
360.029	120.38
360.256	139.38
360.483	106.38
360.709	88.38
360.936	95.38
361.163	91.38
361.39	103.38
361.616	87.38
361.843	104.38
362.07	96.38
362.296	88.38
362.523	108.38
362.749	99.38
362.976	102.38
363.203	98.38
363.429	104.38
363.656	98.38
363.882	98.38
364.109	91.38
364.335	95.38
364.562	98.38
364.788	92.38
365.015	104.38
365.241	97.38
365.468	111.38
365.694	125.38
365.92	117.38
366.147	97.38
366.373	86.38
366.599	92.38
366.826	82.38
367.052	101.38
367.278	94.38
367.505	77.38
367.731	98.38
367.957	92.38
368.184	89.38
368.41	97.38
368.636	127.38
368.862	133.38
369.089	114.38
369.315	107.38
369.541	110.38
369.767	101.38
369.993	89.38
370.219	106.38
370.445	98.38
370.672	98.38
370.898	86.38
371.124	67.38
371.35	104.38
371.576	82.38
371.802	82.38
372.028	104.38
372.254	89.38
372.48	88.38
372.706	87.38
372.932	86.38
373.158	108.38
373.384	105.38
373.61	88.38
373.835	86.38
374.061	98.38
374.287	106.38
374.513	96.38
374.739	95.38
374.965	92.38
375.191	84.38
375.416	94.38
375.642	104.38
375.868	113.38
376.094	95.38
376.319	93.38
376.545	92.38
376.771	94.38
376.997	97.38
377.222	97.38
377.448	105.38
377.674	102.38
377.899	94.38
378.125	96.38
378.35	105.38
378.576	93.38
378.802	84.38
379.027	91.38
379.253	85.38
379.478	103.38
379.704	94.38
379.929	118.38
380.155	89.38
380.38	104.38
380.606	106.38
380.831	94.38
381.057	113.38
381.282	92.38
381.507	96.38
381.733	112.38
381.958	99.38
382.184	99.38
382.409	101.38
382.634	105.38
382.86	106.38
383.085	107.38
383.31	100.38
383.535	99.38
383.761	106.38
383.986	114.38
384.211	95.38
384.436	95.38
384.662	97.38
384.887	103.38
385.112	102.38
385.337	85.38
385.562	94.38
385.787	107.38
386.013	109.38
386.238	111.38
386.463	93.38
386.688	114.38
386.913	106.38
387.138	110.38
387.363	110.38
387.588	100.38
387.813	101.38
388.038	103.38
388.263	100.38
388.488	100.38
388.713	105.38
388.938	94.38
389.163	89.38
389.387	83.38
389.612	88.38
389.837	116.38
390.062	115.38
390.287	104.38
390.512	83.38
390.736	93.38
390.961	95.38
391.186	91.38
391.411	101.38
391.636	92.38
391.86	88.38
392.085	89.38
392.31	94.38
392.534	94.38
392.759	93.38
392.984	77.38
393.208	83.38
393.433	91.38
393.658	101.38
393.882	96.38
394.107	86.38
394.331	90.38
394.556	87.38
394.78	83.38
395.005	70.38
395.229	92.38
395.454	88.38
395.678	89.38
395.903	95.38
396.127	76.38
396.352	74.38
396.576	98.38
396.801	115.38
397.025	88.38
397.249	91.38
397.474	78.38
397.698	84.38
397.922	91.38
398.147	86.38
398.371	87.38
398.595	93.38
398.82	98.38
399.044	89.38
399.268	97.38
399.492	80.38
399.717	83.38
399.941	96.38
400.165	97.38
400.389	103.38
400.613	99.38
400.837	96.38
401.062	96.38
401.286	94.38
401.51	92.38
401.734	88.38
401.958	107.38
402.182	130.38
402.406	189.38
402.63	146.38
402.854	99.38
403.078	110.38
403.302	94.38
403.526	107.38
403.75	94.38
403.974	92.38
404.198	94.38
404.422	89.38
404.645	93.38
404.869	112.38
405.093	108.38
405.317	124.38
405.541	135.38
405.765	126.38
405.988	127.38
406.212	205.38
406.436	284.38
406.66	191.38
406.883	104.38
407.107	96.38
407.331	104.38
407.555	97.38
407.778	101.38
408.002	102.38
408.226	94.38
408.449	79.38
408.673	101.38
408.896	95.38
409.12	104.38
409.344	94.38
409.567	85.38
409.791	80.38
410.014	99.38
410.238	113.38
410.461	89.38
410.685	95.38
410.908	89.38
411.132	96.38
411.355	93.38
411.578	106.38
411.802	95.38
412.025	96.38
412.249	110.38
412.472	118.38
412.695	135.38
412.919	106.38
413.142	103.38
413.365	101.38
413.589	85.38
413.812	95.38
414.035	102.38
414.258	108.38
414.482	89.38
414.705	95.38
414.928	88.38
415.151	97.38
415.374	98.38
415.597	92.38
415.821	105.38
416.044	98.38
416.267	95.38
416.49	100.38
416.713	93.38
416.936	99.38
417.159	91.38
417.382	87.38
417.605	101.38
417.828	106.38
418.051	90.38
418.274	91.38
418.497	84.38
418.72	85.38
418.943	92.38
419.166	107.38
419.389	102.38
419.611	83.38
419.834	93.38
420.057	93.38
420.28	76.38
420.503	96.38
420.726	78.38
420.948	103.38
421.171	105.38
421.394	93.38
421.617	90.38
421.839	100.38
422.062	89.38
422.285	108.38
422.507	105.38
422.73	121.38
422.953	93.38
423.175	95.38
423.398	81.38
423.621	73.38
423.843	96.38
424.066	93.38
424.288	92.38
424.511	109.38
424.733	104.38
424.956	112.38
425.178	122.38
425.401	105.38
425.623	103.38
425.846	112.38
426.068	86.38
426.291	101.38
426.513	91.38
426.735	91.38
426.958	98.38
427.18	117.38
427.402	160.38
427.625	208.38
427.847	203.38
428.069	176.38
428.292	117.38
428.514	85.38
428.736	87.38
428.958	84.38
429.181	84.38
429.403	102.38
429.625	95.38
429.847	92.38
430.069	112.38
430.292	88.38
430.514	86.38
430.736	85.38
430.958	82.38
431.18	99.38
431.402	79.38
431.624	97.38
431.846	81.38
432.068	80.38
432.29	98.38
432.512	97.38
432.734	95.38
432.956	90.38
433.178	97.38
433.4	81.38
433.622	82.38
433.844	83.38
434.066	97.38
434.287	110.38
434.509	90.38
434.731	95.38
434.953	99.38
435.175	86.38
435.397	95.38
435.618	100.38
435.84	111.38
436.062	129.38
436.284	120.38
436.505	96.38
436.727	103.38
436.949	101.38
437.17	97.38
437.392	81.38
437.614	91.38
437.835	113.38
438.057	141.38
438.278	124.38
438.5	132.38
438.721	126.38
438.943	121.38
439.165	104.38
439.386	97.38
439.608	100.38
439.829	109.38
440.05	139.38
440.272	165.38
440.493	109.38
440.715	104.38
440.936	104.38
441.158	101.38
441.379	93.38
441.6	91.38
441.822	107.38
442.043	104.38
442.264	118.38
442.486	116.38
442.707	100.38
442.928	118.38
443.149	151.38
443.371	161.38
443.592	132.38
443.813	122.38
444.034	113.38
444.255	109.38
444.476	98.38
444.698	90.38
444.919	87.38
445.14	140.38
445.361	130.38
445.582	123.38
445.803	176.38
446.024	172.38
446.245	147.38
446.466	133.38
446.687	90.38
446.908	91.38
447.129	94.38
447.35	94.38
447.571	96.38
447.792	101.38
448.013	106.38
448.234	111.38
448.455	117.38
448.675	112.38
448.896	135.38
449.117	102.38
449.338	105.38
449.559	139.38
449.779	154.38
450	103.38
450.221	103.38
450.442	99.38
450.662	93.38
450.883	125.38
451.104	126.38
451.324	106.38
451.545	98.38
451.766	94.38
451.986	98.38
452.207	87.38
452.428	91.38
452.648	110.38
452.869	118.38
453.089	135.38
453.31	143.38
453.53	106.38
453.751	102.38
453.971	103.38
454.192	130.38
454.412	96.38
454.633	97.38
454.853	98.38
455.073	100.38
455.294	95.38
455.514	112.38
455.734	101.38
455.955	89.38
456.175	93.38
456.395	91.38
456.616	98.38
456.836	101.38
457.056	95.38
457.276	86.38
457.497	78.38
457.717	78.38
457.937	94.38
458.157	92.38
458.377	97.38
458.598	132.38
458.818	177.38
459.038	201.38
459.258	153.38
459.478	106.38
459.698	93.38
459.918	89.38
460.138	94.38
460.358	83.38
460.578	103.38
460.798	78.38
461.018	97.38
461.238	82.38
461.458	97.38
461.678	95.38
461.898	93.38
462.118	86.38
462.338	89.38
462.558	90.38
462.777	86.38
462.997	105.38
463.217	101.38
463.437	103.38
463.657	77.38
463.876	91.38
464.096	83.38
464.316	82.38
464.536	99.38
464.755	91.38
464.975	112.38
465.195	216.38
465.414	208.38
465.634	109.38
465.854	88.38
466.073	102.38
466.293	97.38
466.512	81.38
466.732	81.38
466.951	87.38
467.171	104.38
467.391	105.38
467.61	143.38
467.829	163.38
468.049	373.38
468.268	535.38
468.488	161.38
468.707	89.38
468.927	84.38
469.146	92.38
469.365	91.38
469.585	86.38
469.804	97.38
470.023	103.38
470.243	109.38
470.462	103.38
470.681	115.38
470.901	110.38
471.12	89.38
471.339	109.38
471.558	114.38
471.777	135.38
471.997	206.38
472.216	697.38
472.435	1511.38
472.654	413.38
472.873	133.38
473.092	94.38
473.311	96.38
473.53	110.38
473.749	105.38
473.968	90.38
474.187	133.38
474.406	107.38
474.625	96.38
474.844	94.38
475.063	87.38
475.282	86.38
475.501	87.38
475.72	99.38
475.939	81.38
476.158	88.38
476.377	89.38
476.596	77.38
476.814	90.38
477.033	114.38
477.252	92.38
477.471	88.38
477.69	92.38
477.908	101.38
478.127	97.38
478.346	97.38
478.564	107.38
478.783	104.38
479.002	102.38
479.22	81.38
479.439	97.38
479.658	127.38
479.876	107.38
480.095	115.38
480.313	120.38
480.532	123.38
480.751	207.38
480.969	655.38
481.188	2598.38
481.406	1605.38
481.624	262.38
481.843	120.38
482.061	112.38
482.28	96.38
482.498	107.38
482.717	89.38
482.935	114.38
483.153	81.38
483.372	99.38
483.59	98.38
483.808	85.38
484.027	105.38
484.245	94.38
484.463	103.38
484.681	99.38
484.9	92.38
485.118	102.38
485.336	104.38
485.554	105.38
485.772	105.38
485.99	100.38
486.209	103.38
486.427	104.38
486.645	108.38
486.863	127.38
487.081	97.38
487.299	98.38
487.517	90.38
487.735	81.38
487.953	89.38
488.171	102.38
488.389	94.38
488.607	105.38
488.825	83.38
489.043	110.38
489.261	91.38
489.479	88.38
489.696	80.38
489.914	80.38
490.132	87.38
490.35	105.38
490.568	89.38
490.786	118.38
491.003	85.38
491.221	91.38
491.439	92.38
491.657	98.38
491.874	79.38
492.092	90.38
492.31	97.38
492.527	99.38
492.745	104.38
492.963	103.38
493.18	94.38
493.398	103.38
493.615	108.38
493.833	86.38
494.05	83.38
494.268	86.38
494.485	82.38
494.703	84.38
494.92	99.38
495.138	98.38
495.355	90.38
495.573	92.38
495.79	85.38
496.008	95.38
496.225	86.38
496.442	90.38
496.66	88.38
496.877	92.38
497.094	95.38
497.312	99.38
497.529	108.38
497.746	87.38
497.963	94.38
498.181	110.38
498.398	91.38
498.615	117.38
498.832	96.38
499.049	95.38
499.267	89.38
499.484	92.38
499.701	90.38
499.918	86.38
500.135	86.38
500.352	101.38
500.569	96.38
500.786	89.38
501.003	91.38
501.22	95.38
501.437	87.38
501.654	110.38
501.871	129.38
502.088	94.38
502.305	97.38
502.522	91.38
502.739	102.38
502.956	99.38
503.172	103.38
503.389	104.38
503.606	106.38
503.823	114.38
504.04	102.38
504.256	100.38
504.473	88.38
504.69	97.38
504.907	110.38
505.123	103.38
505.34	83.38
505.557	91.38
505.773	87.38
505.99	99.38
506.207	104.38
506.423	98.38
506.64	86.38
506.856	101.38
507.073	108.38
507.289	90.38
507.506	94.38
507.722	112.38
507.939	125.38
508.155	100.38
508.372	96.38
508.588	109.38
508.805	105.38
509.021	94.38
509.238	104.38
509.454	103.38
509.67	117.38
509.887	115.38
510.103	124.38
510.319	221.38
510.536	839.38
510.752	2908.38
510.968	833.38
511.184	173.38
511.401	130.38
511.617	117.38
511.833	103.38
512.049	98.38
512.265	99.38
512.481	90.38
512.698	100.38
