Data from Circ_2013_H10_HRD10591_00011.txt Node
Date: Wed Jan 03 10:04:02 EST 2024
User: Yrep
Spectrometer: HR+D1059
Trigger mode: 1
Integration Time (sec): 1.000000E-1
Scans to average: 1
Electric dark correction enabled: true
Nonlinearity correction enabled: false
Boxcar width: 0
XAxis mode: Wavelengths
Number of Pixels in Spectrum: 2048
>>>>>Begin Spectral Data<<<<<
223.165	-9.88
223.4	-9.88
223.635	-9.88
223.869	-19.88
224.104	-21.88
224.338	-11.88
224.573	-2.88
224.808	-7.88
225.042	-6.88
225.277	-3.88
225.511	-4.88
225.746	4.12
225.98	8.12
226.215	9.12
226.449	4.12
226.683	8.12
226.918	16.12
227.152	40.12
227.387	41.12
227.621	41.12
227.856	41.12
228.09	35.12
228.324	38.12
228.559	51.12
228.793	56.12
229.027	57.12
229.262	58.12
229.496	70.12
229.73	75.12
229.964	81.12
230.199	83.12
230.433	71.12
230.667	83.12
230.901	78.12
231.136	66.12
231.37	83.12
231.604	77.12
231.838	77.12
232.072	72.12
232.306	79.12
232.541	76.12
232.775	71.12
233.009	79.12
233.243	77.12
233.477	80.12
233.711	92.12
233.945	76.12
234.179	82.12
234.413	68.12
234.647	92.12
234.881	75.12
235.115	76.12
235.349	83.12
235.583	74.12
235.817	75.12
236.051	71.12
236.285	67.12
236.519	83.12
236.753	83.12
236.987	79.12
237.221	87.12
237.455	95.12
237.689	76.12
237.922	93.12
238.156	76.12
238.39	72.12
238.624	74.12
238.858	79.12
239.091	81.12
239.325	71.12
239.559	81.12
239.793	81.12
240.027	79.12
240.26	73.12
240.494	79.12
240.728	78.12
240.961	76.12
241.195	58.12
241.429	66.12
241.662	75.12
241.896	76.12
242.13	67.12
242.363	72.12
242.597	66.12
242.83	63.12
243.064	77.12
243.298	67.12
243.531	88.12
243.765	79.12
243.998	84.12
244.232	71.12
244.465	76.12
244.699	75.12
244.932	71.12
245.166	75.12
245.399	68.12
245.633	90.12
245.866	94.12
246.099	76.12
246.333	65.12
246.566	67.12
246.8	82.12
247.033	75.12
247.266	80.12
247.5	75.12
247.733	74.12
247.966	81.12
248.2	83.12
248.433	91.12
248.666	77.12
248.899	90.12
249.133	83.12
249.366	98.12
249.599	80.12
249.832	74.12
250.066	80.12
250.299	73.12
250.532	79.12
250.765	75.12
250.998	82.12
251.231	74.12
251.465	77.12
251.698	90.12
251.931	74.12
252.164	90.12
252.397	74.12
252.63	60.12
252.863	61.12
253.096	85.12
253.329	69.12
253.562	79.12
253.795	86.12
254.028	68.12
254.261	76.12
254.494	67.12
254.727	100.12
254.96	71.12
255.193	99.12
255.426	81.12
255.659	77.12
255.892	83.12
256.124	95.12
256.357	80.12
256.59	79.12
256.823	77.12
257.056	70.12
257.289	83.12
257.521	89.12
257.754	78.12
257.987	83.12
258.22	91.12
258.452	83.12
258.685	78.12
258.918	84.12
259.151	72.12
259.383	95.12
259.616	79.12
259.849	82.12
260.081	80.12
260.314	80.12
260.547	81.12
260.779	93.12
261.012	98.12
261.244	101.12
261.477	86.12
261.71	79.12
261.942	111.12
262.175	103.12
262.407	100.12
262.64	91.12
262.872	69.12
263.105	85.12
263.337	83.12
263.57	84.12
263.802	87.12
264.035	75.12
264.267	76.12
264.499	77.12
264.732	90.12
264.964	84.12
265.197	80.12
265.429	82.12
265.661	82.12
265.894	88.12
266.126	103.12
266.358	82.12
266.591	93.12
266.823	82.12
267.055	82.12
267.287	76.12
267.52	72.12
267.752	88.12
267.984	83.12
268.216	68.12
268.448	68.12
268.681	90.12
268.913	80.12
269.145	77.12
269.377	72.12
269.609	74.12
269.841	83.12
270.073	79.12
270.306	76.12
270.538	77.12
270.77	80.12
271.002	84.12
271.234	81.12
271.466	82.12
271.698	73.12
271.93	76.12
272.162	84.12
272.394	80.12
272.626	87.12
272.858	68.12
273.09	81.12
273.322	76.12
273.553	81.12
273.785	78.12
274.017	83.12
274.249	85.12
274.481	67.12
274.713	77.12
274.945	78.12
275.176	102.12
275.408	70.12
275.64	96.12
275.872	94.12
276.104	87.12
276.335	80.12
276.567	92.12
276.799	99.12
277.031	102.12
277.262	99.12
277.494	75.12
277.726	89.12
277.957	71.12
278.189	81.12
278.421	75.12
278.652	78.12
278.884	85.12
279.115	71.12
279.347	87.12
279.579	76.12
279.81	87.12
280.042	90.12
280.273	97.12
280.505	90.12
280.736	91.12
280.968	97.12
281.199	81.12
281.431	87.12
281.662	77.12
281.894	99.12
282.125	93.12
282.356	113.12
282.588	130.12
282.819	87.12
283.051	90.12
283.282	74.12
283.513	92.12
283.745	85.12
283.976	68.12
284.207	87.12
284.439	87.12
284.67	77.12
284.901	79.12
285.132	72.12
285.364	98.12
285.595	92.12
285.826	77.12
286.057	93.12
286.288	89.12
286.52	90.12
286.751	69.12
286.982	95.12
287.213	74.12
287.444	82.12
287.675	87.12
287.906	76.12
288.138	77.12
288.369	79.12
288.6	83.12
288.831	102.12
289.062	90.12
289.293	86.12
289.524	87.12
289.755	83.12
289.986	80.12
290.217	85.12
290.448	87.12
290.679	85.12
290.91	92.12
291.141	88.12
291.371	75.12
291.602	80.12
291.833	95.12
292.064	82.12
292.295	99.12
292.526	101.12
292.757	69.12
292.987	80.12
293.218	77.12
293.449	83.12
293.68	87.12
293.91	72.12
294.141	76.12
294.372	96.12
294.603	99.12
294.833	74.12
295.064	91.12
295.295	92.12
295.525	77.12
295.756	88.12
295.987	99.12
296.217	121.12
296.448	106.12
296.679	108.12
296.909	87.12
297.14	83.12
297.37	79.12
297.601	91.12
297.831	89.12
298.062	92.12
298.292	82.12
298.523	82.12
298.753	83.12
298.984	89.12
299.214	89.12
299.445	89.12
299.675	90.12
299.905	88.12
300.136	83.12
300.366	100.12
300.597	87.12
300.827	81.12
301.057	96.12
301.288	102.12
301.518	78.12
301.748	90.12
301.979	91.12
302.209	92.12
302.439	83.12
302.669	94.12
302.9	82.12
303.13	84.12
303.36	102.12
303.59	97.12
303.82	88.12
304.051	88.12
304.281	87.12
304.511	90.12
304.741	95.12
304.971	79.12
305.201	87.12
305.431	87.12
305.661	98.12
305.891	92.12
306.121	96.12
306.352	101.12
306.582	111.12
306.812	93.12
307.042	93.12
307.272	94.12
307.502	98.12
307.731	104.12
307.961	101.12
308.191	84.12
308.421	97.12
308.651	93.12
308.881	84.12
309.111	87.12
309.341	99.12
309.571	101.12
309.8	89.12
310.03	99.12
310.26	96.12
310.49	98.12
310.72	99.12
310.949	99.12
311.179	101.12
311.409	77.12
311.639	87.12
311.868	99.12
312.098	73.12
312.328	101.12
312.557	92.12
312.787	105.12
313.017	89.12
313.246	83.12
313.476	89.12
313.706	92.12
313.935	97.12
314.165	98.12
314.394	101.12
314.624	87.12
314.853	86.12
315.083	98.12
315.312	82.12
315.542	89.12
315.771	94.12
316.001	84.12
316.23	85.12
316.46	112.12
316.689	96.12
316.919	84.12
317.148	92.12
317.377	106.12
317.607	68.12
317.836	95.12
318.065	80.12
318.295	93.12
318.524	86.12
318.753	85.12
318.983	88.12
319.212	102.12
319.441	97.12
319.67	105.12
319.9	97.12
320.129	95.12
320.358	96.12
320.587	92.12
320.816	105.12
321.046	97.12
321.275	94.12
321.504	84.12
321.733	102.12
321.962	96.12
322.191	102.12
322.42	89.12
322.649	92.12
322.878	104.12
323.108	123.12
323.337	124.12
323.566	126.12
323.795	149.12
324.024	205.12
324.253	357.12
324.482	751.12
324.71	1486.12
324.939	2014.12
325.168	768.12
325.397	240.12
325.626	162.12
325.855	133.12
326.084	120.12
326.313	131.12
326.542	147.12
326.77	216.12
326.999	402.12
327.228	851.12
327.457	1573.12
327.686	1267.12
327.914	369.12
328.143	223.12
328.372	219.12
328.6	146.12
328.829	109.12
329.058	133.12
329.287	125.12
329.515	125.12
329.744	121.12
329.972	152.12
330.201	232.12
330.43	334.12
330.658	211.12
330.887	149.12
331.115	134.12
331.344	102.12
331.572	100.12
331.801	101.12
332.03	93.12
332.258	93.12
332.486	99.12
332.715	85.12
332.943	88.12
333.172	100.12
333.4	104.12
333.629	111.12
333.857	123.12
334.085	175.12
334.314	228.12
334.542	379.12
334.771	391.12
334.999	151.12
335.227	92.12
335.455	91.12
335.684	85.12
335.912	105.12
336.14	96.12
336.369	96.12
336.597	99.12
336.825	88.12
337.053	101.12
337.281	104.12
337.51	79.12
337.738	72.12
337.966	88.12
338.194	86.12
338.422	93.12
338.65	79.12
338.878	90.12
339.106	96.12
339.334	91.12
339.562	94.12
339.79	88.12
340.018	88.12
340.246	87.12
340.474	83.12
340.702	95.12
340.93	89.12
341.158	97.12
341.386	90.12
341.614	107.12
341.842	88.12
342.07	83.12
342.298	82.12
342.526	78.12
342.754	99.12
342.981	96.12
343.209	103.12
343.437	103.12
343.665	88.12
343.893	90.12
344.12	76.12
344.348	93.12
344.576	91.12
344.804	96.12
345.031	93.12
345.259	95.12
345.487	105.12
345.714	94.12
345.942	78.12
346.17	95.12
346.397	90.12
346.625	95.12
346.853	89.12
347.08	85.12
347.308	89.12
347.535	96.12
347.763	70.12
347.99	113.12
348.218	101.12
348.445	100.12
348.673	95.12
348.9	89.12
349.128	88.12
349.355	84.12
349.583	91.12
349.81	83.12
350.037	84.12
350.265	97.12
350.492	80.12
350.72	91.12
350.947	97.12
351.174	119.12
351.402	104.12
351.629	99.12
351.856	98.12
352.083	101.12
352.311	103.12
352.538	111.12
352.765	119.12
352.992	111.12
353.22	104.12
353.447	101.12
353.674	105.12
353.901	88.12
354.128	92.12
354.355	89.12
354.583	93.12
354.81	101.12
355.037	99.12
355.264	88.12
355.491	75.12
355.718	98.12
355.945	85.12
356.172	98.12
356.399	100.12
356.626	102.12
356.853	99.12
357.08	103.12
357.307	81.12
357.534	82.12
357.761	92.12
357.988	89.12
358.215	103.12
358.441	108.12
358.668	97.12
358.895	76.12
359.122	91.12
359.349	80.12
359.576	82.12
359.802	98.12
360.029	98.12
360.256	102.12
360.483	77.12
360.709	77.12
360.936	96.12
361.163	92.12
361.39	81.12
361.616	89.12
361.843	80.12
362.07	83.12
362.296	86.12
362.523	82.12
362.749	100.12
362.976	95.12
363.203	90.12
363.429	85.12
363.656	86.12
363.882	103.12
364.109	95.12
364.335	71.12
364.562	91.12
364.788	88.12
365.015	78.12
365.241	105.12
365.468	104.12
365.694	100.12
365.92	89.12
366.147	99.12
366.373	92.12
366.599	88.12
366.826	103.12
367.052	95.12
367.278	74.12
367.505	80.12
367.731	92.12
367.957	80.12
368.184	77.12
368.41	96.12
368.636	91.12
368.862	107.12
369.089	96.12
369.315	78.12
369.541	87.12
369.767	90.12
369.993	95.12
370.219	91.12
370.445	87.12
370.672	85.12
370.898	85.12
371.124	81.12
371.35	82.12
371.576	96.12
371.802	87.12
372.028	95.12
372.254	95.12
372.48	89.12
372.706	97.12
372.932	88.12
373.158	93.12
373.384	89.12
373.61	96.12
373.835	73.12
374.061	78.12
374.287	90.12
374.513	85.12
374.739	93.12
374.965	90.12
375.191	88.12
375.416	93.12
375.642	91.12
375.868	92.12
376.094	86.12
376.319	97.12
376.545	83.12
376.771	96.12
376.997	86.12
377.222	91.12
377.448	82.12
377.674	97.12
377.899	98.12
378.125	103.12
378.35	91.12
378.576	80.12
378.802	92.12
379.027	105.12
379.253	82.12
379.478	85.12
379.704	95.12
379.929	91.12
380.155	97.12
380.38	87.12
380.606	91.12
380.831	105.12
381.057	97.12
381.282	118.12
381.507	87.12
381.733	104.12
381.958	113.12
382.184	95.12
382.409	104.12
382.634	105.12
382.86	107.12
383.085	98.12
383.31	93.12
383.535	101.12
383.761	112.12
383.986	99.12
384.211	103.12
384.436	113.12
384.662	93.12
384.887	96.12
385.112	106.12
385.337	114.12
385.562	102.12
385.787	99.12
386.013	121.12
386.238	110.12
386.463	114.12
386.688	118.12
386.913	111.12
387.138	105.12
387.363	123.12
387.588	108.12
387.813	95.12
388.038	124.12
388.263	152.12
388.488	112.12
388.713	96.12
388.938	91.12
389.163	81.12
389.387	95.12
389.612	91.12
389.837	100.12
390.062	93.12
390.287	99.12
390.512	99.12
390.736	87.12
390.961	87.12
391.186	84.12
391.411	96.12
391.636	85.12
391.86	88.12
392.085	80.12
392.31	83.12
392.534	88.12
392.759	92.12
392.984	81.12
393.208	96.12
393.433	111.12
393.658	97.12
393.882	72.12
394.107	87.12
394.331	83.12
394.556	84.12
394.78	83.12
395.005	75.12
395.229	86.12
395.454	90.12
395.678	88.12
395.903	90.12
396.127	85.12
396.352	90.12
396.576	96.12
396.801	80.12
397.025	81.12
397.249	87.12
397.474	93.12
397.698	92.12
397.922	84.12
398.147	86.12
398.371	80.12
398.595	86.12
398.82	77.12
399.044	89.12
399.268	80.12
399.492	77.12
399.717	87.12
399.941	84.12
400.165	89.12
400.389	86.12
400.613	92.12
400.837	81.12
401.062	100.12
401.286	79.12
401.51	88.12
401.734	96.12
401.958	91.12
402.182	112.12
402.406	154.12
402.63	121.12
402.854	91.12
403.078	80.12
403.302	96.12
403.526	80.12
403.75	89.12
403.974	83.12
404.198	99.12
404.422	89.12
404.645	89.12
404.869	96.12
405.093	90.12
405.317	112.12
405.541	105.12
405.765	97.12
405.988	104.12
406.212	154.12
406.436	204.12
406.66	141.12
406.883	102.12
407.107	92.12
407.331	75.12
407.555	102.12
407.778	105.12
408.002	94.12
408.226	88.12
408.449	88.12
408.673	89.12
408.896	83.12
409.12	94.12
409.344	91.12
409.567	90.12
409.791	77.12
410.014	98.12
410.238	87.12
410.461	100.12
410.685	91.12
410.908	93.12
411.132	115.12
411.355	86.12
411.578	59.12
411.802	85.12
412.025	90.12
412.249	76.12
412.472	104.12
412.695	100.12
412.919	97.12
413.142	92.12
413.365	83.12
413.589	81.12
413.812	102.12
414.035	104.12
414.258	89.12
414.482	82.12
414.705	90.12
414.928	90.12
415.151	97.12
415.374	104.12
415.597	86.12
415.821	89.12
416.044	84.12
416.267	81.12
416.49	91.12
416.713	87.12
416.936	81.12
417.159	76.12
417.382	78.12
417.605	86.12
417.828	82.12
418.051	102.12
418.274	101.12
418.497	77.12
418.72	76.12
418.943	85.12
419.166	89.12
419.389	76.12
419.611	96.12
419.834	76.12
420.057	90.12
420.28	88.12
420.503	86.12
420.726	77.12
420.948	82.12
421.171	88.12
421.394	93.12
421.617	85.12
421.839	86.12
422.062	87.12
422.285	85.12
422.507	93.12
422.73	104.12
422.953	74.12
423.175	84.12
423.398	81.12
423.621	76.12
423.843	82.12
424.066	79.12
424.288	86.12
424.511	74.12
424.733	75.12
424.956	100.12
425.178	98.12
425.401	92.12
425.623	100.12
425.846	88.12
426.068	93.12
426.291	92.12
426.513	81.12
426.735	86.12
426.958	93.12
427.18	98.12
427.402	124.12
427.625	160.12
427.847	151.12
428.069	124.12
428.292	103.12
428.514	92.12
428.736	92.12
428.958	91.12
429.181	90.12
429.403	72.12
429.625	94.12
429.847	90.12
430.069	88.12
430.292	92.12
430.514	84.12
430.736	72.12
430.958	76.12
431.18	85.12
431.402	87.12
431.624	82.12
431.846	78.12
432.068	72.12
432.29	84.12
432.512	94.12
432.734	68.12
432.956	83.12
433.178	103.12
433.4	100.12
433.622	80.12
433.844	78.12
434.066	91.12
434.287	85.12
434.509	87.12
434.731	83.12
434.953	95.12
435.175	88.12
435.397	101.12
435.618	99.12
435.84	83.12
436.062	101.12
436.284	102.12
436.505	95.12
436.727	92.12
436.949	92.12
437.17	84.12
437.392	82.12
437.614	97.12
437.835	103.12
438.057	116.12
438.278	108.12
438.5	104.12
438.721	107.12
438.943	89.12
439.165	90.12
439.386	94.12
439.608	94.12
439.829	81.12
440.05	107.12
440.272	125.12
440.493	89.12
440.715	67.12
440.936	82.12
441.158	87.12
441.379	83.12
441.6	86.12
441.822	104.12
442.043	95.12
442.264	92.12
442.486	105.12
442.707	100.12
442.928	93.12
443.149	130.12
443.371	109.12
443.592	91.12
443.813	100.12
444.034	98.12
444.255	87.12
444.476	68.12
444.698	87.12
444.919	98.12
445.14	154.12
445.361	127.12
445.582	112.12
445.803	128.12
446.024	136.12
446.245	119.12
446.466	114.12
446.687	89.12
446.908	90.12
447.129	100.12
447.35	90.12
447.571	93.12
447.792	97.12
448.013	86.12
448.234	105.12
448.455	84.12
448.675	102.12
448.896	131.12
449.117	98.12
449.338	89.12
449.559	125.12
449.779	112.12
450	79.12
450.221	80.12
450.442	83.12
450.662	85.12
450.883	100.12
451.104	113.12
451.324	91.12
451.545	91.12
451.766	66.12
451.986	71.12
452.207	91.12
452.428	88.12
452.648	97.12
452.869	96.12
453.089	107.12
453.31	108.12
453.53	93.12
453.751	84.12
453.971	101.12
454.192	116.12
454.412	88.12
454.633	96.12
454.853	89.12
455.073	82.12
455.294	81.12
455.514	103.12
455.734	77.12
455.955	86.12
456.175	80.12
456.395	87.12
456.616	84.12
456.836	89.12
457.056	88.12
457.276	74.12
457.497	84.12
457.717	98.12
457.937	86.12
458.157	68.12
458.377	86.12
458.598	103.12
458.818	148.12
459.038	147.12
459.258	101.12
459.478	98.12
459.698	87.12
459.918	89.12
460.138	86.12
460.358	87.12
460.578	89.12
460.798	83.12
461.018	75.12
461.238	96.12
461.458	75.12
461.678	83.12
461.898	87.12
462.118	67.12
462.338	75.12
462.558	84.12
462.777	77.12
462.997	83.12
463.217	81.12
463.437	93.12
463.657	99.12
463.876	75.12
464.096	83.12
464.316	96.12
464.536	84.12
464.755	89.12
464.975	90.12
465.195	155.12
465.414	147.12
465.634	91.12
465.854	96.12
466.073	81.12
466.293	83.12
466.512	88.12
466.732	87.12
466.951	106.12
467.171	100.12
467.391	95.12
467.61	101.12
467.829	101.12
468.049	157.12
468.268	214.12
468.488	119.12
468.707	79.12
468.927	95.12
469.146	84.12
469.365	98.12
469.585	95.12
469.804	93.12
470.023	88.12
470.243	94.12
470.462	101.12
470.681	93.12
470.901	84.12
471.12	87.12
471.339	82.12
471.558	93.12
471.777	88.12
471.997	108.12
472.216	253.12
472.435	511.12
472.654	191.12
472.873	117.12
473.092	93.12
473.311	101.12
473.53	85.12
473.749	85.12
473.968	93.12
474.187	86.12
474.406	89.12
474.625	84.12
474.844	77.12
475.063	73.12
475.282	82.12
475.501	93.12
475.72	99.12
475.939	93.12
476.158	88.12
476.377	93.12
476.596	99.12
476.814	88.12
477.033	90.12
477.252	80.12
477.471	92.12
477.69	91.12
477.908	88.12
478.127	83.12
478.346	90.12
478.564	85.12
478.783	99.12
479.002	92.12
479.22	83.12
479.439	96.12
479.658	110.12
479.876	91.12
480.095	82.12
480.313	95.12
480.532	91.12
480.751	112.12
480.969	246.12
481.188	815.12
481.406	557.12
481.624	139.12
481.843	91.12
482.061	98.12
482.28	87.12
482.498	85.12
482.717	82.12
482.935	94.12
483.153	91.12
483.372	67.12
483.59	87.12
483.808	86.12
484.027	78.12
484.245	89.12
484.463	78.12
484.681	96.12
484.9	86.12
485.118	85.12
485.336	81.12
485.554	84.12
485.772	104.12
485.99	103.12
486.209	102.12
486.427	84.12
486.645	114.12
486.863	121.12
487.081	100.12
487.299	77.12
487.517	95.12
487.735	85.12
487.953	89.12
488.171	90.12
488.389	85.12
488.607	97.12
488.825	93.12
489.043	86.12
489.261	102.12
489.479	96.12
489.696	94.12
489.914	93.12
490.132	99.12
490.35	92.12
490.568	82.12
490.786	92.12
491.003	99.12
491.221	98.12
491.439	86.12
491.657	91.12
491.874	91.12
492.092	88.12
492.31	106.12
492.527	97.12
492.745	82.12
492.963	74.12
493.18	78.12
493.398	100.12
493.615	83.12
493.833	90.12
494.05	89.12
494.268	86.12
494.485	88.12
494.703	90.12
494.92	82.12
495.138	82.12
495.355	87.12
495.573	92.12
495.79	87.12
496.008	80.12
496.225	95.12
496.442	97.12
496.66	85.12
496.877	90.12
497.094	100.12
497.312	95.12
497.529	88.12
497.746	88.12
497.963	99.12
498.181	78.12
498.398	97.12
498.615	99.12
498.832	94.12
499.049	95.12
499.267	90.12
499.484	86.12
499.701	87.12
499.918	89.12
500.135	95.12
500.352	83.12
500.569	89.12
500.786	109.12
501.003	90.12
501.22	82.12
501.437	92.12
501.654	93.12
501.871	98.12
502.088	85.12
502.305	57.12
502.522	95.12
502.739	74.12
502.956	89.12
503.172	91.12
503.389	91.12
503.606	108.12
503.823	90.12
504.04	98.12
504.256	96.12
504.473	95.12
504.69	90.12
504.907	87.12
505.123	71.12
505.34	99.12
505.557	98.12
505.773	99.12
505.99	94.12
506.207	84.12
506.423	86.12
506.64	95.12
506.856	88.12
507.073	96.12
507.289	86.12
507.506	97.12
507.722	96.12
507.939	100.12
508.155	86.12
508.372	102.12
508.588	97.12
508.805	96.12
509.021	95.12
509.238	99.12
509.454	93.12
509.67	78.12
509.887	97.12
510.103	128.12
510.319	177.12
510.536	643.12
510.752	2024.12
510.968	612.12
511.184	153.12
511.401	97.12
511.617	95.12
511.833	92.12
512.049	85.12
512.265	87.12
512.481	83.12
512.698	83.12
512.914	72.12
513.13	72.12
513.346	101.12
513.562	90.12
513.778	104.12
513.994	97.12
514.21	106.12
514.426	108.12
514.642	133.12
514.858	108.12
515.074	148.12
515.29	412.12
515.506	1376.12
515.721	541.12
515.937	155.12
516.153	104.12
516.369	87.12
