Data from Circ_2013_H10_HRD10591_00038.txt Node
Date: Wed Jan 03 10:04:07 EST 2024
User: Yrep
Spectrometer: HR+D1059
Trigger mode: 1
Integration Time (sec): 1.000000E-1
Scans to average: 1
Electric dark correction enabled: true
Nonlinearity correction enabled: false
Boxcar width: 0
XAxis mode: Wavelengths
Number of Pixels in Spectrum: 2048
>>>>>Begin Spectral Data<<<<<
223.165	-7.81
223.4	-7.81
223.635	-7.81
223.869	-7.81
224.104	-18.81
224.338	-16.81
224.573	-22.81
224.808	-13.81
225.042	-1.81
225.277	-8.81
225.511	-10.81
225.746	10.19
225.98	1.19
226.215	11.19
226.449	7.19
226.683	18.19
226.918	30.19
227.152	31.19
227.387	35.19
227.621	28.19
227.856	39.19
228.09	42.19
228.324	46.19
228.559	40.19
228.793	65.19
229.027	75.19
229.262	70.19
229.496	67.19
229.73	76.19
229.964	79.19
230.199	81.19
230.433	88.19
230.667	75.19
230.901	80.19
231.136	72.19
231.37	77.19
231.604	87.19
231.838	87.19
232.072	65.19
232.306	76.19
232.541	94.19
232.775	89.19
233.009	79.19
233.243	78.19
233.477	81.19
233.711	65.19
233.945	74.19
234.179	86.19
234.413	86.19
234.647	65.19
234.881	78.19
235.115	74.19
235.349	78.19
235.583	73.19
235.817	83.19
236.051	86.19
236.285	83.19
236.519	76.19
236.753	86.19
236.987	69.19
237.221	81.19
237.455	91.19
237.689	73.19
237.922	76.19
238.156	77.19
238.39	60.19
238.624	79.19
238.858	74.19
239.091	60.19
239.325	82.19
239.559	89.19
239.793	86.19
240.027	73.19
240.26	70.19
240.494	74.19
240.728	66.19
240.961	65.19
241.195	74.19
241.429	82.19
241.662	87.19
241.896	76.19
242.13	74.19
242.363	89.19
242.597	83.19
242.83	70.19
243.064	79.19
243.298	85.19
243.531	65.19
243.765	75.19
243.998	79.19
244.232	85.19
244.465	77.19
244.699	70.19
244.932	78.19
245.166	77.19
245.399	81.19
245.633	80.19
245.866	82.19
246.099	81.19
246.333	77.19
246.566	83.19
246.8	83.19
247.033	93.19
247.266	76.19
247.5	80.19
247.733	86.19
247.966	81.19
248.2	77.19
248.433	73.19
248.666	81.19
248.899	88.19
249.133	89.19
249.366	98.19
249.599	103.19
249.832	79.19
250.066	77.19
250.299	89.19
250.532	87.19
250.765	72.19
250.998	90.19
251.231	81.19
251.465	83.19
251.698	81.19
251.931	72.19
252.164	83.19
252.397	76.19
252.63	94.19
252.863	78.19
253.096	82.19
253.329	78.19
253.562	82.19
253.795	89.19
254.028	76.19
254.261	86.19
254.494	86.19
254.727	74.19
254.96	81.19
255.193	92.19
255.426	73.19
255.659	87.19
255.892	97.19
256.124	86.19
256.357	78.19
256.59	84.19
256.823	83.19
257.056	81.19
257.289	75.19
257.521	91.19
257.754	91.19
257.987	84.19
258.22	82.19
258.452	86.19
258.685	85.19
258.918	86.19
259.151	83.19
259.383	80.19
259.616	92.19
259.849	93.19
260.081	84.19
260.314	89.19
260.547	89.19
260.779	90.19
261.012	101.19
261.244	87.19
261.477	95.19
261.71	88.19
261.942	129.19
262.175	142.19
262.407	85.19
262.64	96.19
262.872	85.19
263.105	84.19
263.337	89.19
263.57	85.19
263.802	81.19
264.035	79.19
264.267	77.19
264.499	65.19
264.732	83.19
264.964	99.19
265.197	78.19
265.429	85.19
265.661	86.19
265.894	82.19
266.126	79.19
266.358	83.19
266.591	83.19
266.823	76.19
267.055	79.19
267.287	99.19
267.52	81.19
267.752	86.19
267.984	91.19
268.216	71.19
268.448	73.19
268.681	85.19
268.913	87.19
269.145	82.19
269.377	87.19
269.609	76.19
269.841	85.19
270.073	87.19
270.306	81.19
270.538	83.19
270.77	79.19
271.002	76.19
271.234	83.19
271.466	98.19
271.698	90.19
271.93	93.19
272.162	77.19
272.394	83.19
272.626	99.19
272.858	90.19
273.09	91.19
273.322	88.19
273.553	69.19
273.785	99.19
274.017	85.19
274.249	87.19
274.481	75.19
274.713	84.19
274.945	90.19
275.176	101.19
275.408	100.19
275.64	91.19
275.872	97.19
276.104	86.19
276.335	92.19
276.567	100.19
276.799	131.19
277.031	134.19
277.262	141.19
277.494	108.19
277.726	87.19
277.957	95.19
278.189	82.19
278.421	89.19
278.652	96.19
278.884	95.19
279.115	85.19
279.347	86.19
279.579	93.19
279.81	90.19
280.042	131.19
280.273	179.19
280.505	124.19
280.736	97.19
280.968	93.19
281.199	83.19
281.431	82.19
281.662	100.19
281.894	93.19
282.125	101.19
282.356	126.19
282.588	143.19
282.819	137.19
283.051	100.19
283.282	93.19
283.513	97.19
283.745	94.19
283.976	90.19
284.207	78.19
284.439	81.19
284.67	95.19
284.901	87.19
285.132	87.19
285.364	81.19
285.595	79.19
285.826	91.19
286.057	87.19
286.288	81.19
286.52	82.19
286.751	92.19
286.982	93.19
287.213	88.19
287.444	94.19
287.675	90.19
287.906	78.19
288.138	79.19
288.369	92.19
288.6	105.19
288.831	85.19
289.062	98.19
289.293	92.19
289.524	97.19
289.755	76.19
289.986	87.19
290.217	83.19
290.448	79.19
290.679	88.19
290.91	96.19
291.141	89.19
291.371	97.19
291.602	97.19
291.833	91.19
292.064	87.19
292.295	90.19
292.526	85.19
292.757	85.19
292.987	81.19
293.218	77.19
293.449	85.19
293.68	87.19
293.91	89.19
294.141	90.19
294.372	100.19
294.603	81.19
294.833	99.19
295.064	97.19
295.295	99.19
295.525	98.19
295.756	101.19
295.987	130.19
296.217	152.19
296.448	137.19
296.679	94.19
296.909	78.19
297.14	97.19
297.37	84.19
297.601	87.19
297.831	95.19
298.062	89.19
298.292	95.19
298.523	101.19
298.753	101.19
298.984	88.19
299.214	97.19
299.445	106.19
299.675	102.19
299.905	88.19
300.136	89.19
300.366	91.19
300.597	84.19
300.827	93.19
301.057	103.19
301.288	113.19
301.518	105.19
301.748	96.19
301.979	91.19
302.209	76.19
302.439	90.19
302.669	85.19
302.9	84.19
303.13	95.19
303.36	98.19
303.59	107.19
303.82	117.19
304.051	93.19
304.281	90.19
304.511	78.19
304.741	81.19
304.971	95.19
305.201	99.19
305.431	94.19
305.661	81.19
305.891	98.19
306.121	101.19
306.352	105.19
306.582	119.19
306.812	93.19
307.042	105.19
307.272	110.19
307.502	126.19
307.731	130.19
307.961	120.19
308.191	87.19
308.421	98.19
308.651	90.19
308.881	98.19
309.111	110.19
309.341	108.19
309.571	105.19
309.8	88.19
310.03	107.19
310.26	100.19
310.49	102.19
310.72	104.19
310.949	113.19
311.179	92.19
311.409	97.19
311.639	97.19
311.868	95.19
312.098	105.19
312.328	107.19
312.557	116.19
312.787	104.19
313.017	118.19
313.246	98.19
313.476	93.19
313.706	83.19
313.935	88.19
314.165	88.19
314.394	109.19
314.624	92.19
314.853	109.19
315.083	102.19
315.312	90.19
315.542	91.19
315.771	96.19
316.001	94.19
316.23	78.19
316.46	89.19
316.689	78.19
316.919	84.19
317.148	111.19
317.377	91.19
317.607	86.19
317.836	98.19
318.065	102.19
318.295	94.19
318.524	86.19
318.753	103.19
318.983	96.19
319.212	102.19
319.441	118.19
319.67	105.19
319.9	100.19
320.129	96.19
320.358	95.19
320.587	102.19
320.816	103.19
321.046	113.19
321.275	98.19
321.504	106.19
321.733	122.19
321.962	96.19
322.191	89.19
322.42	95.19
322.649	107.19
322.878	114.19
323.108	130.19
323.337	136.19
323.566	145.19
323.795	145.19
324.024	218.19
324.253	457.19
324.482	957.19
324.71	1943.19
324.939	2528.19
325.168	956.19
325.397	287.19
325.626	165.19
325.855	133.19
326.084	132.19
326.313	141.19
326.542	174.19
326.77	255.19
326.999	510.19
327.228	1022.19
327.457	1882.19
327.686	1521.19
327.914	461.19
328.143	345.19
328.372	366.19
328.6	236.19
328.829	159.19
329.058	148.19
329.287	152.19
329.515	141.19
329.744	181.19
329.972	259.19
330.201	481.19
330.43	700.19
330.658	365.19
330.887	212.19
331.115	159.19
331.344	122.19
331.572	106.19
331.801	117.19
332.03	111.19
332.258	114.19
332.486	97.19
332.715	94.19
332.943	100.19
333.172	114.19
333.4	129.19
333.629	136.19
333.857	155.19
334.085	241.19
334.314	459.19
334.542	823.19
334.771	870.19
334.999	264.19
335.227	130.19
335.455	115.19
335.684	109.19
335.912	107.19
336.14	83.19
336.369	107.19
336.597	109.19
336.825	104.19
337.053	85.19
337.281	98.19
337.51	99.19
337.738	98.19
337.966	95.19
338.194	101.19
338.422	117.19
338.65	90.19
338.878	107.19
339.106	87.19
339.334	89.19
339.562	95.19
339.79	108.19
340.018	89.19
340.246	94.19
340.474	84.19
340.702	87.19
340.93	104.19
341.158	92.19
341.386	109.19
341.614	97.19
341.842	93.19
342.07	104.19
342.298	103.19
342.526	104.19
342.754	89.19
342.981	89.19
343.209	85.19
343.437	96.19
343.665	90.19
343.893	107.19
344.12	86.19
344.348	85.19
344.576	91.19
344.804	82.19
345.031	90.19
345.259	106.19
345.487	89.19
345.714	93.19
345.942	87.19
346.17	88.19
346.397	94.19
346.625	94.19
346.853	96.19
347.08	95.19
347.308	92.19
347.535	99.19
347.763	103.19
347.99	107.19
348.218	105.19
348.445	123.19
348.673	97.19
348.9	90.19
349.128	88.19
349.355	92.19
349.583	92.19
349.81	89.19
350.037	92.19
350.265	98.19
350.492	90.19
350.72	95.19
350.947	115.19
351.174	107.19
351.402	116.19
351.629	106.19
351.856	96.19
352.083	105.19
352.311	117.19
352.538	121.19
352.765	115.19
352.992	124.19
353.22	110.19
353.447	103.19
353.674	102.19
353.901	92.19
354.128	102.19
354.355	104.19
354.583	95.19
354.81	89.19
355.037	102.19
355.264	99.19
355.491	101.19
355.718	86.19
355.945	90.19
356.172	89.19
356.399	97.19
356.626	86.19
356.853	89.19
357.08	91.19
357.307	79.19
357.534	90.19
357.761	98.19
357.988	77.19
358.215	114.19
358.441	100.19
358.668	102.19
358.895	96.19
359.122	105.19
359.349	83.19
359.576	98.19
359.802	96.19
360.029	149.19
360.256	124.19
360.483	91.19
360.709	94.19
360.936	96.19
361.163	90.19
361.39	96.19
361.616	97.19
361.843	98.19
362.07	113.19
362.296	104.19
362.523	99.19
362.749	95.19
362.976	100.19
363.203	85.19
363.429	79.19
363.656	73.19
363.882	97.19
364.109	77.19
364.335	90.19
364.562	97.19
364.788	99.19
365.015	98.19
365.241	103.19
365.468	105.19
365.694	131.19
365.92	111.19
366.147	85.19
366.373	88.19
366.599	97.19
366.826	85.19
367.052	82.19
367.278	78.19
367.505	101.19
367.731	81.19
367.957	80.19
368.184	89.19
368.41	110.19
368.636	113.19
368.862	127.19
369.089	114.19
369.315	92.19
369.541	92.19
369.767	103.19
369.993	90.19
370.219	88.19
370.445	86.19
370.672	83.19
370.898	84.19
371.124	87.19
371.35	84.19
371.576	86.19
371.802	101.19
372.028	99.19
372.254	97.19
372.48	83.19
372.706	81.19
372.932	83.19
373.158	82.19
373.384	84.19
373.61	98.19
373.835	83.19
374.061	95.19
374.287	86.19
374.513	98.19
374.739	99.19
374.965	84.19
375.191	86.19
375.416	87.19
375.642	87.19
375.868	97.19
376.094	95.19
376.319	91.19
376.545	78.19
376.771	89.19
376.997	100.19
377.222	104.19
377.448	93.19
377.674	74.19
377.899	102.19
378.125	94.19
378.35	92.19
378.576	99.19
378.802	78.19
379.027	93.19
379.253	81.19
379.478	85.19
379.704	95.19
379.929	89.19
380.155	92.19
380.38	115.19
380.606	98.19
380.831	80.19
381.057	94.19
381.282	106.19
381.507	116.19
381.733	101.19
381.958	102.19
382.184	111.19
382.409	93.19
382.634	91.19
382.86	93.19
383.085	111.19
383.31	109.19
383.535	107.19
383.761	91.19
383.986	85.19
384.211	95.19
384.436	95.19
384.662	86.19
384.887	95.19
385.112	114.19
385.337	116.19
385.562	109.19
385.787	110.19
386.013	114.19
386.238	125.19
386.463	108.19
386.688	114.19
386.913	113.19
387.138	86.19
387.363	92.19
387.588	106.19
387.813	96.19
388.038	92.19
388.263	116.19
388.488	85.19
388.713	100.19
388.938	99.19
389.163	93.19
389.387	91.19
389.612	99.19
389.837	84.19
390.062	80.19
390.287	90.19
390.512	91.19
390.736	92.19
390.961	92.19
391.186	102.19
391.411	90.19
391.636	85.19
391.86	93.19
392.085	78.19
392.31	83.19
392.534	95.19
392.759	104.19
392.984	101.19
393.208	100.19
393.433	111.19
393.658	97.19
393.882	86.19
394.107	82.19
394.331	93.19
394.556	82.19
394.78	94.19
395.005	81.19
395.229	85.19
395.454	98.19
395.678	69.19
395.903	78.19
396.127	91.19
396.352	101.19
396.576	81.19
396.801	87.19
397.025	92.19
397.249	78.19
397.474	98.19
397.698	82.19
397.922	87.19
398.147	81.19
398.371	99.19
398.595	86.19
398.82	88.19
399.044	86.19
399.268	93.19
399.492	82.19
399.717	85.19
399.941	87.19
400.165	98.19
400.389	97.19
400.613	90.19
400.837	86.19
401.062	96.19
401.286	83.19
401.51	93.19
401.734	88.19
401.958	105.19
402.182	149.19
402.406	183.19
402.63	144.19
402.854	111.19
403.078	85.19
403.302	81.19
403.526	79.19
403.75	93.19
403.974	85.19
404.198	82.19
404.422	76.19
404.645	90.19
404.869	94.19
405.093	119.19
405.317	121.19
405.541	114.19
405.765	115.19
405.988	124.19
406.212	223.19
406.436	296.19
406.66	198.19
406.883	109.19
407.107	97.19
407.331	99.19
407.555	106.19
407.778	92.19
408.002	88.19
408.226	91.19
408.449	97.19
408.673	93.19
408.896	106.19
409.12	92.19
409.344	80.19
409.567	84.19
409.791	82.19
410.014	97.19
410.238	89.19
410.461	102.19
410.685	102.19
410.908	96.19
411.132	111.19
411.355	96.19
411.578	88.19
411.802	82.19
412.025	99.19
412.249	106.19
412.472	100.19
412.695	120.19
412.919	104.19
413.142	97.19
413.365	100.19
413.589	84.19
413.812	99.19
414.035	88.19
414.258	90.19
414.482	85.19
414.705	92.19
414.928	97.19
415.151	101.19
415.374	95.19
415.597	87.19
415.821	86.19
416.044	93.19
416.267	101.19
416.49	92.19
416.713	71.19
416.936	76.19
417.159	84.19
417.382	85.19
417.605	99.19
417.828	88.19
418.051	97.19
418.274	73.19
418.497	88.19
418.72	82.19
418.943	78.19
419.166	86.19
419.389	105.19
419.611	87.19
419.834	85.19
420.057	76.19
420.28	66.19
420.503	102.19
420.726	95.19
420.948	109.19
421.171	110.19
421.394	106.19
421.617	95.19
421.839	86.19
422.062	77.19
422.285	93.19
422.507	99.19
422.73	111.19
422.953	101.19
423.175	98.19
423.398	104.19
423.621	89.19
423.843	91.19
424.066	105.19
424.288	95.19
424.511	92.19
424.733	87.19
424.956	108.19
425.178	95.19
425.401	86.19
425.623	106.19
425.846	91.19
426.068	94.19
426.291	93.19
426.513	88.19
426.735	95.19
426.958	90.19
427.18	100.19
427.402	164.19
427.625	214.19
427.847	200.19
428.069	183.19
428.292	102.19
428.514	99.19
428.736	79.19
428.958	98.19
429.181	98.19
429.403	81.19
429.625	83.19
429.847	97.19
430.069	107.19
430.292	90.19
430.514	90.19
430.736	94.19
430.958	90.19
431.18	75.19
431.402	83.19
431.624	95.19
431.846	71.19
432.068	70.19
432.29	90.19
432.512	80.19
432.734	87.19
432.956	89.19
433.178	102.19
433.4	91.19
433.622	89.19
433.844	93.19
434.066	97.19
434.287	93.19
434.509	103.19
434.731	98.19
434.953	71.19
435.175	88.19
435.397	100.19
435.618	90.19
435.84	105.19
436.062	112.19
436.284	123.19
436.505	108.19
436.727	107.19
436.949	110.19
437.17	91.19
437.392	82.19
437.614	95.19
437.835	113.19
438.057	122.19
438.278	105.19
438.5	100.19
438.721	124.19
438.943	109.19
439.165	88.19
439.386	93.19
439.608	89.19
439.829	112.19
440.05	122.19
440.272	161.19
440.493	104.19
440.715	92.19
440.936	94.19
441.158	95.19
441.379	86.19
441.6	91.19
441.822	99.19
442.043	94.19
442.264	105.19
442.486	91.19
442.707	81.19
442.928	101.19
443.149	149.19
443.371	153.19
443.592	131.19
443.813	129.19
444.034	109.19
444.255	88.19
444.476	89.19
444.698	91.19
444.919	82.19
445.14	116.19
445.361	128.19
445.582	135.19
445.803	159.19
446.024	160.19
446.245	133.19
446.466	125.19
446.687	91.19
446.908	81.19
447.129	92.19
447.35	89.19
447.571	107.19
447.792	108.19
448.013	110.19
448.234	113.19
448.455	86.19
448.675	121.19
448.896	124.19
449.117	87.19
449.338	94.19
449.559	128.19
449.779	145.19
450	98.19
450.221	89.19
450.442	90.19
450.662	94.19
450.883	112.19
451.104	117.19
451.324	95.19
451.545	94.19
451.766	82.19
451.986	90.19
452.207	92.19
452.428	89.19
452.648	104.19
452.869	123.19
453.089	133.19
453.31	132.19
453.53	85.19
453.751	90.19
453.971	120.19
454.192	126.19
454.412	114.19
454.633	84.19
454.853	86.19
455.073	98.19
455.294	111.19
455.514	114.19
455.734	94.19
455.955	85.19
456.175	90.19
456.395	86.19
456.616	84.19
456.836	92.19
457.056	93.19
457.276	77.19
457.497	96.19
457.717	90.19
457.937	90.19
458.157	98.19
458.377	97.19
458.598	111.19
458.818	189.19
459.038	193.19
459.258	134.19
459.478	100.19
459.698	90.19
459.918	89.19
460.138	101.19
460.358	80.19
460.578	71.19
460.798	89.19
461.018	87.19
461.238	96.19
461.458	84.19
461.678	77.19
461.898	83.19
462.118	85.19
462.338	98.19
462.558	93.19
462.777	90.19
462.997	88.19
463.217	108.19
463.437	99.19
463.657	88.19
463.876	77.19
464.096	94.19
464.316	99.19
464.536	109.19
464.755	100.19
464.975	104.19
465.195	189.19
465.414	210.19
465.634	105.19
465.854	87.19
466.073	73.19
466.293	88.19
466.512	75.19
466.732	90.19
466.951	86.19
467.171	95.19
467.391	103.19
467.61	115.19
467.829	143.19
468.049	285.19
468.268	417.19
468.488	147.19
468.707	101.19
468.927	81.19
469.146	90.19
469.365	87.19
469.585	98.19
469.804	100.19
470.023	101.19
470.243	101.19
470.462	114.19
470.681	135.19
470.901	104.19
471.12	81.19
471.339	97.19
471.558	107.19
471.777	102.19
471.997	187.19
472.216	523.19
472.435	1198.19
472.654	325.19
472.873	121.19
473.092	102.19
473.311	79.19
473.53	94.19
473.749	94.19
473.968	105.19
474.187	90.19
474.406	97.19
474.625	97.19
474.844	91.19
475.063	82.19
475.282	91.19
475.501	84.19
475.72	91.19
475.939	85.19
476.158	84.19
476.377	97.19
476.596	100.19
476.814	101.19
477.033	120.19
477.252	84.19
477.471	90.19
477.69	103.19
477.908	98.19
478.127	89.19
478.346	75.19
478.564	80.19
478.783	114.19
479.002	100.19
479.22	103.19
479.439	120.19
479.658	121.19
479.876	103.19
480.095	103.19
480.313	104.19
480.532	125.19
480.751	173.19
480.969	464.19
481.188	1939.19
481.406	1272.19
481.624	228.19
481.843	107.19
482.061	96.19
482.28	94.19
482.498	87.19
482.717	106.19
482.935	92.19
483.153	101.19
483.372	82.19
483.59	90.19
483.808	85.19
484.027	86.19
484.245	99.19
484.463	98.19
484.681	96.19
484.9	95.19
485.118	98.19
485.336	100.19
485.554	102.19
485.772	99.19
485.99	97.19
486.209	101.19
486.427	103.19
486.645	106.19
486.863	119.19
487.081	103.19
487.299	93.19
487.517	94.19
487.735	97.19
487.953	97.19
488.171	79.19
488.389	108.19
488.607	108.19
488.825	92.19
489.043	86.19
489.261	93.19
489.479	106.19
489.696	83.19
489.914	86.19
490.132	96.19
490.35	93.19
490.568	100.19
490.786	93.19
491.003	91.19
491.221	85.19
491.439	102.19
491.657	101.19
491.874	108.19
492.092	87.19
492.31	87.19
492.527	94.19
492.745	95.19
492.963	90.19
493.18	104.19
493.398	106.19
493.615	113.19
493.833	102.19
494.05	84.19
494.268	81.19
494.485	103.19
494.703	89.19
494.92	87.19
495.138	97.19
495.355	101.19
495.573	90.19
495.79	87.19
496.008	100.19
496.225	81.19
496.442	88.19
496.66	102.19
496.877	85.19
497.094	90.19
497.312	98.19
497.529	92.19
497.746	98.19
497.963	92.19
498.181	93.19
498.398	106.19
498.615	114.19
498.832	115.19
499.049	97.19
499.267	103.19
499.484	94.19
499.701	89.19
499.918	86.19
500.135	90.19
500.352	103.19
500.569	90.19
500.786	99.19
501.003	88.19
501.22	95.19
501.437	99.19
501.654	92.19
501.871	119.19
502.088	102.19
502.305	79.19
502.522	90.19
502.739	87.19
502.956	92.19
503.172	94.19
503.389	97.19
503.606	105.19
503.823	118.19
504.04	113.19
504.256	94.19
504.473	99.19
504.69	90.19
504.907	84.19
505.123	91.19
505.34	98.19
505.557	101.19
505.773	97.19
505.99	85.19
506.207	102.19
506.423	70.19
506.64	93.19
506.856	93.19
507.073	94.19
507.289	94.19
507.506	108.19
507.722	127.19
507.939	144.19
508.155	107.19
508.372	98.19
508.588	89.19
508.805	99.19
509.021	106.19
509.238	103.19
509.454	96.19
509.67	89.19
509.887	120.19
510.103	149.19
510.319	242.19
510.536	862.19
510.752	2947.19
510.968	857.19
511.184	168.19
511.401	110.19
511.617	91.19
511.833	101.19
512.049	89.19
512.265	103.19
512.481	85.19
512.698	82.19
512.914	83.19
513.13	85.19
513.346	91.19
513.562	101.19
513.778	102.19
513.994	101.19
