Data from Circ_2013_H10_HRD10591_00008.txt Node
Date: Wed Jan 03 10:04:01 EST 2024
User: Yrep
Spectrometer: HR+D1059
Trigger mode: 1
Integration Time (sec): 1.000000E-1
Scans to average: 1
Electric dark correction enabled: true
Nonlinearity correction enabled: false
Boxcar width: 0
XAxis mode: Wavelengths
Number of Pixels in Spectrum: 2048
>>>>>Begin Spectral Data<<<<<
223.165	-11.88
223.4	-11.88
223.635	-11.88
223.869	-8.88
224.104	-6.88
224.338	-10.88
224.573	-13.88
224.808	-5.88
225.042	-0.88
225.277	-5.88
225.511	-7.88
225.746	-8.88
225.98	-15.88
226.215	10.12
226.449	25.12
226.683	14.12
226.918	16.12
227.152	32.12
227.387	25.12
227.621	51.12
227.856	42.12
228.09	42.12
228.324	63.12
228.559	53.12
228.793	48.12
229.027	66.12
229.262	68.12
229.496	83.12
229.73	74.12
229.964	83.12
230.199	67.12
230.433	73.12
230.667	89.12
230.901	84.12
231.136	68.12
231.37	71.12
231.604	71.12
231.838	77.12
232.072	88.12
232.306	90.12
232.541	81.12
232.775	89.12
233.009	72.12
233.243	75.12
233.477	67.12
233.711	76.12
233.945	74.12
234.179	76.12
234.413	88.12
234.647	68.12
234.881	87.12
235.115	72.12
235.349	85.12
235.583	82.12
235.817	86.12
236.051	72.12
236.285	82.12
236.519	83.12
236.753	76.12
236.987	83.12
237.221	96.12
237.455	81.12
237.689	63.12
237.922	71.12
238.156	80.12
238.39	80.12
238.624	76.12
238.858	67.12
239.091	65.12
239.325	72.12
239.559	68.12
239.793	83.12
240.027	71.12
240.26	73.12
240.494	73.12
240.728	67.12
240.961	73.12
241.195	79.12
241.429	84.12
241.662	57.12
241.896	69.12
242.13	69.12
242.363	71.12
242.597	83.12
242.83	95.12
243.064	88.12
243.298	72.12
243.531	80.12
243.765	75.12
243.998	75.12
244.232	80.12
244.465	83.12
244.699	71.12
244.932	76.12
245.166	73.12
245.399	71.12
245.633	71.12
245.866	81.12
246.099	69.12
246.333	81.12
246.566	77.12
246.8	72.12
247.033	84.12
247.266	81.12
247.5	71.12
247.733	70.12
247.966	91.12
248.2	90.12
248.433	82.12
248.666	85.12
248.899	75.12
249.133	87.12
249.366	95.12
249.599	96.12
249.832	90.12
250.066	86.12
250.299	78.12
250.532	98.12
250.765	82.12
250.998	82.12
251.231	86.12
251.465	79.12
251.698	69.12
251.931	89.12
252.164	74.12
252.397	83.12
252.63	80.12
252.863	88.12
253.096	81.12
253.329	77.12
253.562	76.12
253.795	89.12
254.028	64.12
254.261	83.12
254.494	73.12
254.727	71.12
254.96	85.12
255.193	84.12
255.426	72.12
255.659	92.12
255.892	85.12
256.124	84.12
256.357	79.12
256.59	84.12
256.823	87.12
257.056	83.12
257.289	91.12
257.521	87.12
257.754	81.12
257.987	74.12
258.22	73.12
258.452	92.12
258.685	84.12
258.918	78.12
259.151	77.12
259.383	79.12
259.616	70.12
259.849	77.12
260.081	89.12
260.314	85.12
260.547	88.12
260.779	74.12
261.012	86.12
261.244	101.12
261.477	95.12
261.71	88.12
261.942	122.12
262.175	133.12
262.407	82.12
262.64	85.12
262.872	82.12
263.105	84.12
263.337	68.12
263.57	92.12
263.802	77.12
264.035	68.12
264.267	77.12
264.499	86.12
264.732	87.12
264.964	87.12
265.197	68.12
265.429	81.12
265.661	102.12
265.894	81.12
266.126	83.12
266.358	91.12
266.591	85.12
266.823	68.12
267.055	83.12
267.287	85.12
267.52	86.12
267.752	80.12
267.984	95.12
268.216	79.12
268.448	88.12
268.681	87.12
268.913	74.12
269.145	73.12
269.377	81.12
269.609	81.12
269.841	74.12
270.073	74.12
270.306	92.12
270.538	82.12
270.77	88.12
271.002	95.12
271.234	60.12
271.466	95.12
271.698	89.12
271.93	78.12
272.162	94.12
272.394	83.12
272.626	71.12
272.858	72.12
273.09	75.12
273.322	73.12
273.553	83.12
273.785	81.12
274.017	75.12
274.249	95.12
274.481	74.12
274.713	82.12
274.945	88.12
275.176	90.12
275.408	90.12
275.64	76.12
275.872	105.12
276.104	95.12
276.335	85.12
276.567	123.12
276.799	111.12
277.031	127.12
277.262	133.12
277.494	112.12
277.726	93.12
277.957	97.12
278.189	96.12
278.421	94.12
278.652	95.12
278.884	71.12
279.115	72.12
279.347	81.12
279.579	112.12
279.81	96.12
280.042	107.12
280.273	142.12
280.505	102.12
280.736	87.12
280.968	88.12
281.199	83.12
281.431	77.12
281.662	84.12
281.894	88.12
282.125	104.12
282.356	124.12
282.588	166.12
282.819	121.12
283.051	92.12
283.282	68.12
283.513	83.12
283.745	73.12
283.976	95.12
284.207	89.12
284.439	87.12
284.67	88.12
284.901	93.12
285.132	80.12
285.364	82.12
285.595	87.12
285.826	77.12
286.057	92.12
286.288	83.12
286.52	81.12
286.751	91.12
286.982	82.12
287.213	79.12
287.444	101.12
287.675	69.12
287.906	91.12
288.138	75.12
288.369	88.12
288.6	102.12
288.831	86.12
289.062	98.12
289.293	104.12
289.524	102.12
289.755	93.12
289.986	93.12
290.217	78.12
290.448	69.12
290.679	63.12
290.91	75.12
291.141	83.12
291.371	89.12
291.602	90.12
291.833	90.12
292.064	91.12
292.295	95.12
292.526	88.12
292.757	92.12
292.987	84.12
293.218	77.12
293.449	76.12
293.68	77.12
293.91	96.12
294.141	95.12
294.372	103.12
294.603	94.12
294.833	79.12
295.064	89.12
295.295	80.12
295.525	78.12
295.756	91.12
295.987	105.12
296.217	154.12
296.448	133.12
296.679	98.12
296.909	82.12
297.14	84.12
297.37	77.12
297.601	89.12
297.831	84.12
298.062	99.12
298.292	89.12
298.523	98.12
298.753	88.12
298.984	89.12
299.214	91.12
299.445	98.12
299.675	95.12
299.905	103.12
300.136	95.12
300.366	96.12
300.597	99.12
300.827	98.12
301.057	84.12
301.288	90.12
301.518	84.12
301.748	88.12
301.979	99.12
302.209	96.12
302.439	88.12
302.669	86.12
302.9	95.12
303.13	91.12
303.36	94.12
303.59	105.12
303.82	122.12
304.051	92.12
304.281	103.12
304.511	87.12
304.741	103.12
304.971	69.12
305.201	88.12
305.431	102.12
305.661	92.12
305.891	92.12
306.121	100.12
306.352	113.12
306.582	106.12
306.812	88.12
307.042	93.12
307.272	103.12
307.502	108.12
307.731	91.12
307.961	96.12
308.191	87.12
308.421	89.12
308.651	79.12
308.881	91.12
309.111	99.12
309.341	108.12
309.571	101.12
309.8	95.12
310.03	100.12
310.26	105.12
310.49	102.12
310.72	98.12
310.949	85.12
311.179	112.12
311.409	89.12
311.639	105.12
311.868	96.12
312.098	99.12
312.328	99.12
312.557	102.12
312.787	123.12
313.017	104.12
313.246	102.12
313.476	91.12
313.706	93.12
313.935	98.12
314.165	100.12
314.394	121.12
314.624	95.12
314.853	98.12
315.083	102.12
315.312	93.12
315.542	96.12
315.771	92.12
316.001	92.12
316.23	87.12
316.46	93.12
316.689	91.12
316.919	93.12
317.148	90.12
317.377	85.12
317.607	89.12
317.836	105.12
318.065	103.12
318.295	86.12
318.524	90.12
318.753	93.12
318.983	103.12
319.212	117.12
319.441	111.12
319.67	98.12
319.9	88.12
320.129	96.12
320.358	88.12
320.587	103.12
320.816	97.12
321.046	94.12
321.275	101.12
321.504	101.12
321.733	98.12
321.962	103.12
322.191	111.12
322.42	106.12
322.649	134.12
322.878	108.12
323.108	131.12
323.337	130.12
323.566	139.12
323.795	180.12
324.024	229.12
324.253	458.12
324.482	977.12
324.71	2013.12
324.939	2719.12
325.168	987.12
325.397	265.12
325.626	168.12
325.855	131.12
326.084	129.12
326.313	137.12
326.542	168.12
326.77	252.12
326.999	511.12
327.228	1112.12
327.457	2049.12
327.686	1625.12
327.914	465.12
328.143	323.12
328.372	349.12
328.6	205.12
328.829	141.12
329.058	147.12
329.287	159.12
329.515	134.12
329.744	153.12
329.972	226.12
330.201	396.12
330.43	569.12
330.658	303.12
330.887	212.12
331.115	153.12
331.344	112.12
331.572	113.12
331.801	111.12
332.03	107.12
332.258	109.12
332.486	91.12
332.715	99.12
332.943	105.12
333.172	101.12
333.4	104.12
333.629	115.12
333.857	167.12
334.085	204.12
334.314	367.12
334.542	687.12
334.771	687.12
334.999	229.12
335.227	122.12
335.455	100.12
335.684	114.12
335.912	95.12
336.14	99.12
336.369	110.12
336.597	105.12
336.825	101.12
337.053	106.12
337.281	96.12
337.51	109.12
337.738	97.12
337.966	87.12
338.194	112.12
338.422	93.12
338.65	79.12
338.878	95.12
339.106	67.12
339.334	72.12
339.562	95.12
339.79	96.12
340.018	82.12
340.246	87.12
340.474	95.12
340.702	96.12
340.93	81.12
341.158	90.12
341.386	92.12
341.614	100.12
341.842	111.12
342.07	86.12
342.298	87.12
342.526	76.12
342.754	83.12
342.981	87.12
343.209	86.12
343.437	104.12
343.665	107.12
343.893	90.12
344.12	84.12
344.348	87.12
344.576	81.12
344.804	95.12
345.031	119.12
345.259	104.12
345.487	92.12
345.714	92.12
345.942	99.12
346.17	87.12
346.397	104.12
346.625	88.12
346.853	97.12
347.08	99.12
347.308	101.12
347.535	94.12
347.763	103.12
347.99	103.12
348.218	98.12
348.445	102.12
348.673	116.12
348.9	102.12
349.128	102.12
349.355	84.12
349.583	90.12
349.81	96.12
350.037	93.12
350.265	100.12
350.492	97.12
350.72	111.12
350.947	105.12
351.174	130.12
351.402	118.12
351.629	102.12
351.856	90.12
352.083	121.12
352.311	98.12
352.538	118.12
352.765	110.12
352.992	118.12
353.22	123.12
353.447	113.12
353.674	98.12
353.901	83.12
354.128	104.12
354.355	100.12
354.583	97.12
354.81	95.12
355.037	89.12
355.264	76.12
355.491	91.12
355.718	77.12
355.945	81.12
356.172	86.12
356.399	86.12
356.626	94.12
356.853	92.12
357.08	84.12
357.307	105.12
357.534	97.12
357.761	105.12
357.988	74.12
358.215	90.12
358.441	91.12
358.668	89.12
358.895	87.12
359.122	94.12
359.349	80.12
359.576	88.12
359.802	119.12
360.029	129.12
360.256	129.12
360.483	115.12
360.709	85.12
360.936	100.12
361.163	122.12
361.39	103.12
361.616	99.12
361.843	85.12
362.07	89.12
362.296	112.12
362.523	90.12
362.749	91.12
362.976	89.12
363.203	92.12
363.429	74.12
363.656	101.12
363.882	84.12
364.109	90.12
364.335	85.12
364.562	90.12
364.788	93.12
365.015	95.12
365.241	99.12
365.468	115.12
365.694	115.12
365.92	96.12
366.147	90.12
366.373	82.12
366.599	84.12
366.826	87.12
367.052	88.12
367.278	101.12
367.505	82.12
367.731	84.12
367.957	97.12
368.184	82.12
368.41	114.12
368.636	116.12
368.862	126.12
369.089	99.12
369.315	80.12
369.541	95.12
369.767	92.12
369.993	104.12
370.219	92.12
370.445	80.12
370.672	91.12
370.898	87.12
371.124	79.12
371.35	96.12
371.576	90.12
371.802	74.12
372.028	73.12
372.254	82.12
372.48	90.12
372.706	91.12
372.932	85.12
373.158	85.12
373.384	85.12
373.61	96.12
373.835	104.12
374.061	91.12
374.287	96.12
374.513	89.12
374.739	72.12
374.965	104.12
375.191	99.12
375.416	92.12
375.642	90.12
375.868	108.12
376.094	83.12
376.319	86.12
376.545	100.12
376.771	83.12
376.997	97.12
377.222	83.12
377.448	85.12
377.674	100.12
377.899	84.12
378.125	102.12
378.35	94.12
378.576	94.12
378.802	91.12
379.027	91.12
379.253	91.12
379.478	100.12
379.704	80.12
379.929	88.12
380.155	97.12
380.38	98.12
380.606	95.12
380.831	101.12
381.057	96.12
381.282	99.12
381.507	97.12
381.733	104.12
381.958	88.12
382.184	103.12
382.409	112.12
382.634	94.12
382.86	97.12
383.085	106.12
383.31	107.12
383.535	97.12
383.761	96.12
383.986	92.12
384.211	103.12
384.436	98.12
384.662	106.12
384.887	120.12
385.112	115.12
385.337	108.12
385.562	133.12
385.787	123.12
386.013	108.12
386.238	125.12
386.463	113.12
386.688	120.12
386.913	117.12
387.138	112.12
387.363	116.12
387.588	102.12
387.813	99.12
388.038	128.12
388.263	136.12
388.488	135.12
388.713	105.12
388.938	99.12
389.163	85.12
389.387	90.12
389.612	74.12
389.837	86.12
390.062	105.12
390.287	90.12
390.512	80.12
390.736	95.12
390.961	98.12
391.186	75.12
391.411	75.12
391.636	91.12
391.86	85.12
392.085	96.12
392.31	73.12
392.534	85.12
392.759	68.12
392.984	92.12
393.208	83.12
393.433	99.12
393.658	96.12
393.882	90.12
394.107	77.12
394.331	90.12
394.556	80.12
394.78	85.12
395.005	90.12
395.229	74.12
395.454	79.12
395.678	74.12
395.903	88.12
396.127	80.12
396.352	91.12
396.576	94.12
396.801	101.12
397.025	104.12
397.249	65.12
397.474	77.12
397.698	76.12
397.922	76.12
398.147	75.12
398.371	79.12
398.595	98.12
398.82	83.12
399.044	90.12
399.268	88.12
399.492	78.12
399.717	89.12
399.941	97.12
400.165	103.12
400.389	103.12
400.613	78.12
400.837	73.12
401.062	77.12
401.286	83.12
401.51	90.12
401.734	84.12
401.958	102.12
402.182	138.12
402.406	175.12
402.63	125.12
402.854	102.12
403.078	78.12
403.302	81.12
403.526	86.12
403.75	89.12
403.974	84.12
404.198	69.12
404.422	87.12
404.645	90.12
404.869	97.12
405.093	108.12
405.317	123.12
405.541	115.12
405.765	117.12
405.988	130.12
406.212	177.12
406.436	258.12
406.66	175.12
406.883	106.12
407.107	88.12
407.331	102.12
407.555	101.12
407.778	96.12
408.002	86.12
408.226	81.12
408.449	81.12
408.673	96.12
408.896	100.12
409.12	106.12
409.344	99.12
409.567	90.12
409.791	79.12
410.014	88.12
410.238	108.12
410.461	98.12
410.685	104.12
410.908	116.12
411.132	103.12
411.355	85.12
411.578	88.12
411.802	89.12
412.025	85.12
412.249	106.12
412.472	118.12
412.695	121.12
412.919	101.12
413.142	85.12
413.365	87.12
413.589	93.12
413.812	87.12
414.035	77.12
414.258	92.12
414.482	88.12
414.705	90.12
414.928	81.12
415.151	84.12
415.374	83.12
415.597	87.12
415.821	76.12
416.044	102.12
416.267	84.12
416.49	88.12
416.713	89.12
416.936	91.12
417.159	101.12
417.382	75.12
417.605	94.12
417.828	105.12
418.051	81.12
418.274	93.12
418.497	93.12
418.72	75.12
418.943	88.12
419.166	83.12
419.389	88.12
419.611	100.12
419.834	80.12
420.057	81.12
420.28	98.12
420.503	83.12
420.726	96.12
420.948	90.12
421.171	93.12
421.394	86.12
421.617	88.12
421.839	97.12
422.062	93.12
422.285	98.12
422.507	121.12
422.73	119.12
422.953	97.12
423.175	84.12
423.398	80.12
423.621	86.12
423.843	82.12
424.066	90.12
424.288	88.12
424.511	84.12
424.733	91.12
424.956	99.12
425.178	93.12
425.401	98.12
425.623	114.12
425.846	88.12
426.068	109.12
426.291	100.12
426.513	87.12
426.735	93.12
426.958	98.12
427.18	117.12
427.402	163.12
427.625	218.12
427.847	189.12
428.069	185.12
428.292	105.12
428.514	80.12
428.736	87.12
428.958	86.12
429.181	83.12
429.403	80.12
429.625	97.12
429.847	96.12
430.069	112.12
430.292	86.12
430.514	74.12
430.736	75.12
430.958	74.12
431.18	79.12
431.402	83.12
431.624	80.12
431.846	69.12
432.068	88.12
432.29	77.12
432.512	83.12
432.734	85.12
432.956	91.12
433.178	98.12
433.4	86.12
433.622	97.12
433.844	88.12
434.066	84.12
434.287	91.12
434.509	74.12
434.731	85.12
434.953	84.12
435.175	92.12
435.397	80.12
435.618	77.12
435.84	104.12
436.062	143.12
436.284	129.12
436.505	109.12
436.727	106.12
436.949	91.12
437.17	84.12
437.392	85.12
437.614	90.12
437.835	115.12
438.057	149.12
438.278	127.12
438.5	111.12
438.721	135.12
438.943	120.12
439.165	95.12
439.386	84.12
439.608	94.12
439.829	129.12
440.05	144.12
440.272	182.12
440.493	104.12
440.715	69.12
440.936	75.12
441.158	90.12
441.379	80.12
441.6	92.12
441.822	103.12
442.043	96.12
442.264	109.12
442.486	114.12
442.707	91.12
442.928	116.12
443.149	159.12
443.371	160.12
443.592	128.12
443.813	132.12
444.034	118.12
444.255	100.12
444.476	85.12
444.698	92.12
444.919	89.12
445.14	137.12
445.361	134.12
445.582	140.12
445.803	176.12
446.024	168.12
446.245	166.12
446.466	124.12
446.687	91.12
446.908	97.12
447.129	101.12
447.35	81.12
447.571	95.12
447.792	103.12
448.013	114.12
448.234	118.12
448.455	120.12
448.675	137.12
448.896	147.12
449.117	93.12
449.338	115.12
449.559	153.12
449.779	155.12
450	98.12
450.221	81.12
450.442	81.12
450.662	84.12
450.883	127.12
451.104	128.12
451.324	97.12
451.545	90.12
451.766	74.12
451.986	97.12
452.207	76.12
452.428	85.12
452.648	106.12
452.869	105.12
453.089	128.12
453.31	125.12
453.53	94.12
453.751	98.12
453.971	103.12
454.192	120.12
454.412	113.12
454.633	101.12
454.853	71.12
455.073	77.12
455.294	98.12
455.514	95.12
455.734	106.12
455.955	88.12
456.175	79.12
456.395	91.12
456.616	76.12
456.836	72.12
457.056	74.12
457.276	83.12
457.497	106.12
457.717	81.12
457.937	89.12
458.157	91.12
458.377	83.12
458.598	128.12
458.818	188.12
459.038	191.12
459.258	156.12
459.478	89.12
459.698	71.12
459.918	86.12
460.138	84.12
460.358	78.12
460.578	90.12
460.798	88.12
461.018	95.12
461.238	75.12
461.458	77.12
461.678	89.12
461.898	81.12
462.118	83.12
462.338	91.12
462.558	74.12
462.777	96.12
462.997	96.12
463.217	84.12
463.437	101.12
463.657	87.12
463.876	86.12
464.096	102.12
464.316	100.12
464.536	89.12
464.755	95.12
464.975	101.12
465.195	195.12
465.414	212.12
465.634	100.12
465.854	97.12
466.073	97.12
466.293	85.12
466.512	88.12
466.732	96.12
466.951	89.12
467.171	96.12
467.391	82.12
467.61	118.12
467.829	135.12
468.049	227.12
468.268	307.12
468.488	133.12
468.707	100.12
468.927	87.12
469.146	84.12
469.365	76.12
469.585	97.12
469.804	96.12
470.023	107.12
470.243	102.12
470.462	104.12
470.681	111.12
470.901	103.12
471.12	84.12
471.339	92.12
471.558	107.12
471.777	116.12
471.997	153.12
472.216	392.12
472.435	862.12
472.654	251.12
472.873	115.12
473.092	97.12
473.311	95.12
473.53	103.12
473.749	87.12
473.968	103.12
474.187	139.12
474.406	113.12
474.625	90.12
474.844	88.12
475.063	88.12
475.282	66.12
475.501	89.12
475.72	79.12
475.939	67.12
476.158	100.12
476.377	92.12
476.596	72.12
476.814	88.12
477.033	96.12
477.252	94.12
477.471	84.12
477.69	79.12
477.908	85.12
478.127	88.12
478.346	76.12
478.564	96.12
478.783	98.12
479.002	97.12
479.22	96.12
479.439	99.12
479.658	111.12
479.876	96.12
480.095	115.12
480.313	112.12
480.532	119.12
480.751	157.12
480.969	358.12
481.188	1403.12
481.406	927.12
481.624	188.12
481.843	104.12
482.061	87.12
482.28	87.12
482.498	96.12
482.717	84.12
482.935	93.12
483.153	83.12
483.372	89.12
483.59	82.12
483.808	79.12
484.027	82.12
484.245	88.12
484.463	90.12
484.681	100.12
484.9	88.12
485.118	111.12
485.336	97.12
485.554	114.12
485.772	96.12
485.99	112.12
486.209	106.12
486.427	95.12
486.645	93.12
486.863	132.12
487.081	104.12
487.299	87.12
487.517	94.12
487.735	94.12
487.953	100.12
488.171	101.12
488.389	93.12
488.607	91.12
488.825	89.12
489.043	90.12
489.261	79.12
489.479	70.12
489.696	88.12
489.914	68.12
490.132	89.12
490.35	88.12
490.568	88.12
490.786	90.12
491.003	73.12
491.221	86.12
491.439	87.12
491.657	79.12
491.874	92.12
492.092	82.12
492.31	92.12
492.527	103.12
492.745	81.12
492.963	90.12
493.18	94.12
493.398	87.12
493.615	101.12
493.833	75.12
494.05	102.12
494.268	95.12
494.485	77.12
494.703	90.12
494.92	85.12
495.138	81.12
495.355	85.12
495.573	92.12
495.79	82.12
496.008	93.12
496.225	79.12
496.442	96.12
496.66	96.12
496.877	89.12
497.094	97.12
497.312	95.12
497.529	86.12
497.746	92.12
497.963	80.12
498.181	91.12
498.398	88.12
498.615	116.12
498.832	105.12
499.049	87.12
499.267	85.12
499.484	87.12
499.701	95.12
499.918	108.12
500.135	89.12
500.352	96.12
500.569	90.12
500.786	95.12
501.003	82.12
501.22	99.12
501.437	87.12
501.654	93.12
501.871	111.12
502.088	99.12
502.305	92.12
502.522	85.12
502.739	88.12
502.956	86.12
503.172	100.12
503.389	92.12
503.606	125.12
503.823	100.12
504.04	90.12
504.256	98.12
504.473	95.12
504.69	100.12
504.907	81.12
505.123	85.12
505.34	99.12
505.557	69.12
505.773	82.12
505.99	101.12
506.207	90.12
506.423	105.12
506.64	109.12
506.856	98.12
507.073	82.12
507.289	88.12
507.506	97.12
507.722	115.12
507.939	135.12
508.155	113.12
508.372	93.12
508.588	92.12
508.805	100.12
509.021	98.12
509.238	89.12
509.454	99.12
509.67	109.12
509.887	115.12
510.103	137.12
510.319	218.12
510.536	769.12
510.752	2665.12
510.968	759.12
511.184	152.12
511.401	124.12
511.617	93.12
511.833	119.12
512.049	92.12
512.265	103.12
512.481	83.12
512.698	97.12
512.914	92.12
513.13	100.12
513.346	107.12
513.562	97.12
513.778	105.12
513.994	101.12
514.21	109.12
514.426	132.12
