Data from Circ_2013_H10_HRD10591_00024.txt Node
Date: Wed Jan 03 10:04:05 EST 2024
User: Yrep
Spectrometer: HR+D1059
Trigger mode: 1
Integration Time (sec): 1.000000E-1
Scans to average: 1
Electric dark correction enabled: true
Nonlinearity correction enabled: false
Boxcar width: 0
XAxis mode: Wavelengths
Number of Pixels in Spectrum: 2048
>>>>>Begin Spectral Data<<<<<
223.165	-26.56
223.4	-26.56
223.635	-26.56
223.869	-18.56
224.104	-16.56
224.338	-11.56
224.573	-24.56
224.808	-8.56
225.042	-7.56
225.277	-6.56
225.511	7.44
225.746	7.44
225.98	27.44
226.215	16.44
226.449	11.44
226.683	9.44
226.918	15.44
227.152	25.44
227.387	33.44
227.621	40.44
227.856	41.44
228.09	56.44
228.324	52.44
228.559	64.44
228.793	54.44
229.027	54.44
229.262	68.44
229.496	90.44
229.73	87.44
229.964	99.44
230.199	82.44
230.433	74.44
230.667	62.44
230.901	65.44
231.136	70.44
231.37	73.44
231.604	80.44
231.838	69.44
232.072	90.44
232.306	92.44
232.541	79.44
232.775	84.44
233.009	76.44
233.243	87.44
233.477	81.44
233.711	59.44
233.945	90.44
234.179	82.44
234.413	75.44
234.647	77.44
234.881	79.44
235.115	81.44
235.349	81.44
235.583	72.44
235.817	82.44
236.051	89.44
236.285	69.44
236.519	76.44
236.753	91.44
236.987	86.44
237.221	97.44
237.455	74.44
237.689	92.44
237.922	66.44
238.156	77.44
238.39	79.44
238.624	76.44
238.858	76.44
239.091	68.44
239.325	89.44
239.559	94.44
239.793	68.44
240.027	73.44
240.26	63.44
240.494	62.44
240.728	72.44
240.961	74.44
241.195	71.44
241.429	74.44
241.662	66.44
241.896	75.44
242.13	75.44
242.363	86.44
242.597	65.44
242.83	65.44
243.064	73.44
243.298	81.44
243.531	81.44
243.765	66.44
243.998	69.44
244.232	95.44
244.465	84.44
244.699	85.44
244.932	85.44
245.166	74.44
245.399	84.44
245.633	76.44
245.866	84.44
246.099	90.44
246.333	83.44
246.566	82.44
246.8	80.44
247.033	71.44
247.266	63.44
247.5	72.44
247.733	88.44
247.966	69.44
248.2	80.44
248.433	84.44
248.666	84.44
248.899	84.44
249.133	96.44
249.366	104.44
249.599	101.44
249.832	83.44
250.066	74.44
250.299	87.44
250.532	80.44
250.765	73.44
250.998	85.44
251.231	74.44
251.465	70.44
251.698	84.44
251.931	88.44
252.164	95.44
252.397	84.44
252.63	67.44
252.863	61.44
253.096	77.44
253.329	99.44
253.562	91.44
253.795	86.44
254.028	71.44
254.261	81.44
254.494	87.44
254.727	99.44
254.96	84.44
255.193	83.44
255.426	83.44
255.659	80.44
255.892	87.44
256.124	77.44
256.357	85.44
256.59	84.44
256.823	75.44
257.056	83.44
257.289	82.44
257.521	70.44
257.754	81.44
257.987	68.44
258.22	80.44
258.452	88.44
258.685	83.44
258.918	89.44
259.151	90.44
259.383	83.44
259.616	66.44
259.849	74.44
260.081	93.44
260.314	85.44
260.547	80.44
260.779	84.44
261.012	97.44
261.244	96.44
261.477	97.44
261.71	102.44
261.942	124.44
262.175	123.44
262.407	97.44
262.64	84.44
262.872	59.44
263.105	81.44
263.337	95.44
263.57	72.44
263.802	64.44
264.035	81.44
264.267	92.44
264.499	91.44
264.732	89.44
264.964	80.44
265.197	88.44
265.429	94.44
265.661	82.44
265.894	87.44
266.126	83.44
266.358	84.44
266.591	81.44
266.823	81.44
267.055	71.44
267.287	89.44
267.52	92.44
267.752	85.44
267.984	92.44
268.216	72.44
268.448	78.44
268.681	84.44
268.913	89.44
269.145	76.44
269.377	76.44
269.609	71.44
269.841	72.44
270.073	88.44
270.306	90.44
270.538	93.44
270.77	86.44
271.002	80.44
271.234	83.44
271.466	88.44
271.698	86.44
271.93	83.44
272.162	95.44
272.394	80.44
272.626	88.44
272.858	98.44
273.09	79.44
273.322	85.44
273.553	82.44
273.785	88.44
274.017	80.44
274.249	81.44
274.481	89.44
274.713	87.44
274.945	81.44
275.176	88.44
275.408	91.44
275.64	86.44
275.872	84.44
276.104	105.44
276.335	91.44
276.567	92.44
276.799	112.44
277.031	120.44
277.262	130.44
277.494	107.44
277.726	91.44
277.957	86.44
278.189	98.44
278.421	88.44
278.652	75.44
278.884	83.44
279.115	73.44
279.347	75.44
279.579	78.44
279.81	98.44
280.042	104.44
280.273	137.44
280.505	113.44
280.736	92.44
280.968	94.44
281.199	88.44
281.431	65.44
281.662	87.44
281.894	94.44
282.125	92.44
282.356	111.44
282.588	147.44
282.819	109.44
283.051	87.44
283.282	86.44
283.513	84.44
283.745	87.44
283.976	90.44
284.207	98.44
284.439	80.44
284.67	90.44
284.901	77.44
285.132	77.44
285.364	83.44
285.595	78.44
285.826	102.44
286.057	99.44
286.288	84.44
286.52	83.44
286.751	85.44
286.982	79.44
287.213	94.44
287.444	87.44
287.675	80.44
287.906	87.44
288.138	92.44
288.369	95.44
288.6	92.44
288.831	96.44
289.062	83.44
289.293	77.44
289.524	76.44
289.755	77.44
289.986	75.44
290.217	88.44
290.448	87.44
290.679	97.44
290.91	85.44
291.141	103.44
291.371	81.44
291.602	98.44
291.833	82.44
292.064	83.44
292.295	86.44
292.526	88.44
292.757	68.44
292.987	93.44
293.218	88.44
293.449	96.44
293.68	73.44
293.91	92.44
294.141	98.44
294.372	91.44
294.603	91.44
294.833	87.44
295.064	84.44
295.295	95.44
295.525	92.44
295.756	92.44
295.987	130.44
296.217	148.44
296.448	141.44
296.679	91.44
296.909	96.44
297.14	77.44
297.37	62.44
297.601	78.44
297.831	92.44
298.062	93.44
298.292	89.44
298.523	91.44
298.753	76.44
298.984	90.44
299.214	82.44
299.445	93.44
299.675	94.44
299.905	97.44
300.136	91.44
300.366	93.44
300.597	89.44
300.827	95.44
301.057	96.44
301.288	104.44
301.518	103.44
301.748	88.44
301.979	107.44
302.209	94.44
302.439	81.44
302.669	92.44
302.9	94.44
303.13	89.44
303.36	102.44
303.59	119.44
303.82	109.44
304.051	99.44
304.281	94.44
304.511	100.44
304.741	90.44
304.971	73.44
305.201	91.44
305.431	87.44
305.661	104.44
305.891	97.44
306.121	100.44
306.352	103.44
306.582	113.44
306.812	100.44
307.042	104.44
307.272	124.44
307.502	117.44
307.731	129.44
307.961	108.44
308.191	76.44
308.421	88.44
308.651	100.44
308.881	103.44
309.111	83.44
309.341	91.44
309.571	106.44
309.8	96.44
310.03	100.44
310.26	102.44
310.49	83.44
310.72	108.44
310.949	95.44
311.179	100.44
311.409	84.44
311.639	87.44
311.868	92.44
312.098	92.44
312.328	82.44
312.557	89.44
312.787	100.44
313.017	101.44
313.246	88.44
313.476	92.44
313.706	85.44
313.935	86.44
314.165	94.44
314.394	114.44
314.624	111.44
314.853	86.44
315.083	99.44
315.312	96.44
315.542	99.44
315.771	102.44
316.001	105.44
316.23	79.44
316.46	82.44
316.689	82.44
316.919	92.44
317.148	96.44
317.377	99.44
317.607	82.44
317.836	101.44
318.065	97.44
318.295	88.44
318.524	83.44
318.753	101.44
318.983	87.44
319.212	118.44
319.441	108.44
319.67	112.44
319.9	91.44
320.129	86.44
320.358	92.44
320.587	90.44
320.816	104.44
321.046	106.44
321.275	104.44
321.504	97.44
321.733	100.44
321.962	100.44
322.191	97.44
322.42	99.44
322.649	97.44
322.878	124.44
323.108	130.44
323.337	130.44
323.566	145.44
323.795	139.44
324.024	221.44
324.253	411.44
324.482	872.44
324.71	1777.44
324.939	2366.44
325.168	878.44
325.397	244.44
325.626	171.44
325.855	135.44
326.084	115.44
326.313	133.44
326.542	163.44
326.77	227.44
326.999	478.44
327.228	951.44
327.457	1746.44
327.686	1395.44
327.914	418.44
328.143	281.44
328.372	309.44
328.6	200.44
328.829	133.44
329.058	154.44
329.287	155.44
329.515	128.44
329.744	161.44
329.972	196.44
330.201	358.44
330.43	524.44
330.658	282.44
330.887	174.44
331.115	149.44
331.344	108.44
331.572	107.44
331.801	120.44
332.03	111.44
332.258	100.44
332.486	82.44
332.715	103.44
332.943	101.44
333.172	102.44
333.4	132.44
333.629	108.44
333.857	154.44
334.085	218.44
334.314	355.44
334.542	629.44
334.771	619.44
334.999	199.44
335.227	111.44
335.455	107.44
335.684	102.44
335.912	91.44
336.14	111.44
336.369	109.44
336.597	97.44
336.825	100.44
337.053	101.44
337.281	82.44
337.51	105.44
337.738	88.44
337.966	96.44
338.194	84.44
338.422	98.44
338.65	84.44
338.878	92.44
339.106	89.44
339.334	85.44
339.562	88.44
339.79	111.44
340.018	98.44
340.246	97.44
340.474	87.44
340.702	104.44
340.93	91.44
341.158	100.44
341.386	93.44
341.614	105.44
341.842	92.44
342.07	87.44
342.298	71.44
342.526	95.44
342.754	72.44
342.981	92.44
343.209	97.44
343.437	99.44
343.665	90.44
343.893	97.44
344.12	105.44
344.348	86.44
344.576	87.44
344.804	92.44
345.031	96.44
345.259	104.44
345.487	88.44
345.714	95.44
345.942	93.44
346.17	98.44
346.397	88.44
346.625	103.44
346.853	101.44
347.08	96.44
347.308	99.44
347.535	100.44
347.763	85.44
347.99	95.44
348.218	92.44
348.445	104.44
348.673	97.44
348.9	114.44
349.128	99.44
349.355	96.44
349.583	79.44
349.81	92.44
350.037	94.44
350.265	92.44
350.492	90.44
350.72	80.44
350.947	97.44
351.174	101.44
351.402	112.44
351.629	100.44
351.856	104.44
352.083	90.44
352.311	100.44
352.538	100.44
352.765	122.44
352.992	116.44
353.22	103.44
353.447	103.44
353.674	84.44
353.901	101.44
354.128	100.44
354.355	114.44
354.583	100.44
354.81	96.44
355.037	98.44
355.264	77.44
355.491	100.44
355.718	93.44
355.945	85.44
356.172	97.44
356.399	86.44
356.626	87.44
356.853	87.44
357.08	89.44
357.307	76.44
357.534	81.44
357.761	105.44
357.988	94.44
358.215	86.44
358.441	98.44
358.668	103.44
358.895	73.44
359.122	83.44
359.349	90.44
359.576	102.44
359.802	109.44
360.029	118.44
360.256	123.44
360.483	96.44
360.709	89.44
360.936	100.44
361.163	87.44
361.39	107.44
361.616	109.44
361.843	73.44
362.07	90.44
362.296	116.44
362.523	95.44
362.749	85.44
362.976	85.44
363.203	106.44
363.429	91.44
363.656	76.44
363.882	77.44
364.109	91.44
364.335	92.44
364.562	94.44
364.788	70.44
365.015	90.44
365.241	105.44
365.468	96.44
365.694	116.44
365.92	100.44
366.147	72.44
366.373	100.44
366.599	86.44
366.826	77.44
367.052	93.44
367.278	70.44
367.505	82.44
367.731	87.44
367.957	86.44
368.184	98.44
368.41	102.44
368.636	102.44
368.862	119.44
369.089	102.44
369.315	94.44
369.541	95.44
369.767	97.44
369.993	88.44
370.219	91.44
370.445	91.44
370.672	85.44
370.898	67.44
371.124	92.44
371.35	80.44
371.576	71.44
371.802	84.44
372.028	82.44
372.254	86.44
372.48	90.44
372.706	94.44
372.932	83.44
373.158	98.44
373.384	84.44
373.61	91.44
373.835	89.44
374.061	81.44
374.287	82.44
374.513	81.44
374.739	89.44
374.965	87.44
375.191	82.44
375.416	88.44
375.642	86.44
375.868	91.44
376.094	99.44
376.319	80.44
376.545	96.44
376.771	83.44
376.997	94.44
377.222	94.44
377.448	93.44
377.674	84.44
377.899	95.44
378.125	89.44
378.35	92.44
378.576	100.44
378.802	95.44
379.027	95.44
379.253	83.44
379.478	91.44
379.704	99.44
379.929	78.44
380.155	88.44
380.38	88.44
380.606	86.44
380.831	99.44
381.057	96.44
381.282	84.44
381.507	100.44
381.733	98.44
381.958	99.44
382.184	83.44
382.409	90.44
382.634	90.44
382.86	94.44
383.085	100.44
383.31	108.44
383.535	90.44
383.761	105.44
383.986	103.44
384.211	85.44
384.436	102.44
384.662	100.44
384.887	112.44
385.112	99.44
385.337	96.44
385.562	109.44
385.787	104.44
386.013	103.44
386.238	123.44
386.463	101.44
386.688	108.44
386.913	104.44
387.138	96.44
387.363	98.44
387.588	101.44
387.813	108.44
388.038	97.44
388.263	115.44
388.488	104.44
388.713	105.44
388.938	105.44
389.163	101.44
389.387	70.44
389.612	89.44
389.837	96.44
390.062	90.44
390.287	90.44
390.512	91.44
390.736	100.44
390.961	97.44
391.186	93.44
391.411	101.44
391.636	85.44
391.86	78.44
392.085	75.44
392.31	98.44
392.534	86.44
392.759	98.44
392.984	88.44
393.208	94.44
393.433	101.44
393.658	89.44
393.882	86.44
394.107	82.44
394.331	95.44
394.556	75.44
394.78	87.44
395.005	89.44
395.229	78.44
395.454	100.44
395.678	98.44
395.903	83.44
396.127	90.44
396.352	100.44
396.576	85.44
396.801	88.44
397.025	95.44
397.249	100.44
397.474	100.44
397.698	91.44
397.922	74.44
398.147	75.44
398.371	85.44
398.595	77.44
398.82	84.44
399.044	88.44
399.268	76.44
399.492	89.44
399.717	86.44
399.941	87.44
400.165	92.44
400.389	92.44
400.613	95.44
400.837	91.44
401.062	83.44
401.286	75.44
401.51	92.44
401.734	83.44
401.958	74.44
402.182	142.44
402.406	156.44
402.63	137.44
402.854	93.44
403.078	105.44
403.302	105.44
403.526	79.44
403.75	88.44
403.974	81.44
404.198	81.44
404.422	92.44
404.645	90.44
404.869	91.44
405.093	103.44
405.317	119.44
405.541	108.44
405.765	110.44
405.988	115.44
406.212	181.44
406.436	261.44
406.66	167.44
406.883	107.44
407.107	96.44
407.331	89.44
407.555	86.44
407.778	83.44
408.002	70.44
408.226	85.44
408.449	77.44
408.673	92.44
408.896	89.44
409.12	96.44
409.344	111.44
409.567	84.44
409.791	95.44
410.014	95.44
410.238	69.44
410.461	88.44
410.685	97.44
410.908	90.44
411.132	115.44
411.355	104.44
411.578	83.44
411.802	94.44
412.025	85.44
412.249	84.44
412.472	98.44
412.695	116.44
412.919	89.44
413.142	71.44
413.365	83.44
413.589	79.44
413.812	86.44
414.035	105.44
414.258	88.44
414.482	75.44
414.705	68.44
414.928	82.44
415.151	78.44
415.374	96.44
415.597	81.44
415.821	105.44
416.044	88.44
416.267	101.44
416.49	83.44
416.713	91.44
416.936	70.44
417.159	94.44
417.382	86.44
417.605	88.44
417.828	89.44
418.051	99.44
418.274	100.44
418.497	85.44
418.72	92.44
418.943	92.44
419.166	77.44
419.389	88.44
419.611	93.44
419.834	83.44
420.057	80.44
420.28	102.44
420.503	95.44
420.726	84.44
420.948	88.44
421.171	84.44
421.394	93.44
421.617	102.44
421.839	87.44
422.062	76.44
422.285	99.44
422.507	93.44
422.73	99.44
422.953	85.44
423.175	88.44
423.398	93.44
423.621	80.44
423.843	90.44
424.066	95.44
424.288	98.44
424.511	94.44
424.733	88.44
424.956	107.44
425.178	90.44
425.401	103.44
425.623	104.44
425.846	93.44
426.068	98.44
426.291	110.44
426.513	89.44
426.735	102.44
426.958	91.44
427.18	108.44
427.402	170.44
427.625	202.44
427.847	187.44
428.069	156.44
428.292	84.44
428.514	96.44
428.736	95.44
428.958	82.44
429.181	91.44
429.403	81.44
429.625	82.44
429.847	94.44
430.069	106.44
430.292	106.44
430.514	88.44
430.736	72.44
430.958	92.44
431.18	89.44
431.402	85.44
431.624	85.44
431.846	82.44
432.068	82.44
432.29	81.44
432.512	81.44
432.734	84.44
432.956	92.44
433.178	102.44
433.4	87.44
433.622	89.44
433.844	88.44
434.066	90.44
434.287	76.44
434.509	87.44
434.731	85.44
434.953	74.44
435.175	92.44
435.397	95.44
435.618	90.44
435.84	92.44
436.062	116.44
436.284	107.44
436.505	102.44
436.727	88.44
436.949	106.44
437.17	98.44
437.392	75.44
437.614	97.44
437.835	97.44
438.057	140.44
438.278	109.44
438.5	100.44
438.721	145.44
438.943	93.44
439.165	92.44
439.386	93.44
439.608	93.44
439.829	113.44
440.05	137.44
440.272	148.44
440.493	103.44
440.715	89.44
440.936	85.44
441.158	90.44
441.379	88.44
441.6	97.44
441.822	87.44
442.043	94.44
442.264	111.44
442.486	108.44
442.707	95.44
442.928	99.44
443.149	127.44
443.371	136.44
443.592	119.44
443.813	123.44
444.034	102.44
444.255	83.44
444.476	99.44
444.698	104.44
444.919	93.44
445.14	134.44
445.361	133.44
445.582	114.44
445.803	151.44
446.024	135.44
446.245	151.44
446.466	119.44
446.687	89.44
446.908	95.44
447.129	77.44
447.35	79.44
447.571	102.44
447.792	82.44
448.013	104.44
448.234	109.44
448.455	89.44
448.675	104.44
448.896	131.44
449.117	104.44
449.338	111.44
449.559	136.44
449.779	142.44
450	96.44
450.221	77.44
450.442	80.44
450.662	91.44
450.883	102.44
451.104	109.44
451.324	103.44
451.545	81.44
451.766	80.44
451.986	82.44
452.207	104.44
452.428	100.44
452.648	90.44
452.869	120.44
453.089	132.44
453.31	134.44
453.53	94.44
453.751	89.44
453.971	109.44
454.192	125.44
454.412	100.44
454.633	77.44
454.853	93.44
455.073	82.44
455.294	92.44
455.514	96.44
455.734	106.44
455.955	94.44
456.175	81.44
456.395	84.44
456.616	80.44
456.836	79.44
457.056	77.44
457.276	77.44
457.497	96.44
457.717	75.44
457.937	84.44
458.157	98.44
458.377	92.44
458.598	109.44
458.818	161.44
459.038	183.44
459.258	123.44
459.478	86.44
459.698	87.44
459.918	81.44
460.138	73.44
460.358	79.44
460.578	82.44
460.798	89.44
461.018	87.44
461.238	86.44
461.458	89.44
461.678	87.44
461.898	77.44
462.118	88.44
462.338	84.44
462.558	75.44
462.777	89.44
462.997	85.44
463.217	82.44
463.437	93.44
463.657	99.44
463.876	84.44
464.096	102.44
464.316	102.44
464.536	87.44
464.755	68.44
464.975	101.44
465.195	191.44
465.414	188.44
465.634	111.44
465.854	97.44
466.073	83.44
466.293	83.44
466.512	75.44
466.732	87.44
466.951	85.44
467.171	107.44
467.391	102.44
467.61	112.44
467.829	124.44
468.049	214.44
468.268	293.44
468.488	114.44
468.707	88.44
468.927	90.44
469.146	78.44
469.365	90.44
469.585	85.44
469.804	117.44
470.023	100.44
470.243	88.44
470.462	104.44
470.681	109.44
470.901	97.44
471.12	103.44
471.339	91.44
471.558	86.44
471.777	98.44
471.997	146.44
472.216	371.44
472.435	813.44
472.654	252.44
472.873	106.44
473.092	94.44
473.311	82.44
473.53	95.44
473.749	92.44
473.968	100.44
474.187	117.44
474.406	92.44
474.625	89.44
474.844	72.44
475.063	82.44
475.282	82.44
475.501	82.44
475.72	96.44
475.939	81.44
476.158	94.44
476.377	82.44
476.596	82.44
476.814	86.44
477.033	102.44
477.252	87.44
477.471	72.44
477.69	89.44
477.908	75.44
478.127	90.44
478.346	85.44
478.564	96.44
478.783	87.44
479.002	87.44
479.22	96.44
479.439	123.44
479.658	105.44
479.876	92.44
480.095	114.44
480.313	112.44
480.532	111.44
480.751	139.44
480.969	372.44
481.188	1371.44
481.406	905.44
481.624	175.44
481.843	103.44
482.061	83.44
482.28	90.44
482.498	92.44
482.717	92.44
482.935	88.44
483.153	84.44
483.372	81.44
483.59	76.44
483.808	92.44
484.027	104.44
484.245	111.44
484.463	100.44
484.681	84.44
484.9	93.44
485.118	96.44
485.336	88.44
485.554	95.44
485.772	97.44
485.99	84.44
486.209	97.44
486.427	92.44
486.645	101.44
486.863	104.44
487.081	98.44
487.299	85.44
487.517	86.44
487.735	99.44
487.953	83.44
488.171	84.44
488.389	84.44
488.607	86.44
488.825	99.44
489.043	82.44
489.261	83.44
489.479	82.44
489.696	85.44
489.914	93.44
490.132	91.44
490.35	81.44
490.568	82.44
490.786	92.44
491.003	89.44
491.221	84.44
491.439	87.44
491.657	100.44
491.874	94.44
492.092	81.44
492.31	90.44
492.527	90.44
492.745	92.44
492.963	94.44
493.18	95.44
493.398	91.44
493.615	101.44
493.833	95.44
494.05	97.44
494.268	79.44
494.485	88.44
494.703	92.44
494.92	84.44
495.138	96.44
495.355	75.44
495.573	81.44
495.79	85.44
496.008	104.44
496.225	96.44
496.442	90.44
496.66	89.44
496.877	86.44
497.094	93.44
497.312	81.44
497.529	87.44
497.746	97.44
497.963	99.44
498.181	86.44
498.398	95.44
498.615	98.44
498.832	113.44
499.049	95.44
499.267	99.44
499.484	90.44
499.701	77.44
499.918	99.44
500.135	104.44
500.352	84.44
500.569	70.44
500.786	100.44
501.003	96.44
501.22	81.44
501.437	94.44
501.654	97.44
501.871	102.44
502.088	75.44
502.305	84.44
502.522	89.44
502.739	83.44
502.956	93.44
503.172	88.44
503.389	93.44
503.606	100.44
503.823	97.44
504.04	102.44
504.256	99.44
504.473	91.44
504.69	76.44
504.907	82.44
505.123	82.44
505.34	97.44
505.557	93.44
505.773	60.44
505.99	102.44
506.207	76.44
506.423	81.44
506.64	89.44
506.856	95.44
507.073	89.44
507.289	87.44
507.506	83.44
507.722	113.44
507.939	111.44
508.155	94.44
508.372	94.44
508.588	95.44
508.805	107.44
509.021	98.44
509.238	98.44
509.454	96.44
509.67	95.44
509.887	104.44
510.103	123.44
510.319	213.44
510.536	751.44
510.752	2573.44
510.968	756.44
511.184	153.44
511.401	122.44
511.617	101.44
511.833	97.44
512.049	99.44
512.265	86.44
512.481	81.44
512.698	82.44
512.914	88.44
513.13	104.44
513.346	98.44
513.562	106.44
513.778	86.44
513.994	98.44
514.21	111.44
514.426	134.44
514.642	161.44
514.858	127.44
515.074	192.44
