Data from Circ_2013_H10_HRD10591_00042.txt Node
Date: Wed Jan 03 10:04:08 EST 2024
User: Yrep
Spectrometer: HR+D1059
Trigger mode: 1
Integration Time (sec): 1.000000E-1
Scans to average: 1
Electric dark correction enabled: true
Nonlinearity correction enabled: false
Boxcar width: 0
XAxis mode: Wavelengths
Number of Pixels in Spectrum: 2048
>>>>>Begin Spectral Data<<<<<
223.165	-7.06
223.4	-7.06
223.635	-7.06
223.869	-13.06
224.104	-16.06
224.338	-22.06
224.573	-18.06
224.808	-9.06
225.042	-14.06
225.277	1.94
225.511	-0.06
225.746	7.94
225.98	3.94
226.215	8.94
226.449	10.94
226.683	13.94
226.918	17.94
227.152	33.94
227.387	41.94
227.621	36.94
227.856	39.94
228.09	42.94
228.324	55.94
228.559	62.94
228.793	56.94
229.027	56.94
229.262	60.94
229.496	75.94
229.73	88.94
229.964	100.94
230.199	63.94
230.433	81.94
230.667	69.94
230.901	80.94
231.136	79.94
231.37	68.94
231.604	84.94
231.838	92.94
232.072	68.94
232.306	83.94
232.541	92.94
232.775	76.94
233.009	80.94
233.243	89.94
233.477	66.94
233.711	71.94
233.945	73.94
234.179	67.94
234.413	76.94
234.647	90.94
234.881	70.94
235.115	75.94
235.349	62.94
235.583	69.94
235.817	81.94
236.051	76.94
236.285	66.94
236.519	91.94
236.753	76.94
236.987	84.94
237.221	80.94
237.455	79.94
237.689	63.94
237.922	73.94
238.156	76.94
238.39	69.94
238.624	74.94
238.858	75.94
239.091	73.94
239.325	67.94
239.559	83.94
239.793	74.94
240.027	90.94
240.26	79.94
240.494	90.94
240.728	71.94
240.961	89.94
241.195	84.94
241.429	55.94
241.662	73.94
241.896	74.94
242.13	77.94
242.363	71.94
242.597	72.94
242.83	72.94
243.064	58.94
243.298	78.94
243.531	69.94
243.765	76.94
243.998	83.94
244.232	80.94
244.465	67.94
244.699	75.94
244.932	79.94
245.166	75.94
245.399	79.94
245.633	83.94
245.866	77.94
246.099	65.94
246.333	85.94
246.566	74.94
246.8	74.94
247.033	81.94
247.266	72.94
247.5	72.94
247.733	80.94
247.966	72.94
248.2	74.94
248.433	80.94
248.666	72.94
248.899	80.94
249.133	83.94
249.366	83.94
249.599	92.94
249.832	90.94
250.066	84.94
250.299	80.94
250.532	83.94
250.765	83.94
250.998	56.94
251.231	75.94
251.465	86.94
251.698	86.94
251.931	72.94
252.164	67.94
252.397	78.94
252.63	80.94
252.863	75.94
253.096	83.94
253.329	79.94
253.562	81.94
253.795	78.94
254.028	65.94
254.261	67.94
254.494	72.94
254.727	91.94
254.96	61.94
255.193	77.94
255.426	70.94
255.659	82.94
255.892	80.94
256.124	80.94
256.357	80.94
256.59	68.94
256.823	80.94
257.056	87.94
257.289	69.94
257.521	82.94
257.754	75.94
257.987	85.94
258.22	87.94
258.452	83.94
258.685	67.94
258.918	83.94
259.151	64.94
259.383	63.94
259.616	83.94
259.849	77.94
260.081	83.94
260.314	74.94
260.547	89.94
260.779	89.94
261.012	75.94
261.244	108.94
261.477	81.94
261.71	82.94
261.942	116.94
262.175	130.94
262.407	102.94
262.64	83.94
262.872	81.94
263.105	68.94
263.337	81.94
263.57	73.94
263.802	81.94
264.035	89.94
264.267	81.94
264.499	88.94
264.732	85.94
264.964	76.94
265.197	80.94
265.429	92.94
265.661	77.94
265.894	80.94
266.126	76.94
266.358	82.94
266.591	86.94
266.823	86.94
267.055	62.94
267.287	83.94
267.52	76.94
267.752	87.94
267.984	84.94
268.216	85.94
268.448	85.94
268.681	90.94
268.913	65.94
269.145	85.94
269.377	85.94
269.609	82.94
269.841	74.94
270.073	88.94
270.306	72.94
270.538	81.94
270.77	77.94
271.002	69.94
271.234	72.94
271.466	76.94
271.698	77.94
271.93	88.94
272.162	83.94
272.394	86.94
272.626	95.94
272.858	94.94
273.09	72.94
273.322	77.94
273.553	86.94
273.785	83.94
274.017	80.94
274.249	83.94
274.481	75.94
274.713	85.94
274.945	79.94
275.176	92.94
275.408	89.94
275.64	98.94
275.872	97.94
276.104	111.94
276.335	100.94
276.567	127.94
276.799	126.94
277.031	148.94
277.262	136.94
277.494	115.94
277.726	87.94
277.957	79.94
278.189	87.94
278.421	92.94
278.652	81.94
278.884	75.94
279.115	71.94
279.347	92.94
279.579	89.94
279.81	117.94
280.042	140.94
280.273	168.94
280.505	139.94
280.736	88.94
280.968	87.94
281.199	62.94
281.431	76.94
281.662	75.94
281.894	82.94
282.125	87.94
282.356	125.94
282.588	156.94
282.819	120.94
283.051	89.94
283.282	78.94
283.513	90.94
283.745	83.94
283.976	85.94
284.207	85.94
284.439	90.94
284.67	88.94
284.901	90.94
285.132	81.94
285.364	94.94
285.595	78.94
285.826	75.94
286.057	81.94
286.288	86.94
286.52	80.94
286.751	76.94
286.982	83.94
287.213	60.94
287.444	81.94
287.675	93.94
287.906	91.94
288.138	101.94
288.369	81.94
288.6	90.94
288.831	88.94
289.062	96.94
289.293	91.94
289.524	95.94
289.755	76.94
289.986	89.94
290.217	91.94
290.448	80.94
290.679	102.94
290.91	81.94
291.141	72.94
291.371	83.94
291.602	80.94
291.833	98.94
292.064	89.94
292.295	95.94
292.526	93.94
292.757	95.94
292.987	79.94
293.218	93.94
293.449	67.94
293.68	82.94
293.91	89.94
294.141	90.94
294.372	77.94
294.603	92.94
294.833	91.94
295.064	87.94
295.295	99.94
295.525	82.94
295.756	96.94
295.987	117.94
296.217	170.94
296.448	142.94
296.679	101.94
296.909	93.94
297.14	91.94
297.37	103.94
297.601	87.94
297.831	89.94
298.062	102.94
298.292	94.94
298.523	75.94
298.753	77.94
298.984	77.94
299.214	81.94
299.445	90.94
299.675	91.94
299.905	93.94
300.136	93.94
300.366	83.94
300.597	80.94
300.827	98.94
301.057	88.94
301.288	117.94
301.518	103.94
301.748	89.94
301.979	95.94
302.209	84.94
302.439	93.94
302.669	85.94
302.9	72.94
303.13	87.94
303.36	88.94
303.59	101.94
303.82	116.94
304.051	102.94
304.281	88.94
304.511	101.94
304.741	79.94
304.971	75.94
305.201	88.94
305.431	88.94
305.661	94.94
305.891	90.94
306.121	105.94
306.352	108.94
306.582	98.94
306.812	108.94
307.042	105.94
307.272	128.94
307.502	135.94
307.731	113.94
307.961	106.94
308.191	103.94
308.421	85.94
308.651	77.94
308.881	99.94
309.111	83.94
309.341	98.94
309.571	115.94
309.8	100.94
310.03	103.94
310.26	111.94
310.49	99.94
310.72	104.94
310.949	99.94
311.179	119.94
311.409	94.94
311.639	108.94
311.868	97.94
312.098	85.94
312.328	105.94
312.557	92.94
312.787	112.94
313.017	126.94
313.246	89.94
313.476	79.94
313.706	100.94
313.935	92.94
314.165	101.94
314.394	114.94
314.624	97.94
314.853	109.94
315.083	98.94
315.312	102.94
315.542	91.94
315.771	94.94
316.001	95.94
316.23	74.94
316.46	100.94
316.689	89.94
316.919	101.94
317.148	94.94
317.377	89.94
317.607	76.94
317.836	95.94
318.065	92.94
318.295	94.94
318.524	88.94
318.753	88.94
318.983	93.94
319.212	106.94
319.441	114.94
319.67	119.94
319.9	88.94
320.129	100.94
320.358	100.94
320.587	97.94
320.816	93.94
321.046	105.94
321.275	107.94
321.504	99.94
321.733	87.94
321.962	114.94
322.191	85.94
322.42	109.94
322.649	101.94
322.878	125.94
323.108	117.94
323.337	137.94
323.566	145.94
323.795	168.94
324.024	219.94
324.253	442.94
324.482	968.94
324.71	1958.94
324.939	2683.94
325.168	961.94
325.397	259.94
325.626	177.94
325.855	132.94
326.084	128.94
326.313	133.94
326.542	151.94
326.77	252.94
326.999	513.94
327.228	1061.94
327.457	1929.94
327.686	1585.94
327.914	467.94
328.143	353.94
328.372	405.94
328.6	257.94
328.829	145.94
329.058	155.94
329.287	161.94
329.515	141.94
329.744	174.94
329.972	263.94
330.201	499.94
330.43	740.94
330.658	381.94
330.887	215.94
331.115	152.94
331.344	125.94
331.572	116.94
331.801	97.94
332.03	99.94
332.258	113.94
332.486	85.94
332.715	111.94
332.943	92.94
333.172	105.94
333.4	100.94
333.629	132.94
333.857	155.94
334.085	242.94
334.314	471.94
334.542	881.94
334.771	906.94
334.999	256.94
335.227	133.94
335.455	108.94
335.684	95.94
335.912	120.94
336.14	93.94
336.369	96.94
336.597	101.94
336.825	95.94
337.053	90.94
337.281	87.94
337.51	99.94
337.738	107.94
337.966	103.94
338.194	98.94
338.422	100.94
338.65	90.94
338.878	87.94
339.106	91.94
339.334	90.94
339.562	91.94
339.79	98.94
340.018	87.94
340.246	80.94
340.474	101.94
340.702	82.94
340.93	92.94
341.158	94.94
341.386	95.94
341.614	102.94
341.842	94.94
342.07	96.94
342.298	97.94
342.526	81.94
342.754	83.94
342.981	88.94
343.209	97.94
343.437	103.94
343.665	81.94
343.893	83.94
344.12	90.94
344.348	89.94
344.576	85.94
344.804	96.94
345.031	84.94
345.259	109.94
345.487	112.94
345.714	92.94
345.942	83.94
346.17	89.94
346.397	81.94
346.625	95.94
346.853	75.94
347.08	103.94
347.308	89.94
347.535	97.94
347.763	90.94
347.99	85.94
348.218	108.94
348.445	115.94
348.673	101.94
348.9	107.94
349.128	89.94
349.355	93.94
349.583	90.94
349.81	74.94
350.037	78.94
350.265	92.94
350.492	99.94
350.72	92.94
350.947	93.94
351.174	125.94
351.402	113.94
351.629	112.94
351.856	104.94
352.083	106.94
352.311	123.94
352.538	119.94
352.765	107.94
352.992	108.94
353.22	120.94
353.447	109.94
353.674	105.94
353.901	95.94
354.128	87.94
354.355	82.94
354.583	102.94
354.81	98.94
355.037	84.94
355.264	106.94
355.491	93.94
355.718	93.94
355.945	91.94
356.172	86.94
356.399	90.94
356.626	97.94
356.853	101.94
357.08	82.94
357.307	105.94
357.534	77.94
357.761	83.94
357.988	93.94
358.215	87.94
358.441	95.94
358.668	84.94
358.895	90.94
359.122	89.94
359.349	84.94
359.576	84.94
359.802	97.94
360.029	120.94
360.256	122.94
360.483	101.94
360.709	87.94
360.936	99.94
361.163	92.94
361.39	88.94
361.616	96.94
361.843	80.94
362.07	99.94
362.296	106.94
362.523	115.94
362.749	93.94
362.976	93.94
363.203	98.94
363.429	84.94
363.656	92.94
363.882	85.94
364.109	82.94
364.335	87.94
364.562	84.94
364.788	97.94
365.015	97.94
365.241	98.94
365.468	102.94
365.694	103.94
365.92	101.94
366.147	90.94
366.373	93.94
366.599	87.94
366.826	79.94
367.052	101.94
367.278	83.94
367.505	97.94
367.731	112.94
367.957	71.94
368.184	88.94
368.41	105.94
368.636	130.94
368.862	131.94
369.089	106.94
369.315	99.94
369.541	89.94
369.767	92.94
369.993	94.94
370.219	89.94
370.445	85.94
370.672	86.94
370.898	83.94
371.124	88.94
371.35	83.94
371.576	100.94
371.802	82.94
372.028	76.94
372.254	88.94
372.48	90.94
372.706	78.94
372.932	80.94
373.158	87.94
373.384	91.94
373.61	85.94
373.835	72.94
374.061	87.94
374.287	90.94
374.513	85.94
374.739	84.94
374.965	76.94
375.191	89.94
375.416	92.94
375.642	74.94
375.868	80.94
376.094	89.94
376.319	94.94
376.545	97.94
376.771	95.94
376.997	88.94
377.222	67.94
377.448	93.94
377.674	102.94
377.899	85.94
378.125	78.94
378.35	97.94
378.576	78.94
378.802	99.94
379.027	107.94
379.253	91.94
379.478	88.94
379.704	90.94
379.929	100.94
380.155	103.94
380.38	89.94
380.606	95.94
380.831	95.94
381.057	95.94
381.282	79.94
381.507	85.94
381.733	99.94
381.958	86.94
382.184	86.94
382.409	107.94
382.634	113.94
382.86	105.94
383.085	89.94
383.31	92.94
383.535	94.94
383.761	92.94
383.986	95.94
384.211	93.94
384.436	89.94
384.662	87.94
384.887	96.94
385.112	99.94
385.337	116.94
385.562	92.94
385.787	108.94
386.013	117.94
386.238	105.94
386.463	119.94
386.688	104.94
386.913	106.94
387.138	117.94
387.363	89.94
387.588	100.94
387.813	98.94
388.038	103.94
388.263	99.94
388.488	93.94
388.713	90.94
388.938	98.94
389.163	89.94
389.387	83.94
389.612	84.94
389.837	96.94
390.062	96.94
390.287	85.94
390.512	90.94
390.736	94.94
390.961	84.94
391.186	75.94
391.411	81.94
391.636	87.94
391.86	87.94
392.085	92.94
392.31	81.94
392.534	71.94
392.759	87.94
392.984	68.94
393.208	86.94
393.433	90.94
393.658	91.94
393.882	82.94
394.107	95.94
394.331	86.94
394.556	87.94
394.78	81.94
395.005	87.94
395.229	80.94
395.454	85.94
395.678	97.94
395.903	79.94
396.127	89.94
396.352	91.94
396.576	73.94
396.801	73.94
397.025	94.94
397.249	86.94
397.474	104.94
397.698	95.94
397.922	87.94
398.147	92.94
398.371	84.94
398.595	75.94
398.82	74.94
399.044	80.94
399.268	83.94
399.492	93.94
399.717	96.94
399.941	74.94
400.165	88.94
400.389	92.94
400.613	77.94
400.837	77.94
401.062	74.94
401.286	89.94
401.51	91.94
401.734	87.94
401.958	120.94
402.182	143.94
402.406	180.94
402.63	129.94
402.854	94.94
403.078	97.94
403.302	81.94
403.526	85.94
403.75	81.94
403.974	97.94
404.198	81.94
404.422	88.94
404.645	74.94
404.869	82.94
405.093	101.94
405.317	124.94
405.541	131.94
405.765	97.94
405.988	146.94
406.212	191.94
406.436	266.94
406.66	173.94
406.883	105.94
407.107	100.94
407.331	104.94
407.555	99.94
407.778	90.94
408.002	88.94
408.226	107.94
408.449	95.94
408.673	98.94
408.896	95.94
409.12	93.94
409.344	77.94
409.567	86.94
409.791	80.94
410.014	90.94
410.238	89.94
410.461	89.94
410.685	85.94
410.908	103.94
411.132	95.94
411.355	96.94
411.578	84.94
411.802	72.94
412.025	80.94
412.249	73.94
412.472	108.94
412.695	104.94
412.919	103.94
413.142	82.94
413.365	82.94
413.589	83.94
413.812	91.94
414.035	81.94
414.258	100.94
414.482	85.94
414.705	87.94
414.928	88.94
415.151	98.94
415.374	92.94
415.597	79.94
415.821	75.94
416.044	90.94
416.267	85.94
416.49	87.94
416.713	87.94
416.936	95.94
417.159	69.94
417.382	88.94
417.605	98.94
417.828	116.94
418.051	90.94
418.274	91.94
418.497	91.94
418.72	81.94
418.943	71.94
419.166	85.94
419.389	91.94
419.611	82.94
419.834	100.94
420.057	85.94
420.28	91.94
420.503	80.94
420.726	80.94
420.948	88.94
421.171	86.94
421.394	78.94
421.617	89.94
421.839	89.94
422.062	75.94
422.285	92.94
422.507	88.94
422.73	92.94
422.953	90.94
423.175	90.94
423.398	81.94
423.621	100.94
423.843	90.94
424.066	74.94
424.288	82.94
424.511	100.94
424.733	104.94
424.956	107.94
425.178	100.94
425.401	97.94
425.623	97.94
425.846	82.94
426.068	84.94
426.291	83.94
426.513	80.94
426.735	90.94
426.958	99.94
427.18	111.94
427.402	156.94
427.625	216.94
427.847	192.94
428.069	161.94
428.292	110.94
428.514	99.94
428.736	74.94
428.958	79.94
429.181	80.94
429.403	80.94
429.625	86.94
429.847	91.94
430.069	99.94
430.292	92.94
430.514	89.94
430.736	79.94
430.958	84.94
431.18	98.94
431.402	72.94
431.624	80.94
431.846	82.94
432.068	86.94
432.29	82.94
432.512	87.94
432.734	87.94
432.956	86.94
433.178	110.94
433.4	98.94
433.622	87.94
433.844	78.94
434.066	86.94
434.287	92.94
434.509	84.94
434.731	83.94
434.953	77.94
435.175	91.94
435.397	81.94
435.618	96.94
435.84	83.94
436.062	129.94
436.284	125.94
436.505	91.94
436.727	117.94
436.949	80.94
437.17	84.94
437.392	96.94
437.614	92.94
437.835	98.94
438.057	131.94
438.278	128.94
438.5	111.94
438.721	116.94
438.943	103.94
439.165	89.94
439.386	91.94
439.608	80.94
439.829	102.94
440.05	140.94
440.272	154.94
440.493	88.94
440.715	92.94
440.936	92.94
441.158	96.94
441.379	98.94
441.6	85.94
441.822	103.94
442.043	87.94
442.264	112.94
442.486	111.94
442.707	93.94
442.928	104.94
443.149	137.94
443.371	151.94
443.592	115.94
443.813	125.94
444.034	103.94
444.255	82.94
444.476	79.94
444.698	83.94
444.919	72.94
445.14	134.94
445.361	138.94
445.582	122.94
445.803	151.94
446.024	166.94
446.245	135.94
446.466	109.94
446.687	91.94
446.908	78.94
447.129	92.94
447.35	86.94
447.571	89.94
447.792	91.94
448.013	101.94
448.234	120.94
448.455	111.94
448.675	118.94
448.896	136.94
449.117	96.94
449.338	99.94
449.559	128.94
449.779	133.94
450	85.94
450.221	84.94
450.442	77.94
450.662	99.94
450.883	109.94
451.104	114.94
451.324	82.94
451.545	86.94
451.766	95.94
451.986	89.94
452.207	91.94
452.428	81.94
452.648	96.94
452.869	120.94
453.089	128.94
453.31	133.94
453.53	96.94
453.751	90.94
453.971	107.94
454.192	118.94
454.412	85.94
454.633	108.94
454.853	91.94
455.073	75.94
455.294	93.94
455.514	111.94
455.734	85.94
455.955	93.94
456.175	74.94
456.395	77.94
456.616	86.94
456.836	96.94
457.056	98.94
457.276	80.94
457.497	91.94
457.717	68.94
457.937	88.94
458.157	82.94
458.377	108.94
458.598	104.94
458.818	189.94
459.038	209.94
459.258	127.94
459.478	80.94
459.698	73.94
459.918	93.94
460.138	81.94
460.358	86.94
460.578	100.94
460.798	75.94
461.018	83.94
461.238	76.94
461.458	59.94
461.678	77.94
461.898	84.94
462.118	78.94
462.338	97.94
462.558	71.94
462.777	79.94
462.997	105.94
463.217	96.94
463.437	72.94
463.657	84.94
463.876	90.94
464.096	83.94
464.316	88.94
464.536	89.94
464.755	96.94
464.975	95.94
465.195	207.94
465.414	189.94
465.634	86.94
465.854	76.94
466.073	82.94
466.293	90.94
466.512	84.94
466.732	79.94
466.951	91.94
467.171	108.94
467.391	100.94
467.61	116.94
467.829	158.94
468.049	315.94
468.268	464.94
468.488	156.94
468.707	84.94
468.927	90.94
469.146	80.94
469.365	83.94
469.585	96.94
469.804	101.94
470.023	101.94
470.243	95.94
470.462	101.94
470.681	117.94
470.901	106.94
471.12	86.94
471.339	90.94
471.558	99.94
471.777	116.94
471.997	166.94
472.216	538.94
472.435	1292.94
472.654	353.94
472.873	118.94
473.092	90.94
473.311	98.94
473.53	88.94
473.749	97.94
473.968	87.94
474.187	114.94
474.406	89.94
474.625	91.94
474.844	71.94
475.063	91.94
475.282	89.94
475.501	80.94
475.72	88.94
475.939	99.94
476.158	85.94
476.377	88.94
476.596	86.94
476.814	83.94
477.033	103.94
477.252	83.94
477.471	97.94
477.69	87.94
477.908	90.94
478.127	92.94
478.346	87.94
478.564	92.94
478.783	99.94
479.002	91.94
479.22	97.94
479.439	116.94
479.658	98.94
479.876	103.94
480.095	96.94
480.313	108.94
480.532	132.94
480.751	177.94
480.969	511.94
481.188	2050.94
481.406	1328.94
481.624	235.94
481.843	114.94
482.061	92.94
482.28	98.94
482.498	71.94
482.717	89.94
482.935	73.94
483.153	93.94
483.372	85.94
483.59	83.94
483.808	75.94
484.027	93.94
484.245	97.94
484.463	90.94
484.681	88.94
484.9	81.94
485.118	91.94
485.336	101.94
485.554	100.94
485.772	98.94
485.99	103.94
486.209	97.94
486.427	109.94
486.645	107.94
486.863	117.94
487.081	120.94
487.299	98.94
487.517	92.94
487.735	98.94
487.953	82.94
488.171	94.94
488.389	94.94
488.607	104.94
488.825	90.94
489.043	93.94
489.261	71.94
489.479	69.94
489.696	82.94
489.914	78.94
490.132	94.94
490.35	75.94
490.568	90.94
490.786	94.94
491.003	83.94
491.221	93.94
491.439	73.94
491.657	89.94
491.874	91.94
492.092	91.94
492.31	87.94
492.527	85.94
492.745	94.94
492.963	71.94
493.18	86.94
493.398	96.94
493.615	103.94
493.833	103.94
494.05	84.94
494.268	93.94
494.485	100.94
494.703	82.94
494.92	89.94
495.138	74.94
495.355	91.94
495.573	69.94
495.79	82.94
496.008	89.94
496.225	90.94
496.442	99.94
496.66	93.94
496.877	91.94
497.094	99.94
497.312	81.94
497.529	88.94
497.746	97.94
497.963	101.94
498.181	102.94
498.398	79.94
498.615	95.94
498.832	115.94
499.049	79.94
499.267	101.94
499.484	83.94
499.701	88.94
499.918	85.94
500.135	75.94
500.352	91.94
500.569	96.94
500.786	86.94
501.003	87.94
501.22	84.94
501.437	100.94
501.654	99.94
501.871	125.94
502.088	95.94
502.305	100.94
502.522	75.94
502.739	81.94
502.956	90.94
503.172	88.94
503.389	101.94
503.606	108.94
503.823	95.94
504.04	86.94
504.256	90.94
504.473	81.94
504.69	82.94
504.907	100.94
505.123	84.94
505.34	89.94
505.557	78.94
505.773	94.94
505.99	91.94
506.207	86.94
506.423	80.94
506.64	77.94
506.856	75.94
507.073	79.94
507.289	95.94
507.506	105.94
507.722	121.94
507.939	131.94
508.155	100.94
508.372	87.94
508.588	95.94
508.805	93.94
509.021	96.94
509.238	96.94
509.454	96.94
509.67	83.94
509.887	111.94
510.103	140.94
510.319	227.94
510.536	841.94
510.752	2961.94
510.968	867.94
511.184	184.94
511.401	109.94
511.617	93.94
511.833	95.94
512.049	91.94
512.265	85.94
512.481	100.94
512.698	96.94
512.914	102.94
513.13	96.94
513.346	100.94
513.562	105.94
513.778	85.94
513.994	96.94
514.21	107.94
514.426	130.94
514.642	165.94
514.858	140.94
515.074	199.94
515.29	586.94
