Data from Circ_2013_H10_HRD10591_00003.txt Node
Date: Wed Jan 03 10:04:00 EST 2024
User: Yrep
Spectrometer: HR+D1059
Trigger mode: 1
Integration Time (sec): 1.000000E-1
Scans to average: 1
Electric dark correction enabled: true
Nonlinearity correction enabled: false
Boxcar width: 0
XAxis mode: Wavelengths
Number of Pixels in Spectrum: 2048
>>>>>Begin Spectral Data<<<<<
223.165	-29.94
223.4	-29.94
223.635	-29.94
223.869	-9.94
224.104	-14.94
224.338	-14.94
224.573	-11.94
224.808	-15.94
225.042	-5.94
225.277	-13.94
225.511	-0.94
225.746	7.06
225.98	-1.94
226.215	16.06
226.449	12.06
226.683	29.06
226.918	18.06
227.152	38.06
227.387	32.06
227.621	26.06
227.856	51.06
228.09	59.06
228.324	44.06
228.559	58.06
228.793	52.06
229.027	65.06
229.262	68.06
229.496	65.06
229.73	76.06
229.964	79.06
230.199	74.06
230.433	79.06
230.667	73.06
230.901	81.06
231.136	90.06
231.37	92.06
231.604	77.06
231.838	70.06
232.072	83.06
232.306	86.06
232.541	88.06
232.775	96.06
233.009	72.06
233.243	79.06
233.477	79.06
233.711	77.06
233.945	85.06
234.179	74.06
234.413	76.06
234.647	94.06
234.881	89.06
235.115	77.06
235.349	86.06
235.583	76.06
235.817	73.06
236.051	84.06
236.285	81.06
236.519	86.06
236.753	70.06
236.987	81.06
237.221	78.06
237.455	91.06
237.689	85.06
237.922	80.06
238.156	85.06
238.39	77.06
238.624	98.06
238.858	84.06
239.091	74.06
239.325	79.06
239.559	75.06
239.793	80.06
240.027	90.06
240.26	73.06
240.494	71.06
240.728	84.06
240.961	73.06
241.195	88.06
241.429	82.06
241.662	84.06
241.896	78.06
242.13	75.06
242.363	77.06
242.597	68.06
242.83	79.06
243.064	70.06
243.298	48.06
243.531	81.06
243.765	69.06
243.998	74.06
244.232	92.06
244.465	90.06
244.699	92.06
244.932	90.06
245.166	73.06
245.399	79.06
245.633	74.06
245.866	74.06
246.099	66.06
246.333	69.06
246.566	88.06
246.8	84.06
247.033	88.06
247.266	80.06
247.5	82.06
247.733	70.06
247.966	81.06
248.2	82.06
248.433	74.06
248.666	81.06
248.899	73.06
249.133	84.06
249.366	95.06
249.599	97.06
249.832	81.06
250.066	78.06
250.299	84.06
250.532	69.06
250.765	82.06
250.998	91.06
251.231	81.06
251.465	89.06
251.698	73.06
251.931	87.06
252.164	92.06
252.397	96.06
252.63	91.06
252.863	75.06
253.096	70.06
253.329	58.06
253.562	80.06
253.795	93.06
254.028	85.06
254.261	71.06
254.494	73.06
254.727	81.06
254.96	86.06
255.193	83.06
255.426	87.06
255.659	94.06
255.892	81.06
256.124	81.06
256.357	83.06
256.59	76.06
256.823	89.06
257.056	99.06
257.289	94.06
257.521	82.06
257.754	94.06
257.987	86.06
258.22	76.06
258.452	92.06
258.685	97.06
258.918	78.06
259.151	86.06
259.383	82.06
259.616	84.06
259.849	91.06
260.081	92.06
260.314	78.06
260.547	85.06
260.779	79.06
261.012	80.06
261.244	88.06
261.477	93.06
261.71	88.06
261.942	100.06
262.175	105.06
262.407	90.06
262.64	73.06
262.872	99.06
263.105	83.06
263.337	60.06
263.57	70.06
263.802	85.06
264.035	83.06
264.267	86.06
264.499	90.06
264.732	88.06
264.964	83.06
265.197	78.06
265.429	88.06
265.661	89.06
265.894	91.06
266.126	85.06
266.358	88.06
266.591	77.06
266.823	85.06
267.055	75.06
267.287	81.06
267.52	86.06
267.752	95.06
267.984	87.06
268.216	86.06
268.448	96.06
268.681	89.06
268.913	92.06
269.145	85.06
269.377	78.06
269.609	74.06
269.841	93.06
270.073	93.06
270.306	77.06
270.538	86.06
270.77	95.06
271.002	83.06
271.234	90.06
271.466	93.06
271.698	84.06
271.93	97.06
272.162	79.06
272.394	109.06
272.626	95.06
272.858	84.06
273.09	93.06
273.322	85.06
273.553	93.06
273.785	85.06
274.017	88.06
274.249	78.06
274.481	93.06
274.713	82.06
274.945	76.06
275.176	89.06
275.408	78.06
275.64	88.06
275.872	80.06
276.104	89.06
276.335	95.06
276.567	98.06
276.799	112.06
277.031	94.06
277.262	93.06
277.494	93.06
277.726	85.06
277.957	96.06
278.189	89.06
278.421	87.06
278.652	94.06
278.884	95.06
279.115	84.06
279.347	91.06
279.579	91.06
279.81	84.06
280.042	84.06
280.273	92.06
280.505	97.06
280.736	89.06
280.968	95.06
281.199	90.06
281.431	102.06
281.662	81.06
281.894	90.06
282.125	103.06
282.356	95.06
282.588	134.06
282.819	106.06
283.051	100.06
283.282	89.06
283.513	87.06
283.745	89.06
283.976	74.06
284.207	88.06
284.439	101.06
284.67	70.06
284.901	90.06
285.132	95.06
285.364	80.06
285.595	85.06
285.826	89.06
286.057	87.06
286.288	96.06
286.52	93.06
286.751	94.06
286.982	96.06
287.213	88.06
287.444	102.06
287.675	98.06
287.906	104.06
288.138	89.06
288.369	106.06
288.6	92.06
288.831	72.06
289.062	94.06
289.293	85.06
289.524	89.06
289.755	86.06
289.986	102.06
290.217	104.06
290.448	91.06
290.679	93.06
290.91	88.06
291.141	95.06
291.371	85.06
291.602	79.06
291.833	84.06
292.064	85.06
292.295	67.06
292.526	91.06
292.757	93.06
292.987	85.06
293.218	97.06
293.449	80.06
293.68	91.06
293.91	85.06
294.141	91.06
294.372	102.06
294.603	72.06
294.833	90.06
295.064	99.06
295.295	89.06
295.525	79.06
295.756	108.06
295.987	117.06
296.217	140.06
296.448	114.06
296.679	100.06
296.909	94.06
297.14	105.06
297.37	101.06
297.601	96.06
297.831	101.06
298.062	89.06
298.292	97.06
298.523	94.06
298.753	80.06
298.984	90.06
299.214	94.06
299.445	93.06
299.675	96.06
299.905	89.06
300.136	102.06
300.366	89.06
300.597	94.06
300.827	97.06
301.057	94.06
301.288	110.06
301.518	91.06
301.748	101.06
301.979	111.06
302.209	85.06
302.439	89.06
302.669	92.06
302.9	93.06
303.13	92.06
303.36	97.06
303.59	99.06
303.82	105.06
304.051	97.06
304.281	90.06
304.511	73.06
304.741	101.06
304.971	86.06
305.201	79.06
305.431	90.06
305.661	102.06
305.891	97.06
306.121	101.06
306.352	113.06
306.582	104.06
306.812	103.06
307.042	86.06
307.272	88.06
307.502	86.06
307.731	109.06
307.961	102.06
308.191	86.06
308.421	84.06
308.651	107.06
308.881	86.06
309.111	81.06
309.341	86.06
309.571	93.06
309.8	104.06
310.03	84.06
310.26	84.06
310.49	100.06
310.72	92.06
310.949	101.06
311.179	101.06
311.409	103.06
311.639	79.06
311.868	98.06
312.098	96.06
312.328	92.06
312.557	103.06
312.787	101.06
313.017	89.06
313.246	112.06
313.476	116.06
313.706	98.06
313.935	99.06
314.165	103.06
314.394	108.06
314.624	98.06
314.853	103.06
315.083	92.06
315.312	100.06
315.542	93.06
315.771	103.06
316.001	95.06
316.23	97.06
316.46	94.06
316.689	95.06
316.919	104.06
317.148	97.06
317.377	95.06
317.607	101.06
317.836	96.06
318.065	98.06
318.295	84.06
318.524	93.06
318.753	87.06
318.983	85.06
319.212	95.06
319.441	91.06
319.67	103.06
319.9	95.06
320.129	88.06
320.358	82.06
320.587	94.06
320.816	93.06
321.046	97.06
321.275	105.06
321.504	103.06
321.733	86.06
321.962	105.06
322.191	93.06
322.42	100.06
322.649	94.06
322.878	114.06
323.108	119.06
323.337	119.06
323.566	135.06
323.795	140.06
324.024	168.06
324.253	334.06
324.482	648.06
324.71	1305.06
324.939	1674.06
325.168	634.06
325.397	220.06
325.626	146.06
325.855	140.06
326.084	112.06
326.313	131.06
326.542	138.06
326.77	191.06
326.999	394.06
327.228	773.06
327.457	1340.06
327.686	1048.06
327.914	315.06
328.143	178.06
328.372	150.06
328.6	125.06
328.829	120.06
329.058	125.06
329.287	139.06
329.515	112.06
329.744	117.06
329.972	130.06
330.201	152.06
330.43	190.06
330.658	139.06
330.887	123.06
331.115	108.06
331.344	90.06
331.572	108.06
331.801	94.06
332.03	96.06
332.258	86.06
332.486	95.06
332.715	84.06
332.943	97.06
333.172	90.06
333.4	97.06
333.629	100.06
333.857	127.06
334.085	128.06
334.314	156.06
334.542	200.06
334.771	198.06
334.999	133.06
335.227	101.06
335.455	99.06
335.684	92.06
335.912	89.06
336.14	79.06
336.369	84.06
336.597	96.06
336.825	95.06
337.053	89.06
337.281	103.06
337.51	95.06
337.738	90.06
337.966	95.06
338.194	98.06
338.422	90.06
338.65	96.06
338.878	87.06
339.106	94.06
339.334	101.06
339.562	102.06
339.79	91.06
340.018	90.06
340.246	105.06
340.474	105.06
340.702	95.06
340.93	96.06
341.158	100.06
341.386	82.06
341.614	94.06
341.842	96.06
342.07	90.06
342.298	93.06
342.526	93.06
342.754	78.06
342.981	93.06
343.209	84.06
343.437	97.06
343.665	94.06
343.893	94.06
344.12	90.06
344.348	97.06
344.576	92.06
344.804	93.06
345.031	98.06
345.259	105.06
345.487	99.06
345.714	99.06
345.942	100.06
346.17	99.06
346.397	86.06
346.625	94.06
346.853	98.06
347.08	90.06
347.308	92.06
347.535	101.06
347.763	104.06
347.99	107.06
348.218	92.06
348.445	102.06
348.673	86.06
348.9	93.06
349.128	93.06
349.355	88.06
349.583	86.06
349.81	95.06
350.037	98.06
350.265	95.06
350.492	96.06
350.72	93.06
350.947	106.06
351.174	112.06
351.402	100.06
351.629	102.06
351.856	100.06
352.083	103.06
352.311	104.06
352.538	106.06
352.765	99.06
352.992	114.06
353.22	106.06
353.447	108.06
353.674	101.06
353.901	109.06
354.128	100.06
354.355	95.06
354.583	86.06
354.81	112.06
355.037	100.06
355.264	107.06
355.491	82.06
355.718	100.06
355.945	94.06
356.172	88.06
356.399	87.06
356.626	100.06
356.853	106.06
357.08	91.06
357.307	105.06
357.534	94.06
357.761	101.06
357.988	86.06
358.215	103.06
358.441	104.06
358.668	107.06
358.895	94.06
359.122	109.06
359.349	93.06
359.576	87.06
359.802	93.06
360.029	109.06
360.256	108.06
360.483	88.06
360.709	72.06
360.936	96.06
361.163	93.06
361.39	103.06
361.616	90.06
361.843	87.06
362.07	89.06
362.296	87.06
362.523	107.06
362.749	90.06
362.976	98.06
363.203	105.06
363.429	88.06
363.656	92.06
363.882	92.06
364.109	100.06
364.335	100.06
364.562	100.06
364.788	77.06
365.015	90.06
365.241	105.06
365.468	100.06
365.694	103.06
365.92	98.06
366.147	90.06
366.373	91.06
366.599	84.06
366.826	94.06
367.052	90.06
367.278	99.06
367.505	87.06
367.731	83.06
367.957	96.06
368.184	92.06
368.41	101.06
368.636	112.06
368.862	118.06
369.089	110.06
369.315	81.06
369.541	99.06
369.767	98.06
369.993	87.06
370.219	93.06
370.445	102.06
370.672	86.06
370.898	93.06
371.124	99.06
371.35	72.06
371.576	87.06
371.802	93.06
372.028	100.06
372.254	98.06
372.48	81.06
372.706	95.06
372.932	94.06
373.158	90.06
373.384	101.06
373.61	101.06
373.835	85.06
374.061	84.06
374.287	96.06
374.513	94.06
374.739	94.06
374.965	95.06
375.191	87.06
375.416	100.06
375.642	92.06
375.868	100.06
376.094	103.06
376.319	97.06
376.545	98.06
376.771	96.06
376.997	94.06
377.222	92.06
377.448	116.06
377.674	98.06
377.899	88.06
378.125	88.06
378.35	98.06
378.576	93.06
378.802	94.06
379.027	101.06
379.253	106.06
379.478	99.06
379.704	101.06
379.929	108.06
380.155	108.06
380.38	96.06
380.606	117.06
380.831	94.06
381.057	108.06
381.282	110.06
381.507	103.06
381.733	89.06
381.958	117.06
382.184	109.06
382.409	114.06
382.634	103.06
382.86	102.06
383.085	112.06
383.31	106.06
383.535	102.06
383.761	113.06
383.986	109.06
384.211	111.06
384.436	113.06
384.662	114.06
384.887	122.06
385.112	117.06
385.337	125.06
385.562	111.06
385.787	136.06
386.013	125.06
386.238	120.06
386.463	108.06
386.688	125.06
386.913	130.06
387.138	133.06
387.363	109.06
387.588	121.06
387.813	111.06
388.038	124.06
388.263	122.06
388.488	136.06
388.713	107.06
388.938	95.06
389.163	88.06
389.387	98.06
389.612	86.06
389.837	92.06
390.062	92.06
390.287	74.06
390.512	106.06
390.736	88.06
390.961	78.06
391.186	98.06
391.411	90.06
391.636	92.06
391.86	87.06
392.085	86.06
392.31	101.06
392.534	102.06
392.759	90.06
392.984	97.06
393.208	108.06
393.433	124.06
393.658	114.06
393.882	102.06
394.107	71.06
394.331	89.06
394.556	101.06
394.78	88.06
395.005	82.06
395.229	105.06
395.454	92.06
395.678	85.06
395.903	89.06
396.127	99.06
396.352	95.06
396.576	106.06
396.801	107.06
397.025	101.06
397.249	95.06
397.474	95.06
397.698	103.06
397.922	82.06
398.147	85.06
398.371	102.06
398.595	86.06
398.82	81.06
399.044	89.06
399.268	80.06
399.492	88.06
399.717	89.06
399.941	88.06
400.165	92.06
400.389	92.06
400.613	95.06
400.837	91.06
401.062	97.06
401.286	88.06
401.51	97.06
401.734	96.06
401.958	96.06
402.182	122.06
402.406	125.06
402.63	123.06
402.854	105.06
403.078	100.06
403.302	89.06
403.526	76.06
403.75	90.06
403.974	90.06
404.198	81.06
404.422	100.06
404.645	87.06
404.869	94.06
405.093	82.06
405.317	101.06
405.541	87.06
405.765	98.06
405.988	113.06
406.212	154.06
406.436	200.06
406.66	135.06
406.883	105.06
407.107	94.06
407.331	92.06
407.555	99.06
407.778	96.06
408.002	91.06
408.226	105.06
408.449	89.06
408.673	87.06
408.896	101.06
409.12	89.06
409.344	82.06
409.567	85.06
409.791	74.06
410.014	112.06
410.238	102.06
410.461	92.06
410.685	107.06
410.908	110.06
411.132	93.06
411.355	92.06
411.578	97.06
411.802	87.06
412.025	78.06
412.249	99.06
412.472	97.06
412.695	99.06
412.919	98.06
413.142	93.06
413.365	93.06
413.589	98.06
413.812	109.06
414.035	77.06
414.258	93.06
414.482	92.06
414.705	94.06
414.928	84.06
415.151	103.06
415.374	95.06
415.597	85.06
415.821	91.06
416.044	95.06
416.267	71.06
416.49	93.06
416.713	81.06
416.936	89.06
417.159	95.06
417.382	83.06
417.605	89.06
417.828	101.06
418.051	89.06
418.274	78.06
418.497	80.06
418.72	100.06
418.943	96.06
419.166	102.06
419.389	91.06
419.611	95.06
419.834	86.06
420.057	87.06
420.28	96.06
420.503	77.06
420.726	89.06
420.948	81.06
421.171	92.06
421.394	91.06
421.617	72.06
421.839	94.06
422.062	93.06
422.285	103.06
422.507	109.06
422.73	107.06
422.953	97.06
423.175	87.06
423.398	85.06
423.621	87.06
423.843	95.06
424.066	98.06
424.288	81.06
424.511	72.06
424.733	100.06
424.956	106.06
425.178	90.06
425.401	96.06
425.623	86.06
425.846	80.06
426.068	80.06
426.291	86.06
426.513	92.06
426.735	91.06
426.958	82.06
427.18	96.06
427.402	133.06
427.625	146.06
427.847	134.06
428.069	119.06
428.292	102.06
428.514	82.06
428.736	101.06
428.958	97.06
429.181	89.06
429.403	96.06
429.625	86.06
429.847	82.06
430.069	81.06
430.292	99.06
430.514	80.06
430.736	100.06
430.958	93.06
431.18	76.06
431.402	75.06
431.624	82.06
431.846	99.06
432.068	93.06
432.29	89.06
432.512	88.06
432.734	91.06
432.956	93.06
433.178	97.06
433.4	96.06
433.622	101.06
433.844	84.06
434.066	88.06
434.287	86.06
434.509	97.06
434.731	90.06
434.953	88.06
435.175	101.06
435.397	90.06
435.618	99.06
435.84	96.06
436.062	122.06
436.284	112.06
436.505	98.06
436.727	97.06
436.949	89.06
437.17	83.06
437.392	87.06
437.614	106.06
437.835	90.06
438.057	100.06
438.278	95.06
438.5	90.06
438.721	104.06
438.943	84.06
439.165	95.06
439.386	76.06
439.608	87.06
439.829	89.06
440.05	116.06
440.272	141.06
440.493	105.06
440.715	86.06
440.936	78.06
441.158	86.06
441.379	92.06
441.6	98.06
441.822	90.06
442.043	97.06
442.264	94.06
442.486	104.06
442.707	74.06
442.928	105.06
443.149	107.06
443.371	129.06
443.592	100.06
443.813	107.06
444.034	93.06
444.255	90.06
444.476	92.06
444.698	95.06
444.919	80.06
445.14	135.06
445.361	109.06
445.582	100.06
445.803	120.06
446.024	110.06
446.245	131.06
446.466	113.06
446.687	92.06
446.908	70.06
447.129	97.06
447.35	80.06
447.571	98.06
447.792	93.06
448.013	107.06
448.234	105.06
448.455	100.06
448.675	95.06
448.896	90.06
449.117	82.06
449.338	98.06
449.559	114.06
449.779	131.06
450	105.06
450.221	86.06
450.442	80.06
450.662	92.06
450.883	109.06
451.104	111.06
451.324	100.06
451.545	98.06
451.766	84.06
451.986	79.06
452.207	86.06
452.428	96.06
452.648	90.06
452.869	98.06
453.089	104.06
453.31	103.06
453.53	88.06
453.751	93.06
453.971	118.06
454.192	100.06
454.412	97.06
454.633	86.06
454.853	75.06
455.073	89.06
455.294	101.06
455.514	91.06
455.734	81.06
455.955	85.06
456.175	90.06
456.395	80.06
456.616	81.06
456.836	94.06
457.056	110.06
457.276	88.06
457.497	89.06
457.717	79.06
457.937	100.06
458.157	105.06
458.377	88.06
458.598	105.06
458.818	142.06
459.038	134.06
459.258	96.06
459.478	82.06
459.698	78.06
459.918	92.06
460.138	95.06
460.358	91.06
460.578	83.06
460.798	95.06
461.018	93.06
461.238	92.06
461.458	102.06
461.678	92.06
461.898	95.06
462.118	93.06
462.338	86.06
462.558	97.06
462.777	86.06
462.997	108.06
463.217	97.06
463.437	85.06
463.657	82.06
463.876	89.06
464.096	84.06
464.316	93.06
464.536	104.06
464.755	98.06
464.975	105.06
465.195	138.06
465.414	148.06
465.634	93.06
465.854	75.06
466.073	97.06
466.293	92.06
466.512	89.06
466.732	91.06
466.951	87.06
467.171	95.06
467.391	90.06
467.61	122.06
467.829	104.06
468.049	122.06
468.268	142.06
468.488	96.06
468.707	99.06
468.927	89.06
469.146	82.06
469.365	87.06
469.585	85.06
469.804	97.06
470.023	97.06
470.243	98.06
470.462	92.06
470.681	108.06
470.901	102.06
471.12	83.06
471.339	88.06
471.558	78.06
471.777	98.06
471.997	118.06
472.216	160.06
472.435	264.06
472.654	125.06
472.873	99.06
473.092	88.06
473.311	77.06
473.53	93.06
473.749	104.06
473.968	90.06
474.187	99.06
474.406	95.06
474.625	101.06
474.844	92.06
475.063	80.06
475.282	85.06
475.501	94.06
475.72	79.06
475.939	80.06
476.158	82.06
476.377	101.06
476.596	101.06
476.814	87.06
477.033	80.06
477.252	84.06
477.471	78.06
477.69	90.06
477.908	79.06
478.127	86.06
478.346	96.06
478.564	83.06
478.783	107.06
479.002	90.06
479.22	90.06
479.439	99.06
479.658	103.06
479.876	106.06
480.095	103.06
480.313	93.06
480.532	93.06
480.751	110.06
480.969	168.06
481.188	396.06
481.406	291.06
481.624	111.06
481.843	91.06
482.061	99.06
482.28	81.06
482.498	85.06
482.717	87.06
482.935	88.06
483.153	81.06
483.372	101.06
483.59	103.06
483.808	107.06
484.027	105.06
484.245	82.06
484.463	96.06
484.681	96.06
484.9	105.06
485.118	94.06
485.336	96.06
485.554	96.06
485.772	92.06
485.99	95.06
486.209	92.06
486.427	103.06
486.645	103.06
486.863	108.06
487.081	101.06
487.299	104.06
487.517	91.06
487.735	89.06
487.953	94.06
488.171	93.06
488.389	92.06
488.607	89.06
488.825	93.06
489.043	85.06
489.261	86.06
489.479	107.06
489.696	98.06
489.914	83.06
490.132	86.06
490.35	91.06
490.568	93.06
490.786	89.06
491.003	99.06
491.221	93.06
491.439	82.06
491.657	96.06
491.874	94.06
492.092	99.06
492.31	100.06
492.527	95.06
492.745	89.06
492.963	89.06
493.18	90.06
493.398	96.06
493.615	96.06
493.833	100.06
494.05	77.06
494.268	92.06
494.485	95.06
494.703	81.06
494.92	89.06
495.138	82.06
495.355	88.06
495.573	100.06
495.79	98.06
496.008	91.06
496.225	84.06
496.442	96.06
496.66	88.06
496.877	111.06
497.094	93.06
497.312	90.06
497.529	90.06
497.746	84.06
497.963	86.06
498.181	93.06
498.398	92.06
498.615	94.06
498.832	106.06
499.049	101.06
499.267	109.06
499.484	104.06
499.701	103.06
499.918	102.06
500.135	90.06
500.352	82.06
500.569	101.06
500.786	80.06
501.003	89.06
501.22	99.06
501.437	107.06
501.654	118.06
501.871	113.06
502.088	96.06
502.305	85.06
502.522	81.06
502.739	75.06
502.956	89.06
503.172	78.06
503.389	78.06
503.606	105.06
503.823	104.06
504.04	114.06
504.256	103.06
504.473	112.06
504.69	102.06
504.907	98.06
505.123	95.06
505.34	89.06
505.557	96.06
505.773	95.06
505.99	95.06
506.207	82.06
506.423	104.06
506.64	103.06
506.856	76.06
507.073	89.06
507.289	104.06
507.506	94.06
507.722	116.06
507.939	98.06
508.155	89.06
508.372	90.06
508.588	94.06
508.805	91.06
509.021	100.06
509.238	97.06
509.454	92.06
509.67	95.06
509.887	105.06
510.103	121.06
510.319	189.06
510.536	627.06
510.752	1922.06
510.968	568.06
511.184	156.06
511.401	102.06
511.617	104.06
511.833	85.06
512.049	93.06
512.265	86.06
512.481	93.06
512.698	97.06
512.914	89.06
513.13	86.06
513.346	97.06
513.562	98.06
513.778	89.06
513.994	101.06
514.21	105.06
514.426	117.06
514.642	126.06
