Data from Circ_2013_H10_HRD10591_00087.txt Node
Date: Wed Jan 03 10:04:17 EST 2024
User: Yrep
Spectrometer: HR+D1059
Trigger mode: 1
Integration Time (sec): 1.000000E-1
Scans to average: 1
Electric dark correction enabled: true
Nonlinearity correction enabled: false
Boxcar width: 0
XAxis mode: Wavelengths
Number of Pixels in Spectrum: 2048
>>>>>Begin Spectral Data<<<<<
223.165	-11.38
223.4	-11.38
223.635	-11.38
223.869	-9.38
224.104	-24.38
224.338	-16.38
224.573	-26.38
224.808	-6.38
225.042	-7.38
225.277	-4.38
225.511	5.62
225.746	-8.38
225.98	-0.38
226.215	10.62
226.449	3.62
226.683	20.62
226.918	41.62
227.152	32.62
227.387	38.62
227.621	48.62
227.856	31.62
228.09	46.62
228.324	45.62
228.559	49.62
228.793	61.62
229.027	70.62
229.262	70.62
229.496	81.62
229.73	104.62
229.964	100.62
230.199	77.62
230.433	72.62
230.667	87.62
230.901	94.62
231.136	92.62
231.37	89.62
231.604	85.62
231.838	73.62
232.072	86.62
232.306	81.62
232.541	87.62
232.775	76.62
233.009	66.62
233.243	87.62
233.477	96.62
233.711	81.62
233.945	78.62
234.179	82.62
234.413	85.62
234.647	84.62
234.881	86.62
235.115	90.62
235.349	96.62
235.583	87.62
235.817	78.62
236.051	69.62
236.285	80.62
236.519	82.62
236.753	87.62
236.987	80.62
237.221	86.62
237.455	92.62
237.689	81.62
237.922	78.62
238.156	86.62
238.39	76.62
238.624	78.62
238.858	73.62
239.091	86.62
239.325	71.62
239.559	78.62
239.793	81.62
240.027	85.62
240.26	79.62
240.494	83.62
240.728	74.62
240.961	90.62
241.195	89.62
241.429	71.62
241.662	69.62
241.896	77.62
242.13	90.62
242.363	76.62
242.597	78.62
242.83	78.62
243.064	71.62
243.298	81.62
243.531	78.62
243.765	85.62
243.998	74.62
244.232	88.62
244.465	89.62
244.699	85.62
244.932	85.62
245.166	74.62
245.399	80.62
245.633	93.62
245.866	92.62
246.099	76.62
246.333	88.62
246.566	95.62
246.8	85.62
247.033	78.62
247.266	75.62
247.5	79.62
247.733	80.62
247.966	75.62
248.2	86.62
248.433	101.62
248.666	88.62
248.899	87.62
249.133	86.62
249.366	102.62
249.599	95.62
249.832	91.62
250.066	97.62
250.299	77.62
250.532	93.62
250.765	95.62
250.998	83.62
251.231	83.62
251.465	91.62
251.698	85.62
251.931	86.62
252.164	78.62
252.397	75.62
252.63	86.62
252.863	79.62
253.096	78.62
253.329	88.62
253.562	83.62
253.795	89.62
254.028	94.62
254.261	78.62
254.494	80.62
254.727	98.62
254.96	88.62
255.193	91.62
255.426	67.62
255.659	96.62
255.892	105.62
256.124	86.62
256.357	81.62
256.59	88.62
256.823	83.62
257.056	94.62
257.289	70.62
257.521	93.62
257.754	92.62
257.987	81.62
258.22	95.62
258.452	88.62
258.685	97.62
258.918	95.62
259.151	79.62
259.383	81.62
259.616	83.62
259.849	77.62
260.081	81.62
260.314	88.62
260.547	79.62
260.779	103.62
261.012	104.62
261.244	114.62
261.477	107.62
261.71	103.62
261.942	148.62
262.175	134.62
262.407	115.62
262.64	95.62
262.872	94.62
263.105	78.62
263.337	104.62
263.57	93.62
263.802	97.62
264.035	87.62
264.267	88.62
264.499	89.62
264.732	88.62
264.964	81.62
265.197	72.62
265.429	66.62
265.661	90.62
265.894	88.62
266.126	88.62
266.358	87.62
266.591	86.62
266.823	88.62
267.055	90.62
267.287	85.62
267.52	84.62
267.752	85.62
267.984	81.62
268.216	78.62
268.448	94.62
268.681	77.62
268.913	77.62
269.145	86.62
269.377	89.62
269.609	85.62
269.841	85.62
270.073	82.62
270.306	86.62
270.538	77.62
270.77	78.62
271.002	85.62
271.234	96.62
271.466	85.62
271.698	89.62
271.93	81.62
272.162	93.62
272.394	67.62
272.626	71.62
272.858	83.62
273.09	89.62
273.322	91.62
273.553	96.62
273.785	76.62
274.017	94.62
274.249	89.62
274.481	91.62
274.713	86.62
274.945	87.62
275.176	94.62
275.408	90.62
275.64	118.62
275.872	110.62
276.104	110.62
276.335	108.62
276.567	123.62
276.799	135.62
277.031	154.62
277.262	167.62
277.494	118.62
277.726	80.62
277.957	80.62
278.189	90.62
278.421	88.62
278.652	100.62
278.884	90.62
279.115	92.62
279.347	90.62
279.579	99.62
279.81	117.62
280.042	169.62
280.273	214.62
280.505	165.62
280.736	89.62
280.968	95.62
281.199	95.62
281.431	98.62
281.662	106.62
281.894	111.62
282.125	116.62
282.356	128.62
282.588	167.62
282.819	107.62
283.051	92.62
283.282	83.62
283.513	81.62
283.745	91.62
283.976	99.62
284.207	85.62
284.439	105.62
284.67	84.62
284.901	87.62
285.132	81.62
285.364	89.62
285.595	81.62
285.826	87.62
286.057	75.62
286.288	81.62
286.52	90.62
286.751	96.62
286.982	98.62
287.213	89.62
287.444	84.62
287.675	101.62
287.906	96.62
288.138	99.62
288.369	106.62
288.6	88.62
288.831	95.62
289.062	92.62
289.293	95.62
289.524	91.62
289.755	93.62
289.986	92.62
290.217	87.62
290.448	92.62
290.679	87.62
290.91	95.62
291.141	89.62
291.371	84.62
291.602	76.62
291.833	94.62
292.064	94.62
292.295	60.62
292.526	92.62
292.757	73.62
292.987	85.62
293.218	101.62
293.449	96.62
293.68	97.62
293.91	99.62
294.141	94.62
294.372	91.62
294.603	82.62
294.833	92.62
295.064	93.62
295.295	98.62
295.525	99.62
295.756	100.62
295.987	121.62
296.217	173.62
296.448	151.62
296.679	94.62
296.909	94.62
297.14	101.62
297.37	93.62
297.601	87.62
297.831	97.62
298.062	89.62
298.292	88.62
298.523	73.62
298.753	92.62
298.984	97.62
299.214	95.62
299.445	104.62
299.675	112.62
299.905	113.62
300.136	99.62
300.366	93.62
300.597	100.62
300.827	110.62
301.057	96.62
301.288	105.62
301.518	97.62
301.748	101.62
301.979	109.62
302.209	89.62
302.439	108.62
302.669	89.62
302.9	101.62
303.13	104.62
303.36	113.62
303.59	120.62
303.82	143.62
304.051	125.62
304.281	94.62
304.511	78.62
304.741	91.62
304.971	84.62
305.201	79.62
305.431	103.62
305.661	94.62
305.891	104.62
306.121	116.62
306.352	113.62
306.582	121.62
306.812	84.62
307.042	117.62
307.272	147.62
307.502	159.62
307.731	148.62
307.961	123.62
308.191	99.62
308.421	91.62
308.651	97.62
308.881	96.62
309.111	93.62
309.341	100.62
309.571	106.62
309.8	102.62
310.03	95.62
310.26	100.62
310.49	97.62
310.72	95.62
310.949	104.62
311.179	117.62
311.409	88.62
311.639	107.62
311.868	102.62
312.098	97.62
312.328	103.62
312.557	124.62
312.787	122.62
313.017	108.62
313.246	108.62
313.476	95.62
313.706	112.62
313.935	114.62
314.165	108.62
314.394	108.62
314.624	97.62
314.853	103.62
315.083	106.62
315.312	109.62
315.542	109.62
315.771	94.62
316.001	89.62
316.23	93.62
316.46	91.62
316.689	100.62
316.919	103.62
317.148	109.62
317.377	102.62
317.607	121.62
317.836	107.62
318.065	100.62
318.295	96.62
318.524	103.62
318.753	92.62
318.983	102.62
319.212	109.62
319.441	112.62
319.67	123.62
319.9	102.62
320.129	89.62
320.358	97.62
320.587	96.62
320.816	108.62
321.046	107.62
321.275	104.62
321.504	105.62
321.733	85.62
321.962	105.62
322.191	105.62
322.42	97.62
322.649	117.62
322.878	124.62
323.108	133.62
323.337	138.62
323.566	152.62
323.795	182.62
324.024	242.62
324.253	464.62
324.482	951.62
324.71	1935.62
324.939	2540.62
325.168	959.62
325.397	296.62
325.626	174.62
325.855	138.62
326.084	134.62
326.313	147.62
326.542	173.62
326.77	266.62
326.999	492.62
327.228	1029.62
327.457	1803.62
327.686	1457.62
327.914	495.62
328.143	418.62
328.372	509.62
328.6	294.62
328.829	183.62
329.058	176.62
329.287	187.62
329.515	157.62
329.744	209.62
329.972	371.62
330.201	705.62
330.43	1048.62
330.658	496.62
330.887	261.62
331.115	189.62
331.344	131.62
331.572	115.62
331.801	139.62
332.03	140.62
332.258	106.62
332.486	105.62
332.715	102.62
332.943	117.62
333.172	113.62
333.4	107.62
333.629	136.62
333.857	202.62
334.085	371.62
334.314	693.62
334.542	1336.62
334.771	1287.62
334.999	356.62
335.227	164.62
335.455	140.62
335.684	107.62
335.912	119.62
336.14	112.62
336.369	121.62
336.597	115.62
336.825	112.62
337.053	92.62
337.281	73.62
337.51	90.62
337.738	109.62
337.966	104.62
338.194	105.62
338.422	104.62
338.65	102.62
338.878	89.62
339.106	92.62
339.334	104.62
339.562	95.62
339.79	97.62
340.018	96.62
340.246	103.62
340.474	110.62
340.702	110.62
340.93	105.62
341.158	101.62
341.386	95.62
341.614	112.62
341.842	103.62
342.07	93.62
342.298	104.62
342.526	87.62
342.754	95.62
342.981	81.62
343.209	95.62
343.437	101.62
343.665	104.62
343.893	92.62
344.12	98.62
344.348	85.62
344.576	100.62
344.804	106.62
345.031	104.62
345.259	100.62
345.487	102.62
345.714	92.62
345.942	85.62
346.17	103.62
346.397	97.62
346.625	89.62
346.853	94.62
347.08	92.62
347.308	94.62
347.535	90.62
347.763	108.62
347.99	107.62
348.218	110.62
348.445	119.62
348.673	105.62
348.9	116.62
349.128	85.62
349.355	94.62
349.583	92.62
349.81	95.62
350.037	102.62
350.265	100.62
350.492	88.62
350.72	99.62
350.947	109.62
351.174	111.62
351.402	116.62
351.629	122.62
351.856	105.62
352.083	111.62
352.311	117.62
352.538	131.62
352.765	130.62
352.992	124.62
353.22	120.62
353.447	102.62
353.674	87.62
353.901	107.62
354.128	101.62
354.355	97.62
354.583	102.62
354.81	96.62
355.037	95.62
355.264	97.62
355.491	97.62
355.718	89.62
355.945	99.62
356.172	89.62
356.399	99.62
356.626	94.62
356.853	78.62
357.08	90.62
357.307	86.62
357.534	97.62
357.761	88.62
357.988	93.62
358.215	95.62
358.441	98.62
358.668	95.62
358.895	94.62
359.122	107.62
359.349	100.62
359.576	92.62
359.802	106.62
360.029	121.62
360.256	143.62
360.483	120.62
360.709	87.62
360.936	83.62
361.163	101.62
361.39	100.62
361.616	112.62
361.843	89.62
362.07	91.62
362.296	102.62
362.523	95.62
362.749	103.62
362.976	97.62
363.203	97.62
363.429	91.62
363.656	106.62
363.882	94.62
364.109	94.62
364.335	99.62
364.562	116.62
364.788	97.62
365.015	94.62
365.241	102.62
365.468	125.62
365.694	116.62
365.92	106.62
366.147	109.62
366.373	101.62
366.599	93.62
366.826	93.62
367.052	91.62
367.278	100.62
367.505	100.62
367.731	98.62
367.957	102.62
368.184	100.62
368.41	111.62
368.636	120.62
368.862	152.62
369.089	125.62
369.315	96.62
369.541	94.62
369.767	113.62
369.993	106.62
370.219	91.62
370.445	75.62
370.672	99.62
370.898	89.62
371.124	101.62
371.35	89.62
371.576	98.62
371.802	84.62
372.028	93.62
372.254	84.62
372.48	92.62
372.706	89.62
372.932	96.62
373.158	88.62
373.384	103.62
373.61	81.62
373.835	86.62
374.061	108.62
374.287	99.62
374.513	96.62
374.739	93.62
374.965	79.62
375.191	88.62
375.416	103.62
375.642	105.62
375.868	99.62
376.094	97.62
376.319	97.62
376.545	74.62
376.771	97.62
376.997	80.62
377.222	107.62
377.448	94.62
377.674	79.62
377.899	85.62
378.125	78.62
378.35	92.62
378.576	88.62
378.802	82.62
379.027	85.62
379.253	89.62
379.478	88.62
379.704	90.62
379.929	110.62
380.155	83.62
380.38	94.62
380.606	104.62
380.831	79.62
381.057	86.62
381.282	95.62
381.507	92.62
381.733	99.62
381.958	94.62
382.184	89.62
382.409	94.62
382.634	102.62
382.86	100.62
383.085	105.62
383.31	93.62
383.535	100.62
383.761	87.62
383.986	95.62
384.211	95.62
384.436	95.62
384.662	100.62
384.887	107.62
385.112	96.62
385.337	89.62
385.562	102.62
385.787	104.62
386.013	108.62
386.238	117.62
386.463	112.62
386.688	95.62
386.913	103.62
387.138	93.62
387.363	97.62
387.588	107.62
387.813	104.62
388.038	99.62
388.263	95.62
388.488	101.62
388.713	112.62
388.938	100.62
389.163	103.62
389.387	101.62
389.612	95.62
389.837	104.62
390.062	101.62
390.287	96.62
390.512	81.62
390.736	96.62
390.961	83.62
391.186	94.62
391.411	90.62
391.636	85.62
391.86	82.62
392.085	84.62
392.31	77.62
392.534	92.62
392.759	91.62
392.984	99.62
393.208	95.62
393.433	92.62
393.658	85.62
393.882	97.62
394.107	90.62
394.331	88.62
394.556	82.62
394.78	88.62
395.005	94.62
395.229	91.62
395.454	96.62
395.678	75.62
395.903	83.62
396.127	93.62
396.352	85.62
396.576	92.62
396.801	85.62
397.025	80.62
397.249	72.62
397.474	99.62
397.698	91.62
397.922	90.62
398.147	93.62
398.371	83.62
398.595	92.62
398.82	78.62
399.044	80.62
399.268	88.62
399.492	87.62
399.717	105.62
399.941	96.62
400.165	99.62
400.389	100.62
400.613	87.62
400.837	101.62
401.062	83.62
401.286	89.62
401.51	96.62
401.734	91.62
401.958	107.62
402.182	145.62
402.406	199.62
402.63	151.62
402.854	100.62
403.078	93.62
403.302	90.62
403.526	88.62
403.75	97.62
403.974	95.62
404.198	91.62
404.422	105.62
404.645	97.62
404.869	105.62
405.093	117.62
405.317	127.62
405.541	116.62
405.765	126.62
405.988	146.62
406.212	207.62
406.436	303.62
406.66	215.62
406.883	115.62
407.107	100.62
407.331	100.62
407.555	121.62
407.778	102.62
408.002	92.62
408.226	105.62
408.449	103.62
408.673	97.62
408.896	79.62
409.12	91.62
409.344	86.62
409.567	91.62
409.791	93.62
410.014	88.62
410.238	97.62
410.461	102.62
410.685	92.62
410.908	93.62
411.132	107.62
411.355	105.62
411.578	84.62
411.802	93.62
412.025	88.62
412.249	110.62
412.472	110.62
412.695	119.62
412.919	106.62
413.142	97.62
413.365	81.62
413.589	103.62
413.812	86.62
414.035	100.62
414.258	100.62
414.482	84.62
414.705	83.62
414.928	98.62
415.151	91.62
415.374	117.62
415.597	99.62
415.821	97.62
416.044	92.62
416.267	102.62
416.49	75.62
416.713	81.62
416.936	83.62
417.159	81.62
417.382	93.62
417.605	99.62
417.828	119.62
418.051	103.62
418.274	99.62
418.497	84.62
418.72	85.62
418.943	92.62
419.166	85.62
419.389	95.62
419.611	91.62
419.834	101.62
420.057	104.62
420.28	95.62
420.503	93.62
420.726	91.62
420.948	89.62
421.171	106.62
421.394	96.62
421.617	89.62
421.839	105.62
422.062	96.62
422.285	94.62
422.507	111.62
422.73	105.62
422.953	98.62
423.175	88.62
423.398	96.62
423.621	93.62
423.843	93.62
424.066	90.62
424.288	85.62
424.511	79.62
424.733	100.62
424.956	111.62
425.178	118.62
425.401	125.62
425.623	108.62
425.846	98.62
426.068	93.62
426.291	101.62
426.513	88.62
426.735	112.62
426.958	101.62
427.18	115.62
427.402	152.62
427.625	229.62
427.847	207.62
428.069	185.62
428.292	122.62
428.514	85.62
428.736	107.62
428.958	85.62
429.181	76.62
429.403	96.62
429.625	102.62
429.847	98.62
430.069	106.62
430.292	94.62
430.514	96.62
430.736	89.62
430.958	89.62
431.18	94.62
431.402	86.62
431.624	90.62
431.846	93.62
432.068	95.62
432.29	85.62
432.512	85.62
432.734	96.62
432.956	92.62
433.178	117.62
433.4	94.62
433.622	94.62
433.844	76.62
434.066	76.62
434.287	78.62
434.509	92.62
434.731	95.62
434.953	93.62
435.175	86.62
435.397	81.62
435.618	102.62
435.84	105.62
436.062	144.62
436.284	123.62
436.505	104.62
436.727	104.62
436.949	80.62
437.17	81.62
437.392	101.62
437.614	108.62
437.835	127.62
438.057	149.62
438.278	133.62
438.5	116.62
438.721	131.62
438.943	122.62
439.165	88.62
439.386	92.62
439.608	87.62
439.829	107.62
440.05	149.62
440.272	174.62
440.493	123.62
440.715	107.62
440.936	90.62
441.158	83.62
441.379	107.62
441.6	101.62
441.822	86.62
442.043	104.62
442.264	125.62
442.486	103.62
442.707	111.62
442.928	115.62
443.149	161.62
443.371	162.62
443.592	118.62
443.813	131.62
444.034	128.62
444.255	85.62
444.476	76.62
444.698	85.62
444.919	100.62
445.14	134.62
445.361	122.62
445.582	125.62
445.803	165.62
446.024	164.62
446.245	162.62
446.466	125.62
446.687	88.62
446.908	97.62
447.129	95.62
447.35	91.62
447.571	96.62
447.792	85.62
448.013	111.62
448.234	133.62
448.455	107.62
448.675	137.62
448.896	143.62
449.117	121.62
449.338	110.62
449.559	134.62
449.779	127.62
450	98.62
450.221	115.62
450.442	91.62
450.662	111.62
450.883	127.62
451.104	139.62
451.324	101.62
451.545	96.62
451.766	89.62
451.986	89.62
452.207	85.62
452.428	99.62
452.648	112.62
452.869	125.62
453.089	133.62
453.31	145.62
453.53	112.62
453.751	96.62
453.971	127.62
454.192	144.62
454.412	99.62
454.633	83.62
454.853	91.62
455.073	100.62
455.294	83.62
455.514	109.62
455.734	88.62
455.955	88.62
456.175	84.62
456.395	88.62
456.616	76.62
456.836	99.62
457.056	83.62
457.276	80.62
457.497	85.62
457.717	94.62
457.937	94.62
458.157	97.62
458.377	97.62
458.598	135.62
458.818	179.62
459.038	210.62
459.258	138.62
459.478	91.62
459.698	88.62
459.918	86.62
460.138	69.62
460.358	81.62
460.578	101.62
460.798	99.62
461.018	100.62
461.238	87.62
461.458	94.62
461.678	79.62
461.898	94.62
462.118	92.62
462.338	81.62
462.558	89.62
462.777	90.62
462.997	87.62
463.217	93.62
463.437	98.62
463.657	86.62
463.876	93.62
464.096	94.62
464.316	101.62
464.536	92.62
464.755	90.62
464.975	116.62
465.195	227.62
465.414	224.62
465.634	115.62
465.854	103.62
466.073	91.62
466.293	84.62
466.512	99.62
466.732	96.62
466.951	90.62
467.171	115.62
467.391	99.62
467.61	138.62
467.829	171.62
468.049	383.62
468.268	608.62
468.488	199.62
468.707	124.62
468.927	99.62
469.146	102.62
469.365	97.62
469.585	86.62
469.804	93.62
470.023	95.62
470.243	99.62
470.462	120.62
470.681	140.62
470.901	107.62
471.12	104.62
471.339	116.62
471.558	124.62
471.777	121.62
471.997	218.62
472.216	780.62
472.435	1757.62
472.654	455.62
472.873	149.62
473.092	105.62
473.311	91.62
473.53	89.62
473.749	97.62
473.968	105.62
474.187	112.62
474.406	117.62
474.625	102.62
474.844	96.62
475.063	87.62
475.282	92.62
475.501	95.62
475.72	87.62
475.939	97.62
476.158	75.62
476.377	89.62
476.596	99.62
476.814	103.62
477.033	112.62
477.252	99.62
477.471	96.62
477.69	89.62
477.908	87.62
478.127	87.62
478.346	81.62
478.564	102.62
478.783	96.62
479.002	96.62
479.22	106.62
479.439	125.62
479.658	133.62
479.876	131.62
480.095	126.62
480.313	119.62
480.532	131.62
480.751	217.62
480.969	737.62
481.188	2990.62
481.406	1853.62
481.624	304.62
481.843	123.62
482.061	104.62
482.28	105.62
482.498	94.62
482.717	99.62
482.935	94.62
483.153	78.62
483.372	102.62
483.59	80.62
483.808	99.62
484.027	72.62
484.245	94.62
484.463	101.62
484.681	93.62
484.9	89.62
485.118	99.62
485.336	87.62
485.554	104.62
485.772	113.62
485.99	95.62
486.209	115.62
486.427	116.62
486.645	109.62
486.863	121.62
487.081	106.62
487.299	90.62
487.517	98.62
487.735	108.62
487.953	79.62
488.171	105.62
488.389	106.62
488.607	96.62
488.825	103.62
489.043	93.62
489.261	95.62
489.479	83.62
489.696	96.62
489.914	96.62
490.132	98.62
490.35	94.62
490.568	81.62
490.786	90.62
491.003	93.62
491.221	103.62
491.439	102.62
491.657	97.62
491.874	98.62
492.092	103.62
492.31	84.62
492.527	90.62
492.745	107.62
492.963	88.62
493.18	86.62
493.398	83.62
493.615	99.62
493.833	86.62
494.05	96.62
494.268	102.62
494.485	101.62
494.703	91.62
494.92	93.62
495.138	85.62
495.355	89.62
495.573	87.62
495.79	90.62
496.008	98.62
496.225	96.62
496.442	95.62
496.66	99.62
496.877	91.62
497.094	92.62
497.312	93.62
497.529	87.62
497.746	84.62
497.963	89.62
498.181	98.62
498.398	88.62
498.615	121.62
498.832	108.62
499.049	92.62
499.267	86.62
499.484	90.62
499.701	86.62
499.918	101.62
500.135	89.62
500.352	100.62
500.569	95.62
500.786	86.62
501.003	94.62
501.22	96.62
501.437	98.62
501.654	105.62
501.871	124.62
502.088	94.62
502.305	95.62
502.522	84.62
502.739	103.62
502.956	95.62
503.172	85.62
503.389	102.62
503.606	131.62
503.823	97.62
504.04	91.62
504.256	91.62
504.473	90.62
504.69	91.62
504.907	105.62
505.123	93.62
505.34	108.62
505.557	93.62
505.773	80.62
505.99	95.62
506.207	86.62
506.423	115.62
506.64	102.62
506.856	95.62
507.073	99.62
507.289	100.62
507.506	99.62
507.722	133.62
507.939	117.62
508.155	98.62
508.372	104.62
508.588	101.62
508.805	89.62
509.021	94.62
509.238	110.62
509.454	120.62
509.67	111.62
509.887	115.62
510.103	145.62
510.319	240.62
510.536	836.62
510.752	2961.62
510.968	836.62
511.184	172.62
511.401	132.62
511.617	117.62
511.833	120.62
512.049	112.62
512.265	109.62
512.481	91.62
512.698	89.62
