Data from Circ_2013_H10_HRD10591_00022.txt Node
Date: Wed Jan 03 10:04:04 EST 2024
User: Yrep
Spectrometer: HR+D1059
Trigger mode: 1
Integration Time (sec): 1.000000E-1
Scans to average: 1
Electric dark correction enabled: true
Nonlinearity correction enabled: false
Boxcar width: 0
XAxis mode: Wavelengths
Number of Pixels in Spectrum: 2048
>>>>>Begin Spectral Data<<<<<
223.165	-34.31
223.4	-34.31
223.635	-34.31
223.869	-17.31
224.104	-19.31
224.338	-9.31
224.573	-5.31
224.808	-6.31
225.042	-6.31
225.277	-5.31
225.511	11.69
225.746	5.69
225.98	11.69
226.215	7.69
226.449	23.69
226.683	7.69
226.918	5.69
227.152	29.69
227.387	27.69
227.621	44.69
227.856	39.69
228.09	56.69
228.324	56.69
228.559	60.69
228.793	60.69
229.027	64.69
229.262	64.69
229.496	75.69
229.73	100.69
229.964	92.69
230.199	87.69
230.433	66.69
230.667	66.69
230.901	78.69
231.136	71.69
231.37	69.69
231.604	78.69
231.838	73.69
232.072	65.69
232.306	57.69
232.541	81.69
232.775	67.69
233.009	76.69
233.243	78.69
233.477	78.69
233.711	87.69
233.945	85.69
234.179	72.69
234.413	73.69
234.647	73.69
234.881	85.69
235.115	77.69
235.349	81.69
235.583	84.69
235.817	75.69
236.051	77.69
236.285	71.69
236.519	92.69
236.753	77.69
236.987	88.69
237.221	98.69
237.455	89.69
237.689	80.69
237.922	80.69
238.156	85.69
238.39	87.69
238.624	68.69
238.858	78.69
239.091	76.69
239.325	81.69
239.559	74.69
239.793	82.69
240.027	81.69
240.26	78.69
240.494	75.69
240.728	80.69
240.961	80.69
241.195	90.69
241.429	89.69
241.662	74.69
241.896	85.69
242.13	64.69
242.363	68.69
242.597	76.69
242.83	86.69
243.064	73.69
243.298	76.69
243.531	83.69
243.765	72.69
243.998	68.69
244.232	71.69
244.465	73.69
244.699	54.69
244.932	76.69
245.166	76.69
245.399	84.69
245.633	63.69
245.866	77.69
246.099	82.69
246.333	78.69
246.566	90.69
246.8	72.69
247.033	89.69
247.266	86.69
247.5	87.69
247.733	74.69
247.966	79.69
248.2	58.69
248.433	75.69
248.666	77.69
248.899	74.69
249.133	89.69
249.366	93.69
249.599	98.69
249.832	72.69
250.066	73.69
250.299	84.69
250.532	83.69
250.765	84.69
250.998	70.69
251.231	85.69
251.465	78.69
251.698	81.69
251.931	71.69
252.164	70.69
252.397	76.69
252.63	84.69
252.863	79.69
253.096	86.69
253.329	84.69
253.562	70.69
253.795	76.69
254.028	84.69
254.261	68.69
254.494	85.69
254.727	80.69
254.96	73.69
255.193	79.69
255.426	65.69
255.659	79.69
255.892	94.69
256.124	79.69
256.357	77.69
256.59	98.69
256.823	77.69
257.056	94.69
257.289	95.69
257.521	77.69
257.754	70.69
257.987	75.69
258.22	78.69
258.452	76.69
258.685	89.69
258.918	85.69
259.151	90.69
259.383	74.69
259.616	73.69
259.849	76.69
260.081	70.69
260.314	70.69
260.547	97.69
260.779	82.69
261.012	83.69
261.244	78.69
261.477	88.69
261.71	109.69
261.942	119.69
262.175	116.69
262.407	89.69
262.64	79.69
262.872	88.69
263.105	86.69
263.337	84.69
263.57	82.69
263.802	79.69
264.035	75.69
264.267	86.69
264.499	83.69
264.732	85.69
264.964	78.69
265.197	89.69
265.429	88.69
265.661	90.69
265.894	86.69
266.126	78.69
266.358	89.69
266.591	92.69
266.823	70.69
267.055	80.69
267.287	90.69
267.52	84.69
267.752	73.69
267.984	94.69
268.216	77.69
268.448	76.69
268.681	79.69
268.913	82.69
269.145	83.69
269.377	84.69
269.609	93.69
269.841	79.69
270.073	84.69
270.306	82.69
270.538	86.69
270.77	90.69
271.002	77.69
271.234	85.69
271.466	87.69
271.698	77.69
271.93	81.69
272.162	89.69
272.394	83.69
272.626	90.69
272.858	75.69
273.09	69.69
273.322	84.69
273.553	86.69
273.785	85.69
274.017	68.69
274.249	92.69
274.481	85.69
274.713	77.69
274.945	88.69
275.176	90.69
275.408	92.69
275.64	94.69
275.872	84.69
276.104	78.69
276.335	88.69
276.567	110.69
276.799	107.69
277.031	122.69
277.262	132.69
277.494	99.69
277.726	87.69
277.957	85.69
278.189	79.69
278.421	95.69
278.652	80.69
278.884	98.69
279.115	96.69
279.347	97.69
279.579	94.69
279.81	91.69
280.042	106.69
280.273	133.69
280.505	107.69
280.736	92.69
280.968	91.69
281.199	96.69
281.431	90.69
281.662	89.69
281.894	93.69
282.125	96.69
282.356	112.69
282.588	133.69
282.819	115.69
283.051	94.69
283.282	91.69
283.513	99.69
283.745	84.69
283.976	78.69
284.207	96.69
284.439	92.69
284.67	92.69
284.901	71.69
285.132	81.69
285.364	77.69
285.595	82.69
285.826	86.69
286.057	99.69
286.288	90.69
286.52	91.69
286.751	74.69
286.982	90.69
287.213	91.69
287.444	106.69
287.675	87.69
287.906	98.69
288.138	98.69
288.369	89.69
288.6	101.69
288.831	89.69
289.062	89.69
289.293	95.69
289.524	82.69
289.755	81.69
289.986	84.69
290.217	78.69
290.448	92.69
290.679	70.69
290.91	76.69
291.141	89.69
291.371	89.69
291.602	78.69
291.833	69.69
292.064	82.69
292.295	100.69
292.526	109.69
292.757	94.69
292.987	95.69
293.218	92.69
293.449	99.69
293.68	83.69
293.91	90.69
294.141	96.69
294.372	91.69
294.603	80.69
294.833	86.69
295.064	100.69
295.295	85.69
295.525	91.69
295.756	104.69
295.987	99.69
296.217	150.69
296.448	119.69
296.679	80.69
296.909	77.69
297.14	101.69
297.37	93.69
297.601	91.69
297.831	95.69
298.062	81.69
298.292	93.69
298.523	79.69
298.753	87.69
298.984	86.69
299.214	89.69
299.445	83.69
299.675	107.69
299.905	97.69
300.136	86.69
300.366	94.69
300.597	89.69
300.827	102.69
301.057	90.69
301.288	112.69
301.518	112.69
301.748	84.69
301.979	101.69
302.209	90.69
302.439	88.69
302.669	91.69
302.9	87.69
303.13	88.69
303.36	89.69
303.59	112.69
303.82	95.69
304.051	99.69
304.281	92.69
304.511	88.69
304.741	98.69
304.971	91.69
305.201	83.69
305.431	85.69
305.661	85.69
305.891	82.69
306.121	98.69
306.352	103.69
306.582	98.69
306.812	87.69
307.042	103.69
307.272	108.69
307.502	112.69
307.731	112.69
307.961	99.69
308.191	84.69
308.421	85.69
308.651	86.69
308.881	110.69
309.111	101.69
309.341	87.69
309.571	95.69
309.8	104.69
310.03	88.69
310.26	97.69
310.49	107.69
310.72	100.69
310.949	112.69
311.179	110.69
311.409	92.69
311.639	98.69
311.868	100.69
312.098	72.69
312.328	88.69
312.557	112.69
312.787	114.69
313.017	116.69
313.246	97.69
313.476	106.69
313.706	100.69
313.935	106.69
314.165	112.69
314.394	104.69
314.624	104.69
314.853	114.69
315.083	112.69
315.312	99.69
315.542	95.69
315.771	94.69
316.001	101.69
316.23	96.69
316.46	84.69
316.689	94.69
316.919	89.69
317.148	90.69
317.377	99.69
317.607	112.69
317.836	91.69
318.065	96.69
318.295	95.69
318.524	88.69
318.753	91.69
318.983	108.69
319.212	97.69
319.441	92.69
319.67	95.69
319.9	97.69
320.129	93.69
320.358	98.69
320.587	106.69
320.816	84.69
321.046	94.69
321.275	106.69
321.504	103.69
321.733	85.69
321.962	103.69
322.191	100.69
322.42	106.69
322.649	98.69
322.878	108.69
323.108	128.69
323.337	145.69
323.566	144.69
323.795	156.69
324.024	216.69
324.253	427.69
324.482	891.69
324.71	1893.69
324.939	2513.69
325.168	944.69
325.397	262.69
325.626	153.69
325.855	146.69
326.084	148.69
326.313	134.69
326.542	168.69
326.77	241.69
326.999	493.69
327.228	1037.69
327.457	1897.69
327.686	1514.69
327.914	417.69
328.143	287.69
328.372	296.69
328.6	195.69
328.829	124.69
329.058	148.69
329.287	156.69
329.515	127.69
329.744	146.69
329.972	211.69
330.201	378.69
330.43	534.69
330.658	272.69
330.887	198.69
331.115	164.69
331.344	108.69
331.572	100.69
331.801	122.69
332.03	117.69
332.258	102.69
332.486	97.69
332.715	89.69
332.943	104.69
333.172	104.69
333.4	89.69
333.629	124.69
333.857	150.69
334.085	225.69
334.314	361.69
334.542	632.69
334.771	636.69
334.999	220.69
335.227	137.69
335.455	97.69
335.684	98.69
335.912	96.69
336.14	98.69
336.369	92.69
336.597	106.69
336.825	109.69
337.053	90.69
337.281	88.69
337.51	82.69
337.738	95.69
337.966	96.69
338.194	97.69
338.422	94.69
338.65	107.69
338.878	95.69
339.106	88.69
339.334	82.69
339.562	90.69
339.79	92.69
340.018	83.69
340.246	83.69
340.474	90.69
340.702	106.69
340.93	91.69
341.158	79.69
341.386	97.69
341.614	93.69
341.842	102.69
342.07	92.69
342.298	87.69
342.526	85.69
342.754	97.69
342.981	77.69
343.209	98.69
343.437	97.69
343.665	75.69
343.893	92.69
344.12	79.69
344.348	83.69
344.576	88.69
344.804	91.69
345.031	95.69
345.259	96.69
345.487	95.69
345.714	91.69
345.942	82.69
346.17	91.69
346.397	83.69
346.625	96.69
346.853	95.69
347.08	85.69
347.308	104.69
347.535	100.69
347.763	105.69
347.99	88.69
348.218	114.69
348.445	115.69
348.673	87.69
348.9	97.69
349.128	94.69
349.355	98.69
349.583	102.69
349.81	83.69
350.037	86.69
350.265	100.69
350.492	98.69
350.72	103.69
350.947	79.69
351.174	115.69
351.402	114.69
351.629	96.69
351.856	101.69
352.083	110.69
352.311	94.69
352.538	108.69
352.765	115.69
352.992	116.69
353.22	116.69
353.447	101.69
353.674	98.69
353.901	96.69
354.128	90.69
354.355	112.69
354.583	109.69
354.81	109.69
355.037	96.69
355.264	97.69
355.491	86.69
355.718	83.69
355.945	98.69
356.172	96.69
356.399	93.69
356.626	100.69
356.853	89.69
357.08	94.69
357.307	92.69
357.534	94.69
357.761	91.69
357.988	88.69
358.215	91.69
358.441	94.69
358.668	88.69
358.895	98.69
359.122	90.69
359.349	96.69
359.576	98.69
359.802	94.69
360.029	128.69
360.256	115.69
360.483	101.69
360.709	97.69
360.936	89.69
361.163	101.69
361.39	92.69
361.616	88.69
361.843	96.69
362.07	99.69
362.296	104.69
362.523	97.69
362.749	86.69
362.976	92.69
363.203	96.69
363.429	85.69
363.656	82.69
363.882	88.69
364.109	81.69
364.335	83.69
364.562	84.69
364.788	98.69
365.015	90.69
365.241	102.69
365.468	110.69
365.694	115.69
365.92	94.69
366.147	98.69
366.373	82.69
366.599	96.69
366.826	87.69
367.052	89.69
367.278	84.69
367.505	102.69
367.731	92.69
367.957	99.69
368.184	91.69
368.41	95.69
368.636	127.69
368.862	136.69
369.089	108.69
369.315	109.69
369.541	95.69
369.767	81.69
369.993	83.69
370.219	87.69
370.445	104.69
370.672	93.69
370.898	79.69
371.124	100.69
371.35	75.69
371.576	89.69
371.802	93.69
372.028	93.69
372.254	71.69
372.48	82.69
372.706	77.69
372.932	85.69
373.158	90.69
373.384	81.69
373.61	94.69
373.835	92.69
374.061	77.69
374.287	94.69
374.513	96.69
374.739	96.69
374.965	91.69
375.191	94.69
375.416	90.69
375.642	81.69
375.868	99.69
376.094	82.69
376.319	92.69
376.545	80.69
376.771	83.69
376.997	104.69
377.222	116.69
377.448	90.69
377.674	90.69
377.899	83.69
378.125	73.69
378.35	84.69
378.576	99.69
378.802	97.69
379.027	96.69
379.253	90.69
379.478	77.69
379.704	89.69
379.929	99.69
380.155	104.69
380.38	83.69
380.606	100.69
380.831	100.69
381.057	108.69
381.282	91.69
381.507	96.69
381.733	84.69
381.958	90.69
382.184	97.69
382.409	104.69
382.634	102.69
382.86	106.69
383.085	101.69
383.31	113.69
383.535	88.69
383.761	97.69
383.986	97.69
384.211	104.69
384.436	111.69
384.662	88.69
384.887	91.69
385.112	103.69
385.337	110.69
385.562	110.69
385.787	108.69
386.013	123.69
386.238	119.69
386.463	115.69
386.688	118.69
386.913	113.69
387.138	117.69
387.363	102.69
387.588	97.69
387.813	105.69
388.038	111.69
388.263	114.69
388.488	122.69
388.713	87.69
388.938	95.69
389.163	100.69
389.387	90.69
389.612	85.69
389.837	89.69
390.062	93.69
390.287	81.69
390.512	83.69
390.736	72.69
390.961	81.69
391.186	85.69
391.411	99.69
391.636	97.69
391.86	85.69
392.085	88.69
392.31	82.69
392.534	91.69
392.759	107.69
392.984	99.69
393.208	93.69
393.433	105.69
393.658	90.69
393.882	99.69
394.107	74.69
394.331	92.69
394.556	82.69
394.78	89.69
395.005	81.69
395.229	66.69
395.454	89.69
395.678	82.69
395.903	77.69
396.127	84.69
396.352	91.69
396.576	79.69
396.801	89.69
397.025	97.69
397.249	70.69
397.474	81.69
397.698	86.69
397.922	87.69
398.147	101.69
398.371	82.69
398.595	86.69
398.82	78.69
399.044	95.69
399.268	80.69
399.492	91.69
399.717	97.69
399.941	90.69
400.165	103.69
400.389	88.69
400.613	84.69
400.837	91.69
401.062	85.69
401.286	91.69
401.51	94.69
401.734	78.69
401.958	101.69
402.182	135.69
402.406	149.69
402.63	141.69
402.854	99.69
403.078	83.69
403.302	86.69
403.526	77.69
403.75	80.69
403.974	77.69
404.198	82.69
404.422	108.69
404.645	92.69
404.869	100.69
405.093	102.69
405.317	115.69
405.541	126.69
405.765	120.69
405.988	142.69
406.212	177.69
406.436	270.69
406.66	166.69
406.883	98.69
407.107	78.69
407.331	103.69
407.555	90.69
407.778	90.69
408.002	86.69
408.226	99.69
408.449	92.69
408.673	98.69
408.896	97.69
409.12	89.69
409.344	91.69
409.567	101.69
409.791	103.69
410.014	89.69
410.238	90.69
410.461	99.69
410.685	108.69
410.908	102.69
411.132	110.69
411.355	94.69
411.578	89.69
411.802	91.69
412.025	97.69
412.249	92.69
412.472	97.69
412.695	114.69
412.919	99.69
413.142	98.69
413.365	95.69
413.589	81.69
413.812	84.69
414.035	93.69
414.258	100.69
414.482	102.69
414.705	86.69
414.928	97.69
415.151	87.69
415.374	84.69
415.597	93.69
415.821	89.69
416.044	96.69
416.267	84.69
416.49	99.69
416.713	77.69
416.936	76.69
417.159	83.69
417.382	86.69
417.605	97.69
417.828	87.69
418.051	90.69
418.274	102.69
418.497	105.69
418.72	91.69
418.943	96.69
419.166	88.69
419.389	91.69
419.611	82.69
419.834	77.69
420.057	91.69
420.28	87.69
420.503	73.69
420.726	76.69
420.948	95.69
421.171	106.69
421.394	106.69
421.617	89.69
421.839	74.69
422.062	89.69
422.285	93.69
422.507	93.69
422.73	100.69
422.953	106.69
423.175	94.69
423.398	86.69
423.621	74.69
423.843	88.69
424.066	91.69
424.288	90.69
424.511	91.69
424.733	98.69
424.956	98.69
425.178	91.69
425.401	124.69
425.623	113.69
425.846	97.69
426.068	90.69
426.291	86.69
426.513	99.69
426.735	103.69
426.958	87.69
427.18	110.69
427.402	159.69
427.625	206.69
427.847	175.69
428.069	162.69
428.292	118.69
428.514	100.69
428.736	85.69
428.958	82.69
429.181	103.69
429.403	86.69
429.625	88.69
429.847	97.69
430.069	104.69
430.292	92.69
430.514	93.69
430.736	87.69
430.958	75.69
431.18	85.69
431.402	86.69
431.624	88.69
431.846	67.69
432.068	71.69
432.29	76.69
432.512	83.69
432.734	82.69
432.956	89.69
433.178	98.69
433.4	95.69
433.622	96.69
433.844	94.69
434.066	85.69
434.287	89.69
434.509	85.69
434.731	96.69
434.953	101.69
435.175	88.69
435.397	85.69
435.618	87.69
435.84	92.69
436.062	124.69
436.284	142.69
436.505	96.69
436.727	112.69
436.949	86.69
437.17	91.69
437.392	89.69
437.614	79.69
437.835	114.69
438.057	135.69
438.278	109.69
438.5	114.69
438.721	139.69
438.943	112.69
439.165	95.69
439.386	88.69
439.608	102.69
439.829	102.69
440.05	137.69
440.272	171.69
440.493	109.69
440.715	81.69
440.936	96.69
441.158	80.69
441.379	85.69
441.6	99.69
441.822	101.69
442.043	97.69
442.264	122.69
442.486	109.69
442.707	90.69
442.928	103.69
443.149	142.69
443.371	163.69
443.592	124.69
443.813	136.69
444.034	122.69
444.255	96.69
444.476	92.69
444.698	79.69
444.919	87.69
445.14	124.69
445.361	116.69
445.582	122.69
445.803	168.69
446.024	156.69
446.245	160.69
446.466	120.69
446.687	84.69
446.908	87.69
447.129	91.69
447.35	96.69
447.571	87.69
447.792	97.69
448.013	112.69
448.234	109.69
448.455	97.69
448.675	134.69
448.896	132.69
449.117	105.69
449.338	105.69
449.559	119.69
449.779	155.69
450	109.69
450.221	93.69
450.442	87.69
450.662	106.69
450.883	117.69
451.104	126.69
451.324	106.69
451.545	85.69
451.766	91.69
451.986	83.69
452.207	81.69
452.428	90.69
452.648	103.69
452.869	117.69
453.089	103.69
453.31	116.69
453.53	104.69
453.751	86.69
453.971	109.69
454.192	116.69
454.412	100.69
454.633	95.69
454.853	85.69
455.073	92.69
455.294	94.69
455.514	108.69
455.734	81.69
455.955	85.69
456.175	82.69
456.395	72.69
456.616	91.69
456.836	83.69
457.056	89.69
457.276	80.69
457.497	84.69
457.717	89.69
457.937	82.69
458.157	78.69
458.377	96.69
458.598	105.69
458.818	157.69
459.038	196.69
459.258	146.69
459.478	87.69
459.698	93.69
459.918	89.69
460.138	100.69
460.358	77.69
460.578	89.69
460.798	93.69
461.018	82.69
461.238	81.69
461.458	97.69
461.678	76.69
461.898	87.69
462.118	73.69
462.338	88.69
462.558	77.69
462.777	78.69
462.997	97.69
463.217	85.69
463.437	96.69
463.657	66.69
463.876	77.69
464.096	83.69
464.316	82.69
464.536	96.69
464.755	94.69
464.975	123.69
465.195	200.69
465.414	200.69
465.634	105.69
465.854	101.69
466.073	81.69
466.293	100.69
466.512	87.69
466.732	85.69
466.951	85.69
467.171	78.69
467.391	119.69
467.61	123.69
467.829	123.69
468.049	212.69
468.268	306.69
468.488	114.69
468.707	100.69
468.927	103.69
469.146	84.69
469.365	87.69
469.585	90.69
469.804	89.69
470.023	91.69
470.243	98.69
470.462	104.69
470.681	131.69
470.901	97.69
471.12	84.69
471.339	82.69
471.558	90.69
471.777	96.69
471.997	156.69
472.216	384.69
472.435	823.69
472.654	236.69
472.873	104.69
473.092	90.69
473.311	88.69
473.53	102.69
473.749	91.69
473.968	97.69
474.187	120.69
474.406	89.69
474.625	89.69
474.844	89.69
475.063	102.69
475.282	90.69
475.501	85.69
475.72	95.69
475.939	89.69
476.158	101.69
476.377	82.69
476.596	93.69
476.814	107.69
477.033	100.69
477.252	89.69
477.471	97.69
477.69	89.69
477.908	93.69
478.127	86.69
478.346	82.69
478.564	94.69
478.783	101.69
479.002	90.69
479.22	103.69
479.439	113.69
479.658	114.69
479.876	98.69
480.095	96.69
480.313	112.69
480.532	99.69
480.751	148.69
480.969	337.69
481.188	1348.69
481.406	910.69
481.624	176.69
481.843	95.69
482.061	109.69
482.28	92.69
482.498	99.69
482.717	96.69
482.935	71.69
483.153	94.69
483.372	88.69
483.59	91.69
483.808	99.69
484.027	105.69
484.245	90.69
484.463	101.69
484.681	96.69
484.9	101.69
485.118	86.69
485.336	95.69
485.554	71.69
485.772	102.69
485.99	105.69
486.209	94.69
486.427	98.69
486.645	109.69
486.863	93.69
487.081	105.69
487.299	99.69
487.517	75.69
487.735	102.69
487.953	97.69
488.171	86.69
488.389	108.69
488.607	94.69
488.825	89.69
489.043	78.69
489.261	87.69
489.479	81.69
489.696	85.69
489.914	80.69
490.132	84.69
490.35	73.69
490.568	93.69
490.786	84.69
491.003	84.69
491.221	85.69
491.439	90.69
491.657	112.69
491.874	102.69
492.092	100.69
492.31	91.69
492.527	94.69
492.745	83.69
492.963	74.69
493.18	94.69
493.398	81.69
493.615	93.69
493.833	100.69
494.05	81.69
494.268	90.69
494.485	79.69
494.703	93.69
494.92	83.69
495.138	89.69
495.355	91.69
495.573	108.69
495.79	83.69
496.008	88.69
496.225	92.69
496.442	96.69
496.66	84.69
496.877	89.69
497.094	94.69
497.312	106.69
497.529	80.69
497.746	89.69
497.963	80.69
498.181	86.69
498.398	95.69
498.615	102.69
498.832	107.69
499.049	95.69
499.267	88.69
499.484	85.69
499.701	84.69
499.918	80.69
500.135	77.69
500.352	85.69
500.569	84.69
500.786	91.69
501.003	100.69
501.22	105.69
501.437	88.69
501.654	79.69
501.871	100.69
502.088	93.69
502.305	80.69
502.522	92.69
502.739	84.69
502.956	92.69
503.172	86.69
503.389	109.69
503.606	130.69
503.823	105.69
504.04	88.69
504.256	91.69
504.473	92.69
504.69	97.69
504.907	90.69
505.123	92.69
505.34	81.69
505.557	86.69
505.773	98.69
505.99	90.69
506.207	90.69
506.423	90.69
506.64	97.69
506.856	92.69
507.073	82.69
507.289	78.69
507.506	100.69
507.722	105.69
507.939	112.69
508.155	102.69
508.372	97.69
508.588	88.69
508.805	83.69
509.021	84.69
509.238	91.69
509.454	85.69
509.67	100.69
509.887	112.69
510.103	139.69
510.319	207.69
510.536	780.69
510.752	2599.69
510.968	728.69
511.184	162.69
511.401	116.69
511.617	90.69
511.833	91.69
512.049	92.69
512.265	108.69
512.481	87.69
512.698	82.69
512.914	78.69
513.13	91.69
513.346	77.69
513.562	89.69
513.778	101.69
513.994	99.69
514.21	104.69
514.426	108.69
514.642	150.69
514.858	146.69
