Data from Circ_2013_H10_HRD10591_00035.txt Node
Date: Wed Jan 03 10:04:07 EST 2024
User: Yrep
Spectrometer: HR+D1059
Trigger mode: 1
Integration Time (sec): 1.000000E-1
Scans to average: 1
Electric dark correction enabled: true
Nonlinearity correction enabled: false
Boxcar width: 0
XAxis mode: Wavelengths
Number of Pixels in Spectrum: 2048
>>>>>Begin Spectral Data<<<<<
223.165	-10.31
223.4	-10.31
223.635	-10.31
223.869	-30.31
224.104	-10.31
224.338	-15.31
224.573	-15.31
224.808	-15.31
225.042	-4.31
225.277	-2.31
225.511	-6.31
225.746	5.69
225.98	12.69
226.215	13.69
226.449	20.69
226.683	-5.31
226.918	18.69
227.152	43.69
227.387	28.69
227.621	31.69
227.856	50.69
228.09	55.69
228.324	47.69
228.559	50.69
228.793	40.69
229.027	53.69
229.262	67.69
229.496	73.69
229.73	90.69
229.964	82.69
230.199	54.69
230.433	65.69
230.667	76.69
230.901	68.69
231.136	63.69
231.37	78.69
231.604	61.69
231.838	83.69
232.072	80.69
232.306	78.69
232.541	76.69
232.775	76.69
233.009	78.69
233.243	73.69
233.477	96.69
233.711	76.69
233.945	75.69
234.179	82.69
234.413	70.69
234.647	64.69
234.881	65.69
235.115	83.69
235.349	79.69
235.583	65.69
235.817	76.69
236.051	75.69
236.285	82.69
236.519	76.69
236.753	58.69
236.987	67.69
237.221	83.69
237.455	102.69
237.689	74.69
237.922	77.69
238.156	80.69
238.39	66.69
238.624	84.69
238.858	69.69
239.091	76.69
239.325	88.69
239.559	79.69
239.793	69.69
240.027	69.69
240.26	76.69
240.494	80.69
240.728	76.69
240.961	79.69
241.195	79.69
241.429	66.69
241.662	73.69
241.896	67.69
242.13	69.69
242.363	76.69
242.597	76.69
242.83	82.69
243.064	75.69
243.298	68.69
243.531	80.69
243.765	74.69
243.998	71.69
244.232	81.69
244.465	91.69
244.699	66.69
244.932	70.69
245.166	84.69
245.399	76.69
245.633	75.69
245.866	86.69
246.099	84.69
246.333	83.69
246.566	74.69
246.8	79.69
247.033	72.69
247.266	72.69
247.5	74.69
247.733	70.69
247.966	79.69
248.2	83.69
248.433	76.69
248.666	68.69
248.899	75.69
249.133	89.69
249.366	95.69
249.599	90.69
249.832	85.69
250.066	82.69
250.299	81.69
250.532	70.69
250.765	87.69
250.998	83.69
251.231	68.69
251.465	70.69
251.698	73.69
251.931	80.69
252.164	67.69
252.397	78.69
252.63	69.69
252.863	82.69
253.096	76.69
253.329	67.69
253.562	88.69
253.795	77.69
254.028	80.69
254.261	70.69
254.494	83.69
254.727	71.69
254.96	86.69
255.193	95.69
255.426	91.69
255.659	84.69
255.892	102.69
256.124	93.69
256.357	76.69
256.59	80.69
256.823	69.69
257.056	76.69
257.289	80.69
257.521	78.69
257.754	89.69
257.987	85.69
258.22	92.69
258.452	68.69
258.685	73.69
258.918	89.69
259.151	91.69
259.383	83.69
259.616	84.69
259.849	70.69
260.081	73.69
260.314	73.69
260.547	74.69
260.779	87.69
261.012	87.69
261.244	81.69
261.477	71.69
261.71	104.69
261.942	127.69
262.175	139.69
262.407	85.69
262.64	82.69
262.872	71.69
263.105	85.69
263.337	73.69
263.57	78.69
263.802	73.69
264.035	76.69
264.267	80.69
264.499	67.69
264.732	84.69
264.964	92.69
265.197	83.69
265.429	78.69
265.661	78.69
265.894	86.69
266.126	82.69
266.358	83.69
266.591	69.69
266.823	84.69
267.055	70.69
267.287	81.69
267.52	86.69
267.752	73.69
267.984	82.69
268.216	85.69
268.448	86.69
268.681	75.69
268.913	69.69
269.145	96.69
269.377	83.69
269.609	82.69
269.841	92.69
270.073	74.69
270.306	81.69
270.538	74.69
270.77	81.69
271.002	84.69
271.234	81.69
271.466	80.69
271.698	80.69
271.93	77.69
272.162	77.69
272.394	83.69
272.626	79.69
272.858	82.69
273.09	88.69
273.322	76.69
273.553	72.69
273.785	87.69
274.017	74.69
274.249	73.69
274.481	80.69
274.713	77.69
274.945	87.69
275.176	76.69
275.408	96.69
275.64	88.69
275.872	83.69
276.104	86.69
276.335	81.69
276.567	93.69
276.799	118.69
277.031	129.69
277.262	131.69
277.494	105.69
277.726	92.69
277.957	78.69
278.189	82.69
278.421	87.69
278.652	72.69
278.884	73.69
279.115	81.69
279.347	81.69
279.579	78.69
279.81	97.69
280.042	112.69
280.273	148.69
280.505	113.69
280.736	90.69
280.968	78.69
281.199	76.69
281.431	86.69
281.662	80.69
281.894	85.69
282.125	87.69
282.356	131.69
282.588	151.69
282.819	112.69
283.051	91.69
283.282	91.69
283.513	101.69
283.745	84.69
283.976	80.69
284.207	86.69
284.439	85.69
284.67	88.69
284.901	97.69
285.132	94.69
285.364	88.69
285.595	83.69
285.826	105.69
286.057	78.69
286.288	80.69
286.52	79.69
286.751	88.69
286.982	84.69
287.213	84.69
287.444	76.69
287.675	83.69
287.906	92.69
288.138	89.69
288.369	63.69
288.6	85.69
288.831	79.69
289.062	93.69
289.293	92.69
289.524	79.69
289.755	76.69
289.986	92.69
290.217	82.69
290.448	85.69
290.679	81.69
290.91	74.69
291.141	79.69
291.371	88.69
291.602	82.69
291.833	88.69
292.064	103.69
292.295	86.69
292.526	80.69
292.757	99.69
292.987	91.69
293.218	81.69
293.449	87.69
293.68	89.69
293.91	92.69
294.141	92.69
294.372	87.69
294.603	90.69
294.833	80.69
295.064	78.69
295.295	85.69
295.525	95.69
295.756	102.69
295.987	135.69
296.217	142.69
296.448	131.69
296.679	79.69
296.909	77.69
297.14	81.69
297.37	91.69
297.601	86.69
297.831	83.69
298.062	98.69
298.292	87.69
298.523	93.69
298.753	94.69
298.984	99.69
299.214	81.69
299.445	93.69
299.675	90.69
299.905	117.69
300.136	94.69
300.366	79.69
300.597	97.69
300.827	96.69
301.057	115.69
301.288	97.69
301.518	97.69
301.748	83.69
301.979	95.69
302.209	83.69
302.439	83.69
302.669	80.69
302.9	88.69
303.13	74.69
303.36	119.69
303.59	128.69
303.82	128.69
304.051	103.69
304.281	106.69
304.511	83.69
304.741	83.69
304.971	83.69
305.201	100.69
305.431	89.69
305.661	85.69
305.891	83.69
306.121	101.69
306.352	104.69
306.582	116.69
306.812	91.69
307.042	100.69
307.272	114.69
307.502	128.69
307.731	117.69
307.961	92.69
308.191	86.69
308.421	83.69
308.651	88.69
308.881	91.69
309.111	87.69
309.341	103.69
309.571	103.69
309.8	89.69
310.03	95.69
310.26	100.69
310.49	93.69
310.72	109.69
310.949	104.69
311.179	99.69
311.409	99.69
311.639	96.69
311.868	102.69
312.098	88.69
312.328	106.69
312.557	90.69
312.787	119.69
313.017	105.69
313.246	90.69
313.476	96.69
313.706	90.69
313.935	95.69
314.165	99.69
314.394	96.69
314.624	113.69
314.853	106.69
315.083	100.69
315.312	95.69
315.542	98.69
315.771	99.69
316.001	87.69
316.23	83.69
316.46	82.69
316.689	93.69
316.919	88.69
317.148	109.69
317.377	89.69
317.607	102.69
317.836	84.69
318.065	106.69
318.295	90.69
318.524	80.69
318.753	90.69
318.983	98.69
319.212	90.69
319.441	121.69
319.67	106.69
319.9	97.69
320.129	87.69
320.358	99.69
320.587	89.69
320.816	100.69
321.046	119.69
321.275	106.69
321.504	108.69
321.733	107.69
321.962	111.69
322.191	104.69
322.42	117.69
322.649	124.69
322.878	116.69
323.108	125.69
323.337	123.69
323.566	138.69
323.795	156.69
324.024	217.69
324.253	471.69
324.482	995.69
324.71	2022.69
324.939	2642.69
325.168	965.69
325.397	285.69
325.626	151.69
325.855	123.69
326.084	117.69
326.313	141.69
326.542	171.69
326.77	250.69
326.999	528.69
327.228	1076.69
327.457	1977.69
327.686	1578.69
327.914	452.69
328.143	316.69
328.372	312.69
328.6	205.69
328.829	159.69
329.058	152.69
329.287	161.69
329.515	144.69
329.744	160.69
329.972	231.69
330.201	403.69
330.43	573.69
330.658	316.69
330.887	205.69
331.115	162.69
331.344	120.69
331.572	112.69
331.801	108.69
332.03	106.69
332.258	109.69
332.486	92.69
332.715	115.69
332.943	107.69
333.172	107.69
333.4	117.69
333.629	111.69
333.857	155.69
334.085	230.69
334.314	394.69
334.542	716.69
334.771	692.69
334.999	234.69
335.227	107.69
335.455	94.69
335.684	90.69
335.912	104.69
336.14	100.69
336.369	96.69
336.597	106.69
336.825	95.69
337.053	93.69
337.281	86.69
337.51	86.69
337.738	96.69
337.966	106.69
338.194	100.69
338.422	89.69
338.65	103.69
338.878	91.69
339.106	86.69
339.334	91.69
339.562	91.69
339.79	86.69
340.018	102.69
340.246	91.69
340.474	98.69
340.702	91.69
340.93	96.69
341.158	104.69
341.386	98.69
341.614	95.69
341.842	92.69
342.07	97.69
342.298	86.69
342.526	96.69
342.754	96.69
342.981	86.69
343.209	75.69
343.437	89.69
343.665	81.69
343.893	81.69
344.12	85.69
344.348	80.69
344.576	101.69
344.804	87.69
345.031	102.69
345.259	99.69
345.487	93.69
345.714	96.69
345.942	84.69
346.17	94.69
346.397	75.69
346.625	97.69
346.853	96.69
347.08	87.69
347.308	103.69
347.535	91.69
347.763	87.69
347.99	96.69
348.218	103.69
348.445	101.69
348.673	106.69
348.9	105.69
349.128	82.69
349.355	97.69
349.583	85.69
349.81	102.69
350.037	86.69
350.265	86.69
350.492	83.69
350.72	97.69
350.947	97.69
351.174	121.69
351.402	101.69
351.629	111.69
351.856	116.69
352.083	98.69
352.311	120.69
352.538	108.69
352.765	129.69
352.992	98.69
353.22	92.69
353.447	100.69
353.674	118.69
353.901	87.69
354.128	101.69
354.355	92.69
354.583	97.69
354.81	105.69
355.037	82.69
355.264	83.69
355.491	92.69
355.718	72.69
355.945	89.69
356.172	96.69
356.399	78.69
356.626	97.69
356.853	89.69
357.08	96.69
357.307	96.69
357.534	90.69
357.761	93.69
357.988	75.69
358.215	92.69
358.441	105.69
358.668	90.69
358.895	92.69
359.122	80.69
359.349	86.69
359.576	89.69
359.802	99.69
360.029	132.69
360.256	118.69
360.483	101.69
360.709	93.69
360.936	80.69
361.163	94.69
361.39	105.69
361.616	97.69
361.843	82.69
362.07	100.69
362.296	95.69
362.523	90.69
362.749	90.69
362.976	90.69
363.203	93.69
363.429	99.69
363.656	97.69
363.882	93.69
364.109	98.69
364.335	89.69
364.562	88.69
364.788	90.69
365.015	77.69
365.241	92.69
365.468	120.69
365.694	98.69
365.92	81.69
366.147	84.69
366.373	82.69
366.599	84.69
366.826	98.69
367.052	86.69
367.278	86.69
367.505	96.69
367.731	92.69
367.957	91.69
368.184	96.69
368.41	104.69
368.636	102.69
368.862	120.69
369.089	121.69
369.315	101.69
369.541	105.69
369.767	99.69
369.993	80.69
370.219	79.69
370.445	89.69
370.672	93.69
370.898	86.69
371.124	84.69
371.35	86.69
371.576	76.69
371.802	91.69
372.028	90.69
372.254	75.69
372.48	82.69
372.706	80.69
372.932	74.69
373.158	74.69
373.384	78.69
373.61	85.69
373.835	78.69
374.061	76.69
374.287	90.69
374.513	82.69
374.739	80.69
374.965	81.69
375.191	90.69
375.416	70.69
375.642	87.69
375.868	93.69
376.094	85.69
376.319	69.69
376.545	87.69
376.771	87.69
376.997	87.69
377.222	92.69
377.448	87.69
377.674	85.69
377.899	97.69
378.125	86.69
378.35	81.69
378.576	83.69
378.802	91.69
379.027	90.69
379.253	88.69
379.478	106.69
379.704	105.69
379.929	102.69
380.155	100.69
380.38	95.69
380.606	90.69
380.831	84.69
381.057	91.69
381.282	87.69
381.507	99.69
381.733	100.69
381.958	97.69
382.184	100.69
382.409	100.69
382.634	107.69
382.86	94.69
383.085	90.69
383.31	92.69
383.535	106.69
383.761	112.69
383.986	94.69
384.211	99.69
384.436	102.69
384.662	109.69
384.887	126.69
385.112	108.69
385.337	101.69
385.562	99.69
385.787	94.69
386.013	133.69
386.238	114.69
386.463	99.69
386.688	103.69
386.913	119.69
387.138	102.69
387.363	104.69
387.588	96.69
387.813	108.69
388.038	110.69
388.263	120.69
388.488	108.69
388.713	89.69
388.938	89.69
389.163	82.69
389.387	94.69
389.612	98.69
389.837	87.69
390.062	94.69
390.287	99.69
390.512	74.69
390.736	98.69
390.961	75.69
391.186	84.69
391.411	86.69
391.636	93.69
391.86	90.69
392.085	73.69
392.31	88.69
392.534	81.69
392.759	95.69
392.984	98.69
393.208	77.69
393.433	94.69
393.658	96.69
393.882	79.69
394.107	82.69
394.331	77.69
394.556	83.69
394.78	84.69
395.005	86.69
395.229	86.69
395.454	84.69
395.678	91.69
395.903	92.69
396.127	87.69
396.352	91.69
396.576	97.69
396.801	91.69
397.025	99.69
397.249	98.69
397.474	78.69
397.698	79.69
397.922	80.69
398.147	81.69
398.371	98.69
398.595	82.69
398.82	71.69
399.044	83.69
399.268	93.69
399.492	74.69
399.717	86.69
399.941	77.69
400.165	99.69
400.389	95.69
400.613	88.69
400.837	107.69
401.062	81.69
401.286	80.69
401.51	99.69
401.734	99.69
401.958	97.69
402.182	129.69
402.406	181.69
402.63	137.69
402.854	100.69
403.078	84.69
403.302	86.69
403.526	70.69
403.75	82.69
403.974	77.69
404.198	89.69
404.422	92.69
404.645	91.69
404.869	104.69
405.093	100.69
405.317	96.69
405.541	115.69
405.765	89.69
405.988	118.69
406.212	191.69
406.436	297.69
406.66	165.69
406.883	127.69
407.107	97.69
407.331	75.69
407.555	96.69
407.778	98.69
408.002	76.69
408.226	76.69
408.449	80.69
408.673	85.69
408.896	93.69
409.12	106.69
409.344	87.69
409.567	88.69
409.791	76.69
410.014	84.69
410.238	86.69
410.461	99.69
410.685	87.69
410.908	97.69
411.132	108.69
411.355	100.69
411.578	100.69
411.802	79.69
412.025	74.69
412.249	101.69
412.472	98.69
412.695	94.69
412.919	97.69
413.142	89.69
413.365	79.69
413.589	92.69
413.812	92.69
414.035	77.69
414.258	81.69
414.482	90.69
414.705	84.69
414.928	75.69
415.151	90.69
415.374	103.69
415.597	96.69
415.821	97.69
416.044	102.69
416.267	86.69
416.49	72.69
416.713	90.69
416.936	80.69
417.159	90.69
417.382	87.69
417.605	95.69
417.828	98.69
418.051	96.69
418.274	108.69
418.497	79.69
418.72	84.69
418.943	72.69
419.166	84.69
419.389	85.69
419.611	79.69
419.834	80.69
420.057	82.69
420.28	97.69
420.503	97.69
420.726	89.69
420.948	105.69
421.171	96.69
421.394	86.69
421.617	83.69
421.839	86.69
422.062	97.69
422.285	94.69
422.507	101.69
422.73	103.69
422.953	88.69
423.175	87.69
423.398	102.69
423.621	95.69
423.843	91.69
424.066	84.69
424.288	89.69
424.511	95.69
424.733	90.69
424.956	98.69
425.178	94.69
425.401	94.69
425.623	99.69
425.846	89.69
426.068	85.69
426.291	92.69
426.513	84.69
426.735	79.69
426.958	90.69
427.18	99.69
427.402	161.69
427.625	207.69
427.847	161.69
428.069	149.69
428.292	97.69
428.514	75.69
428.736	82.69
428.958	82.69
429.181	69.69
429.403	86.69
429.625	93.69
429.847	92.69
430.069	107.69
430.292	101.69
430.514	93.69
430.736	84.69
430.958	79.69
431.18	67.69
431.402	74.69
431.624	86.69
431.846	77.69
432.068	87.69
432.29	89.69
432.512	72.69
432.734	82.69
432.956	90.69
433.178	109.69
433.4	102.69
433.622	94.69
433.844	98.69
434.066	81.69
434.287	91.69
434.509	80.69
434.731	68.69
434.953	95.69
435.175	80.69
435.397	88.69
435.618	81.69
435.84	102.69
436.062	113.69
436.284	122.69
436.505	83.69
436.727	101.69
436.949	87.69
437.17	91.69
437.392	78.69
437.614	97.69
437.835	105.69
438.057	135.69
438.278	109.69
438.5	107.69
438.721	125.69
438.943	95.69
439.165	81.69
439.386	80.69
439.608	75.69
439.829	112.69
440.05	141.69
440.272	165.69
440.493	101.69
440.715	90.69
440.936	93.69
441.158	91.69
441.379	68.69
441.6	95.69
441.822	100.69
442.043	96.69
442.264	97.69
442.486	111.69
442.707	83.69
442.928	109.69
443.149	156.69
443.371	144.69
443.592	115.69
443.813	116.69
444.034	104.69
444.255	87.69
444.476	81.69
444.698	96.69
444.919	85.69
445.14	146.69
445.361	135.69
445.582	108.69
445.803	150.69
446.024	161.69
446.245	163.69
446.466	129.69
446.687	88.69
446.908	78.69
447.129	73.69
447.35	87.69
447.571	81.69
447.792	94.69
448.013	105.69
448.234	124.69
448.455	92.69
448.675	116.69
448.896	113.69
449.117	95.69
449.338	108.69
449.559	139.69
449.779	139.69
450	112.69
450.221	82.69
450.442	91.69
450.662	87.69
450.883	115.69
451.104	124.69
451.324	101.69
451.545	84.69
451.766	84.69
451.986	93.69
452.207	93.69
452.428	76.69
452.648	109.69
452.869	119.69
453.089	116.69
453.31	130.69
453.53	97.69
453.751	86.69
453.971	106.69
454.192	115.69
454.412	97.69
454.633	94.69
454.853	70.69
455.073	81.69
455.294	88.69
455.514	114.69
455.734	111.69
455.955	91.69
456.175	85.69
456.395	80.69
456.616	71.69
456.836	83.69
457.056	88.69
457.276	85.69
457.497	76.69
457.717	80.69
457.937	72.69
458.157	97.69
458.377	89.69
458.598	113.69
458.818	178.69
459.038	183.69
459.258	127.69
459.478	102.69
459.698	81.69
459.918	92.69
460.138	70.69
460.358	63.69
460.578	64.69
460.798	87.69
461.018	98.69
461.238	99.69
461.458	86.69
461.678	81.69
461.898	89.69
462.118	90.69
462.338	92.69
462.558	88.69
462.777	96.69
462.997	99.69
463.217	80.69
463.437	89.69
463.657	89.69
463.876	84.69
464.096	83.69
464.316	82.69
464.536	92.69
464.755	87.69
464.975	106.69
465.195	184.69
465.414	211.69
465.634	106.69
465.854	92.69
466.073	92.69
466.293	88.69
466.512	76.69
466.732	91.69
466.951	92.69
467.171	95.69
467.391	90.69
467.61	113.69
467.829	133.69
468.049	245.69
468.268	368.69
468.488	149.69
468.707	95.69
468.927	83.69
469.146	84.69
469.365	92.69
469.585	85.69
469.804	92.69
470.023	84.69
470.243	90.69
470.462	104.69
470.681	115.69
470.901	91.69
471.12	86.69
471.339	100.69
471.558	112.69
471.777	102.69
471.997	159.69
472.216	457.69
472.435	996.69
472.654	299.69
472.873	116.69
473.092	93.69
473.311	96.69
473.53	84.69
473.749	97.69
473.968	98.69
474.187	108.69
474.406	100.69
474.625	93.69
474.844	82.69
475.063	90.69
475.282	79.69
475.501	85.69
475.72	90.69
475.939	81.69
476.158	76.69
476.377	89.69
476.596	97.69
476.814	79.69
477.033	110.69
477.252	96.69
477.471	90.69
477.69	96.69
477.908	93.69
478.127	85.69
478.346	102.69
478.564	93.69
478.783	97.69
479.002	106.69
479.22	79.69
479.439	100.69
479.658	105.69
479.876	111.69
480.095	111.69
480.313	101.69
480.532	120.69
480.751	152.69
480.969	426.69
481.188	1615.69
481.406	1064.69
481.624	209.69
481.843	118.69
482.061	83.69
482.28	92.69
482.498	88.69
482.717	91.69
482.935	78.69
483.153	87.69
483.372	81.69
483.59	88.69
483.808	87.69
484.027	106.69
484.245	95.69
484.463	95.69
484.681	84.69
484.9	74.69
485.118	83.69
485.336	81.69
485.554	93.69
485.772	109.69
485.99	96.69
486.209	98.69
486.427	93.69
486.645	136.69
486.863	103.69
487.081	86.69
487.299	99.69
487.517	82.69
487.735	92.69
487.953	85.69
488.171	92.69
488.389	95.69
488.607	99.69
488.825	77.69
489.043	72.69
489.261	74.69
489.479	79.69
489.696	91.69
489.914	91.69
490.132	83.69
490.35	90.69
490.568	100.69
490.786	80.69
491.003	87.69
491.221	85.69
491.439	86.69
491.657	96.69
491.874	95.69
492.092	89.69
492.31	78.69
492.527	100.69
492.745	106.69
492.963	84.69
493.18	98.69
493.398	88.69
493.615	82.69
493.833	84.69
494.05	82.69
494.268	65.69
494.485	94.69
494.703	95.69
494.92	97.69
495.138	95.69
495.355	92.69
495.573	94.69
495.79	80.69
496.008	91.69
496.225	85.69
496.442	87.69
496.66	98.69
496.877	87.69
497.094	91.69
497.312	85.69
497.529	89.69
497.746	71.69
497.963	99.69
498.181	82.69
498.398	107.69
498.615	95.69
498.832	97.69
499.049	100.69
499.267	100.69
499.484	97.69
499.701	81.69
499.918	89.69
500.135	89.69
500.352	101.69
500.569	104.69
500.786	83.69
501.003	94.69
501.22	90.69
501.437	93.69
501.654	82.69
501.871	107.69
502.088	103.69
502.305	85.69
502.522	77.69
502.739	91.69
502.956	86.69
503.172	102.69
503.389	103.69
503.606	112.69
503.823	92.69
504.04	90.69
504.256	69.69
504.473	92.69
504.69	99.69
504.907	95.69
505.123	89.69
505.34	97.69
505.557	84.69
505.773	90.69
505.99	87.69
506.207	103.69
506.423	82.69
506.64	88.69
506.856	83.69
507.073	68.69
507.289	85.69
507.506	92.69
507.722	133.69
507.939	128.69
508.155	101.69
508.372	99.69
508.588	89.69
508.805	83.69
509.021	91.69
509.238	95.69
509.454	100.69
509.67	84.69
509.887	115.69
510.103	153.69
510.319	230.69
510.536	840.69
510.752	2874.69
510.968	821.69
511.184	183.69
511.401	119.69
511.617	114.69
511.833	105.69
512.049	104.69
512.265	98.69
512.481	100.69
512.698	96.69
512.914	98.69
513.13	96.69
513.346	88.69
513.562	92.69
513.778	91.69
513.994	102.69
514.21	106.69
514.426	136.69
514.642	158.69
514.858	134.69
515.074	198.69
