Data from Circ_2013_H10_HRD10591_00048.txt Node
Date: Wed Jan 03 10:04:09 EST 2024
User: Yrep
Spectrometer: HR+D1059
Trigger mode: 1
Integration Time (sec): 1.000000E-1
Scans to average: 1
Electric dark correction enabled: true
Nonlinearity correction enabled: false
Boxcar width: 0
XAxis mode: Wavelengths
Number of Pixels in Spectrum: 2048
>>>>>Begin Spectral Data<<<<<
223.165	-5.94
223.4	-5.94
223.635	-5.94
223.869	-18.94
224.104	-13.94
224.338	-18.94
224.573	-18.94
224.808	-11.94
225.042	6.06
225.277	-10.94
225.511	-3.94
225.746	15.06
225.98	-2.94
226.215	2.06
226.449	20.06
226.683	11.06
226.918	24.06
227.152	28.06
227.387	38.06
227.621	42.06
227.856	45.06
228.09	50.06
228.324	62.06
228.559	47.06
228.793	43.06
229.027	65.06
229.262	70.06
229.496	82.06
229.73	86.06
229.964	95.06
230.199	83.06
230.433	76.06
230.667	73.06
230.901	84.06
231.136	84.06
231.37	74.06
231.604	80.06
231.838	88.06
232.072	91.06
232.306	74.06
232.541	74.06
232.775	73.06
233.009	55.06
233.243	74.06
233.477	69.06
233.711	68.06
233.945	76.06
234.179	77.06
234.413	82.06
234.647	88.06
234.881	74.06
235.115	85.06
235.349	80.06
235.583	73.06
235.817	85.06
236.051	88.06
236.285	71.06
236.519	71.06
236.753	86.06
236.987	73.06
237.221	85.06
237.455	78.06
237.689	94.06
237.922	77.06
238.156	80.06
238.39	77.06
238.624	86.06
238.858	83.06
239.091	75.06
239.325	72.06
239.559	81.06
239.793	56.06
240.027	91.06
240.26	73.06
240.494	81.06
240.728	75.06
240.961	80.06
241.195	77.06
241.429	86.06
241.662	82.06
241.896	78.06
242.13	82.06
242.363	75.06
242.597	73.06
242.83	61.06
243.064	90.06
243.298	90.06
243.531	77.06
243.765	92.06
243.998	78.06
244.232	83.06
244.465	96.06
244.699	96.06
244.932	73.06
245.166	78.06
245.399	74.06
245.633	82.06
245.866	76.06
246.099	72.06
246.333	86.06
246.566	71.06
246.8	89.06
247.033	74.06
247.266	77.06
247.5	93.06
247.733	84.06
247.966	79.06
248.2	73.06
248.433	80.06
248.666	82.06
248.899	81.06
249.133	90.06
249.366	106.06
249.599	101.06
249.832	82.06
250.066	81.06
250.299	86.06
250.532	83.06
250.765	81.06
250.998	81.06
251.231	80.06
251.465	74.06
251.698	95.06
251.931	94.06
252.164	86.06
252.397	82.06
252.63	69.06
252.863	84.06
253.096	80.06
253.329	77.06
253.562	90.06
253.795	88.06
254.028	85.06
254.261	77.06
254.494	77.06
254.727	83.06
254.96	85.06
255.193	76.06
255.426	79.06
255.659	92.06
255.892	92.06
256.124	87.06
256.357	76.06
256.59	81.06
256.823	80.06
257.056	91.06
257.289	87.06
257.521	85.06
257.754	78.06
257.987	86.06
258.22	92.06
258.452	78.06
258.685	98.06
258.918	91.06
259.151	91.06
259.383	85.06
259.616	81.06
259.849	75.06
260.081	83.06
260.314	84.06
260.547	85.06
260.779	82.06
261.012	95.06
261.244	105.06
261.477	100.06
261.71	89.06
261.942	107.06
262.175	138.06
262.407	101.06
262.64	94.06
262.872	85.06
263.105	93.06
263.337	90.06
263.57	86.06
263.802	70.06
264.035	73.06
264.267	69.06
264.499	85.06
264.732	73.06
264.964	80.06
265.197	71.06
265.429	92.06
265.661	94.06
265.894	86.06
266.126	68.06
266.358	76.06
266.591	80.06
266.823	88.06
267.055	92.06
267.287	79.06
267.52	80.06
267.752	76.06
267.984	88.06
268.216	85.06
268.448	86.06
268.681	90.06
268.913	83.06
269.145	89.06
269.377	91.06
269.609	73.06
269.841	81.06
270.073	91.06
270.306	88.06
270.538	87.06
270.77	91.06
271.002	90.06
271.234	90.06
271.466	100.06
271.698	72.06
271.93	91.06
272.162	92.06
272.394	92.06
272.626	87.06
272.858	78.06
273.09	84.06
273.322	76.06
273.553	77.06
273.785	87.06
274.017	72.06
274.249	81.06
274.481	83.06
274.713	91.06
274.945	95.06
275.176	89.06
275.408	105.06
275.64	96.06
275.872	94.06
276.104	105.06
276.335	83.06
276.567	108.06
276.799	148.06
277.031	145.06
277.262	157.06
277.494	118.06
277.726	97.06
277.957	91.06
278.189	107.06
278.421	81.06
278.652	85.06
278.884	95.06
279.115	94.06
279.347	100.06
279.579	105.06
279.81	115.06
280.042	150.06
280.273	197.06
280.505	153.06
280.736	89.06
280.968	91.06
281.199	94.06
281.431	92.06
281.662	79.06
281.894	99.06
282.125	101.06
282.356	130.06
282.588	161.06
282.819	127.06
283.051	99.06
283.282	90.06
283.513	83.06
283.745	85.06
283.976	95.06
284.207	95.06
284.439	82.06
284.67	77.06
284.901	86.06
285.132	86.06
285.364	86.06
285.595	88.06
285.826	97.06
286.057	71.06
286.288	87.06
286.52	90.06
286.751	94.06
286.982	79.06
287.213	90.06
287.444	94.06
287.675	76.06
287.906	101.06
288.138	95.06
288.369	87.06
288.6	87.06
288.831	86.06
289.062	97.06
289.293	87.06
289.524	81.06
289.755	91.06
289.986	88.06
290.217	97.06
290.448	86.06
290.679	95.06
290.91	98.06
291.141	86.06
291.371	94.06
291.602	78.06
291.833	85.06
292.064	94.06
292.295	84.06
292.526	78.06
292.757	93.06
292.987	93.06
293.218	79.06
293.449	88.06
293.68	90.06
293.91	88.06
294.141	91.06
294.372	90.06
294.603	88.06
294.833	88.06
295.064	92.06
295.295	78.06
295.525	90.06
295.756	102.06
295.987	109.06
296.217	148.06
296.448	143.06
296.679	96.06
296.909	105.06
297.14	97.06
297.37	80.06
297.601	108.06
297.831	103.06
298.062	90.06
298.292	111.06
298.523	101.06
298.753	91.06
298.984	84.06
299.214	99.06
299.445	88.06
299.675	94.06
299.905	91.06
300.136	100.06
300.366	92.06
300.597	103.06
300.827	100.06
301.057	99.06
301.288	108.06
301.518	99.06
301.748	76.06
301.979	98.06
302.209	99.06
302.439	100.06
302.669	92.06
302.9	93.06
303.13	92.06
303.36	94.06
303.59	141.06
303.82	139.06
304.051	107.06
304.281	92.06
304.511	84.06
304.741	80.06
304.971	94.06
305.201	86.06
305.431	84.06
305.661	94.06
305.891	85.06
306.121	97.06
306.352	97.06
306.582	117.06
306.812	107.06
307.042	109.06
307.272	120.06
307.502	129.06
307.731	140.06
307.961	121.06
308.191	103.06
308.421	90.06
308.651	94.06
308.881	95.06
309.111	86.06
309.341	107.06
309.571	92.06
309.8	94.06
310.03	96.06
310.26	101.06
310.49	108.06
310.72	105.06
310.949	102.06
311.179	116.06
311.409	88.06
311.639	104.06
311.868	97.06
312.098	109.06
312.328	95.06
312.557	108.06
312.787	108.06
313.017	109.06
313.246	119.06
313.476	89.06
313.706	107.06
313.935	99.06
314.165	95.06
314.394	110.06
314.624	103.06
314.853	111.06
315.083	98.06
315.312	88.06
315.542	102.06
315.771	79.06
316.001	90.06
316.23	88.06
316.46	90.06
316.689	100.06
316.919	93.06
317.148	80.06
317.377	91.06
317.607	91.06
317.836	89.06
318.065	99.06
318.295	103.06
318.524	96.06
318.753	88.06
318.983	94.06
319.212	117.06
319.441	116.06
319.67	101.06
319.9	110.06
320.129	96.06
320.358	91.06
320.587	99.06
320.816	114.06
321.046	105.06
321.275	103.06
321.504	100.06
321.733	95.06
321.962	101.06
322.191	100.06
322.42	119.06
322.649	142.06
322.878	120.06
323.108	122.06
323.337	152.06
323.566	170.06
323.795	171.06
324.024	237.06
324.253	462.06
324.482	967.06
324.71	1975.06
324.939	2594.06
325.168	994.06
325.397	285.06
325.626	167.06
325.855	142.06
326.084	135.06
326.313	140.06
326.542	166.06
326.77	262.06
326.999	518.06
327.228	1037.06
327.457	1894.06
327.686	1464.06
327.914	482.06
328.143	421.06
328.372	457.06
328.6	276.06
328.829	172.06
329.058	166.06
329.287	199.06
329.515	170.06
329.744	196.06
329.972	339.06
330.201	623.06
330.43	920.06
330.658	466.06
330.887	271.06
331.115	175.06
331.344	132.06
331.572	117.06
331.801	114.06
332.03	131.06
332.258	105.06
332.486	117.06
332.715	100.06
332.943	100.06
333.172	110.06
333.4	125.06
333.629	137.06
333.857	192.06
334.085	306.06
334.314	558.06
334.542	1102.06
334.771	1080.06
334.999	295.06
335.227	140.06
335.455	98.06
335.684	118.06
335.912	88.06
336.14	102.06
336.369	96.06
336.597	111.06
336.825	118.06
337.053	89.06
337.281	98.06
337.51	98.06
337.738	84.06
337.966	93.06
338.194	109.06
338.422	113.06
338.65	90.06
338.878	102.06
339.106	88.06
339.334	102.06
339.562	107.06
339.79	86.06
340.018	85.06
340.246	90.06
340.474	92.06
340.702	98.06
340.93	94.06
341.158	89.06
341.386	99.06
341.614	106.06
341.842	102.06
342.07	97.06
342.298	83.06
342.526	85.06
342.754	97.06
342.981	92.06
343.209	95.06
343.437	90.06
343.665	84.06
343.893	97.06
344.12	94.06
344.348	86.06
344.576	87.06
344.804	99.06
345.031	93.06
345.259	105.06
345.487	102.06
345.714	101.06
345.942	98.06
346.17	102.06
346.397	99.06
346.625	98.06
346.853	94.06
347.08	106.06
347.308	99.06
347.535	107.06
347.763	114.06
347.99	103.06
348.218	108.06
348.445	123.06
348.673	109.06
348.9	96.06
349.128	100.06
349.355	98.06
349.583	98.06
349.81	94.06
350.037	106.06
350.265	94.06
350.492	99.06
350.72	89.06
350.947	104.06
351.174	106.06
351.402	120.06
351.629	122.06
351.856	105.06
352.083	114.06
352.311	118.06
352.538	142.06
352.765	119.06
352.992	122.06
353.22	123.06
353.447	108.06
353.674	91.06
353.901	93.06
354.128	99.06
354.355	106.06
354.583	90.06
354.81	98.06
355.037	92.06
355.264	88.06
355.491	112.06
355.718	81.06
355.945	88.06
356.172	97.06
356.399	92.06
356.626	88.06
356.853	93.06
357.08	93.06
357.307	96.06
357.534	78.06
357.761	98.06
357.988	97.06
358.215	88.06
358.441	100.06
358.668	90.06
358.895	88.06
359.122	84.06
359.349	96.06
359.576	90.06
359.802	108.06
360.029	150.06
360.256	143.06
360.483	127.06
360.709	85.06
360.936	89.06
361.163	103.06
361.39	107.06
361.616	101.06
361.843	107.06
362.07	111.06
362.296	104.06
362.523	89.06
362.749	85.06
362.976	93.06
363.203	100.06
363.429	92.06
363.656	92.06
363.882	92.06
364.109	86.06
364.335	90.06
364.562	90.06
364.788	79.06
365.015	75.06
365.241	108.06
365.468	105.06
365.694	132.06
365.92	93.06
366.147	94.06
366.373	95.06
366.599	101.06
366.826	87.06
367.052	80.06
367.278	103.06
367.505	85.06
367.731	100.06
367.957	102.06
368.184	103.06
368.41	110.06
368.636	132.06
368.862	144.06
369.089	106.06
369.315	101.06
369.541	99.06
369.767	107.06
369.993	90.06
370.219	78.06
370.445	88.06
370.672	83.06
370.898	101.06
371.124	94.06
371.35	87.06
371.576	95.06
371.802	93.06
372.028	86.06
372.254	78.06
372.48	87.06
372.706	73.06
372.932	86.06
373.158	104.06
373.384	77.06
373.61	98.06
373.835	84.06
374.061	90.06
374.287	100.06
374.513	81.06
374.739	87.06
374.965	95.06
375.191	85.06
375.416	106.06
375.642	98.06
375.868	84.06
376.094	93.06
376.319	100.06
376.545	107.06
376.771	95.06
376.997	96.06
377.222	92.06
377.448	81.06
377.674	75.06
377.899	89.06
378.125	88.06
378.35	103.06
378.576	86.06
378.802	87.06
379.027	99.06
379.253	87.06
379.478	81.06
379.704	88.06
379.929	111.06
380.155	95.06
380.38	83.06
380.606	86.06
380.831	107.06
381.057	102.06
381.282	103.06
381.507	95.06
381.733	94.06
381.958	88.06
382.184	95.06
382.409	103.06
382.634	103.06
382.86	104.06
383.085	95.06
383.31	96.06
383.535	104.06
383.761	95.06
383.986	93.06
384.211	91.06
384.436	94.06
384.662	105.06
384.887	110.06
385.112	103.06
385.337	107.06
385.562	108.06
385.787	99.06
386.013	99.06
386.238	108.06
386.463	99.06
386.688	104.06
386.913	102.06
387.138	89.06
387.363	91.06
387.588	95.06
387.813	99.06
388.038	109.06
388.263	101.06
388.488	119.06
388.713	100.06
388.938	92.06
389.163	111.06
389.387	96.06
389.612	78.06
389.837	98.06
390.062	94.06
390.287	79.06
390.512	94.06
390.736	88.06
390.961	99.06
391.186	93.06
391.411	99.06
391.636	88.06
391.86	91.06
392.085	86.06
392.31	90.06
392.534	75.06
392.759	84.06
392.984	79.06
393.208	84.06
393.433	103.06
393.658	94.06
393.882	88.06
394.107	72.06
394.331	80.06
394.556	95.06
394.78	107.06
395.005	79.06
395.229	105.06
395.454	80.06
395.678	92.06
395.903	87.06
396.127	83.06
396.352	76.06
396.576	92.06
396.801	81.06
397.025	100.06
397.249	92.06
397.474	90.06
397.698	89.06
397.922	89.06
398.147	103.06
398.371	86.06
398.595	88.06
398.82	94.06
399.044	93.06
399.268	76.06
399.492	70.06
399.717	90.06
399.941	95.06
400.165	96.06
400.389	111.06
400.613	97.06
400.837	92.06
401.062	89.06
401.286	91.06
401.51	91.06
401.734	83.06
401.958	108.06
402.182	139.06
402.406	219.06
402.63	167.06
402.854	106.06
403.078	96.06
403.302	87.06
403.526	91.06
403.75	96.06
403.974	85.06
404.198	79.06
404.422	83.06
404.645	80.06
404.869	99.06
405.093	110.06
405.317	131.06
405.541	128.06
405.765	110.06
405.988	141.06
406.212	218.06
406.436	322.06
406.66	208.06
406.883	118.06
407.107	101.06
407.331	100.06
407.555	117.06
407.778	111.06
408.002	105.06
408.226	104.06
408.449	93.06
408.673	86.06
408.896	91.06
409.12	82.06
409.344	93.06
409.567	87.06
409.791	86.06
410.014	96.06
410.238	89.06
410.461	84.06
410.685	93.06
410.908	105.06
411.132	102.06
411.355	99.06
411.578	104.06
411.802	99.06
412.025	72.06
412.249	104.06
412.472	105.06
412.695	112.06
412.919	117.06
413.142	105.06
413.365	99.06
413.589	89.06
413.812	93.06
414.035	79.06
414.258	93.06
414.482	85.06
414.705	72.06
414.928	106.06
415.151	90.06
415.374	94.06
415.597	79.06
415.821	95.06
416.044	100.06
416.267	89.06
416.49	76.06
416.713	88.06
416.936	83.06
417.159	87.06
417.382	91.06
417.605	90.06
417.828	99.06
418.051	100.06
418.274	97.06
418.497	90.06
418.72	93.06
418.943	83.06
419.166	86.06
419.389	87.06
419.611	94.06
419.834	97.06
420.057	88.06
420.28	84.06
420.503	89.06
420.726	78.06
420.948	98.06
421.171	95.06
421.394	97.06
421.617	95.06
421.839	83.06
422.062	100.06
422.285	85.06
422.507	100.06
422.73	112.06
422.953	91.06
423.175	95.06
423.398	103.06
423.621	94.06
423.843	82.06
424.066	77.06
424.288	90.06
424.511	91.06
424.733	114.06
424.956	111.06
425.178	115.06
425.401	97.06
425.623	110.06
425.846	97.06
426.068	102.06
426.291	94.06
426.513	105.06
426.735	93.06
426.958	92.06
427.18	106.06
427.402	166.06
427.625	243.06
427.847	205.06
428.069	180.06
428.292	119.06
428.514	98.06
428.736	96.06
428.958	92.06
429.181	91.06
429.403	103.06
429.625	95.06
429.847	101.06
430.069	124.06
430.292	97.06
430.514	94.06
430.736	90.06
430.958	99.06
431.18	82.06
431.402	93.06
431.624	94.06
431.846	91.06
432.068	86.06
432.29	94.06
432.512	93.06
432.734	91.06
432.956	88.06
433.178	92.06
433.4	101.06
433.622	88.06
433.844	94.06
434.066	103.06
434.287	95.06
434.509	90.06
434.731	98.06
434.953	85.06
435.175	97.06
435.397	93.06
435.618	94.06
435.84	105.06
436.062	134.06
436.284	119.06
436.505	96.06
436.727	107.06
436.949	86.06
437.17	89.06
437.392	90.06
437.614	107.06
437.835	127.06
438.057	157.06
438.278	138.06
438.5	123.06
438.721	126.06
438.943	106.06
439.165	88.06
439.386	89.06
439.608	94.06
439.829	99.06
440.05	143.06
440.272	175.06
440.493	104.06
440.715	100.06
440.936	96.06
441.158	91.06
441.379	90.06
441.6	101.06
441.822	109.06
442.043	102.06
442.264	114.06
442.486	96.06
442.707	99.06
442.928	117.06
443.149	158.06
443.371	190.06
443.592	152.06
443.813	124.06
444.034	117.06
444.255	96.06
444.476	87.06
444.698	98.06
444.919	93.06
445.14	135.06
445.361	130.06
445.582	136.06
445.803	174.06
446.024	159.06
446.245	161.06
446.466	131.06
446.687	108.06
446.908	90.06
447.129	104.06
447.35	94.06
447.571	92.06
447.792	90.06
448.013	106.06
448.234	130.06
448.455	102.06
448.675	137.06
448.896	124.06
449.117	103.06
449.338	117.06
449.559	154.06
449.779	143.06
450	107.06
450.221	98.06
450.442	98.06
450.662	109.06
450.883	125.06
451.104	121.06
451.324	109.06
451.545	100.06
451.766	92.06
451.986	102.06
452.207	90.06
452.428	73.06
452.648	122.06
452.869	120.06
453.089	138.06
453.31	145.06
453.53	90.06
453.751	90.06
453.971	116.06
454.192	142.06
454.412	108.06
454.633	91.06
454.853	101.06
455.073	94.06
455.294	99.06
455.514	101.06
455.734	99.06
455.955	85.06
456.175	89.06
456.395	92.06
456.616	88.06
456.836	80.06
457.056	89.06
457.276	82.06
457.497	83.06
457.717	83.06
457.937	93.06
458.157	82.06
458.377	101.06
458.598	126.06
458.818	216.06
459.038	243.06
459.258	150.06
459.478	99.06
459.698	91.06
459.918	82.06
460.138	90.06
460.358	78.06
460.578	89.06
460.798	98.06
461.018	87.06
461.238	96.06
461.458	82.06
461.678	84.06
461.898	101.06
462.118	79.06
462.338	86.06
462.558	87.06
462.777	87.06
462.997	93.06
463.217	99.06
463.437	95.06
463.657	88.06
463.876	83.06
464.096	90.06
464.316	100.06
464.536	100.06
464.755	106.06
464.975	136.06
465.195	234.06
465.414	228.06
465.634	95.06
465.854	85.06
466.073	88.06
466.293	91.06
466.512	97.06
466.732	90.06
466.951	78.06
467.171	98.06
467.391	103.06
467.61	134.06
467.829	179.06
468.049	356.06
468.268	511.06
468.488	172.06
468.707	101.06
468.927	108.06
469.146	94.06
469.365	102.06
469.585	105.06
469.804	95.06
470.023	111.06
470.243	99.06
470.462	115.06
470.681	139.06
470.901	99.06
471.12	100.06
471.339	105.06
471.558	103.06
471.777	141.06
471.997	214.06
472.216	654.06
472.435	1556.06
472.654	420.06
472.873	123.06
473.092	96.06
473.311	89.06
473.53	83.06
473.749	86.06
473.968	107.06
474.187	115.06
474.406	108.06
474.625	92.06
474.844	97.06
475.063	90.06
475.282	96.06
475.501	106.06
475.72	89.06
475.939	104.06
476.158	91.06
476.377	86.06
476.596	81.06
476.814	80.06
477.033	99.06
477.252	98.06
477.471	77.06
477.69	95.06
477.908	108.06
478.127	102.06
478.346	95.06
478.564	87.06
478.783	96.06
479.002	110.06
479.22	95.06
479.439	133.06
479.658	129.06
479.876	105.06
480.095	122.06
480.313	120.06
480.532	137.06
480.751	202.06
480.969	616.06
481.188	2542.06
481.406	1627.06
481.624	265.06
481.843	106.06
482.061	107.06
482.28	103.06
482.498	95.06
482.717	102.06
482.935	97.06
483.153	97.06
483.372	98.06
483.59	89.06
483.808	85.06
484.027	88.06
484.245	100.06
484.463	92.06
484.681	79.06
484.9	103.06
485.118	95.06
485.336	89.06
485.554	107.06
485.772	101.06
485.99	90.06
486.209	107.06
486.427	111.06
486.645	115.06
486.863	110.06
487.081	101.06
487.299	96.06
487.517	92.06
487.735	100.06
487.953	85.06
488.171	103.06
488.389	89.06
488.607	93.06
488.825	96.06
489.043	92.06
489.261	94.06
489.479	84.06
489.696	95.06
489.914	88.06
490.132	81.06
490.35	92.06
490.568	85.06
490.786	103.06
491.003	90.06
491.221	94.06
491.439	93.06
491.657	103.06
491.874	90.06
492.092	93.06
492.31	100.06
492.527	88.06
492.745	98.06
492.963	90.06
493.18	106.06
493.398	102.06
493.615	92.06
493.833	95.06
494.05	88.06
494.268	98.06
494.485	104.06
494.703	79.06
494.92	95.06
495.138	79.06
495.355	99.06
495.573	85.06
495.79	89.06
496.008	85.06
496.225	99.06
496.442	91.06
496.66	90.06
496.877	88.06
497.094	109.06
497.312	92.06
497.529	87.06
497.746	78.06
497.963	94.06
498.181	99.06
498.398	104.06
498.615	104.06
498.832	113.06
499.049	115.06
499.267	94.06
499.484	94.06
499.701	102.06
499.918	91.06
500.135	82.06
500.352	100.06
500.569	85.06
500.786	103.06
501.003	91.06
501.22	95.06
501.437	99.06
501.654	106.06
501.871	126.06
502.088	99.06
502.305	105.06
502.522	79.06
502.739	89.06
502.956	99.06
503.172	97.06
503.389	101.06
503.606	119.06
503.823	105.06
504.04	90.06
504.256	86.06
504.473	98.06
504.69	88.06
504.907	95.06
505.123	91.06
505.34	80.06
505.557	100.06
505.773	93.06
505.99	102.06
506.207	83.06
506.423	100.06
506.64	88.06
506.856	92.06
507.073	88.06
507.289	105.06
507.506	103.06
507.722	130.06
507.939	127.06
508.155	114.06
508.372	98.06
508.588	93.06
508.805	108.06
509.021	89.06
509.238	90.06
509.454	91.06
509.67	113.06
509.887	121.06
510.103	148.06
510.319	243.06
510.536	972.06
510.752	3358.06
510.968	930.06
511.184	198.06
511.401	132.06
511.617	114.06
511.833	122.06
512.049	99.06
512.265	102.06
512.481	103.06
512.698	98.06
512.914	103.06
513.13	95.06
513.346	102.06
