Data from Circ_2013_H10_HRD10591_00015.txt Node
Date: Wed Jan 03 10:04:03 EST 2024
User: Yrep
Spectrometer: HR+D1059
Trigger mode: 1
Integration Time (sec): 1.000000E-1
Scans to average: 1
Electric dark correction enabled: true
Nonlinearity correction enabled: false
Boxcar width: 0
XAxis mode: Wavelengths
Number of Pixels in Spectrum: 2048
>>>>>Begin Spectral Data<<<<<
223.165	-22.12
223.4	-22.12
223.635	-22.12
223.869	-15.12
224.104	-23.12
224.338	-24.12
224.573	-26.12
224.808	-16.12
225.042	-7.12
225.277	2.88
225.511	-6.12
225.746	-7.12
225.98	11.88
226.215	22.88
226.449	18.88
226.683	25.88
226.918	29.88
227.152	34.88
227.387	29.88
227.621	43.88
227.856	35.88
228.09	40.88
228.324	54.88
228.559	60.88
228.793	52.88
229.027	65.88
229.262	70.88
229.496	77.88
229.73	83.88
229.964	91.88
230.199	66.88
230.433	85.88
230.667	88.88
230.901	70.88
231.136	76.88
231.37	75.88
231.604	75.88
231.838	89.88
232.072	83.88
232.306	65.88
232.541	92.88
232.775	89.88
233.009	71.88
233.243	84.88
233.477	85.88
233.711	75.88
233.945	85.88
234.179	77.88
234.413	93.88
234.647	66.88
234.881	73.88
235.115	63.88
235.349	68.88
235.583	76.88
235.817	89.88
236.051	71.88
236.285	80.88
236.519	69.88
236.753	75.88
236.987	88.88
237.221	91.88
237.455	106.88
237.689	78.88
237.922	90.88
238.156	73.88
238.39	70.88
238.624	88.88
238.858	79.88
239.091	89.88
239.325	86.88
239.559	70.88
239.793	90.88
240.027	87.88
240.26	68.88
240.494	78.88
240.728	90.88
240.961	69.88
241.195	78.88
241.429	68.88
241.662	77.88
241.896	75.88
242.13	71.88
242.363	73.88
242.597	83.88
242.83	92.88
243.064	86.88
243.298	86.88
243.531	74.88
243.765	76.88
243.998	86.88
244.232	85.88
244.465	72.88
244.699	89.88
244.932	72.88
245.166	72.88
245.399	77.88
245.633	79.88
245.866	87.88
246.099	73.88
246.333	88.88
246.566	82.88
246.8	78.88
247.033	92.88
247.266	84.88
247.5	73.88
247.733	84.88
247.966	72.88
248.2	74.88
248.433	75.88
248.666	85.88
248.899	76.88
249.133	91.88
249.366	99.88
249.599	96.88
249.832	96.88
250.066	80.88
250.299	94.88
250.532	93.88
250.765	83.88
250.998	85.88
251.231	81.88
251.465	94.88
251.698	80.88
251.931	82.88
252.164	76.88
252.397	81.88
252.63	81.88
252.863	83.88
253.096	76.88
253.329	89.88
253.562	83.88
253.795	81.88
254.028	72.88
254.261	91.88
254.494	77.88
254.727	69.88
254.96	80.88
255.193	87.88
255.426	80.88
255.659	93.88
255.892	91.88
256.124	78.88
256.357	89.88
256.59	84.88
256.823	88.88
257.056	92.88
257.289	71.88
257.521	85.88
257.754	77.88
257.987	75.88
258.22	77.88
258.452	94.88
258.685	85.88
258.918	93.88
259.151	95.88
259.383	87.88
259.616	67.88
259.849	84.88
260.081	83.88
260.314	79.88
260.547	86.88
260.779	67.88
261.012	82.88
261.244	94.88
261.477	99.88
261.71	98.88
261.942	121.88
262.175	118.88
262.407	91.88
262.64	88.88
262.872	66.88
263.105	103.88
263.337	79.88
263.57	87.88
263.802	66.88
264.035	80.88
264.267	67.88
264.499	80.88
264.732	73.88
264.964	78.88
265.197	96.88
265.429	71.88
265.661	84.88
265.894	95.88
266.126	89.88
266.358	90.88
266.591	92.88
266.823	85.88
267.055	82.88
267.287	84.88
267.52	83.88
267.752	100.88
267.984	79.88
268.216	82.88
268.448	88.88
268.681	73.88
268.913	78.88
269.145	84.88
269.377	69.88
269.609	72.88
269.841	94.88
270.073	86.88
270.306	61.88
270.538	78.88
270.77	90.88
271.002	86.88
271.234	88.88
271.466	76.88
271.698	83.88
271.93	86.88
272.162	78.88
272.394	100.88
272.626	91.88
272.858	95.88
273.09	90.88
273.322	88.88
273.553	94.88
273.785	76.88
274.017	91.88
274.249	88.88
274.481	90.88
274.713	80.88
274.945	90.88
275.176	80.88
275.408	81.88
275.64	81.88
275.872	83.88
276.104	91.88
276.335	98.88
276.567	119.88
276.799	107.88
277.031	116.88
277.262	125.88
277.494	93.88
277.726	90.88
277.957	84.88
278.189	92.88
278.421	83.88
278.652	99.88
278.884	73.88
279.115	101.88
279.347	87.88
279.579	94.88
279.81	103.88
280.042	118.88
280.273	139.88
280.505	118.88
280.736	94.88
280.968	87.88
281.199	75.88
281.431	95.88
281.662	85.88
281.894	93.88
282.125	92.88
282.356	109.88
282.588	135.88
282.819	122.88
283.051	116.88
283.282	73.88
283.513	78.88
283.745	97.88
283.976	87.88
284.207	83.88
284.439	88.88
284.67	95.88
284.901	91.88
285.132	77.88
285.364	94.88
285.595	86.88
285.826	89.88
286.057	74.88
286.288	63.88
286.52	102.88
286.751	92.88
286.982	85.88
287.213	76.88
287.444	85.88
287.675	88.88
287.906	92.88
288.138	109.88
288.369	85.88
288.6	103.88
288.831	80.88
289.062	87.88
289.293	91.88
289.524	88.88
289.755	79.88
289.986	93.88
290.217	94.88
290.448	89.88
290.679	88.88
290.91	83.88
291.141	92.88
291.371	83.88
291.602	79.88
291.833	78.88
292.064	78.88
292.295	81.88
292.526	93.88
292.757	90.88
292.987	97.88
293.218	83.88
293.449	92.88
293.68	82.88
293.91	90.88
294.141	89.88
294.372	91.88
294.603	81.88
294.833	84.88
295.064	85.88
295.295	99.88
295.525	87.88
295.756	105.88
295.987	126.88
296.217	148.88
296.448	127.88
296.679	103.88
296.909	107.88
297.14	73.88
297.37	98.88
297.601	76.88
297.831	79.88
298.062	89.88
298.292	79.88
298.523	95.88
298.753	89.88
298.984	82.88
299.214	104.88
299.445	87.88
299.675	96.88
299.905	84.88
300.136	91.88
300.366	92.88
300.597	90.88
300.827	97.88
301.057	104.88
301.288	115.88
301.518	99.88
301.748	99.88
301.979	87.88
302.209	82.88
302.439	99.88
302.669	103.88
302.9	93.88
303.13	97.88
303.36	107.88
303.59	108.88
303.82	109.88
304.051	94.88
304.281	94.88
304.511	83.88
304.741	85.88
304.971	92.88
305.201	104.88
305.431	76.88
305.661	94.88
305.891	87.88
306.121	87.88
306.352	92.88
306.582	93.88
306.812	91.88
307.042	89.88
307.272	101.88
307.502	97.88
307.731	105.88
307.961	100.88
308.191	100.88
308.421	86.88
308.651	98.88
308.881	94.88
309.111	91.88
309.341	107.88
309.571	82.88
309.8	99.88
310.03	96.88
310.26	86.88
310.49	99.88
310.72	98.88
310.949	103.88
311.179	92.88
311.409	97.88
311.639	91.88
311.868	109.88
312.098	92.88
312.328	106.88
312.557	119.88
312.787	111.88
313.017	95.88
313.246	98.88
313.476	70.88
313.706	99.88
313.935	95.88
314.165	102.88
314.394	99.88
314.624	107.88
314.853	97.88
315.083	98.88
315.312	90.88
315.542	91.88
315.771	99.88
316.001	103.88
316.23	93.88
316.46	104.88
316.689	102.88
316.919	99.88
317.148	97.88
317.377	84.88
317.607	94.88
317.836	86.88
318.065	95.88
318.295	98.88
318.524	92.88
318.753	97.88
318.983	113.88
319.212	105.88
319.441	103.88
319.67	114.88
319.9	98.88
320.129	93.88
320.358	82.88
320.587	85.88
320.816	99.88
321.046	103.88
321.275	100.88
321.504	92.88
321.733	78.88
321.962	91.88
322.191	107.88
322.42	115.88
322.649	122.88
322.878	125.88
323.108	115.88
323.337	125.88
323.566	144.88
323.795	163.88
324.024	208.88
324.253	437.88
324.482	948.88
324.71	2030.88
324.939	2699.88
325.168	993.88
325.397	279.88
325.626	166.88
325.855	138.88
326.084	137.88
326.313	141.88
326.542	163.88
326.77	247.88
326.999	532.88
327.228	1093.88
327.457	2012.88
327.686	1624.88
327.914	448.88
328.143	295.88
328.372	318.88
328.6	202.88
328.829	142.88
329.058	169.88
329.287	156.88
329.515	132.88
329.744	151.88
329.972	210.88
330.201	351.88
330.43	512.88
330.658	306.88
330.887	199.88
331.115	146.88
331.344	96.88
331.572	108.88
331.801	122.88
332.03	108.88
332.258	114.88
332.486	87.88
332.715	85.88
332.943	108.88
333.172	111.88
333.4	105.88
333.629	129.88
333.857	147.88
334.085	207.88
334.314	347.88
334.542	596.88
334.771	636.88
334.999	212.88
335.227	136.88
335.455	103.88
335.684	118.88
335.912	91.88
336.14	107.88
336.369	99.88
336.597	106.88
336.825	101.88
337.053	95.88
337.281	90.88
337.51	111.88
337.738	94.88
337.966	96.88
338.194	108.88
338.422	100.88
338.65	98.88
338.878	97.88
339.106	94.88
339.334	87.88
339.562	92.88
339.79	92.88
340.018	89.88
340.246	97.88
340.474	91.88
340.702	93.88
340.93	91.88
341.158	88.88
341.386	107.88
341.614	101.88
341.842	90.88
342.07	86.88
342.298	94.88
342.526	96.88
342.754	98.88
342.981	82.88
343.209	87.88
343.437	93.88
343.665	98.88
343.893	94.88
344.12	83.88
344.348	101.88
344.576	96.88
344.804	87.88
345.031	93.88
345.259	98.88
345.487	104.88
345.714	98.88
345.942	91.88
346.17	106.88
346.397	93.88
346.625	101.88
346.853	99.88
347.08	87.88
347.308	99.88
347.535	115.88
347.763	120.88
347.99	93.88
348.218	100.88
348.445	109.88
348.673	104.88
348.9	102.88
349.128	99.88
349.355	103.88
349.583	93.88
349.81	100.88
350.037	102.88
350.265	92.88
350.492	95.88
350.72	103.88
350.947	105.88
351.174	118.88
351.402	107.88
351.629	103.88
351.856	105.88
352.083	104.88
352.311	118.88
352.538	114.88
352.765	118.88
352.992	101.88
353.22	112.88
353.447	111.88
353.674	114.88
353.901	100.88
354.128	100.88
354.355	94.88
354.583	104.88
354.81	106.88
355.037	89.88
355.264	85.88
355.491	90.88
355.718	92.88
355.945	104.88
356.172	109.88
356.399	90.88
356.626	81.88
356.853	83.88
357.08	101.88
357.307	84.88
357.534	90.88
357.761	97.88
357.988	95.88
358.215	102.88
358.441	92.88
358.668	101.88
358.895	100.88
359.122	102.88
359.349	101.88
359.576	99.88
359.802	106.88
360.029	134.88
360.256	132.88
360.483	116.88
360.709	93.88
360.936	97.88
361.163	92.88
361.39	97.88
361.616	100.88
361.843	98.88
362.07	92.88
362.296	90.88
362.523	96.88
362.749	107.88
362.976	98.88
363.203	94.88
363.429	83.88
363.656	95.88
363.882	96.88
364.109	99.88
364.335	100.88
364.562	81.88
364.788	71.88
365.015	103.88
365.241	105.88
365.468	108.88
365.694	88.88
365.92	90.88
366.147	99.88
366.373	97.88
366.599	85.88
366.826	87.88
367.052	92.88
367.278	80.88
367.505	93.88
367.731	91.88
367.957	101.88
368.184	96.88
368.41	118.88
368.636	124.88
368.862	126.88
369.089	91.88
369.315	105.88
369.541	111.88
369.767	92.88
369.993	89.88
370.219	99.88
370.445	73.88
370.672	90.88
370.898	91.88
371.124	79.88
371.35	83.88
371.576	85.88
371.802	77.88
372.028	93.88
372.254	79.88
372.48	80.88
372.706	75.88
372.932	81.88
373.158	83.88
373.384	95.88
373.61	114.88
373.835	84.88
374.061	78.88
374.287	87.88
374.513	83.88
374.739	79.88
374.965	85.88
375.191	98.88
375.416	89.88
375.642	88.88
375.868	92.88
376.094	81.88
376.319	88.88
376.545	88.88
376.771	91.88
376.997	91.88
377.222	94.88
377.448	94.88
377.674	95.88
377.899	85.88
378.125	83.88
378.35	101.88
378.576	89.88
378.802	88.88
379.027	97.88
379.253	90.88
379.478	84.88
379.704	105.88
379.929	99.88
380.155	78.88
380.38	104.88
380.606	104.88
380.831	101.88
381.057	105.88
381.282	86.88
381.507	95.88
381.733	90.88
381.958	106.88
382.184	91.88
382.409	101.88
382.634	118.88
382.86	95.88
383.085	101.88
383.31	105.88
383.535	95.88
383.761	108.88
383.986	112.88
384.211	102.88
384.436	105.88
384.662	101.88
384.887	115.88
385.112	103.88
385.337	130.88
385.562	116.88
385.787	104.88
386.013	118.88
386.238	129.88
386.463	115.88
386.688	127.88
386.913	107.88
387.138	120.88
387.363	100.88
387.588	101.88
387.813	108.88
388.038	123.88
388.263	111.88
388.488	115.88
388.713	105.88
388.938	89.88
389.163	98.88
389.387	99.88
389.612	74.88
389.837	98.88
390.062	97.88
390.287	84.88
390.512	93.88
390.736	89.88
390.961	102.88
391.186	78.88
391.411	101.88
391.636	91.88
391.86	86.88
392.085	95.88
392.31	82.88
392.534	84.88
392.759	96.88
392.984	99.88
393.208	97.88
393.433	110.88
393.658	100.88
393.882	85.88
394.107	83.88
394.331	90.88
394.556	88.88
394.78	95.88
395.005	99.88
395.229	82.88
395.454	87.88
395.678	90.88
395.903	81.88
396.127	98.88
396.352	90.88
396.576	91.88
396.801	96.88
397.025	99.88
397.249	106.88
397.474	101.88
397.698	87.88
397.922	91.88
398.147	88.88
398.371	89.88
398.595	108.88
398.82	99.88
399.044	77.88
399.268	91.88
399.492	80.88
399.717	64.88
399.941	94.88
400.165	98.88
400.389	100.88
400.613	93.88
400.837	87.88
401.062	104.88
401.286	91.88
401.51	72.88
401.734	91.88
401.958	94.88
402.182	138.88
402.406	176.88
402.63	133.88
402.854	99.88
403.078	101.88
403.302	91.88
403.526	90.88
403.75	96.88
403.974	91.88
404.198	102.88
404.422	88.88
404.645	101.88
404.869	97.88
405.093	96.88
405.317	115.88
405.541	120.88
405.765	112.88
405.988	120.88
406.212	192.88
406.436	275.88
406.66	173.88
406.883	108.88
407.107	84.88
407.331	90.88
407.555	101.88
407.778	94.88
408.002	92.88
408.226	108.88
408.449	102.88
408.673	123.88
408.896	91.88
409.12	75.88
409.344	90.88
409.567	85.88
409.791	93.88
410.014	95.88
410.238	90.88
410.461	86.88
410.685	103.88
410.908	100.88
411.132	105.88
411.355	81.88
411.578	88.88
411.802	89.88
412.025	88.88
412.249	85.88
412.472	113.88
412.695	114.88
412.919	88.88
413.142	103.88
413.365	92.88
413.589	96.88
413.812	90.88
414.035	90.88
414.258	94.88
414.482	96.88
414.705	92.88
414.928	107.88
415.151	103.88
415.374	105.88
415.597	92.88
415.821	75.88
416.044	104.88
416.267	91.88
416.49	84.88
416.713	90.88
416.936	92.88
417.159	107.88
417.382	92.88
417.605	102.88
417.828	90.88
418.051	114.88
418.274	90.88
418.497	89.88
418.72	83.88
418.943	88.88
419.166	99.88
419.389	95.88
419.611	85.88
419.834	88.88
420.057	100.88
420.28	86.88
420.503	89.88
420.726	90.88
420.948	79.88
421.171	94.88
421.394	88.88
421.617	104.88
421.839	87.88
422.062	90.88
422.285	107.88
422.507	107.88
422.73	100.88
422.953	100.88
423.175	101.88
423.398	98.88
423.621	101.88
423.843	78.88
424.066	77.88
424.288	102.88
424.511	79.88
424.733	96.88
424.956	110.88
425.178	95.88
425.401	114.88
425.623	108.88
425.846	93.88
426.068	102.88
426.291	98.88
426.513	99.88
426.735	88.88
426.958	105.88
427.18	106.88
427.402	144.88
427.625	219.88
427.847	187.88
428.069	167.88
428.292	104.88
428.514	80.88
428.736	91.88
428.958	95.88
429.181	95.88
429.403	91.88
429.625	70.88
429.847	100.88
430.069	103.88
430.292	90.88
430.514	81.88
430.736	86.88
430.958	85.88
431.18	85.88
431.402	85.88
431.624	110.88
431.846	86.88
432.068	87.88
432.29	100.88
432.512	84.88
432.734	90.88
432.956	86.88
433.178	102.88
433.4	110.88
433.622	91.88
433.844	95.88
434.066	101.88
434.287	91.88
434.509	96.88
434.731	81.88
434.953	98.88
435.175	99.88
435.397	96.88
435.618	96.88
435.84	108.88
436.062	135.88
436.284	122.88
436.505	100.88
436.727	104.88
436.949	92.88
437.17	99.88
437.392	101.88
437.614	105.88
437.835	121.88
438.057	132.88
438.278	109.88
438.5	111.88
438.721	121.88
438.943	114.88
439.165	86.88
439.386	93.88
439.608	96.88
439.829	102.88
440.05	139.88
440.272	174.88
440.493	109.88
440.715	88.88
440.936	97.88
441.158	89.88
441.379	95.88
441.6	96.88
441.822	91.88
442.043	101.88
442.264	100.88
442.486	116.88
442.707	101.88
442.928	110.88
443.149	166.88
443.371	151.88
443.592	124.88
443.813	133.88
444.034	118.88
444.255	86.88
444.476	99.88
444.698	94.88
444.919	86.88
445.14	148.88
445.361	125.88
445.582	143.88
445.803	172.88
446.024	160.88
446.245	173.88
446.466	115.88
446.687	102.88
446.908	77.88
447.129	92.88
447.35	81.88
447.571	110.88
447.792	99.88
448.013	106.88
448.234	102.88
448.455	114.88
448.675	119.88
448.896	140.88
449.117	116.88
449.338	94.88
449.559	139.88
449.779	147.88
450	96.88
450.221	93.88
450.442	86.88
450.662	87.88
450.883	128.88
451.104	138.88
451.324	106.88
451.545	80.88
451.766	79.88
451.986	79.88
452.207	98.88
452.428	102.88
452.648	99.88
452.869	109.88
453.089	121.88
453.31	120.88
453.53	96.88
453.751	91.88
453.971	130.88
454.192	115.88
454.412	107.88
454.633	70.88
454.853	90.88
455.073	86.88
455.294	94.88
455.514	103.88
455.734	87.88
455.955	89.88
456.175	79.88
456.395	80.88
456.616	89.88
456.836	90.88
457.056	97.88
457.276	83.88
457.497	93.88
457.717	91.88
457.937	110.88
458.157	87.88
458.377	89.88
458.598	112.88
458.818	172.88
459.038	187.88
459.258	142.88
459.478	106.88
459.698	93.88
459.918	80.88
460.138	93.88
460.358	88.88
460.578	83.88
460.798	90.88
461.018	76.88
461.238	92.88
461.458	90.88
461.678	82.88
461.898	98.88
462.118	87.88
462.338	75.88
462.558	85.88
462.777	85.88
462.997	94.88
463.217	105.88
463.437	93.88
463.657	88.88
463.876	88.88
464.096	98.88
464.316	90.88
464.536	103.88
464.755	94.88
464.975	103.88
465.195	183.88
465.414	190.88
465.634	99.88
465.854	90.88
466.073	92.88
466.293	80.88
466.512	93.88
466.732	76.88
466.951	80.88
467.171	91.88
467.391	95.88
467.61	110.88
467.829	121.88
468.049	214.88
468.268	302.88
468.488	122.88
468.707	94.88
468.927	89.88
469.146	87.88
469.365	85.88
469.585	93.88
469.804	105.88
470.023	95.88
470.243	92.88
470.462	109.88
470.681	124.88
470.901	106.88
471.12	91.88
471.339	100.88
471.558	109.88
471.777	121.88
471.997	134.88
472.216	348.88
472.435	778.88
472.654	247.88
472.873	118.88
473.092	100.88
473.311	96.88
473.53	98.88
473.749	102.88
473.968	104.88
474.187	110.88
474.406	114.88
474.625	97.88
474.844	97.88
475.063	93.88
475.282	100.88
475.501	88.88
475.72	99.88
475.939	90.88
476.158	94.88
476.377	100.88
476.596	90.88
476.814	89.88
477.033	110.88
477.252	94.88
477.471	92.88
477.69	101.88
477.908	91.88
478.127	108.88
478.346	101.88
478.564	91.88
478.783	98.88
479.002	100.88
479.22	89.88
479.439	107.88
479.658	105.88
479.876	99.88
480.095	100.88
480.313	98.88
480.532	120.88
480.751	151.88
480.969	342.88
481.188	1263.88
481.406	853.88
481.624	173.88
481.843	107.88
482.061	87.88
482.28	93.88
482.498	88.88
482.717	92.88
482.935	98.88
483.153	92.88
483.372	88.88
483.59	85.88
483.808	80.88
484.027	98.88
484.245	94.88
484.463	96.88
484.681	102.88
484.9	103.88
485.118	95.88
485.336	92.88
485.554	99.88
485.772	90.88
485.99	101.88
486.209	94.88
486.427	114.88
486.645	114.88
486.863	127.88
487.081	104.88
487.299	95.88
487.517	98.88
487.735	90.88
487.953	81.88
488.171	80.88
488.389	90.88
488.607	88.88
488.825	93.88
489.043	99.88
489.261	106.88
489.479	106.88
489.696	90.88
489.914	87.88
490.132	85.88
490.35	82.88
490.568	86.88
490.786	72.88
491.003	89.88
491.221	107.88
491.439	95.88
491.657	99.88
491.874	100.88
492.092	91.88
492.31	82.88
492.527	100.88
492.745	90.88
492.963	106.88
493.18	78.88
493.398	92.88
493.615	100.88
493.833	92.88
494.05	92.88
494.268	102.88
494.485	83.88
494.703	87.88
494.92	93.88
495.138	80.88
495.355	96.88
495.573	102.88
495.79	97.88
496.008	83.88
496.225	86.88
496.442	82.88
496.66	87.88
496.877	88.88
497.094	99.88
497.312	92.88
497.529	108.88
497.746	87.88
497.963	101.88
498.181	91.88
498.398	85.88
498.615	119.88
498.832	110.88
499.049	112.88
499.267	108.88
499.484	96.88
499.701	97.88
499.918	89.88
500.135	93.88
500.352	94.88
500.569	84.88
500.786	88.88
501.003	97.88
501.22	86.88
501.437	91.88
501.654	100.88
501.871	105.88
502.088	101.88
502.305	83.88
502.522	88.88
502.739	90.88
502.956	98.88
503.172	90.88
503.389	100.88
503.606	118.88
503.823	111.88
504.04	88.88
504.256	103.88
504.473	95.88
504.69	96.88
504.907	86.88
505.123	91.88
505.34	89.88
505.557	101.88
505.773	85.88
505.99	96.88
506.207	92.88
506.423	100.88
506.64	105.88
506.856	95.88
507.073	97.88
507.289	79.88
507.506	102.88
507.722	130.88
507.939	134.88
508.155	104.88
508.372	94.88
508.588	89.88
508.805	90.88
509.021	111.88
509.238	100.88
509.454	99.88
509.67	108.88
509.887	117.88
510.103	134.88
510.319	236.88
510.536	720.88
510.752	2508.88
510.968	728.88
511.184	158.88
511.401	109.88
511.617	106.88
511.833	105.88
512.049	82.88
512.265	101.88
512.481	93.88
512.698	90.88
512.914	95.88
513.13	89.88
513.346	99.88
513.562	95.88
513.778	104.88
