Data from Circ_2013_H10_HRD10591_00012.txt Node
Date: Wed Jan 03 10:04:02 EST 2024
User: Yrep
Spectrometer: HR+D1059
Trigger mode: 1
Integration Time (sec): 1.000000E-1
Scans to average: 1
Electric dark correction enabled: true
Nonlinearity correction enabled: false
Boxcar width: 0
XAxis mode: Wavelengths
Number of Pixels in Spectrum: 2048
>>>>>Begin Spectral Data<<<<<
223.165	-17.75
223.4	-17.75
223.635	-17.75
223.869	-15.75
224.104	-27.75
224.338	-24.75
224.573	-13.75
224.808	-5.75
225.042	-25.75
225.277	-9.75
225.511	4.25
225.746	4.25
225.98	7.25
226.215	18.25
226.449	19.25
226.683	19.25
226.918	35.25
227.152	33.25
227.387	18.25
227.621	57.25
227.856	56.25
228.09	44.25
228.324	55.25
228.559	67.25
228.793	57.25
229.027	57.25
229.262	67.25
229.496	73.25
229.73	80.25
229.964	81.25
230.199	71.25
230.433	77.25
230.667	91.25
230.901	70.25
231.136	78.25
231.37	77.25
231.604	71.25
231.838	76.25
232.072	72.25
232.306	87.25
232.541	78.25
232.775	98.25
233.009	78.25
233.243	76.25
233.477	75.25
233.711	75.25
233.945	84.25
234.179	83.25
234.413	86.25
234.647	84.25
234.881	90.25
235.115	70.25
235.349	69.25
235.583	76.25
235.817	81.25
236.051	88.25
236.285	73.25
236.519	75.25
236.753	92.25
236.987	83.25
237.221	93.25
237.455	91.25
237.689	82.25
237.922	76.25
238.156	72.25
238.39	76.25
238.624	73.25
238.858	81.25
239.091	68.25
239.325	75.25
239.559	68.25
239.793	76.25
240.027	85.25
240.26	78.25
240.494	80.25
240.728	68.25
240.961	61.25
241.195	72.25
241.429	67.25
241.662	84.25
241.896	84.25
242.13	65.25
242.363	71.25
242.597	63.25
242.83	86.25
243.064	84.25
243.298	80.25
243.531	72.25
243.765	76.25
243.998	86.25
244.232	72.25
244.465	88.25
244.699	86.25
244.932	74.25
245.166	83.25
245.399	90.25
245.633	77.25
245.866	89.25
246.099	86.25
246.333	85.25
246.566	86.25
246.8	83.25
247.033	72.25
247.266	69.25
247.5	72.25
247.733	66.25
247.966	75.25
248.2	76.25
248.433	69.25
248.666	85.25
248.899	81.25
249.133	77.25
249.366	91.25
249.599	84.25
249.832	87.25
250.066	86.25
250.299	83.25
250.532	76.25
250.765	71.25
250.998	76.25
251.231	67.25
251.465	90.25
251.698	94.25
251.931	80.25
252.164	78.25
252.397	84.25
252.63	82.25
252.863	73.25
253.096	85.25
253.329	76.25
253.562	73.25
253.795	82.25
254.028	92.25
254.261	77.25
254.494	65.25
254.727	78.25
254.96	84.25
255.193	75.25
255.426	95.25
255.659	79.25
255.892	83.25
256.124	81.25
256.357	72.25
256.59	87.25
256.823	91.25
257.056	90.25
257.289	83.25
257.521	100.25
257.754	87.25
257.987	75.25
258.22	87.25
258.452	82.25
258.685	82.25
258.918	81.25
259.151	73.25
259.383	83.25
259.616	74.25
259.849	86.25
260.081	72.25
260.314	88.25
260.547	81.25
260.779	75.25
261.012	81.25
261.244	92.25
261.477	88.25
261.71	99.25
261.942	103.25
262.175	127.25
262.407	84.25
262.64	95.25
262.872	82.25
263.105	71.25
263.337	71.25
263.57	80.25
263.802	80.25
264.035	90.25
264.267	76.25
264.499	87.25
264.732	92.25
264.964	81.25
265.197	81.25
265.429	77.25
265.661	78.25
265.894	70.25
266.126	84.25
266.358	93.25
266.591	96.25
266.823	91.25
267.055	88.25
267.287	91.25
267.52	86.25
267.752	93.25
267.984	72.25
268.216	80.25
268.448	80.25
268.681	85.25
268.913	86.25
269.145	78.25
269.377	68.25
269.609	85.25
269.841	84.25
270.073	87.25
270.306	91.25
270.538	96.25
270.77	80.25
271.002	90.25
271.234	91.25
271.466	103.25
271.698	81.25
271.93	99.25
272.162	81.25
272.394	90.25
272.626	75.25
272.858	87.25
273.09	98.25
273.322	88.25
273.553	74.25
273.785	93.25
274.017	80.25
274.249	90.25
274.481	102.25
274.713	84.25
274.945	86.25
275.176	94.25
275.408	88.25
275.64	81.25
275.872	82.25
276.104	84.25
276.335	91.25
276.567	95.25
276.799	105.25
277.031	118.25
277.262	128.25
277.494	100.25
277.726	101.25
277.957	90.25
278.189	85.25
278.421	99.25
278.652	76.25
278.884	74.25
279.115	91.25
279.347	90.25
279.579	90.25
279.81	94.25
280.042	109.25
280.273	133.25
280.505	105.25
280.736	101.25
280.968	99.25
281.199	93.25
281.431	75.25
281.662	89.25
281.894	83.25
282.125	92.25
282.356	120.25
282.588	138.25
282.819	129.25
283.051	75.25
283.282	78.25
283.513	91.25
283.745	93.25
283.976	76.25
284.207	97.25
284.439	100.25
284.67	92.25
284.901	77.25
285.132	76.25
285.364	91.25
285.595	86.25
285.826	89.25
286.057	89.25
286.288	89.25
286.52	91.25
286.751	77.25
286.982	90.25
287.213	96.25
287.444	91.25
287.675	84.25
287.906	100.25
288.138	92.25
288.369	98.25
288.6	95.25
288.831	94.25
289.062	95.25
289.293	90.25
289.524	86.25
289.755	82.25
289.986	90.25
290.217	89.25
290.448	86.25
290.679	83.25
290.91	92.25
291.141	84.25
291.371	82.25
291.602	86.25
291.833	91.25
292.064	68.25
292.295	93.25
292.526	86.25
292.757	92.25
292.987	84.25
293.218	70.25
293.449	96.25
293.68	93.25
293.91	86.25
294.141	90.25
294.372	93.25
294.603	112.25
294.833	77.25
295.064	78.25
295.295	82.25
295.525	87.25
295.756	102.25
295.987	103.25
296.217	130.25
296.448	103.25
296.679	87.25
296.909	99.25
297.14	92.25
297.37	83.25
297.601	76.25
297.831	98.25
298.062	93.25
298.292	93.25
298.523	96.25
298.753	78.25
298.984	77.25
299.214	84.25
299.445	90.25
299.675	77.25
299.905	97.25
300.136	103.25
300.366	78.25
300.597	93.25
300.827	94.25
301.057	93.25
301.288	106.25
301.518	97.25
301.748	76.25
301.979	83.25
302.209	102.25
302.439	106.25
302.669	85.25
302.9	91.25
303.13	90.25
303.36	98.25
303.59	112.25
303.82	119.25
304.051	97.25
304.281	93.25
304.511	91.25
304.741	83.25
304.971	86.25
305.201	89.25
305.431	93.25
305.661	99.25
305.891	88.25
306.121	100.25
306.352	97.25
306.582	103.25
306.812	105.25
307.042	105.25
307.272	115.25
307.502	117.25
307.731	117.25
307.961	104.25
308.191	88.25
308.421	91.25
308.651	105.25
308.881	88.25
309.111	87.25
309.341	99.25
309.571	91.25
309.8	82.25
310.03	84.25
310.26	91.25
310.49	81.25
310.72	102.25
310.949	101.25
311.179	91.25
311.409	78.25
311.639	90.25
311.868	100.25
312.098	101.25
312.328	105.25
312.557	96.25
312.787	108.25
313.017	96.25
313.246	93.25
313.476	105.25
313.706	101.25
313.935	97.25
314.165	92.25
314.394	108.25
314.624	105.25
314.853	84.25
315.083	106.25
315.312	85.25
315.542	94.25
315.771	83.25
316.001	89.25
316.23	83.25
316.46	89.25
316.689	86.25
316.919	88.25
317.148	102.25
317.377	107.25
317.607	66.25
317.836	81.25
318.065	88.25
318.295	85.25
318.524	91.25
318.753	91.25
318.983	107.25
319.212	113.25
319.441	95.25
319.67	99.25
319.9	85.25
320.129	94.25
320.358	83.25
320.587	96.25
320.816	86.25
321.046	100.25
321.275	108.25
321.504	100.25
321.733	114.25
321.962	104.25
322.191	104.25
322.42	99.25
322.649	117.25
322.878	99.25
323.108	113.25
323.337	134.25
323.566	134.25
323.795	156.25
324.024	196.25
324.253	391.25
324.482	810.25
324.71	1657.25
324.939	2226.25
325.168	838.25
325.397	258.25
325.626	137.25
325.855	122.25
326.084	122.25
326.313	147.25
326.542	162.25
326.77	226.25
326.999	460.25
327.228	906.25
327.457	1708.25
327.686	1382.25
327.914	409.25
328.143	266.25
328.372	269.25
328.6	187.25
328.829	126.25
329.058	132.25
329.287	128.25
329.515	134.25
329.744	148.25
329.972	194.25
330.201	331.25
330.43	487.25
330.658	273.25
330.887	188.25
331.115	141.25
331.344	98.25
331.572	110.25
331.801	105.25
332.03	100.25
332.258	99.25
332.486	87.25
332.715	88.25
332.943	104.25
333.172	89.25
333.4	108.25
333.629	118.25
333.857	136.25
334.085	182.25
334.314	316.25
334.542	596.25
334.771	561.25
334.999	212.25
335.227	124.25
335.455	99.25
335.684	88.25
335.912	88.25
336.14	97.25
336.369	102.25
336.597	102.25
336.825	108.25
337.053	81.25
337.281	101.25
337.51	91.25
337.738	97.25
337.966	95.25
338.194	90.25
338.422	96.25
338.65	98.25
338.878	107.25
339.106	84.25
339.334	87.25
339.562	95.25
339.79	73.25
340.018	81.25
340.246	97.25
340.474	92.25
340.702	89.25
340.93	91.25
341.158	81.25
341.386	89.25
341.614	99.25
341.842	92.25
342.07	82.25
342.298	90.25
342.526	104.25
342.754	83.25
342.981	96.25
343.209	82.25
343.437	88.25
343.665	94.25
343.893	85.25
344.12	88.25
344.348	91.25
344.576	86.25
344.804	85.25
345.031	102.25
345.259	105.25
345.487	91.25
345.714	104.25
345.942	92.25
346.17	85.25
346.397	95.25
346.625	80.25
346.853	74.25
347.08	97.25
347.308	92.25
347.535	86.25
347.763	97.25
347.99	108.25
348.218	97.25
348.445	88.25
348.673	102.25
348.9	101.25
349.128	96.25
349.355	92.25
349.583	91.25
349.81	76.25
350.037	85.25
350.265	83.25
350.492	92.25
350.72	93.25
350.947	92.25
351.174	94.25
351.402	127.25
351.629	100.25
351.856	100.25
352.083	109.25
352.311	103.25
352.538	100.25
352.765	118.25
352.992	118.25
353.22	118.25
353.447	86.25
353.674	96.25
353.901	87.25
354.128	80.25
354.355	92.25
354.583	92.25
354.81	116.25
355.037	76.25
355.264	84.25
355.491	94.25
355.718	81.25
355.945	86.25
356.172	88.25
356.399	98.25
356.626	81.25
356.853	103.25
357.08	94.25
357.307	92.25
357.534	88.25
357.761	97.25
357.988	85.25
358.215	85.25
358.441	94.25
358.668	84.25
358.895	94.25
359.122	84.25
359.349	81.25
359.576	84.25
359.802	110.25
360.029	115.25
360.256	116.25
360.483	98.25
360.709	98.25
360.936	101.25
361.163	98.25
361.39	105.25
361.616	89.25
361.843	93.25
362.07	84.25
362.296	105.25
362.523	95.25
362.749	84.25
362.976	91.25
363.203	85.25
363.429	88.25
363.656	103.25
363.882	101.25
364.109	85.25
364.335	84.25
364.562	91.25
364.788	83.25
365.015	91.25
365.241	110.25
365.468	103.25
365.694	100.25
365.92	99.25
366.147	70.25
366.373	87.25
366.599	93.25
366.826	94.25
367.052	88.25
367.278	98.25
367.505	100.25
367.731	100.25
367.957	104.25
368.184	91.25
368.41	100.25
368.636	109.25
368.862	108.25
369.089	105.25
369.315	83.25
369.541	92.25
369.767	90.25
369.993	85.25
370.219	94.25
370.445	95.25
370.672	90.25
370.898	92.25
371.124	84.25
371.35	96.25
371.576	83.25
371.802	85.25
372.028	87.25
372.254	98.25
372.48	88.25
372.706	82.25
372.932	79.25
373.158	92.25
373.384	83.25
373.61	103.25
373.835	97.25
374.061	85.25
374.287	92.25
374.513	88.25
374.739	90.25
374.965	79.25
375.191	87.25
375.416	82.25
375.642	86.25
375.868	85.25
376.094	89.25
376.319	86.25
376.545	96.25
376.771	81.25
376.997	89.25
377.222	85.25
377.448	100.25
377.674	90.25
377.899	93.25
378.125	92.25
378.35	98.25
378.576	96.25
378.802	78.25
379.027	92.25
379.253	89.25
379.478	94.25
379.704	97.25
379.929	97.25
380.155	100.25
380.38	91.25
380.606	108.25
380.831	94.25
381.057	93.25
381.282	94.25
381.507	83.25
381.733	99.25
381.958	104.25
382.184	92.25
382.409	103.25
382.634	94.25
382.86	97.25
383.085	99.25
383.31	114.25
383.535	103.25
383.761	101.25
383.986	108.25
384.211	98.25
384.436	116.25
384.662	101.25
384.887	115.25
385.112	109.25
385.337	98.25
385.562	108.25
385.787	115.25
386.013	134.25
386.238	126.25
386.463	109.25
386.688	113.25
386.913	108.25
387.138	117.25
387.363	111.25
387.588	96.25
387.813	101.25
388.038	110.25
388.263	132.25
388.488	116.25
388.713	119.25
388.938	103.25
389.163	89.25
389.387	84.25
389.612	87.25
389.837	76.25
390.062	87.25
390.287	78.25
390.512	76.25
390.736	93.25
390.961	96.25
391.186	98.25
391.411	86.25
391.636	85.25
391.86	76.25
392.085	94.25
392.31	83.25
392.534	98.25
392.759	89.25
392.984	84.25
393.208	113.25
393.433	108.25
393.658	104.25
393.882	87.25
394.107	94.25
394.331	92.25
394.556	91.25
394.78	93.25
395.005	95.25
395.229	80.25
395.454	89.25
395.678	85.25
395.903	84.25
396.127	88.25
396.352	83.25
396.576	89.25
396.801	97.25
397.025	92.25
397.249	90.25
397.474	83.25
397.698	92.25
397.922	66.25
398.147	80.25
398.371	83.25
398.595	81.25
398.82	89.25
399.044	86.25
399.268	95.25
399.492	82.25
399.717	93.25
399.941	79.25
400.165	97.25
400.389	95.25
400.613	70.25
400.837	90.25
401.062	87.25
401.286	96.25
401.51	100.25
401.734	102.25
401.958	102.25
402.182	124.25
402.406	160.25
402.63	129.25
402.854	97.25
403.078	82.25
403.302	90.25
403.526	98.25
403.75	78.25
403.974	73.25
404.198	85.25
404.422	86.25
404.645	97.25
404.869	103.25
405.093	98.25
405.317	110.25
405.541	122.25
405.765	94.25
405.988	110.25
406.212	194.25
406.436	234.25
406.66	144.25
406.883	112.25
407.107	99.25
407.331	105.25
407.555	92.25
407.778	104.25
408.002	92.25
408.226	100.25
408.449	67.25
408.673	77.25
408.896	84.25
409.12	86.25
409.344	80.25
409.567	91.25
409.791	89.25
410.014	84.25
410.238	100.25
410.461	94.25
410.685	105.25
410.908	80.25
411.132	110.25
411.355	98.25
411.578	91.25
411.802	93.25
412.025	100.25
412.249	97.25
412.472	110.25
412.695	124.25
412.919	100.25
413.142	84.25
413.365	84.25
413.589	86.25
413.812	89.25
414.035	94.25
414.258	87.25
414.482	82.25
414.705	76.25
414.928	97.25
415.151	99.25
415.374	88.25
415.597	79.25
415.821	85.25
416.044	85.25
416.267	79.25
416.49	104.25
416.713	92.25
416.936	84.25
417.159	83.25
417.382	97.25
417.605	75.25
417.828	100.25
418.051	95.25
418.274	77.25
418.497	91.25
418.72	92.25
418.943	92.25
419.166	80.25
419.389	97.25
419.611	71.25
419.834	91.25
420.057	83.25
420.28	82.25
420.503	84.25
420.726	84.25
420.948	97.25
421.171	100.25
421.394	85.25
421.617	84.25
421.839	97.25
422.062	98.25
422.285	95.25
422.507	93.25
422.73	109.25
422.953	106.25
423.175	85.25
423.398	77.25
423.621	85.25
423.843	81.25
424.066	91.25
424.288	90.25
424.511	103.25
424.733	99.25
424.956	109.25
425.178	98.25
425.401	106.25
425.623	95.25
425.846	97.25
426.068	101.25
426.291	104.25
426.513	88.25
426.735	96.25
426.958	93.25
427.18	100.25
427.402	152.25
427.625	187.25
427.847	176.25
428.069	162.25
428.292	102.25
428.514	92.25
428.736	92.25
428.958	93.25
429.181	76.25
429.403	85.25
429.625	90.25
429.847	97.25
430.069	111.25
430.292	102.25
430.514	91.25
430.736	93.25
430.958	83.25
431.18	82.25
431.402	75.25
431.624	93.25
431.846	84.25
432.068	79.25
432.29	82.25
432.512	78.25
432.734	85.25
432.956	77.25
433.178	96.25
433.4	96.25
433.622	87.25
433.844	70.25
434.066	77.25
434.287	95.25
434.509	101.25
434.731	83.25
434.953	97.25
435.175	96.25
435.397	88.25
435.618	83.25
435.84	99.25
436.062	129.25
436.284	108.25
436.505	93.25
436.727	91.25
436.949	96.25
437.17	101.25
437.392	94.25
437.614	96.25
437.835	107.25
438.057	128.25
438.278	120.25
438.5	111.25
438.721	121.25
438.943	105.25
439.165	90.25
439.386	86.25
439.608	79.25
439.829	98.25
440.05	131.25
440.272	150.25
440.493	105.25
440.715	92.25
440.936	96.25
441.158	81.25
441.379	79.25
441.6	103.25
441.822	86.25
442.043	105.25
442.264	105.25
442.486	105.25
442.707	77.25
442.928	93.25
443.149	140.25
443.371	139.25
443.592	107.25
443.813	123.25
444.034	103.25
444.255	86.25
444.476	102.25
444.698	93.25
444.919	84.25
445.14	127.25
445.361	130.25
445.582	119.25
445.803	150.25
446.024	153.25
446.245	141.25
446.466	120.25
446.687	99.25
446.908	93.25
447.129	88.25
447.35	83.25
447.571	93.25
447.792	87.25
448.013	86.25
448.234	98.25
448.455	104.25
448.675	118.25
448.896	119.25
449.117	92.25
449.338	108.25
449.559	151.25
449.779	139.25
450	95.25
450.221	101.25
450.442	88.25
450.662	93.25
450.883	103.25
451.104	125.25
451.324	89.25
451.545	97.25
451.766	85.25
451.986	90.25
452.207	89.25
452.428	91.25
452.648	91.25
452.869	114.25
453.089	119.25
453.31	122.25
453.53	104.25
453.751	98.25
453.971	103.25
454.192	126.25
454.412	95.25
454.633	89.25
454.853	85.25
455.073	85.25
455.294	77.25
455.514	100.25
455.734	93.25
455.955	76.25
456.175	76.25
456.395	90.25
456.616	80.25
456.836	99.25
457.056	91.25
457.276	76.25
457.497	92.25
457.717	77.25
457.937	87.25
458.157	83.25
458.377	94.25
458.598	114.25
458.818	151.25
459.038	176.25
459.258	112.25
459.478	89.25
459.698	71.25
459.918	70.25
460.138	78.25
460.358	84.25
460.578	77.25
460.798	83.25
461.018	81.25
461.238	80.25
461.458	76.25
461.678	74.25
461.898	91.25
462.118	89.25
462.338	94.25
462.558	86.25
462.777	94.25
462.997	81.25
463.217	77.25
463.437	92.25
463.657	89.25
463.876	84.25
464.096	91.25
464.316	108.25
464.536	93.25
464.755	103.25
464.975	104.25
465.195	178.25
465.414	170.25
465.634	104.25
465.854	90.25
466.073	101.25
466.293	97.25
466.512	78.25
466.732	96.25
466.951	83.25
467.171	89.25
467.391	88.25
467.61	97.25
467.829	117.25
468.049	198.25
468.268	290.25
468.488	119.25
468.707	104.25
468.927	94.25
469.146	92.25
469.365	88.25
469.585	110.25
469.804	107.25
470.023	100.25
470.243	87.25
470.462	109.25
470.681	99.25
470.901	85.25
471.12	87.25
471.339	93.25
471.558	96.25
471.777	100.25
471.997	139.25
472.216	330.25
472.435	745.25
472.654	228.25
472.873	116.25
473.092	92.25
473.311	86.25
473.53	81.25
473.749	81.25
473.968	94.25
474.187	110.25
474.406	106.25
474.625	92.25
474.844	92.25
475.063	80.25
475.282	74.25
475.501	93.25
475.72	98.25
475.939	91.25
476.158	76.25
476.377	86.25
476.596	72.25
476.814	86.25
477.033	90.25
477.252	71.25
477.471	77.25
477.69	103.25
477.908	99.25
478.127	89.25
478.346	78.25
478.564	91.25
478.783	104.25
479.002	114.25
479.22	92.25
479.439	110.25
479.658	116.25
479.876	108.25
480.095	117.25
480.313	98.25
480.532	97.25
480.751	122.25
480.969	326.25
481.188	1193.25
481.406	848.25
481.624	166.25
481.843	102.25
482.061	88.25
482.28	94.25
482.498	87.25
482.717	89.25
482.935	95.25
483.153	83.25
483.372	76.25
483.59	101.25
483.808	88.25
484.027	99.25
484.245	96.25
484.463	96.25
484.681	92.25
484.9	94.25
485.118	109.25
485.336	87.25
485.554	97.25
485.772	84.25
485.99	97.25
486.209	96.25
486.427	105.25
486.645	103.25
486.863	117.25
487.081	120.25
487.299	103.25
487.517	100.25
487.735	93.25
487.953	93.25
488.171	93.25
488.389	100.25
488.607	102.25
488.825	98.25
489.043	91.25
489.261	97.25
489.479	82.25
489.696	90.25
489.914	87.25
490.132	85.25
490.35	91.25
490.568	95.25
490.786	78.25
491.003	87.25
491.221	93.25
491.439	97.25
491.657	96.25
491.874	101.25
492.092	105.25
492.31	94.25
492.527	104.25
492.745	89.25
492.963	75.25
493.18	86.25
493.398	86.25
493.615	98.25
493.833	86.25
494.05	96.25
494.268	83.25
494.485	96.25
494.703	106.25
494.92	80.25
495.138	82.25
495.355	89.25
495.573	83.25
495.79	101.25
496.008	99.25
496.225	76.25
496.442	82.25
496.66	93.25
496.877	80.25
497.094	99.25
497.312	100.25
497.529	82.25
497.746	88.25
497.963	108.25
498.181	97.25
498.398	99.25
498.615	130.25
498.832	104.25
499.049	100.25
499.267	97.25
499.484	95.25
499.701	81.25
499.918	88.25
500.135	86.25
500.352	94.25
500.569	101.25
500.786	92.25
501.003	95.25
501.22	94.25
501.437	94.25
501.654	103.25
501.871	102.25
502.088	103.25
502.305	87.25
502.522	96.25
502.739	84.25
502.956	84.25
503.172	82.25
503.389	84.25
503.606	96.25
503.823	100.25
504.04	100.25
504.256	85.25
504.473	99.25
504.69	95.25
504.907	92.25
505.123	100.25
505.34	79.25
505.557	87.25
505.773	84.25
505.99	106.25
506.207	102.25
506.423	99.25
506.64	77.25
506.856	83.25
507.073	94.25
507.289	101.25
507.506	97.25
507.722	114.25
507.939	134.25
508.155	87.25
508.372	99.25
508.588	89.25
508.805	95.25
509.021	98.25
509.238	101.25
509.454	103.25
509.67	103.25
509.887	113.25
510.103	141.25
510.319	197.25
510.536	659.25
510.752	2204.25
510.968	621.25
511.184	153.25
511.401	112.25
511.617	97.25
511.833	100.25
512.049	103.25
512.265	102.25
512.481	78.25
512.698	84.25
512.914	104.25
513.13	97.25
513.346	87.25
513.562	99.25
513.778	112.25
513.994	107.25
514.21	98.25
514.426	120.25
514.642	129.25
514.858	115.25
