Data from Circ_2013_H10_HRD10591_00098.txt Node
Date: Wed Jan 03 10:04:19 EST 2024
User: Yrep
Spectrometer: HR+D1059
Trigger mode: 1
Integration Time (sec): 1.000000E-1
Scans to average: 1
Electric dark correction enabled: true
Nonlinearity correction enabled: false
Boxcar width: 0
XAxis mode: Wavelengths
Number of Pixels in Spectrum: 2048
>>>>>Begin Spectral Data<<<<<
223.165	-29.56
223.4	-29.56
223.635	-29.56
223.869	-16.56
224.104	-16.56
224.338	-6.56
224.573	-9.56
224.808	-20.56
225.042	8.44
225.277	-5.56
225.511	-5.56
225.746	10.44
225.98	-2.56
226.215	10.44
226.449	10.44
226.683	36.44
226.918	24.44
227.152	12.44
227.387	34.44
227.621	33.44
227.856	38.44
228.09	46.44
228.324	40.44
228.559	60.44
228.793	44.44
229.027	66.44
229.262	74.44
229.496	65.44
229.73	98.44
229.964	107.44
230.199	78.44
230.433	67.44
230.667	81.44
230.901	83.44
231.136	80.44
231.37	63.44
231.604	75.44
231.838	88.44
232.072	73.44
232.306	90.44
232.541	80.44
232.775	76.44
233.009	72.44
233.243	77.44
233.477	73.44
233.711	64.44
233.945	90.44
234.179	82.44
234.413	82.44
234.647	80.44
234.881	78.44
235.115	78.44
235.349	81.44
235.583	72.44
235.817	73.44
236.051	76.44
236.285	77.44
236.519	62.44
236.753	71.44
236.987	79.44
237.221	74.44
237.455	74.44
237.689	84.44
237.922	88.44
238.156	91.44
238.39	73.44
238.624	71.44
238.858	81.44
239.091	79.44
239.325	83.44
239.559	96.44
239.793	92.44
240.027	77.44
240.26	92.44
240.494	86.44
240.728	71.44
240.961	75.44
241.195	71.44
241.429	81.44
241.662	82.44
241.896	74.44
242.13	71.44
242.363	76.44
242.597	80.44
242.83	81.44
243.064	80.44
243.298	74.44
243.531	75.44
243.765	77.44
243.998	80.44
244.232	71.44
244.465	84.44
244.699	70.44
244.932	58.44
245.166	78.44
245.399	78.44
245.633	96.44
245.866	70.44
246.099	70.44
246.333	71.44
246.566	73.44
246.8	77.44
247.033	71.44
247.266	93.44
247.5	70.44
247.733	75.44
247.966	92.44
248.2	83.44
248.433	78.44
248.666	89.44
248.899	73.44
249.133	81.44
249.366	100.44
249.599	103.44
249.832	98.44
250.066	91.44
250.299	74.44
250.532	88.44
250.765	87.44
250.998	75.44
251.231	84.44
251.465	78.44
251.698	73.44
251.931	81.44
252.164	76.44
252.397	86.44
252.63	66.44
252.863	63.44
253.096	95.44
253.329	76.44
253.562	85.44
253.795	88.44
254.028	81.44
254.261	68.44
254.494	75.44
254.727	91.44
254.96	71.44
255.193	79.44
255.426	68.44
255.659	69.44
255.892	96.44
256.124	88.44
256.357	75.44
256.59	86.44
256.823	89.44
257.056	75.44
257.289	83.44
257.521	104.44
257.754	78.44
257.987	91.44
258.22	86.44
258.452	88.44
258.685	84.44
258.918	74.44
259.151	63.44
259.383	67.44
259.616	83.44
259.849	79.44
260.081	77.44
260.314	82.44
260.547	84.44
260.779	93.44
261.012	85.44
261.244	107.44
261.477	90.44
261.71	98.44
261.942	112.44
262.175	140.44
262.407	96.44
262.64	85.44
262.872	82.44
263.105	80.44
263.337	89.44
263.57	74.44
263.802	86.44
264.035	91.44
264.267	82.44
264.499	81.44
264.732	92.44
264.964	76.44
265.197	82.44
265.429	70.44
265.661	82.44
265.894	65.44
266.126	96.44
266.358	81.44
266.591	64.44
266.823	78.44
267.055	76.44
267.287	79.44
267.52	86.44
267.752	86.44
267.984	83.44
268.216	77.44
268.448	87.44
268.681	88.44
268.913	97.44
269.145	70.44
269.377	89.44
269.609	85.44
269.841	81.44
270.073	90.44
270.306	93.44
270.538	86.44
270.77	80.44
271.002	86.44
271.234	73.44
271.466	97.44
271.698	99.44
271.93	86.44
272.162	90.44
272.394	88.44
272.626	70.44
272.858	80.44
273.09	103.44
273.322	79.44
273.553	83.44
273.785	77.44
274.017	88.44
274.249	90.44
274.481	71.44
274.713	82.44
274.945	79.44
275.176	87.44
275.408	97.44
275.64	115.44
275.872	111.44
276.104	103.44
276.335	110.44
276.567	119.44
276.799	122.44
277.031	152.44
277.262	168.44
277.494	139.44
277.726	96.44
277.957	82.44
278.189	83.44
278.421	100.44
278.652	86.44
278.884	89.44
279.115	81.44
279.347	97.44
279.579	90.44
279.81	120.44
280.042	177.44
280.273	228.44
280.505	182.44
280.736	107.44
280.968	99.44
281.199	82.44
281.431	67.44
281.662	83.44
281.894	84.44
282.125	105.44
282.356	125.44
282.588	146.44
282.819	113.44
283.051	101.44
283.282	80.44
283.513	90.44
283.745	91.44
283.976	82.44
284.207	82.44
284.439	84.44
284.67	92.44
284.901	98.44
285.132	81.44
285.364	97.44
285.595	87.44
285.826	88.44
286.057	87.44
286.288	80.44
286.52	91.44
286.751	91.44
286.982	76.44
287.213	82.44
287.444	76.44
287.675	90.44
287.906	84.44
288.138	86.44
288.369	99.44
288.6	94.44
288.831	73.44
289.062	84.44
289.293	84.44
289.524	91.44
289.755	90.44
289.986	87.44
290.217	89.44
290.448	101.44
290.679	85.44
290.91	90.44
291.141	78.44
291.371	83.44
291.602	86.44
291.833	85.44
292.064	93.44
292.295	91.44
292.526	81.44
292.757	76.44
292.987	88.44
293.218	84.44
293.449	84.44
293.68	92.44
293.91	84.44
294.141	89.44
294.372	92.44
294.603	97.44
294.833	70.44
295.064	90.44
295.295	70.44
295.525	92.44
295.756	99.44
295.987	128.44
296.217	153.44
296.448	139.44
296.679	106.44
296.909	82.44
297.14	80.44
297.37	81.44
297.601	79.44
297.831	89.44
298.062	94.44
298.292	76.44
298.523	73.44
298.753	91.44
298.984	84.44
299.214	101.44
299.445	89.44
299.675	95.44
299.905	105.44
300.136	76.44
300.366	85.44
300.597	93.44
300.827	92.44
301.057	98.44
301.288	110.44
301.518	95.44
301.748	98.44
301.979	104.44
302.209	74.44
302.439	92.44
302.669	85.44
302.9	85.44
303.13	91.44
303.36	97.44
303.59	129.44
303.82	140.44
304.051	97.44
304.281	99.44
304.511	88.44
304.741	82.44
304.971	72.44
305.201	92.44
305.431	91.44
305.661	92.44
305.891	93.44
306.121	100.44
306.352	120.44
306.582	126.44
306.812	103.44
307.042	133.44
307.272	145.44
307.502	161.44
307.731	146.44
307.961	117.44
308.191	100.44
308.421	103.44
308.651	90.44
308.881	81.44
309.111	100.44
309.341	95.44
309.571	102.44
309.8	95.44
310.03	113.44
310.26	99.44
310.49	104.44
310.72	102.44
310.949	120.44
311.179	109.44
311.409	102.44
311.639	101.44
311.868	91.44
312.098	95.44
312.328	87.44
312.557	110.44
312.787	104.44
313.017	86.44
313.246	90.44
313.476	87.44
313.706	86.44
313.935	92.44
314.165	101.44
314.394	96.44
314.624	105.44
314.853	104.44
315.083	95.44
315.312	82.44
315.542	90.44
315.771	74.44
316.001	100.44
316.23	93.44
316.46	87.44
316.689	108.44
316.919	91.44
317.148	99.44
317.377	91.44
317.607	95.44
317.836	93.44
318.065	94.44
318.295	75.44
318.524	82.44
318.753	78.44
318.983	107.44
319.212	98.44
319.441	127.44
319.67	132.44
319.9	113.44
320.129	102.44
320.358	103.44
320.587	94.44
320.816	101.44
321.046	109.44
321.275	98.44
321.504	97.44
321.733	96.44
321.962	97.44
322.191	93.44
322.42	109.44
322.649	107.44
322.878	113.44
323.108	133.44
323.337	139.44
323.566	160.44
323.795	177.44
324.024	215.44
324.253	449.44
324.482	943.44
324.71	1901.44
324.939	2504.44
325.168	926.44
325.397	272.44
325.626	177.44
325.855	136.44
326.084	117.44
326.313	138.44
326.542	164.44
326.77	251.44
326.999	512.44
327.228	1006.44
327.457	1811.44
327.686	1439.44
327.914	514.44
328.143	489.44
328.372	587.44
328.6	344.44
328.829	180.44
329.058	195.44
329.287	187.44
329.515	163.44
329.744	233.44
329.972	444.44
330.201	873.44
330.43	1246.44
330.658	580.44
330.887	280.44
331.115	186.44
331.344	123.44
331.572	134.44
331.801	136.44
332.03	122.44
332.258	97.44
332.486	98.44
332.715	106.44
332.943	108.44
333.172	128.44
333.4	135.44
333.629	158.44
333.857	219.44
334.085	387.44
334.314	802.44
334.542	1527.44
334.771	1488.44
334.999	382.44
335.227	154.44
335.455	113.44
335.684	118.44
335.912	99.44
336.14	94.44
336.369	109.44
336.597	114.44
336.825	134.44
337.053	84.44
337.281	102.44
337.51	80.44
337.738	104.44
337.966	85.44
338.194	103.44
338.422	98.44
338.65	99.44
338.878	99.44
339.106	95.44
339.334	94.44
339.562	86.44
339.79	94.44
340.018	91.44
340.246	89.44
340.474	118.44
340.702	82.44
340.93	91.44
341.158	86.44
341.386	91.44
341.614	98.44
341.842	106.44
342.07	89.44
342.298	86.44
342.526	84.44
342.754	89.44
342.981	99.44
343.209	90.44
343.437	98.44
343.665	75.44
343.893	96.44
344.12	104.44
344.348	100.44
344.576	74.44
344.804	75.44
345.031	103.44
345.259	103.44
345.487	91.44
345.714	85.44
345.942	88.44
346.17	96.44
346.397	97.44
346.625	95.44
346.853	86.44
347.08	90.44
347.308	94.44
347.535	100.44
347.763	88.44
347.99	90.44
348.218	111.44
348.445	125.44
348.673	116.44
348.9	97.44
349.128	99.44
349.355	87.44
349.583	93.44
349.81	86.44
350.037	98.44
350.265	78.44
350.492	94.44
350.72	86.44
350.947	102.44
351.174	115.44
351.402	119.44
351.629	100.44
351.856	98.44
352.083	99.44
352.311	114.44
352.538	122.44
352.765	142.44
352.992	120.44
353.22	120.44
353.447	99.44
353.674	89.44
353.901	88.44
354.128	81.44
354.355	99.44
354.583	86.44
354.81	85.44
355.037	84.44
355.264	68.44
355.491	82.44
355.718	81.44
355.945	97.44
356.172	86.44
356.399	89.44
356.626	85.44
356.853	93.44
357.08	82.44
357.307	74.44
357.534	78.44
357.761	88.44
357.988	88.44
358.215	92.44
358.441	102.44
358.668	84.44
358.895	85.44
359.122	83.44
359.349	77.44
359.576	107.44
359.802	105.44
360.029	120.44
360.256	131.44
360.483	112.44
360.709	94.44
360.936	94.44
361.163	86.44
361.39	105.44
361.616	89.44
361.843	88.44
362.07	96.44
362.296	111.44
362.523	96.44
362.749	95.44
362.976	87.44
363.203	78.44
363.429	93.44
363.656	90.44
363.882	95.44
364.109	101.44
364.335	97.44
364.562	91.44
364.788	86.44
365.015	93.44
365.241	112.44
365.468	114.44
365.694	100.44
365.92	106.44
366.147	91.44
366.373	91.44
366.599	95.44
366.826	78.44
367.052	89.44
367.278	99.44
367.505	91.44
367.731	85.44
367.957	94.44
368.184	85.44
368.41	100.44
368.636	122.44
368.862	121.44
369.089	126.44
369.315	101.44
369.541	91.44
369.767	102.44
369.993	96.44
370.219	84.44
370.445	83.44
370.672	88.44
370.898	87.44
371.124	82.44
371.35	77.44
371.576	65.44
371.802	78.44
372.028	86.44
372.254	86.44
372.48	82.44
372.706	99.44
372.932	85.44
373.158	75.44
373.384	86.44
373.61	85.44
373.835	96.44
374.061	86.44
374.287	81.44
374.513	84.44
374.739	86.44
374.965	76.44
375.191	85.44
375.416	79.44
375.642	79.44
375.868	86.44
376.094	101.44
376.319	84.44
376.545	73.44
376.771	98.44
376.997	77.44
377.222	93.44
377.448	95.44
377.674	94.44
377.899	100.44
378.125	84.44
378.35	77.44
378.576	91.44
378.802	94.44
379.027	80.44
379.253	93.44
379.478	96.44
379.704	90.44
379.929	89.44
380.155	76.44
380.38	105.44
380.606	98.44
380.831	97.44
381.057	102.44
381.282	102.44
381.507	96.44
381.733	90.44
381.958	90.44
382.184	85.44
382.409	88.44
382.634	87.44
382.86	91.44
383.085	86.44
383.31	87.44
383.535	88.44
383.761	98.44
383.986	79.44
384.211	88.44
384.436	88.44
384.662	101.44
384.887	97.44
385.112	87.44
385.337	98.44
385.562	101.44
385.787	96.44
386.013	103.44
386.238	100.44
386.463	95.44
386.688	95.44
386.913	99.44
387.138	96.44
387.363	99.44
387.588	92.44
387.813	86.44
388.038	97.44
388.263	106.44
388.488	94.44
388.713	81.44
388.938	88.44
389.163	87.44
389.387	92.44
389.612	83.44
389.837	86.44
390.062	79.44
390.287	87.44
390.512	89.44
390.736	94.44
390.961	87.44
391.186	97.44
391.411	88.44
391.636	88.44
391.86	88.44
392.085	81.44
392.31	75.44
392.534	99.44
392.759	88.44
392.984	96.44
393.208	75.44
393.433	98.44
393.658	73.44
393.882	97.44
394.107	81.44
394.331	78.44
394.556	75.44
394.78	78.44
395.005	79.44
395.229	84.44
395.454	84.44
395.678	80.44
395.903	99.44
396.127	98.44
396.352	87.44
396.576	86.44
396.801	77.44
397.025	88.44
397.249	75.44
397.474	98.44
397.698	93.44
397.922	82.44
398.147	80.44
398.371	90.44
398.595	76.44
398.82	82.44
399.044	81.44
399.268	74.44
399.492	85.44
399.717	94.44
399.941	96.44
400.165	97.44
400.389	98.44
400.613	80.44
400.837	89.44
401.062	80.44
401.286	83.44
401.51	95.44
401.734	99.44
401.958	102.44
402.182	141.44
402.406	198.44
402.63	150.44
402.854	103.44
403.078	82.44
403.302	98.44
403.526	87.44
403.75	96.44
403.974	78.44
404.198	83.44
404.422	87.44
404.645	97.44
404.869	101.44
405.093	116.44
405.317	124.44
405.541	121.44
405.765	118.44
405.988	146.44
406.212	218.44
406.436	306.44
406.66	199.44
406.883	110.44
407.107	113.44
407.331	84.44
407.555	97.44
407.778	98.44
408.002	95.44
408.226	95.44
408.449	81.44
408.673	85.44
408.896	82.44
409.12	105.44
409.344	88.44
409.567	87.44
409.791	86.44
410.014	86.44
410.238	86.44
410.461	85.44
410.685	89.44
410.908	105.44
411.132	104.44
411.355	98.44
411.578	90.44
411.802	95.44
412.025	75.44
412.249	73.44
412.472	114.44
412.695	123.44
412.919	110.44
413.142	95.44
413.365	91.44
413.589	76.44
413.812	89.44
414.035	70.44
414.258	95.44
414.482	81.44
414.705	79.44
414.928	90.44
415.151	89.44
415.374	76.44
415.597	75.44
415.821	82.44
416.044	97.44
416.267	87.44
416.49	79.44
416.713	83.44
416.936	83.44
417.159	81.44
417.382	86.44
417.605	98.44
417.828	113.44
418.051	114.44
418.274	74.44
418.497	81.44
418.72	102.44
418.943	79.44
419.166	89.44
419.389	79.44
419.611	87.44
419.834	75.44
420.057	101.44
420.28	95.44
420.503	89.44
420.726	86.44
420.948	103.44
421.171	95.44
421.394	92.44
421.617	84.44
421.839	80.44
422.062	95.44
422.285	92.44
422.507	105.44
422.73	95.44
422.953	103.44
423.175	82.44
423.398	91.44
423.621	96.44
423.843	84.44
424.066	86.44
424.288	96.44
424.511	97.44
424.733	114.44
424.956	127.44
425.178	105.44
425.401	101.44
425.623	93.44
425.846	96.44
426.068	100.44
426.291	91.44
426.513	81.44
426.735	81.44
426.958	106.44
427.18	112.44
427.402	153.44
427.625	248.44
427.847	223.44
428.069	178.44
428.292	120.44
428.514	90.44
428.736	72.44
428.958	86.44
429.181	69.44
429.403	76.44
429.625	84.44
429.847	92.44
430.069	113.44
430.292	89.44
430.514	81.44
430.736	71.44
430.958	72.44
431.18	78.44
431.402	90.44
431.624	92.44
431.846	87.44
432.068	92.44
432.29	83.44
432.512	92.44
432.734	88.44
432.956	86.44
433.178	96.44
433.4	92.44
433.622	80.44
433.844	78.44
434.066	97.44
434.287	88.44
434.509	90.44
434.731	92.44
434.953	80.44
435.175	80.44
435.397	86.44
435.618	86.44
435.84	113.44
436.062	135.44
436.284	113.44
436.505	104.44
436.727	86.44
436.949	91.44
437.17	88.44
437.392	96.44
437.614	105.44
437.835	131.44
438.057	138.44
438.278	132.44
438.5	114.44
438.721	113.44
438.943	120.44
439.165	101.44
439.386	98.44
439.608	88.44
439.829	99.44
440.05	140.44
440.272	161.44
440.493	104.44
440.715	99.44
440.936	81.44
441.158	69.44
441.379	97.44
441.6	95.44
441.822	105.44
442.043	91.44
442.264	116.44
442.486	97.44
442.707	113.44
442.928	117.44
443.149	153.44
443.371	176.44
443.592	129.44
443.813	119.44
444.034	123.44
444.255	91.44
444.476	83.44
444.698	82.44
444.919	88.44
445.14	139.44
445.361	131.44
445.582	137.44
445.803	167.44
446.024	178.44
446.245	146.44
446.466	137.44
446.687	90.44
446.908	91.44
447.129	91.44
447.35	95.44
447.571	93.44
447.792	110.44
448.013	122.44
448.234	130.44
448.455	122.44
448.675	120.44
448.896	137.44
449.117	108.44
449.338	113.44
449.559	141.44
449.779	130.44
450	97.44
450.221	84.44
450.442	82.44
450.662	94.44
450.883	123.44
451.104	138.44
451.324	110.44
451.545	82.44
451.766	90.44
451.986	95.44
452.207	95.44
452.428	104.44
452.648	99.44
452.869	126.44
453.089	116.44
453.31	139.44
453.53	107.44
453.751	112.44
453.971	121.44
454.192	132.44
454.412	98.44
454.633	94.44
454.853	92.44
455.073	79.44
455.294	83.44
455.514	96.44
455.734	103.44
455.955	83.44
456.175	80.44
456.395	90.44
456.616	86.44
456.836	85.44
457.056	82.44
457.276	76.44
457.497	72.44
457.717	93.44
457.937	81.44
458.157	79.44
458.377	97.44
458.598	127.44
458.818	210.44
459.038	230.44
459.258	147.44
459.478	99.44
459.698	92.44
459.918	86.44
460.138	94.44
460.358	85.44
460.578	75.44
460.798	78.44
461.018	93.44
461.238	76.44
461.458	81.44
461.678	83.44
461.898	93.44
462.118	72.44
462.338	72.44
462.558	99.44
462.777	90.44
462.997	82.44
463.217	103.44
463.437	94.44
463.657	79.44
463.876	84.44
464.096	101.44
464.316	101.44
464.536	89.44
464.755	99.44
464.975	117.44
465.195	222.44
465.414	242.44
465.634	116.44
465.854	95.44
466.073	87.44
466.293	102.44
466.512	98.44
466.732	91.44
466.951	108.44
467.171	93.44
467.391	88.44
467.61	126.44
467.829	188.44
468.049	480.44
468.268	723.44
468.488	196.44
468.707	94.44
468.927	95.44
469.146	83.44
469.365	83.44
469.585	96.44
469.804	111.44
470.023	102.44
470.243	110.44
470.462	127.44
470.681	127.44
470.901	112.44
471.12	104.44
471.339	104.44
471.558	100.44
471.777	137.44
471.997	276.44
472.216	950.44
472.435	2155.44
472.654	524.44
472.873	165.44
473.092	112.44
473.311	95.44
473.53	96.44
473.749	78.44
473.968	98.44
474.187	88.44
474.406	122.44
474.625	100.44
474.844	87.44
475.063	89.44
475.282	93.44
475.501	86.44
475.72	76.44
475.939	81.44
476.158	83.44
476.377	88.44
476.596	92.44
476.814	90.44
477.033	100.44
477.252	102.44
477.471	81.44
477.69	88.44
477.908	97.44
478.127	91.44
478.346	92.44
478.564	96.44
478.783	111.44
479.002	102.44
479.22	99.44
479.439	122.44
479.658	121.44
479.876	119.44
480.095	123.44
480.313	115.44
480.532	143.44
480.751	261.44
480.969	861.44
481.188	3658.44
481.406	2171.44
481.624	322.44
481.843	126.44
482.061	114.44
482.28	104.44
482.498	94.44
482.717	91.44
482.935	90.44
483.153	97.44
483.372	89.44
483.59	92.44
483.808	90.44
484.027	102.44
484.245	95.44
484.463	95.44
484.681	94.44
484.9	87.44
485.118	97.44
485.336	97.44
485.554	97.44
485.772	78.44
485.99	83.44
486.209	98.44
486.427	95.44
486.645	115.44
486.863	111.44
487.081	99.44
487.299	111.44
487.517	87.44
487.735	84.44
487.953	74.44
488.171	111.44
488.389	100.44
488.607	98.44
488.825	100.44
489.043	91.44
489.261	86.44
489.479	90.44
489.696	79.44
489.914	87.44
490.132	91.44
490.35	80.44
490.568	71.44
490.786	82.44
491.003	91.44
491.221	86.44
491.439	97.44
491.657	89.44
491.874	94.44
492.092	96.44
492.31	96.44
492.527	108.44
492.745	88.44
492.963	90.44
493.18	80.44
493.398	92.44
493.615	98.44
493.833	95.44
494.05	88.44
494.268	83.44
494.485	72.44
494.703	88.44
494.92	84.44
495.138	92.44
495.355	84.44
495.573	81.44
495.79	94.44
496.008	87.44
496.225	93.44
496.442	79.44
496.66	84.44
496.877	80.44
497.094	80.44
497.312	97.44
497.529	88.44
497.746	89.44
497.963	96.44
498.181	85.44
498.398	86.44
498.615	113.44
498.832	117.44
499.049	111.44
499.267	83.44
499.484	96.44
499.701	86.44
499.918	94.44
500.135	84.44
500.352	89.44
500.569	83.44
500.786	98.44
501.003	96.44
501.22	91.44
501.437	100.44
501.654	103.44
501.871	123.44
502.088	100.44
502.305	94.44
502.522	105.44
502.739	93.44
502.956	75.44
503.172	79.44
503.389	103.44
503.606	123.44
503.823	102.44
504.04	94.44
504.256	94.44
504.473	79.44
504.69	97.44
504.907	101.44
505.123	97.44
505.34	85.44
505.557	99.44
505.773	88.44
505.99	92.44
506.207	98.44
506.423	94.44
506.64	87.44
506.856	89.44
507.073	82.44
507.289	87.44
507.506	95.44
507.722	130.44
507.939	130.44
508.155	95.44
508.372	86.44
508.588	100.44
508.805	90.44
509.021	115.44
509.238	98.44
509.454	105.44
509.67	99.44
509.887	113.44
510.103	139.44
510.319	231.44
510.536	881.44
510.752	3163.44
510.968	881.44
511.184	187.44
511.401	128.44
511.617	113.44
511.833	99.44
512.049	107.44
512.265	96.44
512.481	83.44
512.698	85.44
512.914	99.44
513.13	96.44
513.346	105.44
513.562	90.44
513.778	105.44
513.994	114.44
514.21	114.44
514.426	139.44
514.642	184.44
