Data from Circ_2013_H10_HRD10591_00010.txt Node
Date: Wed Jan 03 10:04:02 EST 2024
User: Yrep
Spectrometer: HR+D1059
Trigger mode: 1
Integration Time (sec): 1.000000E-1
Scans to average: 1
Electric dark correction enabled: true
Nonlinearity correction enabled: false
Boxcar width: 0
XAxis mode: Wavelengths
Number of Pixels in Spectrum: 2048
>>>>>Begin Spectral Data<<<<<
223.165	-19.5
223.4	-19.5
223.635	-19.5
223.869	-13.5
224.104	-14.5
224.338	-14.5
224.573	-30.5
224.808	-10.5
225.042	2.5
225.277	-6.5
225.511	11.5
225.746	6.5
225.98	-7.5
226.215	21.5
226.449	16.5
226.683	4.5
226.918	16.5
227.152	37.5
227.387	38.5
227.621	40.5
227.856	36.5
228.09	49.5
228.324	43.5
228.559	52.5
228.793	55.5
229.027	65.5
229.262	78.5
229.496	66.5
229.73	83.5
229.964	85.5
230.199	62.5
230.433	68.5
230.667	75.5
230.901	72.5
231.136	82.5
231.37	89.5
231.604	90.5
231.838	83.5
232.072	83.5
232.306	84.5
232.541	65.5
232.775	105.5
233.009	88.5
233.243	77.5
233.477	82.5
233.711	91.5
233.945	82.5
234.179	86.5
234.413	75.5
234.647	60.5
234.881	78.5
235.115	80.5
235.349	72.5
235.583	82.5
235.817	75.5
236.051	80.5
236.285	74.5
236.519	92.5
236.753	76.5
236.987	65.5
237.221	89.5
237.455	72.5
237.689	73.5
237.922	76.5
238.156	82.5
238.39	86.5
238.624	83.5
238.858	64.5
239.091	71.5
239.325	93.5
239.559	75.5
239.793	76.5
240.027	85.5
240.26	75.5
240.494	74.5
240.728	79.5
240.961	80.5
241.195	73.5
241.429	79.5
241.662	79.5
241.896	76.5
242.13	73.5
242.363	62.5
242.597	61.5
242.83	75.5
243.064	79.5
243.298	75.5
243.531	68.5
243.765	81.5
243.998	72.5
244.232	82.5
244.465	76.5
244.699	70.5
244.932	70.5
245.166	62.5
245.399	62.5
245.633	69.5
245.866	78.5
246.099	74.5
246.333	81.5
246.566	74.5
246.8	78.5
247.033	73.5
247.266	78.5
247.5	78.5
247.733	67.5
247.966	77.5
248.2	94.5
248.433	74.5
248.666	83.5
248.899	72.5
249.133	77.5
249.366	101.5
249.599	97.5
249.832	93.5
250.066	82.5
250.299	77.5
250.532	69.5
250.765	93.5
250.998	80.5
251.231	72.5
251.465	79.5
251.698	76.5
251.931	82.5
252.164	78.5
252.397	71.5
252.63	83.5
252.863	97.5
253.096	78.5
253.329	74.5
253.562	84.5
253.795	77.5
254.028	77.5
254.261	85.5
254.494	90.5
254.727	89.5
254.96	87.5
255.193	77.5
255.426	82.5
255.659	65.5
255.892	89.5
256.124	75.5
256.357	74.5
256.59	87.5
256.823	93.5
257.056	82.5
257.289	86.5
257.521	93.5
257.754	80.5
257.987	80.5
258.22	85.5
258.452	91.5
258.685	84.5
258.918	87.5
259.151	83.5
259.383	76.5
259.616	59.5
259.849	75.5
260.081	66.5
260.314	85.5
260.547	73.5
260.779	73.5
261.012	85.5
261.244	83.5
261.477	88.5
261.71	91.5
261.942	100.5
262.175	109.5
262.407	89.5
262.64	81.5
262.872	69.5
263.105	76.5
263.337	76.5
263.57	87.5
263.802	74.5
264.035	71.5
264.267	92.5
264.499	82.5
264.732	72.5
264.964	81.5
265.197	85.5
265.429	72.5
265.661	78.5
265.894	85.5
266.126	79.5
266.358	82.5
266.591	81.5
266.823	80.5
267.055	91.5
267.287	72.5
267.52	91.5
267.752	82.5
267.984	83.5
268.216	78.5
268.448	81.5
268.681	90.5
268.913	77.5
269.145	84.5
269.377	84.5
269.609	82.5
269.841	72.5
270.073	68.5
270.306	83.5
270.538	60.5
270.77	87.5
271.002	83.5
271.234	77.5
271.466	71.5
271.698	97.5
271.93	90.5
272.162	78.5
272.394	82.5
272.626	87.5
272.858	78.5
273.09	84.5
273.322	73.5
273.553	80.5
273.785	93.5
274.017	96.5
274.249	84.5
274.481	72.5
274.713	80.5
274.945	87.5
275.176	86.5
275.408	78.5
275.64	85.5
275.872	94.5
276.104	83.5
276.335	88.5
276.567	102.5
276.799	105.5
277.031	108.5
277.262	97.5
277.494	101.5
277.726	75.5
277.957	79.5
278.189	90.5
278.421	73.5
278.652	64.5
278.884	78.5
279.115	87.5
279.347	103.5
279.579	94.5
279.81	92.5
280.042	98.5
280.273	118.5
280.505	85.5
280.736	86.5
280.968	85.5
281.199	92.5
281.431	94.5
281.662	94.5
281.894	90.5
282.125	97.5
282.356	94.5
282.588	116.5
282.819	104.5
283.051	96.5
283.282	85.5
283.513	80.5
283.745	92.5
283.976	91.5
284.207	80.5
284.439	87.5
284.67	82.5
284.901	83.5
285.132	88.5
285.364	76.5
285.595	96.5
285.826	87.5
286.057	75.5
286.288	87.5
286.52	69.5
286.751	82.5
286.982	86.5
287.213	92.5
287.444	92.5
287.675	100.5
287.906	106.5
288.138	96.5
288.369	89.5
288.6	70.5
288.831	95.5
289.062	93.5
289.293	96.5
289.524	90.5
289.755	89.5
289.986	89.5
290.217	87.5
290.448	78.5
290.679	87.5
290.91	86.5
291.141	73.5
291.371	85.5
291.602	89.5
291.833	88.5
292.064	62.5
292.295	76.5
292.526	97.5
292.757	88.5
292.987	91.5
293.218	84.5
293.449	78.5
293.68	93.5
293.91	89.5
294.141	94.5
294.372	88.5
294.603	77.5
294.833	96.5
295.064	95.5
295.295	91.5
295.525	90.5
295.756	86.5
295.987	113.5
296.217	121.5
296.448	109.5
296.679	96.5
296.909	92.5
297.14	83.5
297.37	90.5
297.601	77.5
297.831	77.5
298.062	93.5
298.292	75.5
298.523	88.5
298.753	84.5
298.984	94.5
299.214	83.5
299.445	93.5
299.675	93.5
299.905	98.5
300.136	97.5
300.366	78.5
300.597	93.5
300.827	89.5
301.057	92.5
301.288	113.5
301.518	80.5
301.748	89.5
301.979	89.5
302.209	94.5
302.439	87.5
302.669	86.5
302.9	86.5
303.13	82.5
303.36	83.5
303.59	114.5
303.82	118.5
304.051	92.5
304.281	81.5
304.511	84.5
304.741	87.5
304.971	87.5
305.201	93.5
305.431	76.5
305.661	90.5
305.891	91.5
306.121	86.5
306.352	97.5
306.582	110.5
306.812	92.5
307.042	82.5
307.272	117.5
307.502	101.5
307.731	102.5
307.961	95.5
308.191	93.5
308.421	93.5
308.651	87.5
308.881	92.5
309.111	90.5
309.341	109.5
309.571	103.5
309.8	87.5
310.03	99.5
310.26	92.5
310.49	96.5
310.72	100.5
310.949	100.5
311.179	103.5
311.409	92.5
311.639	98.5
311.868	78.5
312.098	98.5
312.328	107.5
312.557	105.5
312.787	101.5
313.017	90.5
313.246	92.5
313.476	82.5
313.706	89.5
313.935	94.5
314.165	105.5
314.394	103.5
314.624	109.5
314.853	107.5
315.083	87.5
315.312	108.5
315.542	80.5
315.771	77.5
316.001	91.5
316.23	88.5
316.46	93.5
316.689	93.5
316.919	87.5
317.148	110.5
317.377	106.5
317.607	83.5
317.836	92.5
318.065	77.5
318.295	94.5
318.524	85.5
318.753	90.5
318.983	103.5
319.212	103.5
319.441	110.5
319.67	113.5
319.9	99.5
320.129	80.5
320.358	87.5
320.587	84.5
320.816	101.5
321.046	98.5
321.275	100.5
321.504	99.5
321.733	95.5
321.962	107.5
322.191	87.5
322.42	116.5
322.649	100.5
322.878	104.5
323.108	116.5
323.337	122.5
323.566	132.5
323.795	141.5
324.024	198.5
324.253	372.5
324.482	736.5
324.71	1460.5
324.939	1918.5
325.168	723.5
325.397	227.5
325.626	146.5
325.855	118.5
326.084	108.5
326.313	129.5
326.542	140.5
326.77	212.5
326.999	424.5
327.228	873.5
327.457	1517.5
327.686	1226.5
327.914	360.5
328.143	221.5
328.372	207.5
328.6	156.5
328.829	113.5
329.058	124.5
329.287	148.5
329.515	120.5
329.744	130.5
329.972	149.5
330.201	235.5
330.43	352.5
330.658	210.5
330.887	154.5
331.115	120.5
331.344	107.5
331.572	109.5
331.801	107.5
332.03	107.5
332.258	89.5
332.486	86.5
332.715	116.5
332.943	109.5
333.172	106.5
333.4	90.5
333.629	107.5
333.857	129.5
334.085	157.5
334.314	233.5
334.542	412.5
334.771	414.5
334.999	173.5
335.227	130.5
335.455	98.5
335.684	98.5
335.912	91.5
336.14	95.5
336.369	94.5
336.597	99.5
336.825	97.5
337.053	87.5
337.281	69.5
337.51	93.5
337.738	86.5
337.966	101.5
338.194	99.5
338.422	84.5
338.65	94.5
338.878	82.5
339.106	89.5
339.334	92.5
339.562	96.5
339.79	81.5
340.018	78.5
340.246	97.5
340.474	97.5
340.702	81.5
340.93	89.5
341.158	100.5
341.386	86.5
341.614	97.5
341.842	92.5
342.07	87.5
342.298	97.5
342.526	71.5
342.754	95.5
342.981	99.5
343.209	88.5
343.437	111.5
343.665	87.5
343.893	70.5
344.12	94.5
344.348	79.5
344.576	102.5
344.804	92.5
345.031	85.5
345.259	94.5
345.487	98.5
345.714	87.5
345.942	93.5
346.17	86.5
346.397	88.5
346.625	98.5
346.853	80.5
347.08	94.5
347.308	68.5
347.535	94.5
347.763	100.5
347.99	92.5
348.218	111.5
348.445	102.5
348.673	104.5
348.9	92.5
349.128	83.5
349.355	91.5
349.583	97.5
349.81	80.5
350.037	100.5
350.265	76.5
350.492	102.5
350.72	103.5
350.947	106.5
351.174	95.5
351.402	103.5
351.629	98.5
351.856	101.5
352.083	108.5
352.311	90.5
352.538	83.5
352.765	103.5
352.992	103.5
353.22	107.5
353.447	105.5
353.674	98.5
353.901	98.5
354.128	109.5
354.355	103.5
354.583	87.5
354.81	104.5
355.037	102.5
355.264	69.5
355.491	91.5
355.718	86.5
355.945	105.5
356.172	89.5
356.399	89.5
356.626	104.5
356.853	92.5
357.08	97.5
357.307	89.5
357.534	85.5
357.761	96.5
357.988	81.5
358.215	97.5
358.441	109.5
358.668	89.5
358.895	96.5
359.122	92.5
359.349	84.5
359.576	85.5
359.802	84.5
360.029	110.5
360.256	115.5
360.483	105.5
360.709	92.5
360.936	88.5
361.163	93.5
361.39	89.5
361.616	90.5
361.843	91.5
362.07	87.5
362.296	94.5
362.523	100.5
362.749	86.5
362.976	87.5
363.203	83.5
363.429	74.5
363.656	96.5
363.882	93.5
364.109	85.5
364.335	112.5
364.562	79.5
364.788	100.5
365.015	79.5
365.241	96.5
365.468	94.5
365.694	109.5
365.92	90.5
366.147	96.5
366.373	70.5
366.599	92.5
366.826	78.5
367.052	82.5
367.278	79.5
367.505	92.5
367.731	96.5
367.957	94.5
368.184	91.5
368.41	101.5
368.636	114.5
368.862	101.5
369.089	105.5
369.315	98.5
369.541	100.5
369.767	86.5
369.993	99.5
370.219	104.5
370.445	81.5
370.672	67.5
370.898	89.5
371.124	64.5
371.35	84.5
371.576	72.5
371.802	89.5
372.028	107.5
372.254	84.5
372.48	85.5
372.706	87.5
372.932	96.5
373.158	88.5
373.384	82.5
373.61	84.5
373.835	81.5
374.061	91.5
374.287	89.5
374.513	101.5
374.739	99.5
374.965	78.5
375.191	84.5
375.416	95.5
375.642	98.5
375.868	99.5
376.094	84.5
376.319	97.5
376.545	93.5
376.771	88.5
376.997	85.5
377.222	89.5
377.448	91.5
377.674	86.5
377.899	86.5
378.125	106.5
378.35	80.5
378.576	98.5
378.802	89.5
379.027	86.5
379.253	96.5
379.478	100.5
379.704	99.5
379.929	92.5
380.155	93.5
380.38	97.5
380.606	94.5
380.831	98.5
381.057	114.5
381.282	112.5
381.507	104.5
381.733	107.5
381.958	97.5
382.184	100.5
382.409	101.5
382.634	104.5
382.86	101.5
383.085	90.5
383.31	106.5
383.535	116.5
383.761	115.5
383.986	100.5
384.211	99.5
384.436	90.5
384.662	97.5
384.887	116.5
385.112	108.5
385.337	123.5
385.562	117.5
385.787	114.5
386.013	119.5
386.238	117.5
386.463	115.5
386.688	104.5
386.913	110.5
387.138	125.5
387.363	132.5
387.588	102.5
387.813	104.5
388.038	124.5
388.263	138.5
388.488	118.5
388.713	105.5
388.938	94.5
389.163	102.5
389.387	88.5
389.612	96.5
389.837	93.5
390.062	94.5
390.287	86.5
390.512	92.5
390.736	91.5
390.961	98.5
391.186	86.5
391.411	96.5
391.636	91.5
391.86	89.5
392.085	87.5
392.31	85.5
392.534	97.5
392.759	75.5
392.984	92.5
393.208	92.5
393.433	97.5
393.658	88.5
393.882	82.5
394.107	77.5
394.331	66.5
394.556	84.5
394.78	87.5
395.005	88.5
395.229	97.5
395.454	80.5
395.678	89.5
395.903	68.5
396.127	92.5
396.352	82.5
396.576	90.5
396.801	91.5
397.025	92.5
397.249	89.5
397.474	98.5
397.698	86.5
397.922	82.5
398.147	89.5
398.371	72.5
398.595	89.5
398.82	75.5
399.044	83.5
399.268	86.5
399.492	73.5
399.717	92.5
399.941	77.5
400.165	82.5
400.389	92.5
400.613	92.5
400.837	90.5
401.062	77.5
401.286	90.5
401.51	89.5
401.734	89.5
401.958	101.5
402.182	120.5
402.406	151.5
402.63	128.5
402.854	84.5
403.078	80.5
403.302	86.5
403.526	88.5
403.75	90.5
403.974	69.5
404.198	91.5
404.422	84.5
404.645	86.5
404.869	89.5
405.093	78.5
405.317	87.5
405.541	88.5
405.765	91.5
405.988	112.5
406.212	148.5
406.436	206.5
406.66	142.5
406.883	96.5
407.107	88.5
407.331	94.5
407.555	98.5
407.778	99.5
408.002	87.5
408.226	84.5
408.449	79.5
408.673	94.5
408.896	91.5
409.12	93.5
409.344	91.5
409.567	78.5
409.791	91.5
410.014	101.5
410.238	104.5
410.461	96.5
410.685	82.5
410.908	102.5
411.132	96.5
411.355	91.5
411.578	93.5
411.802	80.5
412.025	101.5
412.249	88.5
412.472	92.5
412.695	112.5
412.919	99.5
413.142	91.5
413.365	94.5
413.589	77.5
413.812	76.5
414.035	93.5
414.258	99.5
414.482	81.5
414.705	99.5
414.928	85.5
415.151	79.5
415.374	80.5
415.597	90.5
415.821	82.5
416.044	85.5
416.267	86.5
416.49	89.5
416.713	81.5
416.936	95.5
417.159	96.5
417.382	77.5
417.605	85.5
417.828	113.5
418.051	83.5
418.274	88.5
418.497	81.5
418.72	96.5
418.943	89.5
419.166	84.5
419.389	89.5
419.611	96.5
419.834	90.5
420.057	97.5
420.28	76.5
420.503	77.5
420.726	75.5
420.948	78.5
421.171	78.5
421.394	94.5
421.617	85.5
421.839	92.5
422.062	93.5
422.285	85.5
422.507	91.5
422.73	95.5
422.953	101.5
423.175	84.5
423.398	79.5
423.621	95.5
423.843	106.5
424.066	92.5
424.288	97.5
424.511	87.5
424.733	88.5
424.956	93.5
425.178	81.5
425.401	108.5
425.623	100.5
425.846	97.5
426.068	93.5
426.291	103.5
426.513	89.5
426.735	86.5
426.958	98.5
427.18	94.5
427.402	139.5
427.625	164.5
427.847	125.5
428.069	151.5
428.292	97.5
428.514	84.5
428.736	76.5
428.958	95.5
429.181	80.5
429.403	73.5
429.625	100.5
429.847	89.5
430.069	87.5
430.292	97.5
430.514	88.5
430.736	77.5
430.958	85.5
431.18	80.5
431.402	96.5
431.624	82.5
431.846	84.5
432.068	97.5
432.29	89.5
432.512	80.5
432.734	88.5
432.956	93.5
433.178	88.5
433.4	91.5
433.622	97.5
433.844	96.5
434.066	93.5
434.287	79.5
434.509	91.5
434.731	85.5
434.953	96.5
435.175	91.5
435.397	81.5
435.618	87.5
435.84	94.5
436.062	105.5
436.284	101.5
436.505	85.5
436.727	97.5
436.949	93.5
437.17	92.5
437.392	81.5
437.614	96.5
437.835	100.5
438.057	104.5
438.278	105.5
438.5	100.5
438.721	106.5
438.943	100.5
439.165	80.5
439.386	97.5
439.608	90.5
439.829	90.5
440.05	108.5
440.272	143.5
440.493	90.5
440.715	88.5
440.936	84.5
441.158	100.5
441.379	83.5
441.6	90.5
441.822	92.5
442.043	101.5
442.264	98.5
442.486	90.5
442.707	96.5
442.928	111.5
443.149	116.5
443.371	131.5
443.592	126.5
443.813	115.5
444.034	90.5
444.255	88.5
444.476	86.5
444.698	83.5
444.919	83.5
445.14	145.5
445.361	118.5
445.582	106.5
445.803	124.5
446.024	140.5
446.245	135.5
446.466	112.5
446.687	90.5
446.908	93.5
447.129	101.5
447.35	108.5
447.571	73.5
447.792	91.5
448.013	96.5
448.234	109.5
448.455	101.5
448.675	117.5
448.896	112.5
449.117	102.5
449.338	110.5
449.559	125.5
449.779	114.5
450	96.5
450.221	77.5
450.442	83.5
450.662	92.5
450.883	101.5
451.104	110.5
451.324	94.5
451.545	88.5
451.766	88.5
451.986	85.5
452.207	81.5
452.428	90.5
452.648	93.5
452.869	100.5
453.089	97.5
453.31	118.5
453.53	88.5
453.751	87.5
453.971	107.5
454.192	117.5
454.412	94.5
454.633	80.5
454.853	90.5
455.073	86.5
455.294	82.5
455.514	99.5
455.734	91.5
455.955	90.5
456.175	88.5
456.395	86.5
456.616	92.5
456.836	88.5
457.056	59.5
457.276	78.5
457.497	85.5
457.717	80.5
457.937	88.5
458.157	85.5
458.377	82.5
458.598	106.5
458.818	173.5
459.038	153.5
459.258	113.5
459.478	83.5
459.698	93.5
459.918	74.5
460.138	77.5
460.358	78.5
460.578	84.5
460.798	96.5
461.018	80.5
461.238	81.5
461.458	68.5
461.678	87.5
461.898	93.5
462.118	85.5
462.338	98.5
462.558	84.5
462.777	82.5
462.997	79.5
463.217	86.5
463.437	81.5
463.657	86.5
463.876	88.5
464.096	96.5
464.316	88.5
464.536	92.5
464.755	92.5
464.975	107.5
465.195	150.5
465.414	156.5
465.634	95.5
465.854	92.5
466.073	83.5
466.293	87.5
466.512	86.5
466.732	75.5
466.951	83.5
467.171	94.5
467.391	91.5
467.61	94.5
467.829	99.5
468.049	158.5
468.268	224.5
468.488	97.5
468.707	78.5
468.927	82.5
469.146	72.5
469.365	84.5
469.585	91.5
469.804	100.5
470.023	94.5
470.243	96.5
470.462	85.5
470.681	91.5
470.901	81.5
471.12	76.5
471.339	84.5
471.558	92.5
471.777	85.5
471.997	126.5
472.216	262.5
472.435	524.5
472.654	188.5
472.873	114.5
473.092	93.5
473.311	80.5
473.53	78.5
473.749	83.5
473.968	87.5
474.187	92.5
474.406	88.5
474.625	79.5
474.844	80.5
475.063	94.5
475.282	95.5
475.501	91.5
475.72	102.5
475.939	104.5
476.158	80.5
476.377	90.5
476.596	90.5
476.814	88.5
477.033	91.5
477.252	82.5
477.471	82.5
477.69	83.5
477.908	84.5
478.127	95.5
478.346	97.5
478.564	76.5
478.783	87.5
479.002	98.5
479.22	112.5
479.439	97.5
479.658	108.5
479.876	107.5
480.095	88.5
480.313	102.5
480.532	93.5
480.751	131.5
480.969	256.5
481.188	866.5
481.406	553.5
481.624	155.5
481.843	94.5
482.061	85.5
482.28	92.5
482.498	90.5
482.717	74.5
482.935	88.5
483.153	99.5
483.372	90.5
483.59	90.5
483.808	76.5
484.027	85.5
484.245	81.5
484.463	92.5
484.681	100.5
484.9	91.5
485.118	108.5
485.336	84.5
485.554	117.5
485.772	100.5
485.99	95.5
486.209	91.5
486.427	103.5
486.645	103.5
486.863	101.5
487.081	82.5
487.299	92.5
487.517	101.5
487.735	92.5
487.953	93.5
488.171	92.5
488.389	91.5
488.607	97.5
488.825	93.5
489.043	84.5
489.261	98.5
489.479	92.5
489.696	96.5
489.914	95.5
490.132	85.5
490.35	84.5
490.568	88.5
490.786	71.5
491.003	90.5
491.221	84.5
491.439	92.5
491.657	86.5
491.874	92.5
492.092	96.5
492.31	76.5
492.527	94.5
492.745	73.5
492.963	91.5
493.18	80.5
493.398	80.5
493.615	96.5
493.833	100.5
494.05	89.5
494.268	101.5
494.485	93.5
494.703	84.5
494.92	78.5
495.138	84.5
495.355	96.5
495.573	91.5
495.79	100.5
496.008	95.5
496.225	80.5
496.442	84.5
496.66	88.5
496.877	87.5
497.094	105.5
497.312	81.5
497.529	93.5
497.746	90.5
497.963	88.5
498.181	100.5
498.398	88.5
498.615	102.5
498.832	98.5
499.049	74.5
499.267	90.5
499.484	93.5
499.701	85.5
499.918	106.5
500.135	76.5
500.352	92.5
500.569	83.5
500.786	84.5
501.003	83.5
501.22	86.5
501.437	99.5
501.654	91.5
501.871	115.5
502.088	71.5
502.305	99.5
502.522	96.5
502.739	89.5
502.956	86.5
503.172	70.5
503.389	91.5
503.606	91.5
503.823	105.5
504.04	83.5
504.256	87.5
504.473	98.5
504.69	87.5
504.907	98.5
505.123	102.5
505.34	92.5
505.557	78.5
505.773	93.5
505.99	82.5
506.207	85.5
506.423	97.5
506.64	94.5
506.856	91.5
507.073	98.5
507.289	108.5
507.506	90.5
507.722	112.5
507.939	104.5
508.155	92.5
508.372	99.5
508.588	80.5
508.805	85.5
509.021	89.5
509.238	91.5
509.454	95.5
509.67	97.5
509.887	116.5
510.103	105.5
510.319	202.5
510.536	648.5
510.752	1997.5
510.968	627.5
511.184	147.5
511.401	104.5
511.617	103.5
511.833	112.5
512.049	98.5
512.265	87.5
512.481	96.5
512.698	97.5
512.914	84.5
513.13	79.5
513.346	84.5
513.562	91.5
513.778	90.5
513.994	88.5
514.21	94.5
514.426	114.5
514.642	132.5
514.858	110.5
515.074	152.5
515.29	418.5
515.506	1431.5
515.721	557.5
515.937	158.5
516.153	114.5
516.369	106.5
516.585	97.5
516.801	100.5
517.016	96.5
517.232	95.5
517.448	104.5
517.664	99.5
517.879	90.5
518.095	86.5
518.311	90.5
518.527	97.5
518.742	79.5
518.958	105.5
519.173	89.5
519.389	94.5
519.605	106.5
519.82	97.5
520.036	97.5
520.251	118.5
520.467	117.5
520.682	102.5
520.898	104.5
521.113	114.5
521.329	118.5
521.544	171.5
521.76	521.5
521.975	2293.5
522.19	1443.5
522.406	323.5
522.621	120.5
522.836	105.5
523.052	96.5
523.267	87.5
523.482	92.5
523.698	104.5
523.913	126.5
524.128	105.5
524.343	98.5
524.559	83.5
524.774	93.5
524.989	92.5
525.204	100.5
525.419	95.5
525.634	83.5
525.849	106.5
526.064	84.5
526.28	109.5
526.495	89.5
526.71	78.5
526.925	87.5
527.14	86.5
527.355	84.5
527.57	89.5
527.785	83.5
527.999	91.5
528.214	85.5
528.429	93.5
528.644	96.5
528.859	85.5
529.074	98.5
529.289	122.5
529.503	170.5
529.718	89.5
529.933	80.5
530.148	93.5
530.363	96.5
530.577	101.5
530.792	91.5
531.007	84.5
531.221	90.5
531.436	95.5
531.651	86.5
531.865	85.5
532.08	85.5
532.295	101.5
532.509	101.5
532.724	96.5
532.938	99.5
533.153	99.5
533.367	100.5
533.582	93.5
533.796	74.5
534.011	96.5
534.225	86.5
534.44	79.5
534.654	98.5
534.868	92.5
535.083	97.5
535.297	85.5
