Data from Circ_2013_H10_HRD10591_00005.txt Node
Date: Wed Jan 03 10:04:01 EST 2024
User: Yrep
Spectrometer: HR+D1059
Trigger mode: 1
Integration Time (sec): 1.000000E-1
Scans to average: 1
Electric dark correction enabled: true
Nonlinearity correction enabled: false
Boxcar width: 0
XAxis mode: Wavelengths
Number of Pixels in Spectrum: 2048
>>>>>Begin Spectral Data<<<<<
223.165	-22.81
223.4	-22.81
223.635	-22.81
223.869	0.19
224.104	-14.81
224.338	-17.81
224.573	-21.81
224.808	0.19
225.042	-3.81
225.277	1.19
225.511	-1.81
225.746	4.19
225.98	-0.81
226.215	3.19
226.449	14.19
226.683	12.19
226.918	19.19
227.152	29.19
227.387	38.19
227.621	36.19
227.856	33.19
228.09	39.19
228.324	49.19
228.559	59.19
228.793	60.19
229.027	46.19
229.262	60.19
229.496	75.19
229.73	96.19
229.964	69.19
230.199	66.19
230.433	71.19
230.667	70.19
230.901	87.19
231.136	92.19
231.37	80.19
231.604	78.19
231.838	78.19
232.072	93.19
232.306	71.19
232.541	82.19
232.775	82.19
233.009	86.19
233.243	98.19
233.477	86.19
233.711	84.19
233.945	84.19
234.179	78.19
234.413	68.19
234.647	84.19
234.881	76.19
235.115	90.19
235.349	82.19
235.583	72.19
235.817	63.19
236.051	79.19
236.285	83.19
236.519	79.19
236.753	76.19
236.987	77.19
237.221	103.19
237.455	94.19
237.689	71.19
237.922	76.19
238.156	63.19
238.39	61.19
238.624	71.19
238.858	79.19
239.091	70.19
239.325	72.19
239.559	94.19
239.793	85.19
240.027	78.19
240.26	85.19
240.494	82.19
240.728	66.19
240.961	83.19
241.195	90.19
241.429	69.19
241.662	70.19
241.896	83.19
242.13	64.19
242.363	68.19
242.597	79.19
242.83	82.19
243.064	81.19
243.298	85.19
243.531	75.19
243.765	82.19
243.998	77.19
244.232	82.19
244.465	72.19
244.699	79.19
244.932	68.19
245.166	74.19
245.399	78.19
245.633	85.19
245.866	67.19
246.099	82.19
246.333	77.19
246.566	73.19
246.8	72.19
247.033	81.19
247.266	88.19
247.5	73.19
247.733	71.19
247.966	86.19
248.2	70.19
248.433	72.19
248.666	73.19
248.899	92.19
249.133	71.19
249.366	109.19
249.599	85.19
249.832	80.19
250.066	89.19
250.299	84.19
250.532	99.19
250.765	75.19
250.998	95.19
251.231	82.19
251.465	65.19
251.698	85.19
251.931	70.19
252.164	95.19
252.397	71.19
252.63	86.19
252.863	72.19
253.096	80.19
253.329	87.19
253.562	83.19
253.795	73.19
254.028	84.19
254.261	77.19
254.494	67.19
254.727	76.19
254.96	75.19
255.193	79.19
255.426	65.19
255.659	86.19
255.892	79.19
256.124	87.19
256.357	88.19
256.59	78.19
256.823	86.19
257.056	78.19
257.289	78.19
257.521	64.19
257.754	80.19
257.987	85.19
258.22	90.19
258.452	80.19
258.685	89.19
258.918	88.19
259.151	72.19
259.383	90.19
259.616	68.19
259.849	89.19
260.081	90.19
260.314	83.19
260.547	81.19
260.779	84.19
261.012	86.19
261.244	85.19
261.477	89.19
261.71	96.19
261.942	120.19
262.175	122.19
262.407	100.19
262.64	79.19
262.872	86.19
263.105	92.19
263.337	70.19
263.57	98.19
263.802	79.19
264.035	77.19
264.267	75.19
264.499	80.19
264.732	86.19
264.964	87.19
265.197	88.19
265.429	79.19
265.661	68.19
265.894	86.19
266.126	80.19
266.358	85.19
266.591	92.19
266.823	80.19
267.055	78.19
267.287	89.19
267.52	83.19
267.752	101.19
267.984	87.19
268.216	83.19
268.448	108.19
268.681	97.19
268.913	87.19
269.145	90.19
269.377	84.19
269.609	84.19
269.841	84.19
270.073	85.19
270.306	71.19
270.538	89.19
270.77	80.19
271.002	75.19
271.234	92.19
271.466	85.19
271.698	98.19
271.93	84.19
272.162	86.19
272.394	89.19
272.626	90.19
272.858	72.19
273.09	89.19
273.322	94.19
273.553	73.19
273.785	92.19
274.017	84.19
274.249	84.19
274.481	83.19
274.713	77.19
274.945	97.19
275.176	91.19
275.408	86.19
275.64	96.19
275.872	100.19
276.104	74.19
276.335	94.19
276.567	99.19
276.799	113.19
277.031	123.19
277.262	104.19
277.494	104.19
277.726	101.19
277.957	88.19
278.189	76.19
278.421	94.19
278.652	95.19
278.884	73.19
279.115	87.19
279.347	83.19
279.579	87.19
279.81	92.19
280.042	119.19
280.273	143.19
280.505	103.19
280.736	100.19
280.968	92.19
281.199	92.19
281.431	86.19
281.662	78.19
281.894	99.19
282.125	101.19
282.356	126.19
282.588	142.19
282.819	113.19
283.051	87.19
283.282	78.19
283.513	83.19
283.745	95.19
283.976	84.19
284.207	84.19
284.439	85.19
284.67	94.19
284.901	86.19
285.132	80.19
285.364	100.19
285.595	93.19
285.826	97.19
286.057	88.19
286.288	76.19
286.52	80.19
286.751	93.19
286.982	78.19
287.213	93.19
287.444	88.19
287.675	93.19
287.906	85.19
288.138	89.19
288.369	88.19
288.6	82.19
288.831	91.19
289.062	86.19
289.293	86.19
289.524	84.19
289.755	92.19
289.986	91.19
290.217	85.19
290.448	80.19
290.679	74.19
290.91	86.19
291.141	85.19
291.371	84.19
291.602	92.19
291.833	96.19
292.064	97.19
292.295	89.19
292.526	81.19
292.757	91.19
292.987	90.19
293.218	82.19
293.449	84.19
293.68	92.19
293.91	86.19
294.141	104.19
294.372	78.19
294.603	83.19
294.833	87.19
295.064	83.19
295.295	86.19
295.525	91.19
295.756	101.19
295.987	103.19
296.217	119.19
296.448	126.19
296.679	109.19
296.909	88.19
297.14	96.19
297.37	91.19
297.601	87.19
297.831	92.19
298.062	85.19
298.292	99.19
298.523	86.19
298.753	82.19
298.984	97.19
299.214	105.19
299.445	107.19
299.675	87.19
299.905	85.19
300.136	84.19
300.366	87.19
300.597	84.19
300.827	94.19
301.057	100.19
301.288	97.19
301.518	97.19
301.748	83.19
301.979	102.19
302.209	93.19
302.439	99.19
302.669	92.19
302.9	98.19
303.13	75.19
303.36	91.19
303.59	106.19
303.82	102.19
304.051	95.19
304.281	84.19
304.511	90.19
304.741	92.19
304.971	78.19
305.201	91.19
305.431	88.19
305.661	84.19
305.891	71.19
306.121	104.19
306.352	96.19
306.582	106.19
306.812	97.19
307.042	98.19
307.272	100.19
307.502	118.19
307.731	114.19
307.961	101.19
308.191	93.19
308.421	102.19
308.651	98.19
308.881	88.19
309.111	98.19
309.341	94.19
309.571	104.19
309.8	95.19
310.03	93.19
310.26	100.19
310.49	81.19
310.72	105.19
310.949	128.19
311.179	110.19
311.409	85.19
311.639	75.19
311.868	82.19
312.098	94.19
312.328	103.19
312.557	115.19
312.787	120.19
313.017	100.19
313.246	100.19
313.476	84.19
313.706	96.19
313.935	104.19
314.165	93.19
314.394	97.19
314.624	111.19
314.853	106.19
315.083	97.19
315.312	91.19
315.542	79.19
315.771	78.19
316.001	85.19
316.23	93.19
316.46	79.19
316.689	94.19
316.919	102.19
317.148	89.19
317.377	106.19
317.607	103.19
317.836	90.19
318.065	72.19
318.295	99.19
318.524	84.19
318.753	97.19
318.983	98.19
319.212	87.19
319.441	96.19
319.67	112.19
319.9	95.19
320.129	90.19
320.358	94.19
320.587	105.19
320.816	94.19
321.046	93.19
321.275	82.19
321.504	91.19
321.733	108.19
321.962	90.19
322.191	103.19
322.42	104.19
322.649	117.19
322.878	108.19
323.108	104.19
323.337	129.19
323.566	132.19
323.795	161.19
324.024	212.19
324.253	392.19
324.482	812.19
324.71	1653.19
324.939	2237.19
325.168	829.19
325.397	238.19
325.626	149.19
325.855	114.19
326.084	139.19
326.313	134.19
326.542	159.19
326.77	230.19
326.999	443.19
327.228	893.19
327.457	1639.19
327.686	1327.19
327.914	398.19
328.143	260.19
328.372	274.19
328.6	207.19
328.829	141.19
329.058	150.19
329.287	162.19
329.515	138.19
329.744	142.19
329.972	204.19
330.201	329.19
330.43	469.19
330.658	277.19
330.887	186.19
331.115	154.19
331.344	92.19
331.572	106.19
331.801	115.19
332.03	106.19
332.258	106.19
332.486	98.19
332.715	100.19
332.943	96.19
333.172	101.19
333.4	102.19
333.629	112.19
333.857	132.19
334.085	196.19
334.314	333.19
334.542	572.19
334.771	577.19
334.999	185.19
335.227	133.19
335.455	84.19
335.684	86.19
335.912	92.19
336.14	86.19
336.369	101.19
336.597	114.19
336.825	92.19
337.053	86.19
337.281	90.19
337.51	98.19
337.738	91.19
337.966	99.19
338.194	102.19
338.422	93.19
338.65	102.19
338.878	93.19
339.106	98.19
339.334	91.19
339.562	98.19
339.79	80.19
340.018	82.19
340.246	75.19
340.474	109.19
340.702	95.19
340.93	92.19
341.158	89.19
341.386	94.19
341.614	93.19
341.842	111.19
342.07	98.19
342.298	101.19
342.526	79.19
342.754	92.19
342.981	87.19
343.209	99.19
343.437	108.19
343.665	92.19
343.893	102.19
344.12	97.19
344.348	86.19
344.576	103.19
344.804	97.19
345.031	94.19
345.259	101.19
345.487	107.19
345.714	97.19
345.942	99.19
346.17	94.19
346.397	94.19
346.625	88.19
346.853	94.19
347.08	92.19
347.308	85.19
347.535	98.19
347.763	100.19
347.99	101.19
348.218	96.19
348.445	102.19
348.673	108.19
348.9	98.19
349.128	101.19
349.355	90.19
349.583	103.19
349.81	99.19
350.037	101.19
350.265	92.19
350.492	90.19
350.72	106.19
350.947	95.19
351.174	94.19
351.402	115.19
351.629	105.19
351.856	103.19
352.083	97.19
352.311	101.19
352.538	115.19
352.765	117.19
352.992	107.19
353.22	99.19
353.447	109.19
353.674	90.19
353.901	100.19
354.128	105.19
354.355	90.19
354.583	101.19
354.81	96.19
355.037	74.19
355.264	87.19
355.491	98.19
355.718	98.19
355.945	100.19
356.172	103.19
356.399	85.19
356.626	106.19
356.853	90.19
357.08	87.19
357.307	89.19
357.534	96.19
357.761	92.19
357.988	95.19
358.215	100.19
358.441	103.19
358.668	95.19
358.895	87.19
359.122	90.19
359.349	87.19
359.576	77.19
359.802	117.19
360.029	131.19
360.256	122.19
360.483	103.19
360.709	99.19
360.936	102.19
361.163	97.19
361.39	101.19
361.616	110.19
361.843	105.19
362.07	102.19
362.296	97.19
362.523	96.19
362.749	99.19
362.976	91.19
363.203	91.19
363.429	78.19
363.656	92.19
363.882	90.19
364.109	110.19
364.335	96.19
364.562	96.19
364.788	94.19
365.015	87.19
365.241	98.19
365.468	91.19
365.694	117.19
365.92	99.19
366.147	105.19
366.373	90.19
366.599	89.19
366.826	83.19
367.052	95.19
367.278	78.19
367.505	92.19
367.731	97.19
367.957	93.19
368.184	92.19
368.41	97.19
368.636	109.19
368.862	120.19
369.089	116.19
369.315	90.19
369.541	95.19
369.767	107.19
369.993	94.19
370.219	85.19
370.445	80.19
370.672	88.19
370.898	87.19
371.124	89.19
371.35	98.19
371.576	86.19
371.802	105.19
372.028	89.19
372.254	88.19
372.48	92.19
372.706	86.19
372.932	97.19
373.158	81.19
373.384	107.19
373.61	89.19
373.835	91.19
374.061	94.19
374.287	87.19
374.513	76.19
374.739	93.19
374.965	101.19
375.191	93.19
375.416	102.19
375.642	95.19
375.868	75.19
376.094	79.19
376.319	100.19
376.545	94.19
376.771	109.19
376.997	96.19
377.222	84.19
377.448	102.19
377.674	101.19
377.899	92.19
378.125	91.19
378.35	81.19
378.576	97.19
378.802	99.19
379.027	91.19
379.253	88.19
379.478	97.19
379.704	99.19
379.929	100.19
380.155	95.19
380.38	94.19
380.606	101.19
380.831	86.19
381.057	115.19
381.282	104.19
381.507	104.19
381.733	103.19
381.958	105.19
382.184	102.19
382.409	117.19
382.634	123.19
382.86	111.19
383.085	116.19
383.31	103.19
383.535	116.19
383.761	101.19
383.986	116.19
384.211	92.19
384.436	83.19
384.662	131.19
384.887	115.19
385.112	118.19
385.337	111.19
385.562	126.19
385.787	117.19
386.013	137.19
386.238	132.19
386.463	118.19
386.688	131.19
386.913	114.19
387.138	130.19
387.363	133.19
387.588	104.19
387.813	108.19
388.038	125.19
388.263	138.19
388.488	133.19
388.713	83.19
388.938	84.19
389.163	95.19
389.387	95.19
389.612	85.19
389.837	95.19
390.062	88.19
390.287	94.19
390.512	100.19
390.736	102.19
390.961	110.19
391.186	98.19
391.411	102.19
391.636	98.19
391.86	87.19
392.085	72.19
392.31	77.19
392.534	86.19
392.759	87.19
392.984	87.19
393.208	101.19
393.433	105.19
393.658	95.19
393.882	87.19
394.107	79.19
394.331	87.19
394.556	89.19
394.78	88.19
395.005	97.19
395.229	79.19
395.454	92.19
395.678	74.19
395.903	92.19
396.127	98.19
396.352	93.19
396.576	92.19
396.801	98.19
397.025	96.19
397.249	101.19
397.474	94.19
397.698	83.19
397.922	86.19
398.147	88.19
398.371	86.19
398.595	86.19
398.82	82.19
399.044	81.19
399.268	78.19
399.492	86.19
399.717	85.19
399.941	90.19
400.165	94.19
400.389	83.19
400.613	82.19
400.837	82.19
401.062	77.19
401.286	79.19
401.51	97.19
401.734	90.19
401.958	112.19
402.182	124.19
402.406	171.19
402.63	123.19
402.854	101.19
403.078	96.19
403.302	95.19
403.526	75.19
403.75	81.19
403.974	84.19
404.198	94.19
404.422	85.19
404.645	101.19
404.869	96.19
405.093	114.19
405.317	121.19
405.541	123.19
405.765	106.19
405.988	120.19
406.212	185.19
406.436	253.19
406.66	167.19
406.883	108.19
407.107	91.19
407.331	96.19
407.555	83.19
407.778	93.19
408.002	103.19
408.226	92.19
408.449	89.19
408.673	97.19
408.896	90.19
409.12	78.19
409.344	89.19
409.567	89.19
409.791	89.19
410.014	99.19
410.238	91.19
410.461	89.19
410.685	88.19
410.908	97.19
411.132	106.19
411.355	100.19
411.578	92.19
411.802	90.19
412.025	95.19
412.249	101.19
412.472	114.19
412.695	110.19
412.919	106.19
413.142	99.19
413.365	91.19
413.589	86.19
413.812	85.19
414.035	87.19
414.258	99.19
414.482	89.19
414.705	97.19
414.928	98.19
415.151	97.19
415.374	94.19
415.597	79.19
415.821	79.19
416.044	80.19
416.267	93.19
416.49	103.19
416.713	99.19
416.936	92.19
417.159	99.19
417.382	88.19
417.605	86.19
417.828	105.19
418.051	97.19
418.274	94.19
418.497	80.19
418.72	99.19
418.943	81.19
419.166	85.19
419.389	90.19
419.611	92.19
419.834	95.19
420.057	87.19
420.28	91.19
420.503	87.19
420.726	94.19
420.948	97.19
421.171	89.19
421.394	101.19
421.617	86.19
421.839	93.19
422.062	92.19
422.285	94.19
422.507	103.19
422.73	114.19
422.953	100.19
423.175	92.19
423.398	102.19
423.621	98.19
423.843	92.19
424.066	82.19
424.288	98.19
424.511	86.19
424.733	100.19
424.956	96.19
425.178	117.19
425.401	106.19
425.623	120.19
425.846	88.19
426.068	94.19
426.291	93.19
426.513	86.19
426.735	88.19
426.958	99.19
427.18	110.19
427.402	131.19
427.625	190.19
427.847	166.19
428.069	152.19
428.292	101.19
428.514	97.19
428.736	99.19
428.958	91.19
429.181	88.19
429.403	89.19
429.625	92.19
429.847	95.19
430.069	110.19
430.292	94.19
430.514	86.19
430.736	87.19
430.958	89.19
431.18	101.19
431.402	89.19
431.624	94.19
431.846	72.19
432.068	95.19
432.29	77.19
432.512	95.19
432.734	84.19
432.956	94.19
433.178	96.19
433.4	97.19
433.622	88.19
433.844	86.19
434.066	92.19
434.287	110.19
434.509	88.19
434.731	85.19
434.953	90.19
435.175	90.19
435.397	108.19
435.618	90.19
435.84	104.19
436.062	125.19
436.284	129.19
436.505	116.19
436.727	118.19
436.949	91.19
437.17	102.19
437.392	92.19
437.614	83.19
437.835	107.19
438.057	130.19
438.278	132.19
438.5	117.19
438.721	126.19
438.943	110.19
439.165	89.19
439.386	94.19
439.608	88.19
439.829	110.19
440.05	126.19
440.272	174.19
440.493	105.19
440.715	86.19
440.936	63.19
441.158	100.19
441.379	88.19
441.6	105.19
441.822	107.19
442.043	105.19
442.264	116.19
442.486	106.19
442.707	109.19
442.928	96.19
443.149	152.19
443.371	148.19
443.592	107.19
443.813	117.19
444.034	117.19
444.255	102.19
444.476	97.19
444.698	110.19
444.919	108.19
445.14	132.19
445.361	131.19
445.582	125.19
445.803	163.19
446.024	180.19
446.245	152.19
446.466	119.19
446.687	102.19
446.908	89.19
447.129	95.19
447.35	89.19
447.571	114.19
447.792	108.19
448.013	87.19
448.234	102.19
448.455	111.19
448.675	129.19
448.896	124.19
449.117	95.19
449.338	98.19
449.559	117.19
449.779	157.19
450	101.19
450.221	97.19
450.442	91.19
450.662	91.19
450.883	119.19
451.104	134.19
451.324	86.19
451.545	94.19
451.766	89.19
451.986	92.19
452.207	100.19
452.428	84.19
452.648	110.19
452.869	113.19
453.089	119.19
453.31	110.19
453.53	96.19
453.751	93.19
453.971	123.19
454.192	109.19
454.412	98.19
454.633	88.19
454.853	90.19
455.073	97.19
455.294	101.19
455.514	116.19
455.734	86.19
455.955	84.19
456.175	86.19
456.395	94.19
456.616	101.19
456.836	84.19
457.056	87.19
457.276	78.19
457.497	93.19
457.717	87.19
457.937	86.19
458.157	84.19
458.377	82.19
458.598	107.19
458.818	174.19
459.038	192.19
459.258	123.19
459.478	85.19
459.698	92.19
459.918	98.19
460.138	76.19
460.358	76.19
460.578	85.19
460.798	91.19
461.018	96.19
461.238	94.19
461.458	104.19
461.678	96.19
461.898	97.19
462.118	83.19
462.338	77.19
462.558	84.19
462.777	80.19
462.997	90.19
463.217	85.19
463.437	87.19
463.657	88.19
463.876	89.19
464.096	89.19
464.316	78.19
464.536	91.19
464.755	99.19
464.975	119.19
465.195	174.19
465.414	187.19
465.634	100.19
465.854	99.19
466.073	85.19
466.293	78.19
466.512	93.19
466.732	93.19
466.951	113.19
467.171	94.19
467.391	117.19
467.61	108.19
467.829	120.19
468.049	206.19
468.268	291.19
468.488	117.19
468.707	98.19
468.927	81.19
469.146	86.19
469.365	86.19
469.585	91.19
469.804	85.19
470.023	92.19
470.243	105.19
470.462	103.19
470.681	113.19
470.901	99.19
471.12	87.19
471.339	83.19
471.558	78.19
471.777	113.19
471.997	145.19
472.216	317.19
472.435	715.19
472.654	251.19
472.873	121.19
473.092	91.19
473.311	91.19
473.53	83.19
473.749	87.19
473.968	97.19
474.187	99.19
474.406	103.19
474.625	91.19
474.844	89.19
475.063	81.19
475.282	81.19
475.501	81.19
475.72	87.19
475.939	93.19
476.158	78.19
476.377	86.19
476.596	77.19
476.814	90.19
477.033	101.19
477.252	86.19
477.471	70.19
477.69	94.19
477.908	84.19
478.127	83.19
478.346	83.19
478.564	97.19
478.783	106.19
479.002	82.19
479.22	99.19
479.439	109.19
479.658	108.19
479.876	101.19
480.095	105.19
480.313	94.19
480.532	113.19
480.751	135.19
480.969	291.19
481.188	1147.19
481.406	782.19
481.624	175.19
481.843	109.19
482.061	85.19
482.28	85.19
482.498	78.19
482.717	80.19
482.935	89.19
483.153	86.19
483.372	80.19
483.59	90.19
483.808	91.19
484.027	98.19
484.245	110.19
484.463	103.19
484.681	103.19
484.9	94.19
485.118	92.19
485.336	105.19
485.554	85.19
485.772	90.19
485.99	99.19
486.209	117.19
486.427	119.19
486.645	108.19
486.863	112.19
487.081	110.19
487.299	103.19
487.517	105.19
487.735	103.19
487.953	85.19
488.171	99.19
488.389	98.19
488.607	86.19
488.825	95.19
489.043	90.19
489.261	89.19
489.479	97.19
489.696	96.19
489.914	94.19
490.132	98.19
490.35	101.19
490.568	75.19
490.786	87.19
491.003	102.19
491.221	83.19
491.439	82.19
491.657	101.19
491.874	90.19
492.092	94.19
492.31	88.19
492.527	99.19
492.745	89.19
492.963	105.19
493.18	99.19
493.398	90.19
493.615	84.19
493.833	94.19
494.05	87.19
494.268	95.19
494.485	85.19
494.703	86.19
494.92	75.19
495.138	102.19
495.355	108.19
495.573	99.19
495.79	102.19
496.008	90.19
496.225	83.19
496.442	70.19
496.66	90.19
496.877	97.19
497.094	101.19
497.312	91.19
497.529	72.19
497.746	90.19
497.963	83.19
498.181	89.19
498.398	95.19
498.615	115.19
498.832	103.19
499.049	106.19
499.267	95.19
499.484	104.19
499.701	94.19
499.918	80.19
500.135	76.19
500.352	94.19
500.569	94.19
500.786	103.19
501.003	102.19
501.22	87.19
501.437	97.19
501.654	95.19
501.871	100.19
502.088	88.19
502.305	97.19
502.522	97.19
502.739	92.19
502.956	95.19
503.172	96.19
503.389	106.19
503.606	108.19
503.823	106.19
504.04	96.19
504.256	91.19
504.473	87.19
504.69	93.19
504.907	107.19
505.123	89.19
505.34	99.19
505.557	99.19
505.773	86.19
505.99	78.19
506.207	99.19
506.423	88.19
506.64	93.19
506.856	91.19
507.073	113.19
507.289	94.19
507.506	107.19
507.722	114.19
507.939	118.19
508.155	100.19
508.372	100.19
508.588	93.19
508.805	99.19
509.021	94.19
509.238	81.19
509.454	89.19
509.67	101.19
509.887	107.19
510.103	125.19
510.319	201.19
510.536	681.19
510.752	2349.19
510.968	683.19
511.184	154.19
511.401	97.19
511.617	111.19
511.833	108.19
512.049	100.19
512.265	105.19
512.481	93.19
512.698	95.19
512.914	89.19
513.13	90.19
513.346	94.19
513.562	89.19
513.778	97.19
513.994	115.19
514.21	110.19
