Data from Circ_2013_H10_HRD10591_00017.txt Node
Date: Wed Jan 03 10:04:03 EST 2024
User: Yrep
Spectrometer: HR+D1059
Trigger mode: 1
Integration Time (sec): 1.000000E-1
Scans to average: 1
Electric dark correction enabled: true
Nonlinearity correction enabled: false
Boxcar width: 0
XAxis mode: Wavelengths
Number of Pixels in Spectrum: 2048
>>>>>Begin Spectral Data<<<<<
223.165	-24.38
223.4	-24.38
223.635	-24.38
223.869	-29.38
224.104	-12.38
224.338	-7.38
224.573	-9.38
224.808	-13.38
225.042	-5.38
225.277	-13.38
225.511	4.62
225.746	-4.38
225.98	-2.38
226.215	32.62
226.449	19.62
226.683	15.62
226.918	11.62
227.152	37.62
227.387	33.62
227.621	38.62
227.856	42.62
228.09	44.62
228.324	49.62
228.559	60.62
228.793	59.62
229.027	52.62
229.262	56.62
229.496	64.62
229.73	86.62
229.964	84.62
230.199	79.62
230.433	69.62
230.667	68.62
230.901	77.62
231.136	63.62
231.37	73.62
231.604	75.62
231.838	85.62
232.072	77.62
232.306	72.62
232.541	92.62
232.775	86.62
233.009	69.62
233.243	72.62
233.477	71.62
233.711	75.62
233.945	73.62
234.179	74.62
234.413	86.62
234.647	78.62
234.881	75.62
235.115	86.62
235.349	76.62
235.583	85.62
235.817	83.62
236.051	81.62
236.285	75.62
236.519	92.62
236.753	80.62
236.987	79.62
237.221	90.62
237.455	93.62
237.689	64.62
237.922	63.62
238.156	77.62
238.39	62.62
238.624	76.62
238.858	69.62
239.091	81.62
239.325	76.62
239.559	81.62
239.793	87.62
240.027	90.62
240.26	83.62
240.494	78.62
240.728	89.62
240.961	70.62
241.195	86.62
241.429	73.62
241.662	71.62
241.896	81.62
242.13	67.62
242.363	79.62
242.597	81.62
242.83	74.62
243.064	81.62
243.298	64.62
243.531	70.62
243.765	84.62
243.998	82.62
244.232	87.62
244.465	102.62
244.699	79.62
244.932	79.62
245.166	73.62
245.399	79.62
245.633	94.62
245.866	85.62
246.099	81.62
246.333	77.62
246.566	68.62
246.8	69.62
247.033	82.62
247.266	71.62
247.5	79.62
247.733	86.62
247.966	89.62
248.2	78.62
248.433	66.62
248.666	82.62
248.899	76.62
249.133	85.62
249.366	99.62
249.599	91.62
249.832	87.62
250.066	77.62
250.299	67.62
250.532	84.62
250.765	79.62
250.998	79.62
251.231	78.62
251.465	80.62
251.698	75.62
251.931	72.62
252.164	77.62
252.397	94.62
252.63	75.62
252.863	87.62
253.096	69.62
253.329	83.62
253.562	80.62
253.795	100.62
254.028	76.62
254.261	81.62
254.494	83.62
254.727	76.62
254.96	85.62
255.193	77.62
255.426	84.62
255.659	99.62
255.892	83.62
256.124	70.62
256.357	87.62
256.59	73.62
256.823	72.62
257.056	100.62
257.289	82.62
257.521	77.62
257.754	99.62
257.987	84.62
258.22	81.62
258.452	95.62
258.685	88.62
258.918	95.62
259.151	83.62
259.383	86.62
259.616	78.62
259.849	85.62
260.081	77.62
260.314	76.62
260.547	87.62
260.779	79.62
261.012	71.62
261.244	98.62
261.477	114.62
261.71	90.62
261.942	94.62
262.175	121.62
262.407	87.62
262.64	67.62
262.872	80.62
263.105	85.62
263.337	86.62
263.57	85.62
263.802	77.62
264.035	78.62
264.267	82.62
264.499	83.62
264.732	98.62
264.964	88.62
265.197	75.62
265.429	87.62
265.661	80.62
265.894	81.62
266.126	87.62
266.358	90.62
266.591	82.62
266.823	83.62
267.055	77.62
267.287	77.62
267.52	90.62
267.752	71.62
267.984	91.62
268.216	78.62
268.448	75.62
268.681	82.62
268.913	81.62
269.145	79.62
269.377	91.62
269.609	80.62
269.841	83.62
270.073	74.62
270.306	66.62
270.538	73.62
270.77	74.62
271.002	87.62
271.234	86.62
271.466	103.62
271.698	75.62
271.93	87.62
272.162	107.62
272.394	86.62
272.626	93.62
272.858	79.62
273.09	73.62
273.322	82.62
273.553	76.62
273.785	86.62
274.017	96.62
274.249	90.62
274.481	99.62
274.713	90.62
274.945	69.62
275.176	78.62
275.408	84.62
275.64	93.62
275.872	101.62
276.104	90.62
276.335	101.62
276.567	93.62
276.799	100.62
277.031	103.62
277.262	105.62
277.494	92.62
277.726	92.62
277.957	92.62
278.189	71.62
278.421	93.62
278.652	91.62
278.884	77.62
279.115	106.62
279.347	85.62
279.579	97.62
279.81	97.62
280.042	106.62
280.273	114.62
280.505	102.62
280.736	85.62
280.968	75.62
281.199	85.62
281.431	72.62
281.662	94.62
281.894	95.62
282.125	105.62
282.356	115.62
282.588	112.62
282.819	117.62
283.051	92.62
283.282	95.62
283.513	89.62
283.745	82.62
283.976	81.62
284.207	84.62
284.439	80.62
284.67	83.62
284.901	94.62
285.132	77.62
285.364	92.62
285.595	92.62
285.826	87.62
286.057	94.62
286.288	82.62
286.52	79.62
286.751	65.62
286.982	79.62
287.213	86.62
287.444	84.62
287.675	78.62
287.906	85.62
288.138	82.62
288.369	98.62
288.6	93.62
288.831	79.62
289.062	101.62
289.293	85.62
289.524	76.62
289.755	85.62
289.986	90.62
290.217	71.62
290.448	76.62
290.679	94.62
290.91	87.62
291.141	96.62
291.371	97.62
291.602	88.62
291.833	88.62
292.064	91.62
292.295	91.62
292.526	92.62
292.757	83.62
292.987	83.62
293.218	83.62
293.449	97.62
293.68	97.62
293.91	106.62
294.141	89.62
294.372	95.62
294.603	92.62
294.833	89.62
295.064	100.62
295.295	95.62
295.525	90.62
295.756	110.62
295.987	115.62
296.217	135.62
296.448	120.62
296.679	83.62
296.909	87.62
297.14	89.62
297.37	98.62
297.601	91.62
297.831	85.62
298.062	101.62
298.292	88.62
298.523	95.62
298.753	86.62
298.984	94.62
299.214	85.62
299.445	89.62
299.675	86.62
299.905	99.62
300.136	95.62
300.366	86.62
300.597	89.62
300.827	103.62
301.057	89.62
301.288	115.62
301.518	98.62
301.748	94.62
301.979	94.62
302.209	84.62
302.439	83.62
302.669	90.62
302.9	80.62
303.13	89.62
303.36	98.62
303.59	98.62
303.82	108.62
304.051	107.62
304.281	90.62
304.511	88.62
304.741	94.62
304.971	98.62
305.201	86.62
305.431	93.62
305.661	88.62
305.891	89.62
306.121	91.62
306.352	95.62
306.582	75.62
306.812	101.62
307.042	100.62
307.272	100.62
307.502	108.62
307.731	111.62
307.961	86.62
308.191	79.62
308.421	77.62
308.651	103.62
308.881	88.62
309.111	86.62
309.341	86.62
309.571	89.62
309.8	104.62
310.03	90.62
310.26	98.62
310.49	96.62
310.72	91.62
310.949	99.62
311.179	93.62
311.409	84.62
311.639	106.62
311.868	95.62
312.098	94.62
312.328	102.62
312.557	108.62
312.787	108.62
313.017	103.62
313.246	101.62
313.476	85.62
313.706	89.62
313.935	94.62
314.165	91.62
314.394	105.62
314.624	98.62
314.853	96.62
315.083	73.62
315.312	97.62
315.542	90.62
315.771	73.62
316.001	78.62
316.23	90.62
316.46	90.62
316.689	83.62
316.919	91.62
317.148	87.62
317.377	101.62
317.607	103.62
317.836	91.62
318.065	96.62
318.295	89.62
318.524	77.62
318.753	100.62
318.983	96.62
319.212	86.62
319.441	105.62
319.67	113.62
319.9	97.62
320.129	85.62
320.358	82.62
320.587	74.62
320.816	101.62
321.046	114.62
321.275	101.62
321.504	95.62
321.733	88.62
321.962	102.62
322.191	89.62
322.42	100.62
322.649	109.62
322.878	118.62
323.108	121.62
323.337	114.62
323.566	126.62
323.795	148.62
324.024	209.62
324.253	376.62
324.482	778.62
324.71	1589.62
324.939	2028.62
325.168	779.62
325.397	236.62
325.626	146.62
325.855	126.62
326.084	131.62
326.313	108.62
326.542	142.62
326.77	226.62
326.999	443.62
327.228	905.62
327.457	1583.62
327.686	1293.62
327.914	381.62
328.143	247.62
328.372	248.62
328.6	185.62
328.829	125.62
329.058	132.62
329.287	135.62
329.515	113.62
329.744	136.62
329.972	160.62
330.201	282.62
330.43	402.62
330.658	231.62
330.887	164.62
331.115	134.62
331.344	102.62
331.572	105.62
331.801	94.62
332.03	104.62
332.258	115.62
332.486	97.62
332.715	102.62
332.943	110.62
333.172	104.62
333.4	99.62
333.629	112.62
333.857	141.62
334.085	181.62
334.314	283.62
334.542	477.62
334.771	486.62
334.999	166.62
335.227	127.62
335.455	94.62
335.684	91.62
335.912	103.62
336.14	94.62
336.369	90.62
336.597	88.62
336.825	104.62
337.053	98.62
337.281	101.62
337.51	95.62
337.738	92.62
337.966	97.62
338.194	89.62
338.422	96.62
338.65	97.62
338.878	99.62
339.106	90.62
339.334	101.62
339.562	89.62
339.79	77.62
340.018	88.62
340.246	82.62
340.474	93.62
340.702	100.62
340.93	102.62
341.158	105.62
341.386	103.62
341.614	107.62
341.842	100.62
342.07	93.62
342.298	91.62
342.526	86.62
342.754	108.62
342.981	92.62
343.209	91.62
343.437	101.62
343.665	85.62
343.893	87.62
344.12	82.62
344.348	93.62
344.576	91.62
344.804	94.62
345.031	103.62
345.259	106.62
345.487	97.62
345.714	103.62
345.942	90.62
346.17	113.62
346.397	95.62
346.625	95.62
346.853	92.62
347.08	102.62
347.308	93.62
347.535	103.62
347.763	103.62
347.99	117.62
348.218	110.62
348.445	94.62
348.673	97.62
348.9	85.62
349.128	81.62
349.355	87.62
349.583	101.62
349.81	89.62
350.037	93.62
350.265	86.62
350.492	87.62
350.72	101.62
350.947	97.62
351.174	111.62
351.402	113.62
351.629	87.62
351.856	94.62
352.083	108.62
352.311	106.62
352.538	116.62
352.765	104.62
352.992	113.62
353.22	105.62
353.447	104.62
353.674	104.62
353.901	96.62
354.128	99.62
354.355	83.62
354.583	101.62
354.81	105.62
355.037	95.62
355.264	85.62
355.491	104.62
355.718	89.62
355.945	90.62
356.172	93.62
356.399	96.62
356.626	105.62
356.853	82.62
357.08	81.62
357.307	88.62
357.534	83.62
357.761	93.62
357.988	97.62
358.215	99.62
358.441	105.62
358.668	82.62
358.895	105.62
359.122	93.62
359.349	100.62
359.576	107.62
359.802	109.62
360.029	111.62
360.256	117.62
360.483	87.62
360.709	87.62
360.936	103.62
361.163	101.62
361.39	90.62
361.616	83.62
361.843	86.62
362.07	98.62
362.296	102.62
362.523	90.62
362.749	79.62
362.976	88.62
363.203	105.62
363.429	98.62
363.656	92.62
363.882	90.62
364.109	85.62
364.335	78.62
364.562	85.62
364.788	92.62
365.015	86.62
365.241	109.62
365.468	105.62
365.694	110.62
365.92	104.62
366.147	75.62
366.373	93.62
366.599	79.62
366.826	86.62
367.052	82.62
367.278	100.62
367.505	87.62
367.731	91.62
367.957	79.62
368.184	95.62
368.41	82.62
368.636	100.62
368.862	113.62
369.089	117.62
369.315	72.62
369.541	106.62
369.767	89.62
369.993	94.62
370.219	83.62
370.445	101.62
370.672	100.62
370.898	97.62
371.124	81.62
371.35	68.62
371.576	93.62
371.802	87.62
372.028	96.62
372.254	98.62
372.48	89.62
372.706	86.62
372.932	90.62
373.158	92.62
373.384	89.62
373.61	93.62
373.835	96.62
374.061	101.62
374.287	109.62
374.513	106.62
374.739	83.62
374.965	82.62
375.191	97.62
375.416	84.62
375.642	88.62
375.868	85.62
376.094	88.62
376.319	88.62
376.545	90.62
376.771	79.62
376.997	97.62
377.222	98.62
377.448	92.62
377.674	76.62
377.899	98.62
378.125	92.62
378.35	94.62
378.576	110.62
378.802	93.62
379.027	106.62
379.253	97.62
379.478	90.62
379.704	106.62
379.929	86.62
380.155	84.62
380.38	103.62
380.606	94.62
380.831	79.62
381.057	106.62
381.282	106.62
381.507	94.62
381.733	93.62
381.958	101.62
382.184	91.62
382.409	107.62
382.634	105.62
382.86	100.62
383.085	110.62
383.31	94.62
383.535	117.62
383.761	102.62
383.986	108.62
384.211	91.62
384.436	82.62
384.662	109.62
384.887	101.62
385.112	106.62
385.337	109.62
385.562	103.62
385.787	109.62
386.013	113.62
386.238	113.62
386.463	129.62
386.688	126.62
386.913	99.62
387.138	127.62
387.363	106.62
387.588	91.62
387.813	98.62
388.038	117.62
388.263	130.62
388.488	136.62
388.713	103.62
388.938	97.62
389.163	91.62
389.387	92.62
389.612	84.62
389.837	89.62
390.062	84.62
390.287	108.62
390.512	94.62
390.736	106.62
390.961	87.62
391.186	101.62
391.411	100.62
391.636	98.62
391.86	85.62
392.085	90.62
392.31	75.62
392.534	76.62
392.759	94.62
392.984	83.62
393.208	89.62
393.433	90.62
393.658	105.62
393.882	78.62
394.107	91.62
394.331	85.62
394.556	74.62
394.78	70.62
395.005	86.62
395.229	86.62
395.454	93.62
395.678	87.62
395.903	98.62
396.127	78.62
396.352	76.62
396.576	84.62
396.801	109.62
397.025	98.62
397.249	77.62
397.474	90.62
397.698	109.62
397.922	92.62
398.147	76.62
398.371	83.62
398.595	71.62
398.82	74.62
399.044	88.62
399.268	91.62
399.492	89.62
399.717	84.62
399.941	97.62
400.165	96.62
400.389	98.62
400.613	100.62
400.837	97.62
401.062	85.62
401.286	81.62
401.51	98.62
401.734	98.62
401.958	107.62
402.182	114.62
402.406	147.62
402.63	122.62
402.854	90.62
403.078	80.62
403.302	106.62
403.526	88.62
403.75	69.62
403.974	82.62
404.198	91.62
404.422	83.62
404.645	93.62
404.869	106.62
405.093	101.62
405.317	104.62
405.541	109.62
405.765	96.62
405.988	104.62
406.212	161.62
406.436	231.62
406.66	155.62
406.883	103.62
407.107	93.62
407.331	90.62
407.555	103.62
407.778	84.62
408.002	91.62
408.226	100.62
408.449	77.62
408.673	71.62
408.896	97.62
409.12	78.62
409.344	84.62
409.567	76.62
409.791	87.62
410.014	99.62
410.238	98.62
410.461	96.62
410.685	92.62
410.908	95.62
411.132	102.62
411.355	102.62
411.578	103.62
411.802	84.62
412.025	81.62
412.249	106.62
412.472	98.62
412.695	115.62
412.919	106.62
413.142	109.62
413.365	85.62
413.589	93.62
413.812	100.62
414.035	100.62
414.258	85.62
414.482	90.62
414.705	97.62
414.928	110.62
415.151	93.62
415.374	86.62
415.597	85.62
415.821	83.62
416.044	94.62
416.267	78.62
416.49	90.62
416.713	92.62
416.936	106.62
417.159	91.62
417.382	88.62
417.605	89.62
417.828	96.62
418.051	84.62
418.274	74.62
418.497	89.62
418.72	84.62
418.943	87.62
419.166	79.62
419.389	67.62
419.611	90.62
419.834	76.62
420.057	94.62
420.28	95.62
420.503	91.62
420.726	81.62
420.948	89.62
421.171	91.62
421.394	92.62
421.617	89.62
421.839	78.62
422.062	76.62
422.285	90.62
422.507	95.62
422.73	91.62
422.953	99.62
423.175	94.62
423.398	92.62
423.621	89.62
423.843	87.62
424.066	83.62
424.288	94.62
424.511	86.62
424.733	93.62
424.956	103.62
425.178	99.62
425.401	100.62
425.623	92.62
425.846	85.62
426.068	89.62
426.291	89.62
426.513	100.62
426.735	78.62
426.958	89.62
427.18	104.62
427.402	140.62
427.625	190.62
427.847	157.62
428.069	149.62
428.292	104.62
428.514	95.62
428.736	94.62
428.958	88.62
429.181	81.62
429.403	74.62
429.625	97.62
429.847	85.62
430.069	106.62
430.292	78.62
430.514	97.62
430.736	74.62
430.958	84.62
431.18	71.62
431.402	79.62
431.624	84.62
431.846	83.62
432.068	102.62
432.29	101.62
432.512	99.62
432.734	88.62
432.956	81.62
433.178	79.62
433.4	101.62
433.622	99.62
433.844	101.62
434.066	97.62
434.287	91.62
434.509	102.62
434.731	84.62
434.953	93.62
435.175	97.62
435.397	90.62
435.618	95.62
435.84	101.62
436.062	122.62
436.284	121.62
436.505	102.62
436.727	109.62
436.949	77.62
437.17	94.62
437.392	91.62
437.614	84.62
437.835	113.62
438.057	115.62
438.278	110.62
438.5	107.62
438.721	124.62
438.943	101.62
439.165	103.62
439.386	95.62
439.608	85.62
439.829	98.62
440.05	119.62
440.272	138.62
440.493	118.62
440.715	92.62
440.936	91.62
441.158	103.62
441.379	89.62
441.6	88.62
441.822	98.62
442.043	97.62
442.264	103.62
442.486	103.62
442.707	101.62
442.928	106.62
443.149	116.62
443.371	129.62
443.592	119.62
443.813	108.62
444.034	106.62
444.255	93.62
444.476	82.62
444.698	89.62
444.919	108.62
445.14	137.62
445.361	121.62
445.582	114.62
445.803	144.62
446.024	144.62
446.245	131.62
446.466	117.62
446.687	103.62
446.908	90.62
447.129	91.62
447.35	88.62
447.571	87.62
447.792	97.62
448.013	89.62
448.234	110.62
448.455	107.62
448.675	117.62
448.896	115.62
449.117	93.62
449.338	104.62
449.559	137.62
449.779	139.62
450	97.62
450.221	77.62
450.442	86.62
450.662	105.62
450.883	83.62
451.104	114.62
451.324	95.62
451.545	78.62
451.766	85.62
451.986	78.62
452.207	89.62
452.428	100.62
452.648	95.62
452.869	108.62
453.089	100.62
453.31	106.62
453.53	94.62
453.751	91.62
453.971	100.62
454.192	127.62
454.412	103.62
454.633	94.62
454.853	85.62
455.073	93.62
455.294	83.62
455.514	103.62
455.734	105.62
455.955	79.62
456.175	87.62
456.395	94.62
456.616	85.62
456.836	76.62
457.056	77.62
457.276	76.62
457.497	84.62
457.717	91.62
457.937	89.62
458.157	95.62
458.377	109.62
458.598	98.62
458.818	136.62
459.038	158.62
459.258	115.62
459.478	108.62
459.698	74.62
459.918	83.62
460.138	96.62
460.358	79.62
460.578	82.62
460.798	86.62
461.018	88.62
461.238	84.62
461.458	85.62
461.678	94.62
461.898	86.62
462.118	83.62
462.338	85.62
462.558	89.62
462.777	87.62
462.997	85.62
463.217	82.62
463.437	91.62
463.657	91.62
463.876	78.62
464.096	79.62
464.316	82.62
464.536	86.62
464.755	100.62
464.975	112.62
465.195	160.62
465.414	169.62
465.634	88.62
465.854	65.62
466.073	85.62
466.293	71.62
466.512	75.62
466.732	91.62
466.951	90.62
467.171	88.62
467.391	95.62
467.61	111.62
467.829	108.62
468.049	177.62
468.268	237.62
468.488	116.62
468.707	89.62
468.927	95.62
469.146	79.62
469.365	92.62
469.585	102.62
469.804	100.62
470.023	91.62
470.243	90.62
470.462	114.62
470.681	113.62
470.901	97.62
471.12	85.62
471.339	93.62
471.558	90.62
471.777	100.62
471.997	135.62
472.216	311.62
472.435	622.62
472.654	214.62
472.873	106.62
473.092	101.62
473.311	81.62
473.53	92.62
473.749	86.62
473.968	96.62
474.187	107.62
474.406	101.62
474.625	78.62
474.844	86.62
475.063	86.62
475.282	80.62
475.501	98.62
475.72	92.62
475.939	85.62
476.158	93.62
476.377	76.62
476.596	78.62
476.814	98.62
477.033	99.62
477.252	95.62
477.471	74.62
477.69	76.62
477.908	86.62
478.127	86.62
478.346	99.62
478.564	97.62
478.783	100.62
479.002	94.62
479.22	83.62
479.439	107.62
479.658	113.62
479.876	94.62
480.095	101.62
480.313	119.62
480.532	92.62
480.751	135.62
480.969	295.62
481.188	1010.62
481.406	683.62
481.624	147.62
481.843	83.62
482.061	77.62
482.28	86.62
482.498	104.62
482.717	99.62
482.935	92.62
483.153	83.62
483.372	86.62
483.59	72.62
483.808	82.62
484.027	89.62
484.245	88.62
484.463	87.62
484.681	96.62
484.9	96.62
485.118	92.62
485.336	89.62
485.554	90.62
485.772	101.62
485.99	95.62
486.209	108.62
486.427	105.62
486.645	124.62
486.863	103.62
487.081	102.62
487.299	89.62
487.517	94.62
487.735	91.62
487.953	103.62
488.171	87.62
488.389	100.62
488.607	102.62
488.825	79.62
489.043	98.62
489.261	83.62
489.479	91.62
489.696	75.62
489.914	80.62
490.132	105.62
490.35	93.62
490.568	86.62
490.786	101.62
491.003	91.62
491.221	73.62
491.439	81.62
491.657	85.62
491.874	90.62
492.092	92.62
492.31	90.62
492.527	97.62
492.745	100.62
492.963	101.62
493.18	104.62
493.398	97.62
493.615	90.62
493.833	82.62
494.05	92.62
494.268	78.62
494.485	97.62
494.703	103.62
494.92	90.62
495.138	87.62
495.355	83.62
495.573	91.62
495.79	82.62
496.008	90.62
496.225	86.62
496.442	93.62
496.66	90.62
496.877	82.62
497.094	90.62
497.312	87.62
497.529	87.62
497.746	99.62
497.963	99.62
498.181	86.62
498.398	102.62
498.615	106.62
498.832	99.62
499.049	97.62
499.267	83.62
499.484	93.62
499.701	85.62
499.918	93.62
500.135	96.62
500.352	90.62
500.569	87.62
500.786	101.62
501.003	101.62
501.22	90.62
501.437	83.62
501.654	91.62
501.871	99.62
502.088	94.62
502.305	101.62
502.522	94.62
502.739	92.62
502.956	90.62
503.172	93.62
503.389	86.62
503.606	100.62
503.823	97.62
504.04	99.62
504.256	91.62
504.473	101.62
504.69	82.62
504.907	92.62
505.123	83.62
505.34	86.62
505.557	83.62
505.773	91.62
505.99	58.62
506.207	78.62
506.423	85.62
506.64	94.62
506.856	89.62
507.073	92.62
507.289	84.62
507.506	98.62
507.722	109.62
507.939	117.62
508.155	107.62
508.372	94.62
508.588	82.62
508.805	98.62
509.021	93.62
509.238	107.62
509.454	100.62
509.67	90.62
509.887	108.62
510.103	146.62
510.319	191.62
510.536	644.62
510.752	2156.62
510.968	621.62
511.184	152.62
511.401	105.62
511.617	95.62
511.833	106.62
512.049	89.62
512.265	91.62
512.481	78.62
512.698	104.62
512.914	97.62
513.13	101.62
513.346	101.62
513.562	98.62
513.778	101.62
513.994	98.62
514.21	107.62
514.426	132.62
514.642	133.62
