Data from Circ_2013_H10_HRD10591_00070.txt Node
Date: Wed Jan 03 10:04:14 EST 2024
User: Yrep
Spectrometer: HR+D1059
Trigger mode: 1
Integration Time (sec): 1.000000E-1
Scans to average: 1
Electric dark correction enabled: true
Nonlinearity correction enabled: false
Boxcar width: 0
XAxis mode: Wavelengths
Number of Pixels in Spectrum: 2048
>>>>>Begin Spectral Data<<<<<
223.165	-5.5
223.4	-5.5
223.635	-5.5
223.869	-19.5
224.104	-13.5
224.338	-3.5
224.573	-19.5
224.808	-21.5
225.042	-16.5
225.277	-4.5
225.511	1.5
225.746	12.5
225.98	3.5
226.215	11.5
226.449	18.5
226.683	14.5
226.918	13.5
227.152	28.5
227.387	47.5
227.621	44.5
227.856	57.5
228.09	43.5
228.324	65.5
228.559	57.5
228.793	51.5
229.027	56.5
229.262	65.5
229.496	77.5
229.73	101.5
229.964	103.5
230.199	94.5
230.433	89.5
230.667	78.5
230.901	83.5
231.136	74.5
231.37	83.5
231.604	73.5
231.838	78.5
232.072	83.5
232.306	79.5
232.541	88.5
232.775	75.5
233.009	90.5
233.243	85.5
233.477	87.5
233.711	87.5
233.945	77.5
234.179	78.5
234.413	84.5
234.647	78.5
234.881	87.5
235.115	89.5
235.349	81.5
235.583	91.5
235.817	93.5
236.051	91.5
236.285	88.5
236.519	81.5
236.753	85.5
236.987	87.5
237.221	101.5
237.455	80.5
237.689	81.5
237.922	87.5
238.156	85.5
238.39	83.5
238.624	67.5
238.858	82.5
239.091	68.5
239.325	79.5
239.559	77.5
239.793	88.5
240.027	80.5
240.26	80.5
240.494	88.5
240.728	74.5
240.961	77.5
241.195	86.5
241.429	88.5
241.662	77.5
241.896	74.5
242.13	82.5
242.363	75.5
242.597	79.5
242.83	82.5
243.064	83.5
243.298	71.5
243.531	59.5
243.765	87.5
243.998	83.5
244.232	86.5
244.465	77.5
244.699	87.5
244.932	89.5
245.166	86.5
245.399	94.5
245.633	83.5
245.866	90.5
246.099	81.5
246.333	80.5
246.566	86.5
246.8	80.5
247.033	75.5
247.266	87.5
247.5	74.5
247.733	85.5
247.966	77.5
248.2	86.5
248.433	81.5
248.666	81.5
248.899	88.5
249.133	95.5
249.366	104.5
249.599	105.5
249.832	101.5
250.066	83.5
250.299	97.5
250.532	75.5
250.765	81.5
250.998	75.5
251.231	94.5
251.465	85.5
251.698	87.5
251.931	93.5
252.164	94.5
252.397	72.5
252.63	81.5
252.863	79.5
253.096	73.5
253.329	91.5
253.562	97.5
253.795	89.5
254.028	78.5
254.261	88.5
254.494	73.5
254.727	74.5
254.96	80.5
255.193	71.5
255.426	80.5
255.659	92.5
255.892	98.5
256.124	97.5
256.357	90.5
256.59	78.5
256.823	87.5
257.056	75.5
257.289	93.5
257.521	102.5
257.754	94.5
257.987	105.5
258.22	95.5
258.452	94.5
258.685	83.5
258.918	87.5
259.151	69.5
259.383	87.5
259.616	93.5
259.849	99.5
260.081	91.5
260.314	80.5
260.547	83.5
260.779	83.5
261.012	103.5
261.244	83.5
261.477	90.5
261.71	114.5
261.942	131.5
262.175	127.5
262.407	98.5
262.64	83.5
262.872	94.5
263.105	88.5
263.337	70.5
263.57	95.5
263.802	83.5
264.035	94.5
264.267	79.5
264.499	93.5
264.732	82.5
264.964	92.5
265.197	89.5
265.429	91.5
265.661	97.5
265.894	92.5
266.126	96.5
266.358	74.5
266.591	82.5
266.823	84.5
267.055	83.5
267.287	76.5
267.52	90.5
267.752	95.5
267.984	89.5
268.216	86.5
268.448	76.5
268.681	77.5
268.913	83.5
269.145	76.5
269.377	79.5
269.609	78.5
269.841	89.5
270.073	83.5
270.306	88.5
270.538	95.5
270.77	96.5
271.002	79.5
271.234	102.5
271.466	92.5
271.698	90.5
271.93	83.5
272.162	90.5
272.394	85.5
272.626	91.5
272.858	93.5
273.09	74.5
273.322	90.5
273.553	85.5
273.785	89.5
274.017	79.5
274.249	93.5
274.481	88.5
274.713	90.5
274.945	82.5
275.176	83.5
275.408	97.5
275.64	104.5
275.872	106.5
276.104	119.5
276.335	109.5
276.567	111.5
276.799	132.5
277.031	129.5
277.262	125.5
277.494	113.5
277.726	95.5
277.957	99.5
278.189	103.5
278.421	120.5
278.652	99.5
278.884	97.5
279.115	86.5
279.347	94.5
279.579	101.5
279.81	97.5
280.042	147.5
280.273	160.5
280.505	131.5
280.736	103.5
280.968	100.5
281.199	84.5
281.431	93.5
281.662	99.5
281.894	87.5
282.125	109.5
282.356	147.5
282.588	142.5
282.819	137.5
283.051	106.5
283.282	90.5
283.513	88.5
283.745	92.5
283.976	102.5
284.207	87.5
284.439	91.5
284.67	105.5
284.901	99.5
285.132	91.5
285.364	88.5
285.595	94.5
285.826	91.5
286.057	109.5
286.288	94.5
286.52	86.5
286.751	81.5
286.982	79.5
287.213	85.5
287.444	96.5
287.675	102.5
287.906	94.5
288.138	83.5
288.369	93.5
288.6	91.5
288.831	90.5
289.062	83.5
289.293	89.5
289.524	90.5
289.755	96.5
289.986	90.5
290.217	72.5
290.448	82.5
290.679	85.5
290.91	86.5
291.141	83.5
291.371	89.5
291.602	95.5
291.833	85.5
292.064	83.5
292.295	98.5
292.526	81.5
292.757	88.5
292.987	91.5
293.218	85.5
293.449	80.5
293.68	87.5
293.91	100.5
294.141	93.5
294.372	99.5
294.603	89.5
294.833	88.5
295.064	82.5
295.295	94.5
295.525	84.5
295.756	106.5
295.987	125.5
296.217	167.5
296.448	137.5
296.679	102.5
296.909	102.5
297.14	90.5
297.37	96.5
297.601	94.5
297.831	82.5
298.062	92.5
298.292	99.5
298.523	95.5
298.753	99.5
298.984	79.5
299.214	104.5
299.445	87.5
299.675	85.5
299.905	98.5
300.136	104.5
300.366	98.5
300.597	83.5
300.827	91.5
301.057	102.5
301.288	111.5
301.518	103.5
301.748	93.5
301.979	112.5
302.209	108.5
302.439	87.5
302.669	87.5
302.9	92.5
303.13	103.5
303.36	103.5
303.59	122.5
303.82	115.5
304.051	107.5
304.281	89.5
304.511	89.5
304.741	84.5
304.971	94.5
305.201	91.5
305.431	110.5
305.661	93.5
305.891	93.5
306.121	93.5
306.352	107.5
306.582	111.5
306.812	107.5
307.042	106.5
307.272	118.5
307.502	122.5
307.731	140.5
307.961	106.5
308.191	92.5
308.421	78.5
308.651	96.5
308.881	101.5
309.111	82.5
309.341	107.5
309.571	105.5
309.8	93.5
310.03	94.5
310.26	109.5
310.49	106.5
310.72	94.5
310.949	115.5
311.179	118.5
311.409	103.5
311.639	90.5
311.868	118.5
312.098	95.5
312.328	103.5
312.557	105.5
312.787	104.5
313.017	93.5
313.246	101.5
313.476	101.5
313.706	91.5
313.935	97.5
314.165	109.5
314.394	99.5
314.624	103.5
314.853	96.5
315.083	94.5
315.312	94.5
315.542	87.5
315.771	96.5
316.001	89.5
316.23	83.5
316.46	95.5
316.689	94.5
316.919	90.5
317.148	94.5
317.377	105.5
317.607	105.5
317.836	108.5
318.065	106.5
318.295	87.5
318.524	99.5
318.753	83.5
318.983	99.5
319.212	114.5
319.441	106.5
319.67	114.5
319.9	112.5
320.129	111.5
320.358	87.5
320.587	94.5
320.816	109.5
321.046	92.5
321.275	105.5
321.504	95.5
321.733	113.5
321.962	102.5
322.191	123.5
322.42	135.5
322.649	106.5
322.878	119.5
323.108	130.5
323.337	139.5
323.566	154.5
323.795	177.5
324.024	235.5
324.253	477.5
324.482	1037.5
324.71	2112.5
324.939	2800.5
325.168	1017.5
325.397	285.5
325.626	168.5
325.855	131.5
326.084	141.5
326.313	148.5
326.542	179.5
326.77	265.5
326.999	536.5
327.228	1137.5
327.457	2096.5
327.686	1716.5
327.914	495.5
328.143	352.5
328.372	393.5
328.6	229.5
328.829	153.5
329.058	162.5
329.287	157.5
329.515	135.5
329.744	187.5
329.972	291.5
330.201	513.5
330.43	759.5
330.658	381.5
330.887	228.5
331.115	151.5
331.344	119.5
331.572	109.5
331.801	111.5
332.03	126.5
332.258	107.5
332.486	96.5
332.715	99.5
332.943	103.5
333.172	129.5
333.4	120.5
333.629	120.5
333.857	155.5
334.085	281.5
334.314	494.5
334.542	946.5
334.771	921.5
334.999	276.5
335.227	147.5
335.455	121.5
335.684	113.5
335.912	108.5
336.14	110.5
336.369	102.5
336.597	99.5
336.825	106.5
337.053	106.5
337.281	98.5
337.51	96.5
337.738	101.5
337.966	93.5
338.194	112.5
338.422	102.5
338.65	106.5
338.878	86.5
339.106	99.5
339.334	97.5
339.562	100.5
339.79	96.5
340.018	99.5
340.246	104.5
340.474	110.5
340.702	99.5
340.93	95.5
341.158	96.5
341.386	109.5
341.614	102.5
341.842	92.5
342.07	87.5
342.298	97.5
342.526	100.5
342.754	95.5
342.981	96.5
343.209	91.5
343.437	96.5
343.665	99.5
343.893	93.5
344.12	94.5
344.348	89.5
344.576	99.5
344.804	86.5
345.031	99.5
345.259	91.5
345.487	96.5
345.714	104.5
345.942	104.5
346.17	104.5
346.397	105.5
346.625	113.5
346.853	90.5
347.08	102.5
347.308	112.5
347.535	104.5
347.763	105.5
347.99	98.5
348.218	121.5
348.445	111.5
348.673	113.5
348.9	103.5
349.128	105.5
349.355	106.5
349.583	85.5
349.81	103.5
350.037	96.5
350.265	98.5
350.492	108.5
350.72	100.5
350.947	97.5
351.174	111.5
351.402	120.5
351.629	119.5
351.856	104.5
352.083	99.5
352.311	110.5
352.538	112.5
352.765	123.5
352.992	117.5
353.22	122.5
353.447	119.5
353.674	115.5
353.901	101.5
354.128	100.5
354.355	97.5
354.583	95.5
354.81	94.5
355.037	97.5
355.264	105.5
355.491	99.5
355.718	92.5
355.945	95.5
356.172	89.5
356.399	95.5
356.626	87.5
356.853	84.5
357.08	99.5
357.307	97.5
357.534	76.5
357.761	97.5
357.988	103.5
358.215	90.5
358.441	89.5
358.668	96.5
358.895	93.5
359.122	93.5
359.349	84.5
359.576	95.5
359.802	114.5
360.029	125.5
360.256	127.5
360.483	99.5
360.709	97.5
360.936	91.5
361.163	87.5
361.39	108.5
361.616	87.5
361.843	95.5
362.07	113.5
362.296	109.5
362.523	115.5
362.749	88.5
362.976	87.5
363.203	92.5
363.429	85.5
363.656	98.5
363.882	93.5
364.109	90.5
364.335	92.5
364.562	102.5
364.788	101.5
365.015	93.5
365.241	117.5
365.468	107.5
365.694	109.5
365.92	85.5
366.147	91.5
366.373	90.5
366.599	90.5
366.826	99.5
367.052	97.5
367.278	79.5
367.505	99.5
367.731	85.5
367.957	86.5
368.184	107.5
368.41	103.5
368.636	120.5
368.862	137.5
369.089	118.5
369.315	99.5
369.541	92.5
369.767	100.5
369.993	102.5
370.219	89.5
370.445	101.5
370.672	91.5
370.898	82.5
371.124	89.5
371.35	113.5
371.576	90.5
371.802	91.5
372.028	101.5
372.254	105.5
372.48	92.5
372.706	77.5
372.932	77.5
373.158	90.5
373.384	96.5
373.61	98.5
373.835	88.5
374.061	98.5
374.287	83.5
374.513	81.5
374.739	80.5
374.965	87.5
375.191	96.5
375.416	97.5
375.642	97.5
375.868	93.5
376.094	72.5
376.319	93.5
376.545	83.5
376.771	93.5
376.997	96.5
377.222	89.5
377.448	94.5
377.674	88.5
377.899	98.5
378.125	99.5
378.35	93.5
378.576	92.5
378.802	78.5
379.027	85.5
379.253	88.5
379.478	103.5
379.704	103.5
379.929	93.5
380.155	93.5
380.38	108.5
380.606	88.5
380.831	102.5
381.057	95.5
381.282	90.5
381.507	93.5
381.733	87.5
381.958	99.5
382.184	111.5
382.409	84.5
382.634	93.5
382.86	94.5
383.085	103.5
383.31	112.5
383.535	96.5
383.761	91.5
383.986	103.5
384.211	96.5
384.436	98.5
384.662	93.5
384.887	90.5
385.112	112.5
385.337	110.5
385.562	94.5
385.787	120.5
386.013	131.5
386.238	116.5
386.463	106.5
386.688	119.5
386.913	98.5
387.138	97.5
387.363	97.5
387.588	79.5
387.813	107.5
388.038	98.5
388.263	107.5
388.488	108.5
388.713	99.5
388.938	99.5
389.163	102.5
389.387	105.5
389.612	84.5
389.837	94.5
390.062	101.5
390.287	90.5
390.512	103.5
390.736	88.5
390.961	86.5
391.186	105.5
391.411	98.5
391.636	107.5
391.86	96.5
392.085	83.5
392.31	80.5
392.534	88.5
392.759	88.5
392.984	89.5
393.208	90.5
393.433	82.5
393.658	83.5
393.882	97.5
394.107	94.5
394.331	105.5
394.556	102.5
394.78	89.5
395.005	112.5
395.229	93.5
395.454	110.5
395.678	94.5
395.903	89.5
396.127	103.5
396.352	78.5
396.576	94.5
396.801	86.5
397.025	89.5
397.249	86.5
397.474	110.5
397.698	104.5
397.922	85.5
398.147	94.5
398.371	92.5
398.595	91.5
398.82	80.5
399.044	82.5
399.268	85.5
399.492	79.5
399.717	86.5
399.941	90.5
400.165	87.5
400.389	92.5
400.613	102.5
400.837	94.5
401.062	101.5
401.286	96.5
401.51	107.5
401.734	89.5
401.958	102.5
402.182	130.5
402.406	182.5
402.63	141.5
402.854	98.5
403.078	103.5
403.302	83.5
403.526	103.5
403.75	93.5
403.974	82.5
404.198	104.5
404.422	109.5
404.645	93.5
404.869	104.5
405.093	119.5
405.317	127.5
405.541	126.5
405.765	113.5
405.988	115.5
406.212	202.5
406.436	283.5
406.66	181.5
406.883	112.5
407.107	107.5
407.331	98.5
407.555	97.5
407.778	98.5
408.002	111.5
408.226	101.5
408.449	82.5
408.673	100.5
408.896	94.5
409.12	89.5
409.344	80.5
409.567	80.5
409.791	91.5
410.014	94.5
410.238	107.5
410.461	96.5
410.685	81.5
410.908	97.5
411.132	102.5
411.355	107.5
411.578	79.5
411.802	96.5
412.025	91.5
412.249	104.5
412.472	119.5
412.695	138.5
412.919	104.5
413.142	100.5
413.365	93.5
413.589	80.5
413.812	86.5
414.035	104.5
414.258	94.5
414.482	89.5
414.705	112.5
414.928	96.5
415.151	91.5
415.374	103.5
415.597	105.5
415.821	98.5
416.044	100.5
416.267	89.5
416.49	81.5
416.713	98.5
416.936	91.5
417.159	81.5
417.382	100.5
417.605	97.5
417.828	104.5
418.051	108.5
418.274	90.5
418.497	82.5
418.72	85.5
418.943	100.5
419.166	87.5
419.389	94.5
419.611	91.5
419.834	87.5
420.057	106.5
420.28	105.5
420.503	98.5
420.726	99.5
420.948	89.5
421.171	83.5
421.394	104.5
421.617	94.5
421.839	91.5
422.062	72.5
422.285	93.5
422.507	104.5
422.73	114.5
422.953	109.5
423.175	93.5
423.398	90.5
423.621	105.5
423.843	90.5
424.066	91.5
424.288	93.5
424.511	121.5
424.733	94.5
424.956	107.5
425.178	96.5
425.401	105.5
425.623	97.5
425.846	99.5
426.068	106.5
426.291	86.5
426.513	104.5
426.735	87.5
426.958	97.5
427.18	126.5
427.402	170.5
427.625	247.5
427.847	201.5
428.069	195.5
428.292	123.5
428.514	91.5
428.736	94.5
428.958	81.5
429.181	89.5
429.403	90.5
429.625	108.5
429.847	94.5
430.069	118.5
430.292	105.5
430.514	91.5
430.736	85.5
430.958	102.5
431.18	77.5
431.402	89.5
431.624	91.5
431.846	91.5
432.068	97.5
432.29	86.5
432.512	84.5
432.734	93.5
432.956	96.5
433.178	125.5
433.4	94.5
433.622	99.5
433.844	100.5
434.066	97.5
434.287	94.5
434.509	101.5
434.731	102.5
434.953	105.5
435.175	85.5
435.397	93.5
435.618	98.5
435.84	107.5
436.062	130.5
436.284	119.5
436.505	95.5
436.727	99.5
436.949	90.5
437.17	92.5
437.392	107.5
437.614	97.5
437.835	131.5
438.057	147.5
438.278	123.5
438.5	119.5
438.721	131.5
438.943	108.5
439.165	99.5
439.386	82.5
439.608	93.5
439.829	105.5
440.05	137.5
440.272	165.5
440.493	110.5
440.715	96.5
440.936	89.5
441.158	108.5
441.379	90.5
441.6	101.5
441.822	97.5
442.043	101.5
442.264	108.5
442.486	107.5
442.707	89.5
442.928	130.5
443.149	153.5
443.371	159.5
443.592	132.5
443.813	112.5
444.034	118.5
444.255	96.5
444.476	97.5
444.698	85.5
444.919	82.5
445.14	134.5
445.361	133.5
445.582	119.5
445.803	153.5
446.024	159.5
446.245	168.5
446.466	133.5
446.687	104.5
446.908	89.5
447.129	86.5
447.35	100.5
447.571	101.5
447.792	95.5
448.013	113.5
448.234	109.5
448.455	121.5
448.675	137.5
448.896	130.5
449.117	114.5
449.338	106.5
449.559	152.5
449.779	131.5
450	97.5
450.221	84.5
450.442	95.5
450.662	97.5
450.883	117.5
451.104	120.5
451.324	107.5
451.545	100.5
451.766	90.5
451.986	92.5
452.207	111.5
452.428	96.5
452.648	103.5
452.869	137.5
453.089	122.5
453.31	119.5
453.53	93.5
453.751	107.5
453.971	109.5
454.192	126.5
454.412	101.5
454.633	76.5
454.853	83.5
455.073	91.5
455.294	92.5
455.514	113.5
455.734	103.5
455.955	85.5
456.175	77.5
456.395	86.5
456.616	83.5
456.836	95.5
457.056	89.5
457.276	95.5
457.497	89.5
457.717	103.5
457.937	93.5
458.157	80.5
458.377	89.5
458.598	117.5
458.818	181.5
459.038	198.5
459.258	117.5
459.478	83.5
459.698	81.5
459.918	99.5
460.138	77.5
460.358	81.5
460.578	83.5
460.798	92.5
461.018	92.5
461.238	97.5
461.458	91.5
461.678	99.5
461.898	80.5
462.118	97.5
462.338	91.5
462.558	78.5
462.777	76.5
462.997	104.5
463.217	101.5
463.437	85.5
463.657	94.5
463.876	91.5
464.096	88.5
464.316	98.5
464.536	104.5
464.755	107.5
464.975	107.5
465.195	186.5
465.414	189.5
465.634	113.5
465.854	88.5
466.073	73.5
466.293	88.5
466.512	85.5
466.732	85.5
466.951	97.5
467.171	94.5
467.391	87.5
467.61	130.5
467.829	154.5
468.049	320.5
468.268	445.5
468.488	157.5
468.707	101.5
468.927	104.5
469.146	97.5
469.365	90.5
469.585	104.5
469.804	93.5
470.023	103.5
470.243	102.5
470.462	116.5
470.681	119.5
470.901	107.5
471.12	94.5
471.339	95.5
471.558	95.5
471.777	122.5
471.997	201.5
472.216	581.5
472.435	1281.5
472.654	350.5
472.873	114.5
473.092	104.5
473.311	83.5
473.53	105.5
473.749	106.5
473.968	99.5
474.187	111.5
474.406	109.5
474.625	90.5
474.844	96.5
475.063	99.5
475.282	79.5
475.501	93.5
475.72	107.5
475.939	100.5
476.158	82.5
476.377	91.5
476.596	88.5
476.814	102.5
477.033	93.5
477.252	89.5
477.471	99.5
477.69	80.5
477.908	93.5
478.127	86.5
478.346	89.5
478.564	101.5
478.783	102.5
479.002	106.5
479.22	118.5
479.439	110.5
479.658	137.5
479.876	95.5
480.095	119.5
480.313	115.5
480.532	129.5
480.751	195.5
480.969	557.5
481.188	2163.5
481.406	1382.5
481.624	223.5
481.843	112.5
482.061	85.5
482.28	84.5
482.498	92.5
482.717	95.5
482.935	97.5
483.153	100.5
483.372	89.5
483.59	101.5
483.808	96.5
484.027	87.5
484.245	99.5
484.463	90.5
484.681	102.5
484.9	102.5
485.118	96.5
485.336	95.5
485.554	110.5
485.772	92.5
485.99	102.5
486.209	95.5
486.427	102.5
486.645	118.5
486.863	119.5
487.081	102.5
487.299	104.5
487.517	105.5
487.735	96.5
487.953	92.5
488.171	93.5
488.389	118.5
488.607	104.5
488.825	73.5
489.043	96.5
489.261	94.5
489.479	88.5
489.696	88.5
489.914	101.5
490.132	86.5
490.35	103.5
490.568	105.5
490.786	83.5
491.003	82.5
491.221	100.5
491.439	93.5
491.657	86.5
491.874	94.5
492.092	94.5
492.31	96.5
492.527	108.5
492.745	81.5
492.963	94.5
493.18	96.5
493.398	100.5
493.615	87.5
493.833	95.5
494.05	91.5
494.268	81.5
494.485	94.5
494.703	91.5
494.92	83.5
495.138	77.5
495.355	92.5
495.573	109.5
495.79	94.5
496.008	86.5
496.225	97.5
496.442	86.5
496.66	109.5
496.877	70.5
497.094	103.5
497.312	86.5
497.529	88.5
497.746	91.5
497.963	110.5
498.181	96.5
498.398	94.5
498.615	129.5
498.832	90.5
499.049	89.5
499.267	91.5
499.484	96.5
499.701	94.5
499.918	99.5
500.135	103.5
500.352	94.5
500.569	90.5
500.786	108.5
501.003	107.5
501.22	101.5
501.437	94.5
501.654	109.5
501.871	113.5
502.088	97.5
502.305	82.5
502.522	90.5
502.739	104.5
502.956	105.5
503.172	85.5
503.389	105.5
503.606	115.5
503.823	99.5
504.04	98.5
504.256	107.5
504.473	81.5
504.69	86.5
504.907	95.5
505.123	85.5
505.34	86.5
505.557	106.5
505.773	96.5
505.99	86.5
506.207	93.5
506.423	95.5
506.64	94.5
506.856	100.5
507.073	93.5
507.289	91.5
507.506	85.5
507.722	101.5
507.939	119.5
508.155	111.5
508.372	93.5
508.588	96.5
508.805	84.5
509.021	97.5
509.238	106.5
509.454	93.5
509.67	110.5
509.887	109.5
510.103	143.5
510.319	234.5
510.536	813.5
510.752	2853.5
510.968	793.5
511.184	186.5
511.401	105.5
511.617	100.5
511.833	99.5
512.049	91.5
512.265	95.5
512.481	92.5
512.698	75.5
512.914	83.5
513.13	110.5
513.346	97.5
513.562	91.5
513.778	100.5
513.994	112.5
514.21	95.5
514.426	123.5
514.642	173.5
514.858	128.5
515.074	194.5
515.29	581.5
515.506	2157.5
515.721	783.5
515.937	184.5
516.153	129.5
516.369	104.5
516.585	121.5
516.801	101.5
517.016	95.5
517.232	105.5
517.448	107.5
517.664	104.5
517.879	102.5
518.095	92.5
518.311	86.5
518.527	107.5
518.742	105.5
518.958	107.5
519.173	97.5
519.389	108.5
519.605	92.5
519.82	109.5
520.036	120.5
520.251	132.5
520.467	131.5
520.682	110.5
520.898	115.5
521.113	130.5
521.329	165.5
521.544	236.5
521.76	743.5
521.975	3503.5
522.19	2135.5
522.406	431.5
522.621	156.5
522.836	112.5
523.052	108.5
523.267	97.5
523.482	81.5
523.698	125.5
523.913	139.5
524.128	127.5
524.343	104.5
524.559	78.5
524.774	77.5
524.989	112.5
525.204	122.5
525.419	108.5
525.634	95.5
525.849	91.5
526.064	88.5
526.28	83.5
526.495	87.5
526.71	75.5
526.925	109.5
527.14	103.5
527.355	81.5
527.57	72.5
527.785	104.5
527.999	86.5
528.214	103.5
528.429	101.5
528.644	87.5
528.859	91.5
529.074	114.5
529.289	126.5
529.503	246.5
529.718	119.5
529.933	90.5
530.148	83.5
530.363	80.5
530.577	85.5
530.792	88.5
531.007	94.5
531.221	91.5
531.436	96.5
531.651	102.5
531.865	89.5
532.08	93.5
