Data from Circ_2013_H10_HRD10591_00065.txt Node
Date: Wed Jan 03 10:04:13 EST 2024
User: Yrep
Spectrometer: HR+D1059
Trigger mode: 1
Integration Time (sec): 1.000000E-1
Scans to average: 1
Electric dark correction enabled: true
Nonlinearity correction enabled: false
Boxcar width: 0
XAxis mode: Wavelengths
Number of Pixels in Spectrum: 2048
>>>>>Begin Spectral Data<<<<<
223.165	-13.44
223.4	-13.44
223.635	-13.44
223.869	-20.44
224.104	-21.44
224.338	-10.44
224.573	-2.44
224.808	-34.44
225.042	-2.44
225.277	-3.44
225.511	11.56
225.746	9.56
225.98	-3.44
226.215	10.56
226.449	8.56
226.683	17.56
226.918	20.56
227.152	33.56
227.387	40.56
227.621	50.56
227.856	46.56
228.09	53.56
228.324	43.56
228.559	56.56
228.793	72.56
229.027	64.56
229.262	68.56
229.496	86.56
229.73	101.56
229.964	92.56
230.199	76.56
230.433	64.56
230.667	83.56
230.901	79.56
231.136	92.56
231.37	82.56
231.604	91.56
231.838	80.56
232.072	79.56
232.306	87.56
232.541	84.56
232.775	88.56
233.009	94.56
233.243	81.56
233.477	94.56
233.711	73.56
233.945	83.56
234.179	86.56
234.413	87.56
234.647	84.56
234.881	85.56
235.115	79.56
235.349	79.56
235.583	72.56
235.817	81.56
236.051	80.56
236.285	74.56
236.519	86.56
236.753	88.56
236.987	97.56
237.221	97.56
237.455	95.56
237.689	82.56
237.922	77.56
238.156	94.56
238.39	79.56
238.624	84.56
238.858	79.56
239.091	75.56
239.325	81.56
239.559	95.56
239.793	83.56
240.027	80.56
240.26	72.56
240.494	83.56
240.728	74.56
240.961	68.56
241.195	80.56
241.429	95.56
241.662	63.56
241.896	70.56
242.13	72.56
242.363	67.56
242.597	87.56
242.83	87.56
243.064	71.56
243.298	81.56
243.531	78.56
243.765	79.56
243.998	74.56
244.232	94.56
244.465	92.56
244.699	76.56
244.932	82.56
245.166	86.56
245.399	94.56
245.633	98.56
245.866	82.56
246.099	75.56
246.333	84.56
246.566	79.56
246.8	80.56
247.033	85.56
247.266	81.56
247.5	98.56
247.733	79.56
247.966	81.56
248.2	84.56
248.433	91.56
248.666	71.56
248.899	79.56
249.133	95.56
249.366	90.56
249.599	114.56
249.832	84.56
250.066	92.56
250.299	73.56
250.532	97.56
250.765	73.56
250.998	80.56
251.231	90.56
251.465	80.56
251.698	79.56
251.931	73.56
252.164	82.56
252.397	93.56
252.63	81.56
252.863	88.56
253.096	80.56
253.329	75.56
253.562	72.56
253.795	89.56
254.028	79.56
254.261	78.56
254.494	86.56
254.727	94.56
254.96	90.56
255.193	86.56
255.426	88.56
255.659	88.56
255.892	82.56
256.124	88.56
256.357	106.56
256.59	93.56
256.823	94.56
257.056	69.56
257.289	79.56
257.521	85.56
257.754	79.56
257.987	84.56
258.22	93.56
258.452	82.56
258.685	92.56
258.918	84.56
259.151	89.56
259.383	94.56
259.616	80.56
259.849	83.56
260.081	87.56
260.314	94.56
260.547	88.56
260.779	73.56
261.012	102.56
261.244	90.56
261.477	98.56
261.71	97.56
261.942	116.56
262.175	137.56
262.407	94.56
262.64	96.56
262.872	94.56
263.105	94.56
263.337	85.56
263.57	88.56
263.802	90.56
264.035	71.56
264.267	83.56
264.499	80.56
264.732	76.56
264.964	97.56
265.197	86.56
265.429	97.56
265.661	104.56
265.894	93.56
266.126	70.56
266.358	71.56
266.591	69.56
266.823	87.56
267.055	89.56
267.287	82.56
267.52	86.56
267.752	88.56
267.984	88.56
268.216	73.56
268.448	93.56
268.681	94.56
268.913	91.56
269.145	79.56
269.377	89.56
269.609	71.56
269.841	93.56
270.073	102.56
270.306	84.56
270.538	80.56
270.77	71.56
271.002	82.56
271.234	93.56
271.466	98.56
271.698	90.56
271.93	96.56
272.162	83.56
272.394	94.56
272.626	84.56
272.858	79.56
273.09	92.56
273.322	84.56
273.553	95.56
273.785	81.56
274.017	87.56
274.249	93.56
274.481	79.56
274.713	85.56
274.945	101.56
275.176	88.56
275.408	99.56
275.64	107.56
275.872	109.56
276.104	92.56
276.335	98.56
276.567	105.56
276.799	130.56
277.031	147.56
277.262	154.56
277.494	112.56
277.726	87.56
277.957	91.56
278.189	94.56
278.421	94.56
278.652	90.56
278.884	87.56
279.115	94.56
279.347	85.56
279.579	97.56
279.81	103.56
280.042	139.56
280.273	184.56
280.505	136.56
280.736	102.56
280.968	87.56
281.199	90.56
281.431	86.56
281.662	77.56
281.894	104.56
282.125	92.56
282.356	119.56
282.588	162.56
282.819	139.56
283.051	95.56
283.282	79.56
283.513	102.56
283.745	94.56
283.976	97.56
284.207	100.56
284.439	89.56
284.67	85.56
284.901	86.56
285.132	98.56
285.364	74.56
285.595	98.56
285.826	104.56
286.057	93.56
286.288	85.56
286.52	88.56
286.751	99.56
286.982	80.56
287.213	77.56
287.444	80.56
287.675	89.56
287.906	89.56
288.138	98.56
288.369	95.56
288.6	89.56
288.831	84.56
289.062	90.56
289.293	88.56
289.524	93.56
289.755	84.56
289.986	90.56
290.217	81.56
290.448	86.56
290.679	87.56
290.91	93.56
291.141	75.56
291.371	98.56
291.602	92.56
291.833	86.56
292.064	87.56
292.295	91.56
292.526	75.56
292.757	101.56
292.987	89.56
293.218	92.56
293.449	75.56
293.68	87.56
293.91	90.56
294.141	100.56
294.372	101.56
294.603	91.56
294.833	86.56
295.064	97.56
295.295	86.56
295.525	102.56
295.756	99.56
295.987	114.56
296.217	152.56
296.448	126.56
296.679	94.56
296.909	96.56
297.14	112.56
297.37	88.56
297.601	75.56
297.831	89.56
298.062	119.56
298.292	95.56
298.523	88.56
298.753	75.56
298.984	89.56
299.214	83.56
299.445	85.56
299.675	105.56
299.905	107.56
300.136	99.56
300.366	95.56
300.597	73.56
300.827	93.56
301.057	102.56
301.288	116.56
301.518	107.56
301.748	90.56
301.979	102.56
302.209	87.56
302.439	101.56
302.669	102.56
302.9	83.56
303.13	75.56
303.36	99.56
303.59	122.56
303.82	126.56
304.051	93.56
304.281	104.56
304.511	105.56
304.741	62.56
304.971	101.56
305.201	101.56
305.431	94.56
305.661	94.56
305.891	93.56
306.121	99.56
306.352	91.56
306.582	107.56
306.812	112.56
307.042	120.56
307.272	121.56
307.502	142.56
307.731	124.56
307.961	93.56
308.191	88.56
308.421	89.56
308.651	103.56
308.881	95.56
309.111	94.56
309.341	106.56
309.571	103.56
309.8	109.56
310.03	104.56
310.26	125.56
310.49	114.56
310.72	110.56
310.949	125.56
311.179	114.56
311.409	95.56
311.639	96.56
311.868	90.56
312.098	94.56
312.328	105.56
312.557	127.56
312.787	126.56
313.017	100.56
313.246	98.56
313.476	107.56
313.706	103.56
313.935	96.56
314.165	116.56
314.394	108.56
314.624	102.56
314.853	105.56
315.083	108.56
315.312	105.56
315.542	102.56
315.771	89.56
316.001	86.56
316.23	101.56
316.46	86.56
316.689	79.56
316.919	95.56
317.148	106.56
317.377	91.56
317.607	106.56
317.836	91.56
318.065	78.56
318.295	91.56
318.524	95.56
318.753	101.56
318.983	95.56
319.212	111.56
319.441	104.56
319.67	113.56
319.9	108.56
320.129	95.56
320.358	89.56
320.587	87.56
320.816	94.56
321.046	102.56
321.275	97.56
321.504	91.56
321.733	98.56
321.962	93.56
322.191	119.56
322.42	110.56
322.649	128.56
322.878	107.56
323.108	121.56
323.337	147.56
323.566	163.56
323.795	171.56
324.024	227.56
324.253	483.56
324.482	1047.56
324.71	2123.56
324.939	2892.56
325.168	1053.56
325.397	314.56
325.626	161.56
325.855	141.56
326.084	140.56
326.313	135.56
326.542	173.56
326.77	274.56
326.999	574.56
327.228	1177.56
327.457	2172.56
327.686	1689.56
327.914	502.56
328.143	362.56
328.372	435.56
328.6	283.56
328.829	174.56
329.058	169.56
329.287	186.56
329.515	134.56
329.744	195.56
329.972	290.56
330.201	610.56
330.43	847.56
330.658	426.56
330.887	239.56
331.115	166.56
331.344	111.56
331.572	115.56
331.801	123.56
332.03	130.56
332.258	113.56
332.486	100.56
332.715	103.56
332.943	107.56
333.172	101.56
333.4	107.56
333.629	135.56
333.857	188.56
334.085	280.56
334.314	562.56
334.542	1082.56
334.771	1031.56
334.999	302.56
335.227	150.56
335.455	109.56
335.684	102.56
335.912	110.56
336.14	89.56
336.369	103.56
336.597	117.56
336.825	109.56
337.053	83.56
337.281	95.56
337.51	97.56
337.738	86.56
337.966	110.56
338.194	110.56
338.422	108.56
338.65	99.56
338.878	109.56
339.106	92.56
339.334	90.56
339.562	93.56
339.79	104.56
340.018	95.56
340.246	101.56
340.474	107.56
340.702	115.56
340.93	84.56
341.158	81.56
341.386	100.56
341.614	101.56
341.842	98.56
342.07	88.56
342.298	112.56
342.526	88.56
342.754	92.56
342.981	88.56
343.209	94.56
343.437	102.56
343.665	93.56
343.893	89.56
344.12	95.56
344.348	85.56
344.576	97.56
344.804	92.56
345.031	114.56
345.259	115.56
345.487	94.56
345.714	90.56
345.942	86.56
346.17	107.56
346.397	104.56
346.625	96.56
346.853	92.56
347.08	103.56
347.308	107.56
347.535	92.56
347.763	101.56
347.99	88.56
348.218	95.56
348.445	109.56
348.673	113.56
348.9	106.56
349.128	106.56
349.355	102.56
349.583	95.56
349.81	104.56
350.037	104.56
350.265	94.56
350.492	90.56
350.72	95.56
350.947	100.56
351.174	105.56
351.402	118.56
351.629	103.56
351.856	102.56
352.083	102.56
352.311	119.56
352.538	109.56
352.765	130.56
352.992	117.56
353.22	109.56
353.447	112.56
353.674	101.56
353.901	109.56
354.128	105.56
354.355	101.56
354.583	118.56
354.81	107.56
355.037	100.56
355.264	94.56
355.491	92.56
355.718	92.56
355.945	96.56
356.172	99.56
356.399	92.56
356.626	99.56
356.853	88.56
357.08	98.56
357.307	105.56
357.534	82.56
357.761	100.56
357.988	89.56
358.215	105.56
358.441	94.56
358.668	95.56
358.895	85.56
359.122	108.56
359.349	86.56
359.576	87.56
359.802	107.56
360.029	131.56
360.256	132.56
360.483	122.56
360.709	74.56
360.936	103.56
361.163	109.56
361.39	100.56
361.616	94.56
361.843	101.56
362.07	86.56
362.296	105.56
362.523	108.56
362.749	100.56
362.976	96.56
363.203	96.56
363.429	94.56
363.656	90.56
363.882	91.56
364.109	82.56
364.335	88.56
364.562	99.56
364.788	95.56
365.015	112.56
365.241	105.56
365.468	111.56
365.694	117.56
365.92	100.56
366.147	88.56
366.373	98.56
366.599	91.56
366.826	89.56
367.052	92.56
367.278	96.56
367.505	94.56
367.731	91.56
367.957	92.56
368.184	105.56
368.41	95.56
368.636	124.56
368.862	124.56
369.089	131.56
369.315	104.56
369.541	97.56
369.767	85.56
369.993	90.56
370.219	112.56
370.445	79.56
370.672	80.56
370.898	72.56
371.124	84.56
371.35	84.56
371.576	98.56
371.802	91.56
372.028	84.56
372.254	84.56
372.48	85.56
372.706	88.56
372.932	100.56
373.158	100.56
373.384	85.56
373.61	99.56
373.835	86.56
374.061	84.56
374.287	74.56
374.513	86.56
374.739	91.56
374.965	84.56
375.191	85.56
375.416	87.56
375.642	83.56
375.868	88.56
376.094	95.56
376.319	80.56
376.545	93.56
376.771	76.56
376.997	96.56
377.222	104.56
377.448	103.56
377.674	100.56
377.899	90.56
378.125	79.56
378.35	93.56
378.576	103.56
378.802	89.56
379.027	94.56
379.253	86.56
379.478	95.56
379.704	83.56
379.929	90.56
380.155	83.56
380.38	106.56
380.606	87.56
380.831	89.56
381.057	89.56
381.282	92.56
381.507	96.56
381.733	97.56
381.958	93.56
382.184	100.56
382.409	98.56
382.634	107.56
382.86	88.56
383.085	101.56
383.31	109.56
383.535	101.56
383.761	89.56
383.986	91.56
384.211	86.56
384.436	100.56
384.662	99.56
384.887	99.56
385.112	100.56
385.337	97.56
385.562	90.56
385.787	107.56
386.013	108.56
386.238	123.56
386.463	106.56
386.688	107.56
386.913	96.56
387.138	100.56
387.363	108.56
387.588	92.56
387.813	101.56
388.038	105.56
388.263	94.56
388.488	102.56
388.713	99.56
388.938	79.56
389.163	92.56
389.387	87.56
389.612	89.56
389.837	102.56
390.062	95.56
390.287	96.56
390.512	96.56
390.736	96.56
390.961	81.56
391.186	94.56
391.411	85.56
391.636	97.56
391.86	93.56
392.085	89.56
392.31	84.56
392.534	88.56
392.759	90.56
392.984	94.56
393.208	92.56
393.433	84.56
393.658	96.56
393.882	88.56
394.107	88.56
394.331	102.56
394.556	88.56
394.78	90.56
395.005	85.56
395.229	77.56
395.454	100.56
395.678	86.56
395.903	85.56
396.127	95.56
396.352	73.56
396.576	90.56
396.801	88.56
397.025	97.56
397.249	77.56
397.474	76.56
397.698	78.56
397.922	99.56
398.147	83.56
398.371	95.56
398.595	88.56
398.82	84.56
399.044	80.56
399.268	86.56
399.492	90.56
399.717	80.56
399.941	84.56
400.165	93.56
400.389	91.56
400.613	94.56
400.837	99.56
401.062	81.56
401.286	84.56
401.51	98.56
401.734	90.56
401.958	98.56
402.182	140.56
402.406	183.56
402.63	135.56
402.854	102.56
403.078	90.56
403.302	80.56
403.526	88.56
403.75	93.56
403.974	107.56
404.198	102.56
404.422	87.56
404.645	90.56
404.869	112.56
405.093	97.56
405.317	143.56
405.541	121.56
405.765	110.56
405.988	141.56
406.212	188.56
406.436	269.56
406.66	189.56
406.883	107.56
407.107	90.56
407.331	98.56
407.555	120.56
407.778	90.56
408.002	103.56
408.226	99.56
408.449	87.56
408.673	97.56
408.896	94.56
409.12	102.56
409.344	92.56
409.567	85.56
409.791	77.56
410.014	97.56
410.238	90.56
410.461	91.56
410.685	89.56
410.908	89.56
411.132	98.56
411.355	113.56
411.578	84.56
411.802	77.56
412.025	87.56
412.249	95.56
412.472	114.56
412.695	121.56
412.919	108.56
413.142	103.56
413.365	88.56
413.589	89.56
413.812	88.56
414.035	87.56
414.258	76.56
414.482	92.56
414.705	82.56
414.928	98.56
415.151	82.56
415.374	96.56
415.597	83.56
415.821	94.56
416.044	99.56
416.267	92.56
416.49	95.56
416.713	97.56
416.936	78.56
417.159	76.56
417.382	95.56
417.605	99.56
417.828	103.56
418.051	105.56
418.274	96.56
418.497	76.56
418.72	86.56
418.943	98.56
419.166	99.56
419.389	101.56
419.611	92.56
419.834	101.56
420.057	91.56
420.28	91.56
420.503	98.56
420.726	80.56
420.948	92.56
421.171	99.56
421.394	94.56
421.617	101.56
421.839	96.56
422.062	97.56
422.285	75.56
422.507	93.56
422.73	95.56
422.953	102.56
423.175	91.56
423.398	76.56
423.621	92.56
423.843	99.56
424.066	75.56
424.288	80.56
424.511	93.56
424.733	107.56
424.956	110.56
425.178	116.56
425.401	109.56
425.623	108.56
425.846	98.56
426.068	96.56
426.291	83.56
426.513	100.56
426.735	87.56
426.958	103.56
427.18	122.56
427.402	156.56
427.625	228.56
427.847	212.56
428.069	213.56
428.292	123.56
428.514	91.56
428.736	84.56
428.958	98.56
429.181	91.56
429.403	102.56
429.625	97.56
429.847	99.56
430.069	98.56
430.292	104.56
430.514	80.56
430.736	98.56
430.958	103.56
431.18	86.56
431.402	88.56
431.624	82.56
431.846	81.56
432.068	87.56
432.29	100.56
432.512	93.56
432.734	85.56
432.956	98.56
433.178	95.56
433.4	98.56
433.622	81.56
433.844	91.56
434.066	92.56
434.287	98.56
434.509	95.56
434.731	91.56
434.953	101.56
435.175	74.56
435.397	95.56
435.618	92.56
435.84	120.56
436.062	142.56
436.284	155.56
436.505	122.56
436.727	105.56
436.949	91.56
437.17	101.56
437.392	88.56
437.614	104.56
437.835	121.56
438.057	134.56
438.278	118.56
438.5	122.56
438.721	125.56
438.943	96.56
439.165	108.56
439.386	93.56
439.608	107.56
439.829	108.56
440.05	142.56
440.272	178.56
440.493	110.56
440.715	86.56
440.936	80.56
441.158	95.56
441.379	84.56
441.6	103.56
441.822	100.56
442.043	103.56
442.264	117.56
442.486	98.56
442.707	97.56
442.928	122.56
443.149	154.56
443.371	159.56
443.592	118.56
443.813	118.56
444.034	133.56
444.255	98.56
444.476	98.56
444.698	96.56
444.919	87.56
445.14	139.56
445.361	128.56
445.582	126.56
445.803	179.56
446.024	171.56
446.245	165.56
446.466	116.56
446.687	98.56
446.908	86.56
447.129	81.56
447.35	77.56
447.571	98.56
447.792	104.56
448.013	110.56
448.234	118.56
448.455	105.56
448.675	132.56
448.896	142.56
449.117	99.56
449.338	124.56
449.559	151.56
449.779	154.56
450	97.56
450.221	90.56
450.442	91.56
450.662	95.56
450.883	132.56
451.104	145.56
451.324	105.56
451.545	90.56
451.766	89.56
451.986	88.56
452.207	87.56
452.428	103.56
452.648	100.56
452.869	104.56
453.089	128.56
453.31	132.56
453.53	107.56
453.751	94.56
453.971	117.56
454.192	127.56
454.412	98.56
454.633	78.56
454.853	86.56
455.073	90.56
455.294	92.56
455.514	103.56
455.734	82.56
455.955	92.56
456.175	74.56
456.395	76.56
456.616	79.56
456.836	86.56
457.056	83.56
457.276	91.56
457.497	100.56
457.717	81.56
457.937	95.56
458.157	79.56
458.377	79.56
458.598	126.56
458.818	200.56
459.038	198.56
459.258	128.56
459.478	97.56
459.698	80.56
459.918	89.56
460.138	87.56
460.358	63.56
460.578	91.56
460.798	86.56
461.018	80.56
461.238	94.56
461.458	75.56
461.678	74.56
461.898	83.56
462.118	85.56
462.338	81.56
462.558	84.56
462.777	88.56
462.997	100.56
463.217	105.56
463.437	87.56
463.657	92.56
463.876	95.56
464.096	87.56
464.316	96.56
464.536	103.56
464.755	103.56
464.975	121.56
465.195	205.56
465.414	212.56
465.634	108.56
465.854	81.56
466.073	75.56
466.293	102.56
466.512	90.56
466.732	100.56
466.951	99.56
467.171	102.56
467.391	103.56
467.61	128.56
467.829	147.56
468.049	320.56
468.268	501.56
468.488	162.56
468.707	106.56
468.927	81.56
469.146	86.56
469.365	94.56
469.585	88.56
469.804	116.56
470.023	119.56
470.243	110.56
470.462	95.56
470.681	110.56
470.901	96.56
471.12	84.56
471.339	108.56
471.558	101.56
471.777	123.56
471.997	206.56
472.216	604.56
472.435	1363.56
472.654	383.56
472.873	142.56
473.092	99.56
473.311	92.56
473.53	94.56
473.749	87.56
473.968	106.56
474.187	128.56
474.406	104.56
474.625	106.56
474.844	98.56
475.063	85.56
475.282	79.56
475.501	78.56
475.72	87.56
475.939	92.56
476.158	77.56
476.377	109.56
476.596	90.56
476.814	103.56
477.033	98.56
477.252	89.56
477.471	72.56
477.69	92.56
477.908	93.56
478.127	87.56
478.346	90.56
478.564	106.56
478.783	110.56
479.002	99.56
479.22	97.56
479.439	133.56
479.658	123.56
479.876	102.56
480.095	108.56
480.313	124.56
480.532	126.56
480.751	201.56
480.969	573.56
481.188	2275.56
481.406	1474.56
481.624	250.56
481.843	125.56
482.061	101.56
482.28	105.56
482.498	90.56
482.717	86.56
482.935	91.56
483.153	94.56
483.372	92.56
483.59	91.56
483.808	104.56
484.027	99.56
484.245	91.56
484.463	102.56
484.681	98.56
484.9	77.56
485.118	79.56
485.336	103.56
485.554	77.56
485.772	91.56
485.99	95.56
486.209	95.56
486.427	108.56
486.645	110.56
486.863	116.56
487.081	104.56
487.299	97.56
487.517	91.56
487.735	89.56
487.953	77.56
488.171	85.56
488.389	104.56
488.607	111.56
488.825	70.56
489.043	94.56
489.261	84.56
489.479	77.56
489.696	102.56
489.914	103.56
490.132	88.56
490.35	101.56
490.568	78.56
490.786	82.56
491.003	90.56
491.221	86.56
491.439	94.56
491.657	101.56
491.874	93.56
492.092	102.56
492.31	99.56
492.527	96.56
492.745	98.56
492.963	92.56
493.18	97.56
493.398	95.56
493.615	98.56
493.833	88.56
494.05	82.56
494.268	90.56
494.485	98.56
494.703	80.56
494.92	78.56
495.138	100.56
495.355	90.56
495.573	90.56
495.79	89.56
496.008	93.56
496.225	87.56
496.442	82.56
496.66	90.56
496.877	85.56
497.094	94.56
497.312	81.56
497.529	86.56
497.746	96.56
497.963	99.56
498.181	82.56
498.398	116.56
498.615	109.56
498.832	96.56
499.049	95.56
499.267	95.56
499.484	82.56
499.701	85.56
499.918	84.56
500.135	89.56
500.352	82.56
500.569	95.56
500.786	86.56
501.003	85.56
501.22	90.56
501.437	97.56
501.654	92.56
501.871	107.56
502.088	101.56
502.305	90.56
502.522	95.56
502.739	99.56
502.956	88.56
503.172	91.56
503.389	107.56
503.606	126.56
503.823	100.56
504.04	96.56
504.256	94.56
504.473	99.56
504.69	92.56
504.907	100.56
505.123	84.56
505.34	92.56
505.557	86.56
505.773	90.56
505.99	93.56
506.207	88.56
506.423	94.56
506.64	96.56
506.856	101.56
507.073	100.56
507.289	106.56
507.506	91.56
507.722	132.56
507.939	128.56
508.155	95.56
508.372	93.56
508.588	101.56
508.805	96.56
509.021	88.56
509.238	93.56
509.454	99.56
509.67	92.56
509.887	103.56
510.103	130.56
510.319	216.56
510.536	767.56
510.752	2618.56
510.968	762.56
511.184	171.56
511.401	127.56
511.617	120.56
511.833	107.56
512.049	87.56
512.265	90.56
512.481	85.56
512.698	93.56
512.914	92.56
513.13	94.56
513.346	94.56
513.562	114.56
