Data from Circ_2013_H10_HRD10591_00019.txt Node
Date: Wed Jan 03 10:04:04 EST 2024
User: Yrep
Spectrometer: HR+D1059
Trigger mode: 1
Integration Time (sec): 1.000000E-1
Scans to average: 1
Electric dark correction enabled: true
Nonlinearity correction enabled: false
Boxcar width: 0
XAxis mode: Wavelengths
Number of Pixels in Spectrum: 2048
>>>>>Begin Spectral Data<<<<<
223.165	-17.12
223.4	-17.12
223.635	-17.12
223.869	-19.12
224.104	-25.12
224.338	-12.12
224.573	-29.12
224.808	-5.12
225.042	2.88
225.277	-2.12
225.511	-3.12
225.746	-3.12
225.98	1.88
226.215	21.88
226.449	3.88
226.683	36.88
226.918	10.88
227.152	37.88
227.387	52.88
227.621	25.88
227.856	45.88
228.09	45.88
228.324	35.88
228.559	57.88
228.793	58.88
229.027	52.88
229.262	65.88
229.496	77.88
229.73	73.88
229.964	82.88
230.199	78.88
230.433	60.88
230.667	70.88
230.901	69.88
231.136	78.88
231.37	68.88
231.604	89.88
231.838	90.88
232.072	79.88
232.306	82.88
232.541	88.88
232.775	87.88
233.009	86.88
233.243	89.88
233.477	89.88
233.711	93.88
233.945	78.88
234.179	67.88
234.413	84.88
234.647	97.88
234.881	70.88
235.115	75.88
235.349	61.88
235.583	75.88
235.817	81.88
236.051	81.88
236.285	77.88
236.519	73.88
236.753	83.88
236.987	82.88
237.221	85.88
237.455	98.88
237.689	75.88
237.922	75.88
238.156	74.88
238.39	77.88
238.624	87.88
238.858	71.88
239.091	74.88
239.325	71.88
239.559	75.88
239.793	65.88
240.027	77.88
240.26	71.88
240.494	77.88
240.728	71.88
240.961	69.88
241.195	84.88
241.429	68.88
241.662	80.88
241.896	74.88
242.13	91.88
242.363	76.88
242.597	81.88
242.83	81.88
243.064	68.88
243.298	81.88
243.531	87.88
243.765	83.88
243.998	78.88
244.232	82.88
244.465	76.88
244.699	90.88
244.932	78.88
245.166	76.88
245.399	82.88
245.633	79.88
245.866	76.88
246.099	82.88
246.333	75.88
246.566	72.88
246.8	78.88
247.033	85.88
247.266	68.88
247.5	87.88
247.733	72.88
247.966	72.88
248.2	78.88
248.433	86.88
248.666	82.88
248.899	80.88
249.133	87.88
249.366	105.88
249.599	96.88
249.832	70.88
250.066	77.88
250.299	74.88
250.532	81.88
250.765	75.88
250.998	75.88
251.231	84.88
251.465	80.88
251.698	63.88
251.931	73.88
252.164	83.88
252.397	80.88
252.63	70.88
252.863	79.88
253.096	63.88
253.329	74.88
253.562	76.88
253.795	72.88
254.028	91.88
254.261	75.88
254.494	83.88
254.727	81.88
254.96	93.88
255.193	79.88
255.426	77.88
255.659	73.88
255.892	90.88
256.124	86.88
256.357	79.88
256.59	93.88
256.823	74.88
257.056	71.88
257.289	66.88
257.521	76.88
257.754	85.88
257.987	90.88
258.22	94.88
258.452	85.88
258.685	65.88
258.918	88.88
259.151	77.88
259.383	77.88
259.616	86.88
259.849	85.88
260.081	88.88
260.314	76.88
260.547	90.88
260.779	79.88
261.012	90.88
261.244	93.88
261.477	71.88
261.71	94.88
261.942	115.88
262.175	123.88
262.407	90.88
262.64	82.88
262.872	76.88
263.105	69.88
263.337	76.88
263.57	78.88
263.802	77.88
264.035	78.88
264.267	85.88
264.499	78.88
264.732	80.88
264.964	87.88
265.197	75.88
265.429	93.88
265.661	92.88
265.894	82.88
266.126	76.88
266.358	90.88
266.591	77.88
266.823	80.88
267.055	72.88
267.287	81.88
267.52	74.88
267.752	81.88
267.984	87.88
268.216	69.88
268.448	84.88
268.681	60.88
268.913	78.88
269.145	92.88
269.377	78.88
269.609	88.88
269.841	85.88
270.073	85.88
270.306	88.88
270.538	80.88
270.77	84.88
271.002	65.88
271.234	81.88
271.466	80.88
271.698	79.88
271.93	91.88
272.162	73.88
272.394	77.88
272.626	97.88
272.858	84.88
273.09	81.88
273.322	86.88
273.553	90.88
273.785	83.88
274.017	70.88
274.249	80.88
274.481	80.88
274.713	82.88
274.945	76.88
275.176	88.88
275.408	91.88
275.64	92.88
275.872	90.88
276.104	87.88
276.335	88.88
276.567	110.88
276.799	112.88
277.031	112.88
277.262	110.88
277.494	102.88
277.726	86.88
277.957	80.88
278.189	77.88
278.421	90.88
278.652	85.88
278.884	82.88
279.115	97.88
279.347	88.88
279.579	76.88
279.81	82.88
280.042	106.88
280.273	134.88
280.505	107.88
280.736	98.88
280.968	84.88
281.199	86.88
281.431	83.88
281.662	97.88
281.894	105.88
282.125	99.88
282.356	120.88
282.588	138.88
282.819	106.88
283.051	92.88
283.282	84.88
283.513	73.88
283.745	82.88
283.976	82.88
284.207	89.88
284.439	75.88
284.67	84.88
284.901	91.88
285.132	80.88
285.364	83.88
285.595	90.88
285.826	93.88
286.057	86.88
286.288	81.88
286.52	83.88
286.751	82.88
286.982	81.88
287.213	84.88
287.444	96.88
287.675	75.88
287.906	100.88
288.138	84.88
288.369	98.88
288.6	84.88
288.831	80.88
289.062	91.88
289.293	75.88
289.524	89.88
289.755	88.88
289.986	93.88
290.217	88.88
290.448	76.88
290.679	86.88
290.91	86.88
291.141	77.88
291.371	75.88
291.602	84.88
291.833	92.88
292.064	94.88
292.295	109.88
292.526	76.88
292.757	90.88
292.987	83.88
293.218	89.88
293.449	97.88
293.68	94.88
293.91	101.88
294.141	76.88
294.372	71.88
294.603	98.88
294.833	85.88
295.064	88.88
295.295	80.88
295.525	99.88
295.756	89.88
295.987	112.88
296.217	137.88
296.448	125.88
296.679	101.88
296.909	91.88
297.14	92.88
297.37	93.88
297.601	95.88
297.831	85.88
298.062	68.88
298.292	86.88
298.523	99.88
298.753	87.88
298.984	77.88
299.214	79.88
299.445	95.88
299.675	99.88
299.905	81.88
300.136	84.88
300.366	86.88
300.597	98.88
300.827	82.88
301.057	94.88
301.288	98.88
301.518	85.88
301.748	89.88
301.979	92.88
302.209	89.88
302.439	93.88
302.669	83.88
302.9	91.88
303.13	91.88
303.36	96.88
303.59	86.88
303.82	107.88
304.051	79.88
304.281	82.88
304.511	95.88
304.741	90.88
304.971	86.88
305.201	97.88
305.431	93.88
305.661	88.88
305.891	93.88
306.121	100.88
306.352	94.88
306.582	97.88
306.812	88.88
307.042	90.88
307.272	94.88
307.502	99.88
307.731	113.88
307.961	107.88
308.191	89.88
308.421	91.88
308.651	93.88
308.881	101.88
309.111	93.88
309.341	80.88
309.571	98.88
309.8	91.88
310.03	80.88
310.26	92.88
310.49	99.88
310.72	97.88
310.949	110.88
311.179	89.88
311.409	100.88
311.639	92.88
311.868	84.88
312.098	93.88
312.328	81.88
312.557	99.88
312.787	93.88
313.017	103.88
313.246	93.88
313.476	104.88
313.706	86.88
313.935	83.88
314.165	99.88
314.394	104.88
314.624	100.88
314.853	104.88
315.083	82.88
315.312	91.88
315.542	78.88
315.771	84.88
316.001	96.88
316.23	92.88
316.46	73.88
316.689	79.88
316.919	97.88
317.148	94.88
317.377	91.88
317.607	107.88
317.836	97.88
318.065	88.88
318.295	91.88
318.524	96.88
318.753	82.88
318.983	91.88
319.212	100.88
319.441	98.88
319.67	95.88
319.9	100.88
320.129	88.88
320.358	85.88
320.587	84.88
320.816	99.88
321.046	97.88
321.275	99.88
321.504	93.88
321.733	93.88
321.962	101.88
322.191	105.88
322.42	117.88
322.649	115.88
322.878	101.88
323.108	112.88
323.337	117.88
323.566	141.88
323.795	149.88
324.024	188.88
324.253	402.88
324.482	832.88
324.71	1690.88
324.939	2254.88
325.168	844.88
325.397	254.88
325.626	137.88
325.855	142.88
326.084	136.88
326.313	133.88
326.542	149.88
326.77	225.88
326.999	471.88
327.228	950.88
327.457	1739.88
327.686	1420.88
327.914	412.88
328.143	263.88
328.372	274.88
328.6	183.88
328.829	138.88
329.058	148.88
329.287	151.88
329.515	120.88
329.744	137.88
329.972	198.88
330.201	305.88
330.43	432.88
330.658	251.88
330.887	176.88
331.115	133.88
331.344	110.88
331.572	96.88
331.801	97.88
332.03	100.88
332.258	100.88
332.486	90.88
332.715	110.88
332.943	99.88
333.172	107.88
333.4	95.88
333.629	95.88
333.857	132.88
334.085	182.88
334.314	302.88
334.542	528.88
334.771	510.88
334.999	197.88
335.227	104.88
335.455	102.88
335.684	99.88
335.912	99.88
336.14	83.88
336.369	101.88
336.597	108.88
336.825	89.88
337.053	94.88
337.281	102.88
337.51	100.88
337.738	96.88
337.966	102.88
338.194	96.88
338.422	100.88
338.65	100.88
338.878	97.88
339.106	101.88
339.334	96.88
339.562	78.88
339.79	92.88
340.018	84.88
340.246	92.88
340.474	95.88
340.702	99.88
340.93	87.88
341.158	95.88
341.386	99.88
341.614	97.88
341.842	92.88
342.07	90.88
342.298	84.88
342.526	76.88
342.754	76.88
342.981	92.88
343.209	97.88
343.437	92.88
343.665	76.88
343.893	75.88
344.12	104.88
344.348	79.88
344.576	85.88
344.804	75.88
345.031	87.88
345.259	103.88
345.487	94.88
345.714	80.88
345.942	91.88
346.17	82.88
346.397	84.88
346.625	75.88
346.853	111.88
347.08	99.88
347.308	89.88
347.535	112.88
347.763	93.88
347.99	81.88
348.218	111.88
348.445	98.88
348.673	101.88
348.9	98.88
349.128	92.88
349.355	96.88
349.583	83.88
349.81	86.88
350.037	87.88
350.265	92.88
350.492	80.88
350.72	91.88
350.947	100.88
351.174	106.88
351.402	104.88
351.629	116.88
351.856	94.88
352.083	106.88
352.311	117.88
352.538	113.88
352.765	106.88
352.992	113.88
353.22	105.88
353.447	84.88
353.674	104.88
353.901	80.88
354.128	87.88
354.355	84.88
354.583	108.88
354.81	89.88
355.037	106.88
355.264	98.88
355.491	84.88
355.718	98.88
355.945	98.88
356.172	105.88
356.399	89.88
356.626	81.88
356.853	81.88
357.08	88.88
357.307	79.88
357.534	94.88
357.761	83.88
357.988	97.88
358.215	101.88
358.441	98.88
358.668	93.88
358.895	103.88
359.122	93.88
359.349	99.88
359.576	92.88
359.802	101.88
360.029	114.88
360.256	111.88
360.483	109.88
360.709	97.88
360.936	93.88
361.163	99.88
361.39	100.88
361.616	89.88
361.843	85.88
362.07	99.88
362.296	102.88
362.523	90.88
362.749	88.88
362.976	102.88
363.203	88.88
363.429	74.88
363.656	84.88
363.882	94.88
364.109	80.88
364.335	92.88
364.562	93.88
364.788	69.88
365.015	78.88
365.241	98.88
365.468	94.88
365.694	119.88
365.92	98.88
366.147	101.88
366.373	93.88
366.599	88.88
366.826	89.88
367.052	91.88
367.278	88.88
367.505	92.88
367.731	93.88
367.957	86.88
368.184	99.88
368.41	101.88
368.636	118.88
368.862	113.88
369.089	117.88
369.315	97.88
369.541	83.88
369.767	84.88
369.993	84.88
370.219	98.88
370.445	106.88
370.672	81.88
370.898	88.88
371.124	81.88
371.35	89.88
371.576	91.88
371.802	72.88
372.028	89.88
372.254	85.88
372.48	96.88
372.706	83.88
372.932	75.88
373.158	88.88
373.384	101.88
373.61	97.88
373.835	94.88
374.061	86.88
374.287	104.88
374.513	68.88
374.739	98.88
374.965	101.88
375.191	84.88
375.416	80.88
375.642	78.88
375.868	79.88
376.094	84.88
376.319	77.88
376.545	82.88
376.771	87.88
376.997	97.88
377.222	93.88
377.448	82.88
377.674	72.88
377.899	90.88
378.125	78.88
378.35	93.88
378.576	81.88
378.802	78.88
379.027	91.88
379.253	82.88
379.478	96.88
379.704	92.88
379.929	91.88
380.155	96.88
380.38	94.88
380.606	88.88
380.831	86.88
381.057	94.88
381.282	99.88
381.507	100.88
381.733	104.88
381.958	91.88
382.184	101.88
382.409	99.88
382.634	107.88
382.86	93.88
383.085	103.88
383.31	114.88
383.535	108.88
383.761	99.88
383.986	91.88
384.211	91.88
384.436	106.88
384.662	99.88
384.887	107.88
385.112	94.88
385.337	102.88
385.562	104.88
385.787	109.88
386.013	94.88
386.238	134.88
386.463	112.88
386.688	130.88
386.913	91.88
387.138	113.88
387.363	104.88
387.588	104.88
387.813	93.88
388.038	111.88
388.263	116.88
388.488	107.88
388.713	89.88
388.938	89.88
389.163	99.88
389.387	104.88
389.612	90.88
389.837	83.88
390.062	84.88
390.287	94.88
390.512	87.88
390.736	86.88
390.961	86.88
391.186	90.88
391.411	107.88
391.636	94.88
391.86	86.88
392.085	94.88
392.31	98.88
392.534	88.88
392.759	94.88
392.984	80.88
393.208	86.88
393.433	96.88
393.658	101.88
393.882	81.88
394.107	82.88
394.331	85.88
394.556	71.88
394.78	93.88
395.005	84.88
395.229	72.88
395.454	95.88
395.678	88.88
395.903	96.88
396.127	85.88
396.352	85.88
396.576	88.88
396.801	101.88
397.025	93.88
397.249	89.88
397.474	103.88
397.698	77.88
397.922	72.88
398.147	74.88
398.371	76.88
398.595	82.88
398.82	74.88
399.044	98.88
399.268	76.88
399.492	85.88
399.717	75.88
399.941	90.88
400.165	95.88
400.389	76.88
400.613	94.88
400.837	88.88
401.062	92.88
401.286	73.88
401.51	87.88
401.734	92.88
401.958	109.88
402.182	121.88
402.406	168.88
402.63	133.88
402.854	98.88
403.078	100.88
403.302	83.88
403.526	83.88
403.75	100.88
403.974	78.88
404.198	89.88
404.422	85.88
404.645	91.88
404.869	89.88
405.093	103.88
405.317	102.88
405.541	95.88
405.765	102.88
405.988	122.88
406.212	148.88
406.436	243.88
406.66	149.88
406.883	108.88
407.107	86.88
407.331	100.88
407.555	90.88
407.778	89.88
408.002	91.88
408.226	94.88
408.449	84.88
408.673	98.88
408.896	93.88
409.12	88.88
409.344	91.88
409.567	92.88
409.791	85.88
410.014	102.88
410.238	83.88
410.461	90.88
410.685	86.88
410.908	95.88
411.132	80.88
411.355	92.88
411.578	70.88
411.802	100.88
412.025	95.88
412.249	101.88
412.472	107.88
412.695	100.88
412.919	77.88
413.142	87.88
413.365	82.88
413.589	92.88
413.812	81.88
414.035	89.88
414.258	84.88
414.482	87.88
414.705	78.88
414.928	91.88
415.151	84.88
415.374	84.88
415.597	91.88
415.821	89.88
416.044	86.88
416.267	83.88
416.49	85.88
416.713	86.88
416.936	88.88
417.159	97.88
417.382	94.88
417.605	85.88
417.828	105.88
418.051	93.88
418.274	83.88
418.497	79.88
418.72	73.88
418.943	87.88
419.166	90.88
419.389	98.88
419.611	99.88
419.834	86.88
420.057	85.88
420.28	87.88
420.503	101.88
420.726	89.88
420.948	81.88
421.171	82.88
421.394	90.88
421.617	100.88
421.839	82.88
422.062	94.88
422.285	100.88
422.507	99.88
422.73	123.88
422.953	100.88
423.175	89.88
423.398	89.88
423.621	96.88
423.843	92.88
424.066	83.88
424.288	91.88
424.511	94.88
424.733	101.88
424.956	118.88
425.178	100.88
425.401	102.88
425.623	80.88
425.846	97.88
426.068	88.88
426.291	94.88
426.513	84.88
426.735	103.88
426.958	87.88
427.18	109.88
427.402	147.88
427.625	195.88
427.847	169.88
428.069	157.88
428.292	98.88
428.514	90.88
428.736	94.88
428.958	77.88
429.181	93.88
429.403	79.88
429.625	76.88
429.847	85.88
430.069	88.88
430.292	91.88
430.514	97.88
430.736	79.88
430.958	83.88
431.18	81.88
431.402	81.88
431.624	86.88
431.846	93.88
432.068	92.88
432.29	84.88
432.512	93.88
432.734	93.88
432.956	97.88
433.178	107.88
433.4	94.88
433.622	87.88
433.844	88.88
434.066	94.88
434.287	94.88
434.509	100.88
434.731	101.88
434.953	79.88
435.175	78.88
435.397	91.88
435.618	95.88
435.84	108.88
436.062	129.88
436.284	120.88
436.505	99.88
436.727	108.88
436.949	78.88
437.17	83.88
437.392	79.88
437.614	81.88
437.835	89.88
438.057	120.88
438.278	109.88
438.5	94.88
438.721	122.88
438.943	107.88
439.165	92.88
439.386	101.88
439.608	87.88
439.829	103.88
440.05	130.88
440.272	159.88
440.493	102.88
440.715	93.88
440.936	97.88
441.158	98.88
441.379	89.88
441.6	101.88
441.822	84.88
442.043	97.88
442.264	113.88
442.486	118.88
442.707	86.88
442.928	99.88
443.149	131.88
443.371	147.88
443.592	117.88
443.813	115.88
444.034	115.88
444.255	100.88
444.476	83.88
444.698	85.88
444.919	92.88
445.14	132.88
445.361	128.88
445.582	130.88
445.803	155.88
446.024	136.88
446.245	150.88
446.466	133.88
446.687	91.88
446.908	82.88
447.129	89.88
447.35	89.88
447.571	104.88
447.792	88.88
448.013	98.88
448.234	101.88
448.455	88.88
448.675	116.88
448.896	130.88
449.117	105.88
449.338	110.88
449.559	125.88
449.779	145.88
450	83.88
450.221	82.88
450.442	84.88
450.662	103.88
450.883	108.88
451.104	105.88
451.324	95.88
451.545	89.88
451.766	81.88
451.986	81.88
452.207	88.88
452.428	86.88
452.648	94.88
452.869	112.88
453.089	107.88
453.31	124.88
453.53	100.88
453.751	92.88
453.971	105.88
454.192	118.88
454.412	113.88
454.633	84.88
454.853	79.88
455.073	96.88
455.294	110.88
455.514	103.88
455.734	80.88
455.955	80.88
456.175	82.88
456.395	94.88
456.616	90.88
456.836	74.88
457.056	84.88
457.276	89.88
457.497	86.88
457.717	94.88
457.937	90.88
458.157	96.88
458.377	83.88
458.598	107.88
458.818	153.88
459.038	186.88
459.258	123.88
459.478	91.88
459.698	87.88
459.918	86.88
460.138	76.88
460.358	77.88
460.578	64.88
460.798	83.88
461.018	90.88
461.238	93.88
461.458	81.88
461.678	89.88
461.898	78.88
462.118	89.88
462.338	86.88
462.558	65.88
462.777	79.88
462.997	88.88
463.217	83.88
463.437	82.88
463.657	78.88
463.876	101.88
464.096	83.88
464.316	93.88
464.536	93.88
464.755	90.88
464.975	100.88
465.195	164.88
465.414	172.88
465.634	90.88
465.854	90.88
466.073	89.88
466.293	91.88
466.512	92.88
466.732	90.88
466.951	85.88
467.171	89.88
467.391	97.88
467.61	104.88
467.829	124.88
468.049	181.88
468.268	274.88
468.488	128.88
468.707	96.88
468.927	100.88
469.146	80.88
469.365	75.88
469.585	104.88
469.804	93.88
470.023	98.88
470.243	84.88
470.462	96.88
470.681	118.88
470.901	95.88
471.12	77.88
471.339	79.88
471.558	81.88
471.777	109.88
471.997	133.88
472.216	322.88
472.435	660.88
472.654	216.88
472.873	109.88
473.092	96.88
473.311	86.88
473.53	81.88
473.749	81.88
473.968	85.88
474.187	103.88
474.406	108.88
474.625	88.88
474.844	102.88
475.063	83.88
475.282	88.88
475.501	76.88
475.72	93.88
475.939	89.88
476.158	78.88
476.377	90.88
476.596	81.88
476.814	78.88
477.033	92.88
477.252	82.88
477.471	79.88
477.69	77.88
477.908	72.88
478.127	89.88
478.346	76.88
478.564	83.88
478.783	100.88
479.002	94.88
479.22	93.88
479.439	97.88
479.658	105.88
479.876	110.88
480.095	84.88
480.313	98.88
480.532	108.88
480.751	133.88
480.969	292.88
481.188	1060.88
481.406	748.88
481.624	174.88
481.843	103.88
482.061	105.88
482.28	90.88
482.498	103.88
482.717	88.88
482.935	109.88
483.153	78.88
483.372	83.88
483.59	79.88
483.808	66.88
484.027	93.88
484.245	88.88
484.463	79.88
484.681	98.88
484.9	74.88
485.118	74.88
485.336	89.88
485.554	97.88
485.772	97.88
485.99	100.88
486.209	109.88
486.427	106.88
486.645	103.88
486.863	124.88
487.081	89.88
487.299	94.88
487.517	92.88
487.735	93.88
487.953	80.88
488.171	104.88
488.389	86.88
488.607	82.88
488.825	98.88
489.043	84.88
489.261	92.88
489.479	97.88
489.696	93.88
489.914	97.88
490.132	103.88
490.35	87.88
490.568	83.88
490.786	85.88
491.003	100.88
491.221	85.88
491.439	99.88
491.657	92.88
491.874	82.88
492.092	85.88
492.31	84.88
492.527	64.88
492.745	94.88
492.963	84.88
493.18	90.88
493.398	85.88
493.615	100.88
493.833	103.88
494.05	93.88
494.268	77.88
494.485	81.88
494.703	90.88
494.92	86.88
495.138	96.88
495.355	97.88
495.573	91.88
495.79	85.88
496.008	99.88
496.225	86.88
496.442	78.88
496.66	102.88
496.877	99.88
497.094	90.88
497.312	86.88
497.529	97.88
497.746	90.88
497.963	87.88
498.181	101.88
498.398	97.88
498.615	112.88
498.832	97.88
499.049	100.88
499.267	102.88
499.484	106.88
499.701	90.88
499.918	96.88
500.135	96.88
500.352	80.88
500.569	96.88
500.786	93.88
501.003	82.88
501.22	90.88
501.437	87.88
501.654	95.88
501.871	103.88
502.088	79.88
502.305	83.88
502.522	98.88
502.739	82.88
502.956	78.88
503.172	88.88
503.389	97.88
503.606	94.88
503.823	114.88
504.04	88.88
504.256	87.88
504.473	85.88
504.69	81.88
504.907	93.88
505.123	85.88
505.34	92.88
505.557	99.88
505.773	76.88
505.99	87.88
506.207	99.88
506.423	97.88
506.64	82.88
506.856	100.88
507.073	104.88
507.289	103.88
507.506	98.88
507.722	107.88
507.939	102.88
508.155	97.88
508.372	100.88
508.588	92.88
508.805	85.88
509.021	81.88
509.238	90.88
509.454	81.88
509.67	84.88
509.887	109.88
510.103	125.88
510.319	203.88
510.536	677.88
510.752	2230.88
510.968	666.88
511.184	148.88
511.401	128.88
511.617	107.88
511.833	101.88
512.049	102.88
512.265	100.88
512.481	91.88
512.698	98.88
512.914	87.88
513.13	84.88
513.346	87.88
513.562	99.88
513.778	100.88
513.994	93.88
514.21	101.88
514.426	122.88
514.642	120.88
514.858	131.88
515.074	164.88
515.29	459.88
