Data from Circ_2013_H10_HRD10591_00033.txt Node
Date: Wed Jan 03 10:04:06 EST 2024
User: Yrep
Spectrometer: HR+D1059
Trigger mode: 1
Integration Time (sec): 1.000000E-1
Scans to average: 1
Electric dark correction enabled: true
Nonlinearity correction enabled: false
Boxcar width: 0
XAxis mode: Wavelengths
Number of Pixels in Spectrum: 2048
>>>>>Begin Spectral Data<<<<<
223.165	-23.5
223.4	-23.5
223.635	-23.5
223.869	-7.5
224.104	-28.5
224.338	-7.5
224.573	0.5
224.808	-14.5
225.042	-25.5
225.277	-12.5
225.511	10.5
225.746	-0.5
225.98	-0.5
226.215	21.5
226.449	15.5
226.683	14.5
226.918	30.5
227.152	27.5
227.387	30.5
227.621	37.5
227.856	38.5
228.09	36.5
228.324	46.5
228.559	50.5
228.793	68.5
229.027	69.5
229.262	64.5
229.496	69.5
229.73	84.5
229.964	93.5
230.199	76.5
230.433	76.5
230.667	69.5
230.901	71.5
231.136	63.5
231.37	57.5
231.604	62.5
231.838	92.5
232.072	72.5
232.306	82.5
232.541	76.5
232.775	69.5
233.009	58.5
233.243	70.5
233.477	87.5
233.711	82.5
233.945	71.5
234.179	90.5
234.413	76.5
234.647	79.5
234.881	79.5
235.115	65.5
235.349	55.5
235.583	78.5
235.817	87.5
236.051	81.5
236.285	78.5
236.519	71.5
236.753	64.5
236.987	78.5
237.221	82.5
237.455	96.5
237.689	68.5
237.922	61.5
238.156	57.5
238.39	78.5
238.624	77.5
238.858	82.5
239.091	84.5
239.325	74.5
239.559	70.5
239.793	78.5
240.027	54.5
240.26	69.5
240.494	65.5
240.728	72.5
240.961	65.5
241.195	89.5
241.429	76.5
241.662	62.5
241.896	71.5
242.13	83.5
242.363	61.5
242.597	64.5
242.83	74.5
243.064	78.5
243.298	85.5
243.531	69.5
243.765	76.5
243.998	82.5
244.232	60.5
244.465	74.5
244.699	78.5
244.932	71.5
245.166	74.5
245.399	71.5
245.633	67.5
245.866	79.5
246.099	74.5
246.333	73.5
246.566	76.5
246.8	77.5
247.033	94.5
247.266	73.5
247.5	73.5
247.733	71.5
247.966	87.5
248.2	64.5
248.433	80.5
248.666	78.5
248.899	69.5
249.133	70.5
249.366	92.5
249.599	85.5
249.832	73.5
250.066	79.5
250.299	70.5
250.532	82.5
250.765	91.5
250.998	68.5
251.231	60.5
251.465	85.5
251.698	80.5
251.931	55.5
252.164	73.5
252.397	68.5
252.63	76.5
252.863	72.5
253.096	70.5
253.329	102.5
253.562	64.5
253.795	73.5
254.028	87.5
254.261	86.5
254.494	70.5
254.727	68.5
254.96	72.5
255.193	68.5
255.426	67.5
255.659	81.5
255.892	63.5
256.124	78.5
256.357	64.5
256.59	67.5
256.823	72.5
257.056	83.5
257.289	75.5
257.521	72.5
257.754	71.5
257.987	75.5
258.22	76.5
258.452	87.5
258.685	75.5
258.918	83.5
259.151	75.5
259.383	75.5
259.616	64.5
259.849	74.5
260.081	93.5
260.314	75.5
260.547	68.5
260.779	86.5
261.012	76.5
261.244	91.5
261.477	98.5
261.71	93.5
261.942	122.5
262.175	135.5
262.407	85.5
262.64	75.5
262.872	89.5
263.105	73.5
263.337	82.5
263.57	94.5
263.802	65.5
264.035	78.5
264.267	68.5
264.499	64.5
264.732	82.5
264.964	75.5
265.197	77.5
265.429	89.5
265.661	64.5
265.894	84.5
266.126	87.5
266.358	82.5
266.591	83.5
266.823	92.5
267.055	78.5
267.287	91.5
267.52	89.5
267.752	82.5
267.984	61.5
268.216	81.5
268.448	91.5
268.681	81.5
268.913	75.5
269.145	96.5
269.377	89.5
269.609	73.5
269.841	83.5
270.073	82.5
270.306	76.5
270.538	82.5
270.77	72.5
271.002	73.5
271.234	82.5
271.466	91.5
271.698	79.5
271.93	90.5
272.162	72.5
272.394	85.5
272.626	89.5
272.858	92.5
273.09	84.5
273.322	69.5
273.553	88.5
273.785	72.5
274.017	72.5
274.249	82.5
274.481	84.5
274.713	81.5
274.945	99.5
275.176	89.5
275.408	86.5
275.64	92.5
275.872	97.5
276.104	118.5
276.335	91.5
276.567	112.5
276.799	107.5
277.031	125.5
277.262	125.5
277.494	103.5
277.726	88.5
277.957	94.5
278.189	86.5
278.421	91.5
278.652	86.5
278.884	92.5
279.115	88.5
279.347	88.5
279.579	94.5
279.81	82.5
280.042	120.5
280.273	129.5
280.505	126.5
280.736	104.5
280.968	96.5
281.199	88.5
281.431	72.5
281.662	87.5
281.894	82.5
282.125	95.5
282.356	109.5
282.588	157.5
282.819	110.5
283.051	93.5
283.282	86.5
283.513	95.5
283.745	90.5
283.976	95.5
284.207	80.5
284.439	71.5
284.67	89.5
284.901	75.5
285.132	87.5
285.364	86.5
285.595	82.5
285.826	72.5
286.057	94.5
286.288	100.5
286.52	93.5
286.751	75.5
286.982	83.5
287.213	84.5
287.444	85.5
287.675	78.5
287.906	94.5
288.138	81.5
288.369	89.5
288.6	88.5
288.831	102.5
289.062	83.5
289.293	80.5
289.524	92.5
289.755	64.5
289.986	86.5
290.217	90.5
290.448	64.5
290.679	72.5
290.91	87.5
291.141	79.5
291.371	85.5
291.602	77.5
291.833	72.5
292.064	81.5
292.295	70.5
292.526	84.5
292.757	81.5
292.987	90.5
293.218	84.5
293.449	95.5
293.68	89.5
293.91	83.5
294.141	98.5
294.372	97.5
294.603	90.5
294.833	71.5
295.064	99.5
295.295	71.5
295.525	96.5
295.756	96.5
295.987	115.5
296.217	150.5
296.448	141.5
296.679	94.5
296.909	74.5
297.14	85.5
297.37	84.5
297.601	80.5
297.831	75.5
298.062	84.5
298.292	81.5
298.523	99.5
298.753	95.5
298.984	89.5
299.214	91.5
299.445	90.5
299.675	84.5
299.905	96.5
300.136	86.5
300.366	94.5
300.597	87.5
300.827	91.5
301.057	99.5
301.288	119.5
301.518	78.5
301.748	87.5
301.979	90.5
302.209	88.5
302.439	86.5
302.669	86.5
302.9	100.5
303.13	98.5
303.36	108.5
303.59	105.5
303.82	129.5
304.051	107.5
304.281	87.5
304.511	89.5
304.741	96.5
304.971	82.5
305.201	96.5
305.431	87.5
305.661	94.5
305.891	93.5
306.121	92.5
306.352	97.5
306.582	124.5
306.812	101.5
307.042	101.5
307.272	119.5
307.502	119.5
307.731	112.5
307.961	92.5
308.191	90.5
308.421	96.5
308.651	91.5
308.881	84.5
309.111	107.5
309.341	93.5
309.571	102.5
309.8	96.5
310.03	104.5
310.26	96.5
310.49	93.5
310.72	96.5
310.949	133.5
311.179	114.5
311.409	98.5
311.639	104.5
311.868	95.5
312.098	92.5
312.328	95.5
312.557	91.5
312.787	100.5
313.017	116.5
313.246	94.5
313.476	76.5
313.706	92.5
313.935	90.5
314.165	99.5
314.394	96.5
314.624	106.5
314.853	102.5
315.083	103.5
315.312	89.5
315.542	93.5
315.771	99.5
316.001	106.5
316.23	94.5
316.46	101.5
316.689	91.5
316.919	104.5
317.148	95.5
317.377	80.5
317.607	90.5
317.836	85.5
318.065	104.5
318.295	75.5
318.524	90.5
318.753	102.5
318.983	92.5
319.212	99.5
319.441	99.5
319.67	114.5
319.9	94.5
320.129	88.5
320.358	105.5
320.587	103.5
320.816	101.5
321.046	118.5
321.275	103.5
321.504	106.5
321.733	87.5
321.962	96.5
322.191	91.5
322.42	104.5
322.649	112.5
322.878	110.5
323.108	103.5
323.337	128.5
323.566	125.5
323.795	148.5
324.024	214.5
324.253	415.5
324.482	853.5
324.71	1785.5
324.939	2350.5
325.168	914.5
325.397	256.5
325.626	150.5
325.855	134.5
326.084	138.5
326.313	126.5
326.542	164.5
326.77	255.5
326.999	470.5
327.228	968.5
327.457	1776.5
327.686	1390.5
327.914	439.5
328.143	300.5
328.372	339.5
328.6	224.5
328.829	135.5
329.058	160.5
329.287	151.5
329.515	146.5
329.744	150.5
329.972	220.5
330.201	377.5
330.43	562.5
330.658	312.5
330.887	188.5
331.115	145.5
331.344	100.5
331.572	116.5
331.801	107.5
332.03	116.5
332.258	115.5
332.486	97.5
332.715	119.5
332.943	106.5
333.172	99.5
333.4	104.5
333.629	124.5
333.857	135.5
334.085	204.5
334.314	367.5
334.542	667.5
334.771	679.5
334.999	242.5
335.227	122.5
335.455	97.5
335.684	105.5
335.912	113.5
336.14	88.5
336.369	94.5
336.597	97.5
336.825	98.5
337.053	96.5
337.281	111.5
337.51	93.5
337.738	86.5
337.966	98.5
338.194	100.5
338.422	102.5
338.65	105.5
338.878	83.5
339.106	95.5
339.334	94.5
339.562	91.5
339.79	85.5
340.018	81.5
340.246	89.5
340.474	97.5
340.702	105.5
340.93	82.5
341.158	90.5
341.386	101.5
341.614	102.5
341.842	87.5
342.07	107.5
342.298	96.5
342.526	92.5
342.754	94.5
342.981	79.5
343.209	90.5
343.437	94.5
343.665	80.5
343.893	94.5
344.12	93.5
344.348	94.5
344.576	82.5
344.804	101.5
345.031	106.5
345.259	98.5
345.487	90.5
345.714	103.5
345.942	88.5
346.17	96.5
346.397	96.5
346.625	88.5
346.853	86.5
347.08	85.5
347.308	79.5
347.535	102.5
347.763	105.5
347.99	92.5
348.218	104.5
348.445	108.5
348.673	100.5
348.9	84.5
349.128	97.5
349.355	94.5
349.583	101.5
349.81	103.5
350.037	78.5
350.265	80.5
350.492	94.5
350.72	103.5
350.947	97.5
351.174	118.5
351.402	120.5
351.629	91.5
351.856	97.5
352.083	96.5
352.311	116.5
352.538	132.5
352.765	106.5
352.992	105.5
353.22	115.5
353.447	119.5
353.674	100.5
353.901	96.5
354.128	96.5
354.355	99.5
354.583	99.5
354.81	92.5
355.037	94.5
355.264	89.5
355.491	94.5
355.718	95.5
355.945	103.5
356.172	103.5
356.399	101.5
356.626	105.5
356.853	89.5
357.08	98.5
357.307	92.5
357.534	99.5
357.761	100.5
357.988	87.5
358.215	89.5
358.441	89.5
358.668	98.5
358.895	87.5
359.122	82.5
359.349	103.5
359.576	87.5
359.802	98.5
360.029	122.5
360.256	120.5
360.483	101.5
360.709	79.5
360.936	85.5
361.163	96.5
361.39	95.5
361.616	106.5
361.843	87.5
362.07	102.5
362.296	79.5
362.523	85.5
362.749	88.5
362.976	86.5
363.203	91.5
363.429	80.5
363.656	81.5
363.882	83.5
364.109	100.5
364.335	87.5
364.562	83.5
364.788	90.5
365.015	103.5
365.241	110.5
365.468	107.5
365.694	110.5
365.92	104.5
366.147	86.5
366.373	95.5
366.599	86.5
366.826	87.5
367.052	85.5
367.278	92.5
367.505	94.5
367.731	98.5
367.957	97.5
368.184	96.5
368.41	90.5
368.636	102.5
368.862	134.5
369.089	119.5
369.315	99.5
369.541	86.5
369.767	97.5
369.993	92.5
370.219	96.5
370.445	74.5
370.672	74.5
370.898	99.5
371.124	93.5
371.35	81.5
371.576	94.5
371.802	90.5
372.028	65.5
372.254	83.5
372.48	86.5
372.706	76.5
372.932	74.5
373.158	76.5
373.384	95.5
373.61	76.5
373.835	90.5
374.061	95.5
374.287	96.5
374.513	88.5
374.739	76.5
374.965	95.5
375.191	97.5
375.416	86.5
375.642	97.5
375.868	81.5
376.094	94.5
376.319	92.5
376.545	87.5
376.771	69.5
376.997	84.5
377.222	80.5
377.448	101.5
377.674	91.5
377.899	94.5
378.125	80.5
378.35	97.5
378.576	86.5
378.802	90.5
379.027	91.5
379.253	102.5
379.478	90.5
379.704	103.5
379.929	84.5
380.155	95.5
380.38	83.5
380.606	96.5
380.831	97.5
381.057	84.5
381.282	87.5
381.507	99.5
381.733	96.5
381.958	95.5
382.184	79.5
382.409	92.5
382.634	92.5
382.86	113.5
383.085	99.5
383.31	99.5
383.535	84.5
383.761	85.5
383.986	95.5
384.211	86.5
384.436	93.5
384.662	101.5
384.887	99.5
385.112	104.5
385.337	111.5
385.562	100.5
385.787	101.5
386.013	118.5
386.238	99.5
386.463	103.5
386.688	99.5
386.913	91.5
387.138	98.5
387.363	92.5
387.588	100.5
387.813	114.5
388.038	94.5
388.263	102.5
388.488	115.5
388.713	87.5
388.938	92.5
389.163	96.5
389.387	90.5
389.612	93.5
389.837	70.5
390.062	95.5
390.287	76.5
390.512	91.5
390.736	84.5
390.961	88.5
391.186	89.5
391.411	94.5
391.636	87.5
391.86	86.5
392.085	75.5
392.31	96.5
392.534	92.5
392.759	88.5
392.984	104.5
393.208	90.5
393.433	95.5
393.658	101.5
393.882	83.5
394.107	75.5
394.331	89.5
394.556	93.5
394.78	83.5
395.005	97.5
395.229	78.5
395.454	86.5
395.678	84.5
395.903	98.5
396.127	91.5
396.352	85.5
396.576	90.5
396.801	82.5
397.025	86.5
397.249	74.5
397.474	80.5
397.698	97.5
397.922	79.5
398.147	87.5
398.371	81.5
398.595	92.5
398.82	83.5
399.044	73.5
399.268	88.5
399.492	81.5
399.717	84.5
399.941	96.5
400.165	91.5
400.389	81.5
400.613	94.5
400.837	76.5
401.062	80.5
401.286	78.5
401.51	99.5
401.734	90.5
401.958	107.5
402.182	135.5
402.406	185.5
402.63	132.5
402.854	101.5
403.078	104.5
403.302	90.5
403.526	90.5
403.75	83.5
403.974	94.5
404.198	95.5
404.422	82.5
404.645	92.5
404.869	83.5
405.093	92.5
405.317	115.5
405.541	104.5
405.765	99.5
405.988	126.5
406.212	199.5
406.436	262.5
406.66	194.5
406.883	101.5
407.107	72.5
407.331	91.5
407.555	94.5
407.778	89.5
408.002	78.5
408.226	95.5
408.449	92.5
408.673	86.5
408.896	95.5
409.12	100.5
409.344	91.5
409.567	98.5
409.791	93.5
410.014	87.5
410.238	79.5
410.461	98.5
410.685	97.5
410.908	105.5
411.132	84.5
411.355	95.5
411.578	102.5
411.802	83.5
412.025	86.5
412.249	88.5
412.472	107.5
412.695	116.5
412.919	91.5
413.142	85.5
413.365	94.5
413.589	82.5
413.812	74.5
414.035	82.5
414.258	96.5
414.482	86.5
414.705	77.5
414.928	91.5
415.151	95.5
415.374	107.5
415.597	85.5
415.821	95.5
416.044	95.5
416.267	85.5
416.49	89.5
416.713	87.5
416.936	90.5
417.159	90.5
417.382	89.5
417.605	105.5
417.828	102.5
418.051	92.5
418.274	80.5
418.497	89.5
418.72	89.5
418.943	87.5
419.166	87.5
419.389	74.5
419.611	75.5
419.834	96.5
420.057	95.5
420.28	84.5
420.503	76.5
420.726	85.5
420.948	87.5
421.171	83.5
421.394	82.5
421.617	87.5
421.839	96.5
422.062	91.5
422.285	91.5
422.507	101.5
422.73	111.5
422.953	101.5
423.175	86.5
423.398	84.5
423.621	85.5
423.843	90.5
424.066	94.5
424.288	87.5
424.511	91.5
424.733	99.5
424.956	91.5
425.178	93.5
425.401	106.5
425.623	96.5
425.846	82.5
426.068	98.5
426.291	84.5
426.513	73.5
426.735	86.5
426.958	86.5
427.18	112.5
427.402	151.5
427.625	204.5
427.847	178.5
428.069	149.5
428.292	74.5
428.514	93.5
428.736	84.5
428.958	74.5
429.181	89.5
429.403	74.5
429.625	88.5
429.847	85.5
430.069	94.5
430.292	91.5
430.514	82.5
430.736	91.5
430.958	84.5
431.18	74.5
431.402	87.5
431.624	80.5
431.846	95.5
432.068	65.5
432.29	76.5
432.512	75.5
432.734	84.5
432.956	89.5
433.178	92.5
433.4	87.5
433.622	77.5
433.844	96.5
434.066	84.5
434.287	91.5
434.509	79.5
434.731	88.5
434.953	82.5
435.175	88.5
435.397	87.5
435.618	85.5
435.84	95.5
436.062	123.5
436.284	128.5
436.505	82.5
436.727	92.5
436.949	102.5
437.17	78.5
437.392	76.5
437.614	113.5
437.835	112.5
438.057	135.5
438.278	126.5
438.5	110.5
438.721	113.5
438.943	96.5
439.165	81.5
439.386	94.5
439.608	88.5
439.829	96.5
440.05	121.5
440.272	144.5
440.493	99.5
440.715	88.5
440.936	84.5
441.158	92.5
441.379	70.5
441.6	99.5
441.822	99.5
442.043	96.5
442.264	103.5
442.486	87.5
442.707	92.5
442.928	100.5
443.149	147.5
443.371	132.5
443.592	128.5
443.813	116.5
444.034	108.5
444.255	98.5
444.476	89.5
444.698	79.5
444.919	86.5
445.14	161.5
445.361	129.5
445.582	103.5
445.803	146.5
446.024	152.5
446.245	145.5
446.466	104.5
446.687	86.5
446.908	75.5
447.129	91.5
447.35	82.5
447.571	81.5
447.792	94.5
448.013	103.5
448.234	104.5
448.455	84.5
448.675	117.5
448.896	134.5
449.117	94.5
449.338	105.5
449.559	123.5
449.779	123.5
450	84.5
450.221	80.5
450.442	76.5
450.662	91.5
450.883	97.5
451.104	123.5
451.324	98.5
451.545	82.5
451.766	92.5
451.986	74.5
452.207	91.5
452.428	86.5
452.648	102.5
452.869	109.5
453.089	119.5
453.31	130.5
453.53	83.5
453.751	97.5
453.971	111.5
454.192	120.5
454.412	96.5
454.633	86.5
454.853	85.5
455.073	85.5
455.294	84.5
455.514	93.5
455.734	82.5
455.955	89.5
456.175	83.5
456.395	74.5
456.616	76.5
456.836	76.5
457.056	74.5
457.276	84.5
457.497	84.5
457.717	102.5
457.937	87.5
458.157	72.5
458.377	90.5
458.598	114.5
458.818	166.5
459.038	181.5
459.258	130.5
459.478	87.5
459.698	84.5
459.918	84.5
460.138	76.5
460.358	73.5
460.578	72.5
460.798	84.5
461.018	86.5
461.238	83.5
461.458	89.5
461.678	87.5
461.898	75.5
462.118	78.5
462.338	92.5
462.558	80.5
462.777	76.5
462.997	82.5
463.217	84.5
463.437	98.5
463.657	94.5
463.876	85.5
464.096	94.5
464.316	95.5
464.536	101.5
464.755	105.5
464.975	113.5
465.195	190.5
465.414	195.5
465.634	105.5
465.854	87.5
466.073	78.5
466.293	98.5
466.512	91.5
466.732	80.5
466.951	82.5
467.171	86.5
467.391	102.5
467.61	104.5
467.829	140.5
468.049	247.5
468.268	347.5
468.488	135.5
468.707	97.5
468.927	84.5
469.146	85.5
469.365	91.5
469.585	92.5
469.804	85.5
470.023	107.5
470.243	99.5
470.462	91.5
470.681	106.5
470.901	91.5
471.12	98.5
471.339	88.5
471.558	105.5
471.777	101.5
471.997	160.5
472.216	432.5
472.435	940.5
472.654	278.5
472.873	113.5
473.092	99.5
473.311	98.5
473.53	79.5
473.749	91.5
473.968	97.5
474.187	104.5
474.406	95.5
474.625	83.5
474.844	84.5
475.063	80.5
475.282	79.5
475.501	79.5
475.72	83.5
475.939	75.5
476.158	87.5
476.377	82.5
476.596	78.5
476.814	98.5
477.033	111.5
477.252	95.5
477.471	90.5
477.69	83.5
477.908	79.5
478.127	100.5
478.346	71.5
478.564	86.5
478.783	95.5
479.002	97.5
479.22	82.5
479.439	106.5
479.658	104.5
479.876	106.5
480.095	98.5
480.313	105.5
480.532	123.5
480.751	155.5
480.969	400.5
481.188	1541.5
481.406	1063.5
481.624	208.5
481.843	95.5
482.061	79.5
482.28	103.5
482.498	90.5
482.717	72.5
482.935	79.5
483.153	87.5
483.372	96.5
483.59	100.5
483.808	98.5
484.027	81.5
484.245	96.5
484.463	95.5
484.681	83.5
484.9	89.5
485.118	92.5
485.336	88.5
485.554	105.5
485.772	99.5
485.99	94.5
486.209	89.5
486.427	92.5
486.645	110.5
486.863	119.5
487.081	114.5
487.299	82.5
487.517	91.5
487.735	88.5
487.953	90.5
488.171	81.5
488.389	97.5
488.607	96.5
488.825	83.5
489.043	81.5
489.261	78.5
489.479	94.5
489.696	94.5
489.914	71.5
490.132	89.5
490.35	89.5
490.568	99.5
490.786	94.5
491.003	83.5
491.221	72.5
491.439	89.5
491.657	89.5
491.874	91.5
492.092	80.5
492.31	87.5
492.527	101.5
492.745	85.5
492.963	97.5
493.18	87.5
493.398	97.5
493.615	99.5
493.833	97.5
494.05	61.5
494.268	89.5
494.485	86.5
494.703	86.5
494.92	87.5
495.138	85.5
495.355	75.5
495.573	94.5
495.79	91.5
496.008	78.5
496.225	89.5
496.442	78.5
496.66	89.5
496.877	77.5
497.094	98.5
497.312	75.5
497.529	79.5
497.746	97.5
497.963	93.5
498.181	81.5
498.398	84.5
498.615	116.5
498.832	112.5
499.049	93.5
499.267	87.5
499.484	89.5
499.701	88.5
499.918	90.5
500.135	80.5
500.352	82.5
500.569	75.5
500.786	79.5
501.003	86.5
501.22	88.5
501.437	97.5
501.654	97.5
501.871	100.5
502.088	94.5
502.305	97.5
502.522	89.5
502.739	74.5
502.956	88.5
503.172	82.5
503.389	104.5
503.606	102.5
503.823	86.5
504.04	88.5
504.256	87.5
504.473	86.5
504.69	101.5
504.907	83.5
505.123	92.5
505.34	87.5
505.557	64.5
505.773	81.5
505.99	85.5
506.207	76.5
506.423	86.5
506.64	79.5
506.856	91.5
507.073	94.5
507.289	90.5
507.506	83.5
507.722	103.5
507.939	131.5
508.155	105.5
508.372	97.5
508.588	86.5
508.805	97.5
509.021	103.5
509.238	81.5
509.454	105.5
509.67	104.5
509.887	121.5
510.103	130.5
510.319	238.5
510.536	798.5
510.752	2920.5
510.968	823.5
511.184	177.5
511.401	121.5
511.617	94.5
511.833	102.5
512.049	98.5
512.265	97.5
512.481	82.5
512.698	73.5
512.914	91.5
513.13	83.5
513.346	87.5
513.562	104.5
513.778	91.5
513.994	86.5
514.21	110.5
514.426	123.5
514.642	159.5
514.858	134.5
515.074	188.5
515.29	545.5
515.506	2106.5
515.721	798.5
515.937	197.5
516.153	123.5
516.369	123.5
516.585	102.5
516.801	90.5
517.016	83.5
517.232	99.5
517.448	98.5
517.664	93.5
517.879	87.5
518.095	94.5
518.311	107.5
518.527	94.5
518.742	100.5
518.958	92.5
519.173	85.5
519.389	93.5
519.605	86.5
519.82	100.5
520.036	98.5
520.251	130.5
520.467	123.5
520.682	105.5
520.898	116.5
521.113	123.5
521.329	162.5
521.544	251.5
521.76	714.5
521.975	3447.5
522.19	2247.5
522.406	436.5
522.621	154.5
522.836	111.5
523.052	107.5
523.267	105.5
523.482	87.5
523.698	107.5
523.913	134.5
524.128	108.5
524.343	98.5
524.559	100.5
524.774	98.5
524.989	88.5
525.204	111.5
525.419	107.5
525.634	88.5
525.849	93.5
526.064	91.5
526.28	84.5
526.495	84.5
526.71	70.5
526.925	91.5
527.14	83.5
527.355	79.5
527.57	78.5
527.785	86.5
527.999	81.5
528.214	83.5
528.429	91.5
528.644	98.5
528.859	83.5
529.074	86.5
529.289	135.5
529.503	234.5
529.718	127.5
529.933	91.5
530.148	101.5
530.363	95.5
530.577	100.5
530.792	85.5
531.007	89.5
531.221	77.5
531.436	96.5
531.651	89.5
531.865	81.5
532.08	84.5
532.295	74.5
532.509	90.5
532.724	90.5
532.938	86.5
533.153	96.5
533.367	98.5
533.582	90.5
533.796	91.5
534.011	81.5
534.225	91.5
534.44	93.5
534.654	88.5
534.868	93.5
