Data from Circ_2013_H10_HRD10591_00086.txt Node
Date: Wed Jan 03 10:04:17 EST 2024
User: Yrep
Spectrometer: HR+D1059
Trigger mode: 1
Integration Time (sec): 1.000000E-1
Scans to average: 1
Electric dark correction enabled: true
Nonlinearity correction enabled: false
Boxcar width: 0
XAxis mode: Wavelengths
Number of Pixels in Spectrum: 2048
>>>>>Begin Spectral Data<<<<<
223.165	-3.88
223.4	-3.88
223.635	-3.88
223.869	-21.88
224.104	-3.88
224.338	-28.88
224.573	-18.88
224.808	-13.88
225.042	-7.88
225.277	-6.88
225.511	2.12
225.746	15.12
225.98	7.12
226.215	1.12
226.449	12.12
226.683	25.12
226.918	17.12
227.152	26.12
227.387	33.12
227.621	38.12
227.856	53.12
228.09	49.12
228.324	57.12
228.559	56.12
228.793	57.12
229.027	53.12
229.262	73.12
229.496	78.12
229.73	101.12
229.964	98.12
230.199	79.12
230.433	83.12
230.667	67.12
230.901	74.12
231.136	82.12
231.37	98.12
231.604	83.12
231.838	95.12
232.072	79.12
232.306	88.12
232.541	87.12
232.775	80.12
233.009	66.12
233.243	76.12
233.477	82.12
233.711	69.12
233.945	88.12
234.179	70.12
234.413	68.12
234.647	63.12
234.881	101.12
235.115	75.12
235.349	70.12
235.583	77.12
235.817	79.12
236.051	81.12
236.285	83.12
236.519	63.12
236.753	72.12
236.987	78.12
237.221	84.12
237.455	99.12
237.689	93.12
237.922	83.12
238.156	79.12
238.39	71.12
238.624	68.12
238.858	65.12
239.091	83.12
239.325	91.12
239.559	81.12
239.793	95.12
240.027	83.12
240.26	88.12
240.494	80.12
240.728	73.12
240.961	81.12
241.195	57.12
241.429	67.12
241.662	78.12
241.896	79.12
242.13	94.12
242.363	71.12
242.597	75.12
242.83	72.12
243.064	78.12
243.298	75.12
243.531	81.12
243.765	71.12
243.998	88.12
244.232	92.12
244.465	86.12
244.699	86.12
244.932	84.12
245.166	68.12
245.399	78.12
245.633	82.12
245.866	72.12
246.099	73.12
246.333	92.12
246.566	74.12
246.8	69.12
247.033	85.12
247.266	75.12
247.5	90.12
247.733	83.12
247.966	79.12
248.2	80.12
248.433	83.12
248.666	84.12
248.899	81.12
249.133	98.12
249.366	114.12
249.599	104.12
249.832	89.12
250.066	83.12
250.299	92.12
250.532	80.12
250.765	82.12
250.998	78.12
251.231	71.12
251.465	83.12
251.698	95.12
251.931	87.12
252.164	85.12
252.397	80.12
252.63	83.12
252.863	82.12
253.096	92.12
253.329	88.12
253.562	85.12
253.795	82.12
254.028	71.12
254.261	83.12
254.494	69.12
254.727	77.12
254.96	79.12
255.193	90.12
255.426	79.12
255.659	90.12
255.892	86.12
256.124	91.12
256.357	92.12
256.59	87.12
256.823	87.12
257.056	82.12
257.289	93.12
257.521	87.12
257.754	90.12
257.987	75.12
258.22	96.12
258.452	98.12
258.685	95.12
258.918	77.12
259.151	89.12
259.383	100.12
259.616	76.12
259.849	85.12
260.081	75.12
260.314	76.12
260.547	83.12
260.779	102.12
261.012	93.12
261.244	96.12
261.477	84.12
261.71	106.12
261.942	134.12
262.175	137.12
262.407	86.12
262.64	91.12
262.872	86.12
263.105	89.12
263.337	86.12
263.57	85.12
263.802	92.12
264.035	74.12
264.267	78.12
264.499	82.12
264.732	82.12
264.964	93.12
265.197	77.12
265.429	83.12
265.661	104.12
265.894	73.12
266.126	78.12
266.358	73.12
266.591	78.12
266.823	67.12
267.055	70.12
267.287	67.12
267.52	78.12
267.752	81.12
267.984	91.12
268.216	80.12
268.448	87.12
268.681	91.12
268.913	73.12
269.145	93.12
269.377	91.12
269.609	80.12
269.841	95.12
270.073	84.12
270.306	100.12
270.538	88.12
270.77	91.12
271.002	89.12
271.234	82.12
271.466	99.12
271.698	90.12
271.93	79.12
272.162	88.12
272.394	101.12
272.626	91.12
272.858	95.12
273.09	84.12
273.322	79.12
273.553	87.12
273.785	81.12
274.017	93.12
274.249	69.12
274.481	79.12
274.713	79.12
274.945	88.12
275.176	107.12
275.408	102.12
275.64	100.12
275.872	99.12
276.104	105.12
276.335	96.12
276.567	89.12
276.799	149.12
277.031	176.12
277.262	164.12
277.494	129.12
277.726	89.12
277.957	99.12
278.189	84.12
278.421	88.12
278.652	100.12
278.884	87.12
279.115	84.12
279.347	86.12
279.579	90.12
279.81	114.12
280.042	166.12
280.273	224.12
280.505	169.12
280.736	114.12
280.968	93.12
281.199	90.12
281.431	100.12
281.662	94.12
281.894	82.12
282.125	115.12
282.356	120.12
282.588	162.12
282.819	135.12
283.051	100.12
283.282	89.12
283.513	89.12
283.745	73.12
283.976	88.12
284.207	85.12
284.439	84.12
284.67	71.12
284.901	88.12
285.132	104.12
285.364	92.12
285.595	89.12
285.826	84.12
286.057	88.12
286.288	87.12
286.52	85.12
286.751	87.12
286.982	73.12
287.213	88.12
287.444	90.12
287.675	106.12
287.906	82.12
288.138	92.12
288.369	111.12
288.6	83.12
288.831	83.12
289.062	94.12
289.293	84.12
289.524	92.12
289.755	99.12
289.986	92.12
290.217	89.12
290.448	87.12
290.679	96.12
290.91	90.12
291.141	86.12
291.371	92.12
291.602	84.12
291.833	88.12
292.064	82.12
292.295	89.12
292.526	89.12
292.757	80.12
292.987	86.12
293.218	81.12
293.449	74.12
293.68	91.12
293.91	83.12
294.141	80.12
294.372	72.12
294.603	86.12
294.833	78.12
295.064	81.12
295.295	87.12
295.525	75.12
295.756	102.12
295.987	117.12
296.217	160.12
296.448	136.12
296.679	91.12
296.909	85.12
297.14	93.12
297.37	85.12
297.601	100.12
297.831	78.12
298.062	99.12
298.292	96.12
298.523	92.12
298.753	92.12
298.984	97.12
299.214	100.12
299.445	94.12
299.675	99.12
299.905	96.12
300.136	83.12
300.366	80.12
300.597	85.12
300.827	94.12
301.057	87.12
301.288	102.12
301.518	86.12
301.748	97.12
301.979	101.12
302.209	102.12
302.439	94.12
302.669	92.12
302.9	87.12
303.13	101.12
303.36	105.12
303.59	112.12
303.82	139.12
304.051	105.12
304.281	101.12
304.511	82.12
304.741	88.12
304.971	116.12
305.201	82.12
305.431	84.12
305.661	83.12
305.891	90.12
306.121	97.12
306.352	115.12
306.582	115.12
306.812	85.12
307.042	126.12
307.272	146.12
307.502	147.12
307.731	140.12
307.961	109.12
308.191	93.12
308.421	84.12
308.651	89.12
308.881	102.12
309.111	96.12
309.341	102.12
309.571	100.12
309.8	104.12
310.03	105.12
310.26	91.12
310.49	100.12
310.72	111.12
310.949	116.12
311.179	108.12
311.409	92.12
311.639	94.12
311.868	96.12
312.098	100.12
312.328	103.12
312.557	116.12
312.787	139.12
313.017	100.12
313.246	94.12
313.476	96.12
313.706	111.12
313.935	98.12
314.165	109.12
314.394	131.12
314.624	103.12
314.853	105.12
315.083	95.12
315.312	100.12
315.542	95.12
315.771	91.12
316.001	103.12
316.23	85.12
316.46	94.12
316.689	84.12
316.919	104.12
317.148	94.12
317.377	101.12
317.607	106.12
317.836	99.12
318.065	80.12
318.295	97.12
318.524	83.12
318.753	92.12
318.983	104.12
319.212	99.12
319.441	118.12
319.67	114.12
319.9	91.12
320.129	98.12
320.358	88.12
320.587	102.12
320.816	92.12
321.046	102.12
321.275	97.12
321.504	101.12
321.733	94.12
321.962	121.12
322.191	102.12
322.42	109.12
322.649	125.12
322.878	132.12
323.108	141.12
323.337	149.12
323.566	164.12
323.795	200.12
324.024	253.12
324.253	498.12
324.482	1139.12
324.71	2290.12
324.939	3023.12
325.168	1089.12
325.397	290.12
325.626	165.12
325.855	143.12
326.084	142.12
326.313	133.12
326.542	171.12
326.77	275.12
326.999	549.12
327.228	1201.12
327.457	2203.12
327.686	1760.12
327.914	515.12
328.143	458.12
328.372	561.12
328.6	331.12
328.829	181.12
329.058	187.12
329.287	189.12
329.515	162.12
329.744	203.12
329.972	386.12
330.201	767.12
330.43	1126.12
330.658	515.12
330.887	271.12
331.115	184.12
331.344	125.12
331.572	137.12
331.801	124.12
332.03	120.12
332.258	128.12
332.486	101.12
332.715	114.12
332.943	100.12
333.172	133.12
333.4	140.12
333.629	139.12
333.857	214.12
334.085	350.12
334.314	736.12
334.542	1395.12
334.771	1346.12
334.999	379.12
335.227	151.12
335.455	125.12
335.684	120.12
335.912	98.12
336.14	108.12
336.369	108.12
336.597	125.12
336.825	109.12
337.053	93.12
337.281	97.12
337.51	83.12
337.738	93.12
337.966	106.12
338.194	111.12
338.422	111.12
338.65	75.12
338.878	87.12
339.106	93.12
339.334	98.12
339.562	75.12
339.79	93.12
340.018	95.12
340.246	93.12
340.474	103.12
340.702	103.12
340.93	86.12
341.158	81.12
341.386	102.12
341.614	105.12
341.842	89.12
342.07	87.12
342.298	99.12
342.526	86.12
342.754	91.12
342.981	85.12
343.209	90.12
343.437	108.12
343.665	91.12
343.893	92.12
344.12	89.12
344.348	94.12
344.576	86.12
344.804	85.12
345.031	103.12
345.259	106.12
345.487	91.12
345.714	96.12
345.942	101.12
346.17	87.12
346.397	109.12
346.625	104.12
346.853	105.12
347.08	109.12
347.308	107.12
347.535	113.12
347.763	117.12
347.99	108.12
348.218	113.12
348.445	133.12
348.673	116.12
348.9	95.12
349.128	94.12
349.355	97.12
349.583	91.12
349.81	85.12
350.037	101.12
350.265	99.12
350.492	98.12
350.72	100.12
350.947	106.12
351.174	110.12
351.402	117.12
351.629	106.12
351.856	131.12
352.083	109.12
352.311	129.12
352.538	125.12
352.765	114.12
352.992	116.12
353.22	122.12
353.447	102.12
353.674	97.12
353.901	79.12
354.128	102.12
354.355	97.12
354.583	83.12
354.81	106.12
355.037	83.12
355.264	100.12
355.491	93.12
355.718	92.12
355.945	105.12
356.172	90.12
356.399	88.12
356.626	96.12
356.853	96.12
357.08	78.12
357.307	90.12
357.534	88.12
357.761	97.12
357.988	100.12
358.215	87.12
358.441	97.12
358.668	89.12
358.895	84.12
359.122	84.12
359.349	76.12
359.576	90.12
359.802	125.12
360.029	144.12
360.256	127.12
360.483	106.12
360.709	97.12
360.936	99.12
361.163	88.12
361.39	113.12
361.616	99.12
361.843	90.12
362.07	105.12
362.296	104.12
362.523	106.12
362.749	105.12
362.976	89.12
363.203	90.12
363.429	88.12
363.656	104.12
363.882	105.12
364.109	86.12
364.335	89.12
364.562	85.12
364.788	79.12
365.015	94.12
365.241	110.12
365.468	112.12
365.694	115.12
365.92	99.12
366.147	90.12
366.373	99.12
366.599	91.12
366.826	86.12
367.052	104.12
367.278	100.12
367.505	104.12
367.731	90.12
367.957	98.12
368.184	102.12
368.41	109.12
368.636	127.12
368.862	133.12
369.089	119.12
369.315	97.12
369.541	89.12
369.767	106.12
369.993	90.12
370.219	78.12
370.445	85.12
370.672	98.12
370.898	84.12
371.124	77.12
371.35	94.12
371.576	76.12
371.802	76.12
372.028	88.12
372.254	81.12
372.48	84.12
372.706	82.12
372.932	86.12
373.158	81.12
373.384	95.12
373.61	90.12
373.835	96.12
374.061	89.12
374.287	79.12
374.513	96.12
374.739	105.12
374.965	83.12
375.191	82.12
375.416	89.12
375.642	102.12
375.868	93.12
376.094	95.12
376.319	91.12
376.545	83.12
376.771	67.12
376.997	91.12
377.222	91.12
377.448	78.12
377.674	93.12
377.899	87.12
378.125	104.12
378.35	98.12
378.576	88.12
378.802	98.12
379.027	100.12
379.253	70.12
379.478	88.12
379.704	102.12
379.929	82.12
380.155	101.12
380.38	87.12
380.606	110.12
380.831	97.12
381.057	97.12
381.282	95.12
381.507	94.12
381.733	92.12
381.958	88.12
382.184	94.12
382.409	107.12
382.634	96.12
382.86	92.12
383.085	90.12
383.31	94.12
383.535	97.12
383.761	87.12
383.986	99.12
384.211	89.12
384.436	90.12
384.662	91.12
384.887	96.12
385.112	103.12
385.337	86.12
385.562	104.12
385.787	104.12
386.013	115.12
386.238	120.12
386.463	111.12
386.688	98.12
386.913	91.12
387.138	84.12
387.363	95.12
387.588	95.12
387.813	105.12
388.038	108.12
388.263	96.12
388.488	112.12
388.713	82.12
388.938	97.12
389.163	99.12
389.387	94.12
389.612	82.12
389.837	92.12
390.062	89.12
390.287	86.12
390.512	91.12
390.736	79.12
390.961	90.12
391.186	94.12
391.411	107.12
391.636	96.12
391.86	84.12
392.085	89.12
392.31	86.12
392.534	91.12
392.759	92.12
392.984	70.12
393.208	87.12
393.433	88.12
393.658	90.12
393.882	66.12
394.107	77.12
394.331	87.12
394.556	97.12
394.78	99.12
395.005	86.12
395.229	93.12
395.454	90.12
395.678	90.12
395.903	96.12
396.127	84.12
396.352	87.12
396.576	91.12
396.801	88.12
397.025	91.12
397.249	88.12
397.474	94.12
397.698	77.12
397.922	78.12
398.147	92.12
398.371	88.12
398.595	88.12
398.82	95.12
399.044	94.12
399.268	71.12
399.492	92.12
399.717	79.12
399.941	83.12
400.165	104.12
400.389	104.12
400.613	93.12
400.837	92.12
401.062	100.12
401.286	94.12
401.51	96.12
401.734	93.12
401.958	103.12
402.182	141.12
402.406	196.12
402.63	156.12
402.854	110.12
403.078	82.12
403.302	92.12
403.526	71.12
403.75	88.12
403.974	91.12
404.198	100.12
404.422	82.12
404.645	93.12
404.869	101.12
405.093	109.12
405.317	151.12
405.541	138.12
405.765	132.12
405.988	154.12
406.212	222.12
406.436	307.12
406.66	212.12
406.883	120.12
407.107	117.12
407.331	114.12
407.555	98.12
407.778	97.12
408.002	89.12
408.226	97.12
408.449	83.12
408.673	80.12
408.896	96.12
409.12	102.12
409.344	91.12
409.567	80.12
409.791	88.12
410.014	94.12
410.238	86.12
410.461	99.12
410.685	101.12
410.908	92.12
411.132	89.12
411.355	106.12
411.578	90.12
411.802	86.12
412.025	118.12
412.249	104.12
412.472	128.12
412.695	136.12
412.919	115.12
413.142	78.12
413.365	72.12
413.589	96.12
413.812	91.12
414.035	86.12
414.258	96.12
414.482	86.12
414.705	92.12
414.928	86.12
415.151	90.12
415.374	91.12
415.597	84.12
415.821	85.12
416.044	86.12
416.267	77.12
416.49	98.12
416.713	97.12
416.936	102.12
417.159	89.12
417.382	90.12
417.605	101.12
417.828	111.12
418.051	90.12
418.274	96.12
418.497	75.12
418.72	72.12
418.943	69.12
419.166	99.12
419.389	98.12
419.611	93.12
419.834	83.12
420.057	95.12
420.28	102.12
420.503	94.12
420.726	82.12
420.948	103.12
421.171	91.12
421.394	94.12
421.617	83.12
421.839	92.12
422.062	89.12
422.285	83.12
422.507	97.12
422.73	98.12
422.953	97.12
423.175	80.12
423.398	96.12
423.621	95.12
423.843	95.12
424.066	86.12
424.288	83.12
424.511	97.12
424.733	103.12
424.956	140.12
425.178	117.12
425.401	97.12
425.623	110.12
425.846	96.12
426.068	99.12
426.291	106.12
426.513	95.12
426.735	96.12
426.958	103.12
427.18	129.12
427.402	173.12
427.625	257.12
427.847	247.12
428.069	216.12
428.292	135.12
428.514	91.12
428.736	85.12
428.958	91.12
429.181	95.12
429.403	81.12
429.625	78.12
429.847	86.12
430.069	105.12
430.292	99.12
430.514	97.12
430.736	90.12
430.958	95.12
431.18	75.12
431.402	85.12
431.624	76.12
431.846	66.12
432.068	90.12
432.29	86.12
432.512	96.12
432.734	85.12
432.956	92.12
433.178	101.12
433.4	120.12
433.622	97.12
433.844	103.12
434.066	87.12
434.287	99.12
434.509	90.12
434.731	92.12
434.953	80.12
435.175	88.12
435.397	102.12
435.618	108.12
435.84	110.12
436.062	135.12
436.284	122.12
436.505	118.12
436.727	124.12
436.949	102.12
437.17	90.12
437.392	92.12
437.614	91.12
437.835	124.12
438.057	129.12
438.278	129.12
438.5	116.12
438.721	135.12
438.943	110.12
439.165	88.12
439.386	88.12
439.608	89.12
439.829	116.12
440.05	161.12
440.272	201.12
440.493	129.12
440.715	72.12
440.936	96.12
441.158	88.12
441.379	87.12
441.6	98.12
441.822	109.12
442.043	103.12
442.264	118.12
442.486	130.12
442.707	100.12
442.928	126.12
443.149	166.12
443.371	180.12
443.592	139.12
443.813	116.12
444.034	112.12
444.255	94.12
444.476	84.12
444.698	88.12
444.919	108.12
445.14	127.12
445.361	134.12
445.582	147.12
445.803	203.12
446.024	164.12
446.245	157.12
446.466	132.12
446.687	88.12
446.908	91.12
447.129	102.12
447.35	96.12
447.571	93.12
447.792	90.12
448.013	107.12
448.234	125.12
448.455	126.12
448.675	133.12
448.896	142.12
449.117	116.12
449.338	125.12
449.559	143.12
449.779	156.12
450	99.12
450.221	77.12
450.442	95.12
450.662	104.12
450.883	121.12
451.104	146.12
451.324	99.12
451.545	93.12
451.766	91.12
451.986	91.12
452.207	89.12
452.428	113.12
452.648	100.12
452.869	121.12
453.089	129.12
453.31	138.12
453.53	89.12
453.751	87.12
453.971	130.12
454.192	131.12
454.412	107.12
454.633	105.12
454.853	87.12
455.073	99.12
455.294	101.12
455.514	107.12
455.734	85.12
455.955	97.12
456.175	92.12
456.395	98.12
456.616	96.12
456.836	82.12
457.056	98.12
457.276	70.12
457.497	83.12
457.717	86.12
457.937	77.12
458.157	87.12
458.377	99.12
458.598	137.12
458.818	226.12
459.038	250.12
459.258	156.12
459.478	105.12
459.698	91.12
459.918	95.12
460.138	88.12
460.358	74.12
460.578	91.12
460.798	91.12
461.018	93.12
461.238	83.12
461.458	85.12
461.678	97.12
461.898	88.12
462.118	86.12
462.338	78.12
462.558	97.12
462.777	86.12
462.997	99.12
463.217	105.12
463.437	98.12
463.657	86.12
463.876	92.12
464.096	104.12
464.316	105.12
464.536	110.12
464.755	101.12
464.975	129.12
465.195	243.12
465.414	255.12
465.634	129.12
465.854	96.12
466.073	92.12
466.293	84.12
466.512	85.12
466.732	91.12
466.951	88.12
467.171	101.12
467.391	117.12
467.61	129.12
467.829	179.12
468.049	427.12
468.268	627.12
468.488	183.12
468.707	94.12
468.927	85.12
469.146	95.12
469.365	84.12
469.585	81.12
469.804	119.12
470.023	108.12
470.243	112.12
470.462	110.12
470.681	123.12
470.901	92.12
471.12	104.12
471.339	102.12
471.558	109.12
471.777	132.12
471.997	245.12
472.216	823.12
472.435	1893.12
472.654	469.12
472.873	141.12
473.092	99.12
473.311	86.12
473.53	96.12
473.749	88.12
473.968	102.12
474.187	117.12
474.406	113.12
474.625	113.12
474.844	94.12
475.063	86.12
475.282	86.12
475.501	97.12
475.72	91.12
475.939	85.12
476.158	92.12
476.377	104.12
476.596	81.12
476.814	105.12
477.033	101.12
477.252	87.12
477.471	92.12
477.69	94.12
477.908	108.12
478.127	89.12
478.346	99.12
478.564	97.12
478.783	120.12
479.002	112.12
479.22	119.12
479.439	131.12
479.658	127.12
479.876	111.12
480.095	118.12
480.313	127.12
480.532	166.12
480.751	234.12
480.969	757.12
481.188	3239.12
481.406	1939.12
481.624	303.12
481.843	126.12
482.061	109.12
482.28	97.12
482.498	88.12
482.717	102.12
482.935	98.12
483.153	90.12
483.372	91.12
483.59	84.12
483.808	69.12
484.027	87.12
484.245	94.12
484.463	102.12
484.681	91.12
484.9	99.12
485.118	82.12
485.336	89.12
485.554	87.12
485.772	103.12
485.99	109.12
486.209	103.12
486.427	115.12
486.645	111.12
486.863	125.12
487.081	114.12
487.299	104.12
487.517	93.12
487.735	98.12
487.953	97.12
488.171	101.12
488.389	83.12
488.607	101.12
488.825	92.12
489.043	104.12
489.261	85.12
489.479	79.12
489.696	90.12
489.914	93.12
490.132	89.12
490.35	99.12
490.568	92.12
490.786	86.12
491.003	89.12
491.221	97.12
491.439	100.12
491.657	79.12
491.874	99.12
492.092	94.12
492.31	86.12
492.527	98.12
492.745	88.12
492.963	83.12
493.18	93.12
493.398	106.12
493.615	101.12
493.833	100.12
494.05	78.12
494.268	95.12
494.485	81.12
494.703	99.12
494.92	80.12
495.138	84.12
495.355	101.12
495.573	91.12
495.79	84.12
496.008	82.12
496.225	87.12
496.442	88.12
496.66	92.12
496.877	84.12
497.094	94.12
497.312	101.12
497.529	83.12
497.746	89.12
497.963	89.12
498.181	94.12
498.398	99.12
498.615	107.12
498.832	115.12
499.049	108.12
499.267	94.12
499.484	98.12
499.701	97.12
499.918	98.12
500.135	91.12
500.352	99.12
500.569	99.12
500.786	103.12
501.003	102.12
501.22	107.12
501.437	106.12
501.654	109.12
501.871	146.12
502.088	105.12
502.305	94.12
502.522	95.12
502.739	84.12
502.956	99.12
503.172	90.12
503.389	116.12
503.606	131.12
503.823	107.12
504.04	102.12
504.256	105.12
504.473	101.12
504.69	102.12
504.907	91.12
505.123	98.12
505.34	113.12
505.557	91.12
505.773	92.12
505.99	84.12
506.207	95.12
506.423	90.12
506.64	93.12
506.856	107.12
507.073	102.12
507.289	115.12
507.506	102.12
507.722	131.12
507.939	149.12
508.155	102.12
508.372	93.12
508.588	102.12
508.805	83.12
509.021	90.12
509.238	95.12
509.454	91.12
509.67	97.12
509.887	112.12
510.103	156.12
510.319	233.12
510.536	866.12
510.752	3084.12
510.968	881.12
511.184	179.12
511.401	144.12
511.617	113.12
511.833	109.12
512.049	89.12
512.265	99.12
512.481	91.12
512.698	90.12
512.914	88.12
513.13	90.12
513.346	97.12
