Data from Circ_2013_H10_HRD10591_00080.txt Node
Date: Wed Jan 03 10:04:16 EST 2024
User: Yrep
Spectrometer: HR+D1059
Trigger mode: 1
Integration Time (sec): 1.000000E-1
Scans to average: 1
Electric dark correction enabled: true
Nonlinearity correction enabled: false
Boxcar width: 0
XAxis mode: Wavelengths
Number of Pixels in Spectrum: 2048
>>>>>Begin Spectral Data<<<<<
223.165	-18.5
223.4	-18.5
223.635	-18.5
223.869	-18.5
224.104	-19.5
224.338	-2.5
224.573	-23.5
224.808	-24.5
225.042	-8.5
225.277	-7.5
225.511	-5.5
225.746	12.5
225.98	5.5
226.215	12.5
226.449	21.5
226.683	25.5
226.918	23.5
227.152	27.5
227.387	44.5
227.621	56.5
227.856	50.5
228.09	42.5
228.324	44.5
228.559	59.5
228.793	60.5
229.027	62.5
229.262	58.5
229.496	86.5
229.73	81.5
229.964	78.5
230.199	74.5
230.433	84.5
230.667	81.5
230.901	81.5
231.136	68.5
231.37	86.5
231.604	72.5
231.838	78.5
232.072	74.5
232.306	87.5
232.541	74.5
232.775	82.5
233.009	66.5
233.243	80.5
233.477	86.5
233.711	77.5
233.945	94.5
234.179	64.5
234.413	61.5
234.647	71.5
234.881	83.5
235.115	83.5
235.349	84.5
235.583	78.5
235.817	77.5
236.051	85.5
236.285	76.5
236.519	85.5
236.753	72.5
236.987	83.5
237.221	99.5
237.455	87.5
237.689	80.5
237.922	69.5
238.156	89.5
238.39	76.5
238.624	82.5
238.858	77.5
239.091	88.5
239.325	76.5
239.559	83.5
239.793	86.5
240.027	78.5
240.26	68.5
240.494	76.5
240.728	72.5
240.961	79.5
241.195	87.5
241.429	81.5
241.662	84.5
241.896	68.5
242.13	61.5
242.363	76.5
242.597	91.5
242.83	80.5
243.064	78.5
243.298	77.5
243.531	89.5
243.765	87.5
243.998	75.5
244.232	64.5
244.465	75.5
244.699	73.5
244.932	62.5
245.166	85.5
245.399	60.5
245.633	79.5
245.866	78.5
246.099	85.5
246.333	78.5
246.566	80.5
246.8	81.5
247.033	84.5
247.266	76.5
247.5	90.5
247.733	81.5
247.966	80.5
248.2	69.5
248.433	72.5
248.666	64.5
248.899	76.5
249.133	86.5
249.366	112.5
249.599	102.5
249.832	90.5
250.066	69.5
250.299	79.5
250.532	72.5
250.765	94.5
250.998	67.5
251.231	89.5
251.465	66.5
251.698	85.5
251.931	78.5
252.164	82.5
252.397	69.5
252.63	78.5
252.863	86.5
253.096	65.5
253.329	73.5
253.562	86.5
253.795	68.5
254.028	85.5
254.261	83.5
254.494	80.5
254.727	83.5
254.96	73.5
255.193	84.5
255.426	86.5
255.659	75.5
255.892	85.5
256.124	89.5
256.357	69.5
256.59	82.5
256.823	84.5
257.056	91.5
257.289	75.5
257.521	71.5
257.754	86.5
257.987	82.5
258.22	80.5
258.452	86.5
258.685	88.5
258.918	94.5
259.151	78.5
259.383	75.5
259.616	81.5
259.849	74.5
260.081	79.5
260.314	74.5
260.547	77.5
260.779	87.5
261.012	92.5
261.244	105.5
261.477	93.5
261.71	98.5
261.942	132.5
262.175	134.5
262.407	86.5
262.64	90.5
262.872	76.5
263.105	88.5
263.337	77.5
263.57	78.5
263.802	71.5
264.035	82.5
264.267	76.5
264.499	85.5
264.732	80.5
264.964	91.5
265.197	102.5
265.429	81.5
265.661	83.5
265.894	81.5
266.126	84.5
266.358	82.5
266.591	91.5
266.823	88.5
267.055	69.5
267.287	77.5
267.52	85.5
267.752	78.5
267.984	86.5
268.216	89.5
268.448	81.5
268.681	85.5
268.913	83.5
269.145	80.5
269.377	89.5
269.609	72.5
269.841	87.5
270.073	85.5
270.306	78.5
270.538	89.5
270.77	88.5
271.002	89.5
271.234	94.5
271.466	91.5
271.698	87.5
271.93	60.5
272.162	89.5
272.394	87.5
272.626	97.5
272.858	84.5
273.09	77.5
273.322	74.5
273.553	72.5
273.785	71.5
274.017	87.5
274.249	79.5
274.481	78.5
274.713	77.5
274.945	102.5
275.176	72.5
275.408	95.5
275.64	96.5
275.872	98.5
276.104	101.5
276.335	85.5
276.567	113.5
276.799	134.5
277.031	153.5
277.262	157.5
277.494	122.5
277.726	91.5
277.957	83.5
278.189	95.5
278.421	78.5
278.652	76.5
278.884	81.5
279.115	85.5
279.347	84.5
279.579	90.5
279.81	125.5
280.042	156.5
280.273	206.5
280.505	140.5
280.736	104.5
280.968	99.5
281.199	107.5
281.431	93.5
281.662	83.5
281.894	100.5
282.125	108.5
282.356	115.5
282.588	152.5
282.819	128.5
283.051	89.5
283.282	86.5
283.513	78.5
283.745	85.5
283.976	69.5
284.207	81.5
284.439	80.5
284.67	88.5
284.901	90.5
285.132	86.5
285.364	78.5
285.595	87.5
285.826	84.5
286.057	92.5
286.288	80.5
286.52	87.5
286.751	88.5
286.982	77.5
287.213	82.5
287.444	87.5
287.675	88.5
287.906	84.5
288.138	88.5
288.369	85.5
288.6	96.5
288.831	107.5
289.062	101.5
289.293	90.5
289.524	82.5
289.755	95.5
289.986	83.5
290.217	87.5
290.448	80.5
290.679	70.5
290.91	82.5
291.141	85.5
291.371	86.5
291.602	81.5
291.833	74.5
292.064	86.5
292.295	83.5
292.526	83.5
292.757	90.5
292.987	88.5
293.218	79.5
293.449	105.5
293.68	83.5
293.91	88.5
294.141	92.5
294.372	80.5
294.603	96.5
294.833	105.5
295.064	88.5
295.295	94.5
295.525	89.5
295.756	108.5
295.987	121.5
296.217	155.5
296.448	133.5
296.679	88.5
296.909	97.5
297.14	73.5
297.37	97.5
297.601	82.5
297.831	96.5
298.062	81.5
298.292	78.5
298.523	87.5
298.753	88.5
298.984	99.5
299.214	82.5
299.445	86.5
299.675	101.5
299.905	99.5
300.136	86.5
300.366	104.5
300.597	99.5
300.827	90.5
301.057	94.5
301.288	94.5
301.518	100.5
301.748	93.5
301.979	107.5
302.209	80.5
302.439	94.5
302.669	80.5
302.9	89.5
303.13	90.5
303.36	112.5
303.59	101.5
303.82	120.5
304.051	119.5
304.281	97.5
304.511	87.5
304.741	67.5
304.971	75.5
305.201	87.5
305.431	98.5
305.661	96.5
305.891	91.5
306.121	93.5
306.352	107.5
306.582	118.5
306.812	78.5
307.042	98.5
307.272	141.5
307.502	135.5
307.731	138.5
307.961	105.5
308.191	92.5
308.421	79.5
308.651	98.5
308.881	108.5
309.111	90.5
309.341	90.5
309.571	120.5
309.8	90.5
310.03	94.5
310.26	114.5
310.49	92.5
310.72	103.5
310.949	121.5
311.179	110.5
311.409	97.5
311.639	89.5
311.868	87.5
312.098	87.5
312.328	98.5
312.557	97.5
312.787	122.5
313.017	116.5
313.246	103.5
313.476	89.5
313.706	86.5
313.935	87.5
314.165	112.5
314.394	112.5
314.624	98.5
314.853	90.5
315.083	94.5
315.312	80.5
315.542	82.5
315.771	96.5
316.001	80.5
316.23	85.5
316.46	89.5
316.689	83.5
316.919	81.5
317.148	94.5
317.377	114.5
317.607	82.5
317.836	96.5
318.065	102.5
318.295	77.5
318.524	94.5
318.753	92.5
318.983	108.5
319.212	116.5
319.441	111.5
319.67	99.5
319.9	87.5
320.129	94.5
320.358	120.5
320.587	90.5
320.816	96.5
321.046	105.5
321.275	88.5
321.504	93.5
321.733	99.5
321.962	105.5
322.191	113.5
322.42	106.5
322.649	114.5
322.878	128.5
323.108	121.5
323.337	137.5
323.566	161.5
323.795	189.5
324.024	257.5
324.253	504.5
324.482	1058.5
324.71	2208.5
324.939	2879.5
325.168	1038.5
325.397	290.5
325.626	188.5
325.855	146.5
326.084	118.5
326.313	143.5
326.542	180.5
326.77	258.5
326.999	550.5
327.228	1193.5
327.457	2172.5
327.686	1741.5
327.914	533.5
328.143	428.5
328.372	507.5
328.6	308.5
328.829	186.5
329.058	168.5
329.287	200.5
329.515	161.5
329.744	207.5
329.972	358.5
330.201	720.5
330.43	1081.5
330.658	512.5
330.887	269.5
331.115	174.5
331.344	122.5
331.572	116.5
331.801	125.5
332.03	119.5
332.258	109.5
332.486	89.5
332.715	92.5
332.943	107.5
333.172	109.5
333.4	114.5
333.629	139.5
333.857	186.5
334.085	362.5
334.314	697.5
334.542	1341.5
334.771	1269.5
334.999	327.5
335.227	159.5
335.455	107.5
335.684	122.5
335.912	107.5
336.14	121.5
336.369	113.5
336.597	114.5
336.825	92.5
337.053	98.5
337.281	92.5
337.51	86.5
337.738	97.5
337.966	100.5
338.194	95.5
338.422	102.5
338.65	100.5
338.878	96.5
339.106	83.5
339.334	94.5
339.562	97.5
339.79	85.5
340.018	91.5
340.246	82.5
340.474	98.5
340.702	98.5
340.93	74.5
341.158	76.5
341.386	89.5
341.614	102.5
341.842	91.5
342.07	103.5
342.298	84.5
342.526	97.5
342.754	90.5
342.981	97.5
343.209	89.5
343.437	98.5
343.665	76.5
343.893	84.5
344.12	93.5
344.348	103.5
344.576	87.5
344.804	102.5
345.031	90.5
345.259	112.5
345.487	91.5
345.714	96.5
345.942	108.5
346.17	101.5
346.397	87.5
346.625	83.5
346.853	84.5
347.08	93.5
347.308	114.5
347.535	98.5
347.763	105.5
347.99	103.5
348.218	102.5
348.445	105.5
348.673	110.5
348.9	114.5
349.128	89.5
349.355	96.5
349.583	101.5
349.81	89.5
350.037	102.5
350.265	85.5
350.492	88.5
350.72	84.5
350.947	88.5
351.174	118.5
351.402	120.5
351.629	107.5
351.856	99.5
352.083	101.5
352.311	113.5
352.538	116.5
352.765	118.5
352.992	119.5
353.22	108.5
353.447	94.5
353.674	106.5
353.901	102.5
354.128	89.5
354.355	81.5
354.583	96.5
354.81	93.5
355.037	86.5
355.264	76.5
355.491	89.5
355.718	78.5
355.945	84.5
356.172	78.5
356.399	85.5
356.626	88.5
356.853	84.5
357.08	85.5
357.307	88.5
357.534	97.5
357.761	97.5
357.988	102.5
358.215	103.5
358.441	96.5
358.668	95.5
358.895	91.5
359.122	93.5
359.349	91.5
359.576	99.5
359.802	107.5
360.029	134.5
360.256	128.5
360.483	110.5
360.709	87.5
360.936	98.5
361.163	101.5
361.39	108.5
361.616	89.5
361.843	92.5
362.07	99.5
362.296	115.5
362.523	100.5
362.749	106.5
362.976	89.5
363.203	82.5
363.429	83.5
363.656	96.5
363.882	87.5
364.109	81.5
364.335	95.5
364.562	74.5
364.788	93.5
365.015	80.5
365.241	102.5
365.468	126.5
365.694	108.5
365.92	113.5
366.147	89.5
366.373	99.5
366.599	86.5
366.826	85.5
367.052	97.5
367.278	84.5
367.505	90.5
367.731	100.5
367.957	96.5
368.184	92.5
368.41	109.5
368.636	112.5
368.862	125.5
369.089	108.5
369.315	90.5
369.541	99.5
369.767	94.5
369.993	106.5
370.219	87.5
370.445	88.5
370.672	78.5
370.898	80.5
371.124	77.5
371.35	82.5
371.576	88.5
371.802	92.5
372.028	79.5
372.254	81.5
372.48	85.5
372.706	90.5
372.932	88.5
373.158	87.5
373.384	91.5
373.61	99.5
373.835	90.5
374.061	88.5
374.287	92.5
374.513	86.5
374.739	91.5
374.965	86.5
375.191	76.5
375.416	89.5
375.642	86.5
375.868	85.5
376.094	78.5
376.319	69.5
376.545	78.5
376.771	83.5
376.997	92.5
377.222	83.5
377.448	86.5
377.674	85.5
377.899	88.5
378.125	96.5
378.35	84.5
378.576	88.5
378.802	93.5
379.027	85.5
379.253	95.5
379.478	89.5
379.704	86.5
379.929	88.5
380.155	90.5
380.38	93.5
380.606	94.5
380.831	84.5
381.057	99.5
381.282	101.5
381.507	96.5
381.733	101.5
381.958	93.5
382.184	86.5
382.409	92.5
382.634	98.5
382.86	99.5
383.085	92.5
383.31	100.5
383.535	99.5
383.761	108.5
383.986	86.5
384.211	91.5
384.436	93.5
384.662	101.5
384.887	116.5
385.112	94.5
385.337	87.5
385.562	95.5
385.787	96.5
386.013	120.5
386.238	115.5
386.463	91.5
386.688	101.5
386.913	83.5
387.138	105.5
387.363	94.5
387.588	91.5
387.813	97.5
388.038	95.5
388.263	95.5
388.488	108.5
388.713	88.5
388.938	84.5
389.163	101.5
389.387	88.5
389.612	86.5
389.837	71.5
390.062	91.5
390.287	80.5
390.512	78.5
390.736	90.5
390.961	96.5
391.186	89.5
391.411	83.5
391.636	67.5
391.86	97.5
392.085	84.5
392.31	94.5
392.534	97.5
392.759	99.5
392.984	96.5
393.208	84.5
393.433	103.5
393.658	94.5
393.882	92.5
394.107	78.5
394.331	71.5
394.556	79.5
394.78	90.5
395.005	80.5
395.229	75.5
395.454	90.5
395.678	87.5
395.903	89.5
396.127	87.5
396.352	89.5
396.576	89.5
396.801	90.5
397.025	87.5
397.249	86.5
397.474	81.5
397.698	92.5
397.922	64.5
398.147	92.5
398.371	76.5
398.595	98.5
398.82	93.5
399.044	84.5
399.268	81.5
399.492	98.5
399.717	101.5
399.941	83.5
400.165	101.5
400.389	97.5
400.613	100.5
400.837	96.5
401.062	94.5
401.286	89.5
401.51	85.5
401.734	100.5
401.958	102.5
402.182	141.5
402.406	195.5
402.63	131.5
402.854	112.5
403.078	88.5
403.302	88.5
403.526	99.5
403.75	99.5
403.974	97.5
404.198	92.5
404.422	96.5
404.645	85.5
404.869	104.5
405.093	106.5
405.317	134.5
405.541	144.5
405.765	103.5
405.988	120.5
406.212	198.5
406.436	304.5
406.66	196.5
406.883	117.5
407.107	112.5
407.331	115.5
407.555	116.5
407.778	120.5
408.002	96.5
408.226	103.5
408.449	99.5
408.673	92.5
408.896	101.5
409.12	106.5
409.344	88.5
409.567	92.5
409.791	91.5
410.014	90.5
410.238	84.5
410.461	86.5
410.685	102.5
410.908	80.5
411.132	93.5
411.355	120.5
411.578	99.5
411.802	85.5
412.025	105.5
412.249	108.5
412.472	119.5
412.695	139.5
412.919	102.5
413.142	76.5
413.365	80.5
413.589	84.5
413.812	100.5
414.035	104.5
414.258	85.5
414.482	85.5
414.705	81.5
414.928	89.5
415.151	94.5
415.374	73.5
415.597	86.5
415.821	86.5
416.044	93.5
416.267	92.5
416.49	83.5
416.713	82.5
416.936	100.5
417.159	94.5
417.382	88.5
417.605	92.5
417.828	97.5
418.051	107.5
418.274	84.5
418.497	90.5
418.72	89.5
418.943	80.5
419.166	74.5
419.389	98.5
419.611	82.5
419.834	92.5
420.057	95.5
420.28	98.5
420.503	101.5
420.726	84.5
420.948	103.5
421.171	103.5
421.394	96.5
421.617	108.5
421.839	97.5
422.062	89.5
422.285	92.5
422.507	85.5
422.73	100.5
422.953	93.5
423.175	97.5
423.398	74.5
423.621	78.5
423.843	80.5
424.066	86.5
424.288	86.5
424.511	92.5
424.733	100.5
424.956	126.5
425.178	98.5
425.401	95.5
425.623	101.5
425.846	100.5
426.068	83.5
426.291	102.5
426.513	97.5
426.735	77.5
426.958	99.5
427.18	123.5
427.402	178.5
427.625	254.5
427.847	224.5
428.069	198.5
428.292	113.5
428.514	86.5
428.736	77.5
428.958	80.5
429.181	88.5
429.403	72.5
429.625	89.5
429.847	100.5
430.069	120.5
430.292	100.5
430.514	79.5
430.736	78.5
430.958	86.5
431.18	99.5
431.402	85.5
431.624	87.5
431.846	86.5
432.068	86.5
432.29	83.5
432.512	81.5
432.734	86.5
432.956	92.5
433.178	112.5
433.4	78.5
433.622	90.5
433.844	84.5
434.066	75.5
434.287	85.5
434.509	87.5
434.731	87.5
434.953	85.5
435.175	90.5
435.397	104.5
435.618	101.5
435.84	114.5
436.062	154.5
436.284	124.5
436.505	120.5
436.727	106.5
436.949	96.5
437.17	86.5
437.392	91.5
437.614	104.5
437.835	115.5
438.057	136.5
438.278	116.5
438.5	110.5
438.721	146.5
438.943	120.5
439.165	83.5
439.386	99.5
439.608	90.5
439.829	103.5
440.05	153.5
440.272	180.5
440.493	107.5
440.715	92.5
440.936	94.5
441.158	81.5
441.379	84.5
441.6	80.5
441.822	93.5
442.043	107.5
442.264	124.5
442.486	122.5
442.707	112.5
442.928	126.5
443.149	159.5
443.371	144.5
443.592	131.5
443.813	132.5
444.034	115.5
444.255	89.5
444.476	80.5
444.698	93.5
444.919	98.5
445.14	147.5
445.361	155.5
445.582	143.5
445.803	184.5
446.024	173.5
446.245	177.5
446.466	131.5
446.687	96.5
446.908	84.5
447.129	104.5
447.35	107.5
447.571	94.5
447.792	83.5
448.013	119.5
448.234	102.5
448.455	117.5
448.675	136.5
448.896	139.5
449.117	106.5
449.338	116.5
449.559	155.5
449.779	173.5
450	106.5
450.221	92.5
450.442	102.5
450.662	98.5
450.883	125.5
451.104	135.5
451.324	102.5
451.545	79.5
451.766	81.5
451.986	92.5
452.207	89.5
452.428	93.5
452.648	102.5
452.869	124.5
453.089	131.5
453.31	137.5
453.53	88.5
453.751	102.5
453.971	112.5
454.192	134.5
454.412	89.5
454.633	93.5
454.853	91.5
455.073	96.5
455.294	95.5
455.514	117.5
455.734	97.5
455.955	84.5
456.175	89.5
456.395	86.5
456.616	72.5
456.836	77.5
457.056	88.5
457.276	85.5
457.497	96.5
457.717	81.5
457.937	92.5
458.157	91.5
458.377	102.5
458.598	116.5
458.818	186.5
459.038	228.5
459.258	148.5
459.478	80.5
459.698	77.5
459.918	88.5
460.138	93.5
460.358	79.5
460.578	76.5
460.798	96.5
461.018	85.5
461.238	76.5
461.458	86.5
461.678	92.5
461.898	86.5
462.118	84.5
462.338	98.5
462.558	91.5
462.777	86.5
462.997	106.5
463.217	112.5
463.437	100.5
463.657	104.5
463.876	97.5
464.096	105.5
464.316	104.5
464.536	96.5
464.755	108.5
464.975	139.5
465.195	227.5
465.414	243.5
465.634	100.5
465.854	93.5
466.073	100.5
466.293	93.5
466.512	82.5
466.732	80.5
466.951	95.5
467.171	99.5
467.391	99.5
467.61	123.5
467.829	170.5
468.049	376.5
468.268	600.5
468.488	188.5
468.707	110.5
468.927	80.5
469.146	81.5
469.365	117.5
469.585	103.5
469.804	112.5
470.023	109.5
470.243	96.5
470.462	115.5
470.681	128.5
470.901	109.5
471.12	90.5
471.339	71.5
471.558	73.5
471.777	125.5
471.997	215.5
472.216	766.5
472.435	1744.5
472.654	428.5
472.873	126.5
473.092	108.5
473.311	86.5
473.53	75.5
473.749	96.5
473.968	100.5
474.187	120.5
474.406	118.5
474.625	92.5
474.844	86.5
475.063	77.5
475.282	89.5
475.501	84.5
475.72	88.5
475.939	84.5
476.158	85.5
476.377	102.5
476.596	93.5
476.814	92.5
477.033	101.5
477.252	88.5
477.471	82.5
477.69	96.5
477.908	80.5
478.127	97.5
478.346	87.5
478.564	115.5
478.783	130.5
479.002	99.5
479.22	98.5
479.439	114.5
479.658	117.5
479.876	122.5
480.095	123.5
480.313	122.5
480.532	130.5
480.751	217.5
480.969	684.5
481.188	2924.5
481.406	1855.5
481.624	291.5
481.843	125.5
482.061	108.5
482.28	98.5
482.498	82.5
482.717	83.5
482.935	93.5
483.153	87.5
483.372	81.5
483.59	78.5
483.808	97.5
484.027	89.5
484.245	84.5
484.463	101.5
484.681	89.5
484.9	80.5
485.118	86.5
485.336	85.5
485.554	96.5
485.772	101.5
485.99	95.5
486.209	98.5
486.427	108.5
486.645	104.5
486.863	111.5
487.081	97.5
487.299	108.5
487.517	92.5
487.735	89.5
487.953	80.5
488.171	83.5
488.389	96.5
488.607	105.5
488.825	92.5
489.043	75.5
489.261	92.5
489.479	75.5
489.696	95.5
489.914	78.5
490.132	83.5
490.35	82.5
490.568	72.5
490.786	86.5
491.003	99.5
491.221	102.5
491.439	85.5
491.657	85.5
491.874	97.5
492.092	101.5
492.31	99.5
492.527	100.5
492.745	104.5
492.963	83.5
493.18	88.5
493.398	89.5
493.615	91.5
493.833	93.5
494.05	87.5
494.268	90.5
494.485	89.5
494.703	86.5
494.92	81.5
495.138	97.5
495.355	83.5
495.573	96.5
495.79	83.5
496.008	97.5
496.225	89.5
496.442	80.5
496.66	80.5
496.877	96.5
497.094	92.5
497.312	86.5
497.529	92.5
497.746	84.5
497.963	94.5
498.181	94.5
498.398	106.5
498.615	106.5
498.832	114.5
499.049	109.5
499.267	83.5
499.484	77.5
499.701	86.5
499.918	85.5
500.135	91.5
500.352	73.5
500.569	95.5
500.786	98.5
501.003	89.5
501.22	93.5
501.437	93.5
501.654	84.5
501.871	117.5
502.088	95.5
502.305	88.5
502.522	84.5
502.739	92.5
502.956	97.5
503.172	105.5
503.389	100.5
503.606	120.5
503.823	105.5
504.04	72.5
504.256	92.5
504.473	92.5
504.69	84.5
504.907	94.5
505.123	91.5
505.34	97.5
505.557	84.5
505.773	97.5
505.99	90.5
506.207	90.5
506.423	89.5
506.64	93.5
506.856	96.5
507.073	92.5
507.289	94.5
507.506	110.5
507.722	122.5
507.939	144.5
508.155	103.5
508.372	93.5
508.588	94.5
508.805	106.5
509.021	97.5
509.238	86.5
509.454	112.5
509.67	105.5
509.887	115.5
510.103	150.5
510.319	235.5
510.536	868.5
510.752	3008.5
510.968	835.5
511.184	166.5
511.401	132.5
511.617	101.5
511.833	100.5
512.049	92.5
512.265	103.5
512.481	94.5
512.698	106.5
512.914	99.5
513.13	90.5
513.346	96.5
513.562	95.5
513.778	108.5
513.994	103.5
514.21	119.5
514.426	133.5
514.642	171.5
514.858	150.5
515.074	207.5
515.29	644.5
515.506	2360.5
515.721	883.5
515.937	197.5
516.153	126.5
516.369	94.5
516.585	103.5
516.801	103.5
517.016	98.5
517.232	91.5
517.448	90.5
517.664	97.5
517.879	100.5
518.095	83.5
518.311	101.5
518.527	94.5
518.742	91.5
518.958	96.5
519.173	95.5
519.389	97.5
519.605	89.5
519.82	100.5
520.036	121.5
520.251	129.5
520.467	128.5
520.682	107.5
520.898	125.5
521.113	114.5
521.329	169.5
521.544	268.5
521.76	818.5
521.975	3890.5
522.19	2366.5
522.406	464.5
522.621	148.5
522.836	120.5
523.052	101.5
523.267	100.5
523.482	95.5
523.698	109.5
523.913	140.5
524.128	112.5
524.343	113.5
524.559	101.5
524.774	98.5
524.989	92.5
525.204	127.5
525.419	112.5
525.634	91.5
525.849	88.5
526.064	94.5
526.28	82.5
526.495	80.5
526.71	91.5
526.925	93.5
527.14	97.5
527.355	95.5
527.57	96.5
527.785	91.5
527.999	93.5
528.214	87.5
528.429	93.5
528.644	76.5
528.859	91.5
529.074	85.5
529.289	139.5
529.503	236.5
529.718	104.5
529.933	95.5
530.148	69.5
530.363	96.5
530.577	100.5
530.792	93.5
531.007	90.5
531.221	77.5
531.436	90.5
531.651	83.5
531.865	91.5
532.08	86.5
532.295	107.5
532.509	77.5
532.724	87.5
532.938	91.5
533.153	103.5
533.367	94.5
