Data from Circ_2013_H10_HRD10591_00050.txt Node
Date: Wed Jan 03 10:04:10 EST 2024
User: Yrep
Spectrometer: HR+D1059
Trigger mode: 1
Integration Time (sec): 1.000000E-1
Scans to average: 1
Electric dark correction enabled: true
Nonlinearity correction enabled: false
Boxcar width: 0
XAxis mode: Wavelengths
Number of Pixels in Spectrum: 2048
>>>>>Begin Spectral Data<<<<<
223.165	-17.88
223.4	-17.88
223.635	-17.88
223.869	-14.88
224.104	-9.88
224.338	-5.88
224.573	-25.88
224.808	-24.88
225.042	-13.88
225.277	-10.88
225.511	4.12
225.746	9.12
225.98	12.12
226.215	5.12
226.449	22.12
226.683	22.12
226.918	29.12
227.152	20.12
227.387	33.12
227.621	39.12
227.856	37.12
228.09	40.12
228.324	48.12
228.559	53.12
228.793	45.12
229.027	45.12
229.262	74.12
229.496	78.12
229.73	79.12
229.964	78.12
230.199	81.12
230.433	82.12
230.667	68.12
230.901	75.12
231.136	66.12
231.37	72.12
231.604	78.12
231.838	81.12
232.072	82.12
232.306	71.12
232.541	75.12
232.775	79.12
233.009	86.12
233.243	89.12
233.477	78.12
233.711	83.12
233.945	87.12
234.179	91.12
234.413	83.12
234.647	85.12
234.881	78.12
235.115	74.12
235.349	89.12
235.583	68.12
235.817	82.12
236.051	78.12
236.285	62.12
236.519	87.12
236.753	90.12
236.987	74.12
237.221	79.12
237.455	96.12
237.689	74.12
237.922	80.12
238.156	67.12
238.39	74.12
238.624	81.12
238.858	68.12
239.091	69.12
239.325	71.12
239.559	90.12
239.793	86.12
240.027	90.12
240.26	90.12
240.494	89.12
240.728	79.12
240.961	79.12
241.195	81.12
241.429	68.12
241.662	75.12
241.896	86.12
242.13	71.12
242.363	79.12
242.597	84.12
242.83	87.12
243.064	85.12
243.298	82.12
243.531	80.12
243.765	82.12
243.998	73.12
244.232	77.12
244.465	74.12
244.699	75.12
244.932	83.12
245.166	84.12
245.399	72.12
245.633	89.12
245.866	72.12
246.099	75.12
246.333	80.12
246.566	78.12
246.8	82.12
247.033	69.12
247.266	71.12
247.5	63.12
247.733	79.12
247.966	82.12
248.2	83.12
248.433	78.12
248.666	67.12
248.899	89.12
249.133	99.12
249.366	96.12
249.599	99.12
249.832	75.12
250.066	87.12
250.299	74.12
250.532	87.12
250.765	78.12
250.998	75.12
251.231	77.12
251.465	72.12
251.698	88.12
251.931	89.12
252.164	91.12
252.397	82.12
252.63	79.12
252.863	73.12
253.096	82.12
253.329	78.12
253.562	74.12
253.795	73.12
254.028	65.12
254.261	68.12
254.494	79.12
254.727	89.12
254.96	64.12
255.193	81.12
255.426	85.12
255.659	68.12
255.892	84.12
256.124	96.12
256.357	82.12
256.59	80.12
256.823	68.12
257.056	89.12
257.289	95.12
257.521	81.12
257.754	75.12
257.987	72.12
258.22	87.12
258.452	78.12
258.685	72.12
258.918	76.12
259.151	79.12
259.383	78.12
259.616	79.12
259.849	70.12
260.081	81.12
260.314	86.12
260.547	73.12
260.779	75.12
261.012	92.12
261.244	85.12
261.477	82.12
261.71	98.12
261.942	131.12
262.175	120.12
262.407	94.12
262.64	87.12
262.872	90.12
263.105	83.12
263.337	72.12
263.57	84.12
263.802	86.12
264.035	81.12
264.267	82.12
264.499	77.12
264.732	77.12
264.964	77.12
265.197	79.12
265.429	75.12
265.661	94.12
265.894	78.12
266.126	94.12
266.358	65.12
266.591	93.12
266.823	84.12
267.055	80.12
267.287	83.12
267.52	92.12
267.752	86.12
267.984	81.12
268.216	76.12
268.448	92.12
268.681	89.12
268.913	90.12
269.145	97.12
269.377	91.12
269.609	89.12
269.841	85.12
270.073	79.12
270.306	96.12
270.538	92.12
270.77	93.12
271.002	78.12
271.234	71.12
271.466	94.12
271.698	104.12
271.93	75.12
272.162	84.12
272.394	83.12
272.626	74.12
272.858	76.12
273.09	98.12
273.322	99.12
273.553	74.12
273.785	74.12
274.017	96.12
274.249	90.12
274.481	87.12
274.713	91.12
274.945	86.12
275.176	88.12
275.408	101.12
275.64	89.12
275.872	95.12
276.104	89.12
276.335	102.12
276.567	95.12
276.799	115.12
277.031	129.12
277.262	134.12
277.494	102.12
277.726	89.12
277.957	91.12
278.189	92.12
278.421	79.12
278.652	98.12
278.884	86.12
279.115	96.12
279.347	79.12
279.579	87.12
279.81	105.12
280.042	149.12
280.273	153.12
280.505	136.12
280.736	97.12
280.968	91.12
281.199	82.12
281.431	70.12
281.662	104.12
281.894	97.12
282.125	95.12
282.356	133.12
282.588	147.12
282.819	135.12
283.051	86.12
283.282	71.12
283.513	77.12
283.745	80.12
283.976	92.12
284.207	92.12
284.439	109.12
284.67	85.12
284.901	82.12
285.132	101.12
285.364	90.12
285.595	84.12
285.826	87.12
286.057	99.12
286.288	91.12
286.52	81.12
286.751	82.12
286.982	72.12
287.213	81.12
287.444	94.12
287.675	88.12
287.906	84.12
288.138	99.12
288.369	93.12
288.6	91.12
288.831	96.12
289.062	95.12
289.293	92.12
289.524	87.12
289.755	94.12
289.986	98.12
290.217	82.12
290.448	81.12
290.679	93.12
290.91	88.12
291.141	96.12
291.371	77.12
291.602	98.12
291.833	90.12
292.064	96.12
292.295	81.12
292.526	83.12
292.757	82.12
292.987	67.12
293.218	91.12
293.449	89.12
293.68	88.12
293.91	96.12
294.141	88.12
294.372	91.12
294.603	101.12
294.833	100.12
295.064	84.12
295.295	66.12
295.525	93.12
295.756	88.12
295.987	115.12
296.217	149.12
296.448	134.12
296.679	104.12
296.909	82.12
297.14	91.12
297.37	90.12
297.601	76.12
297.831	75.12
298.062	90.12
298.292	91.12
298.523	85.12
298.753	97.12
298.984	80.12
299.214	90.12
299.445	104.12
299.675	97.12
299.905	106.12
300.136	100.12
300.366	99.12
300.597	86.12
300.827	96.12
301.057	99.12
301.288	103.12
301.518	96.12
301.748	94.12
301.979	105.12
302.209	89.12
302.439	85.12
302.669	77.12
302.9	85.12
303.13	78.12
303.36	101.12
303.59	103.12
303.82	114.12
304.051	100.12
304.281	96.12
304.511	88.12
304.741	82.12
304.971	84.12
305.201	84.12
305.431	92.12
305.661	93.12
305.891	99.12
306.121	109.12
306.352	106.12
306.582	119.12
306.812	105.12
307.042	98.12
307.272	121.12
307.502	121.12
307.731	130.12
307.961	100.12
308.191	98.12
308.421	93.12
308.651	89.12
308.881	100.12
309.111	87.12
309.341	108.12
309.571	96.12
309.8	99.12
310.03	114.12
310.26	95.12
310.49	86.12
310.72	94.12
310.949	91.12
311.179	105.12
311.409	100.12
311.639	102.12
311.868	90.12
312.098	100.12
312.328	109.12
312.557	98.12
312.787	112.12
313.017	102.12
313.246	97.12
313.476	96.12
313.706	98.12
313.935	114.12
314.165	99.12
314.394	106.12
314.624	118.12
314.853	99.12
315.083	98.12
315.312	89.12
315.542	95.12
315.771	104.12
316.001	85.12
316.23	98.12
316.46	99.12
316.689	92.12
316.919	96.12
317.148	99.12
317.377	103.12
317.607	105.12
317.836	91.12
318.065	93.12
318.295	90.12
318.524	93.12
318.753	83.12
318.983	81.12
319.212	103.12
319.441	102.12
319.67	97.12
319.9	85.12
320.129	88.12
320.358	85.12
320.587	88.12
320.816	91.12
321.046	94.12
321.275	98.12
321.504	101.12
321.733	92.12
321.962	92.12
322.191	101.12
322.42	119.12
322.649	121.12
322.878	115.12
323.108	130.12
323.337	153.12
323.566	152.12
323.795	194.12
324.024	231.12
324.253	474.12
324.482	982.12
324.71	2020.12
324.939	2695.12
325.168	997.12
325.397	275.12
325.626	156.12
325.855	143.12
326.084	120.12
326.313	126.12
326.542	171.12
326.77	257.12
326.999	544.12
327.228	1085.12
327.457	1978.12
327.686	1575.12
327.914	476.12
328.143	331.12
328.372	375.12
328.6	233.12
328.829	148.12
329.058	167.12
329.287	170.12
329.515	144.12
329.744	158.12
329.972	265.12
330.201	498.12
330.43	709.12
330.658	368.12
330.887	233.12
331.115	174.12
331.344	106.12
331.572	112.12
331.801	120.12
332.03	129.12
332.258	95.12
332.486	87.12
332.715	113.12
332.943	98.12
333.172	98.12
333.4	102.12
333.629	121.12
333.857	163.12
334.085	266.12
334.314	474.12
334.542	873.12
334.771	874.12
334.999	253.12
335.227	147.12
335.455	108.12
335.684	102.12
335.912	98.12
336.14	116.12
336.369	100.12
336.597	100.12
336.825	106.12
337.053	90.12
337.281	92.12
337.51	100.12
337.738	92.12
337.966	92.12
338.194	103.12
338.422	92.12
338.65	94.12
338.878	90.12
339.106	90.12
339.334	96.12
339.562	95.12
339.79	84.12
340.018	78.12
340.246	93.12
340.474	86.12
340.702	101.12
340.93	97.12
341.158	91.12
341.386	78.12
341.614	103.12
341.842	99.12
342.07	96.12
342.298	85.12
342.526	93.12
342.754	82.12
342.981	90.12
343.209	101.12
343.437	97.12
343.665	92.12
343.893	81.12
344.12	71.12
344.348	89.12
344.576	102.12
344.804	94.12
345.031	89.12
345.259	114.12
345.487	99.12
345.714	90.12
345.942	108.12
346.17	87.12
346.397	102.12
346.625	84.12
346.853	93.12
347.08	94.12
347.308	90.12
347.535	94.12
347.763	107.12
347.99	93.12
348.218	100.12
348.445	118.12
348.673	95.12
348.9	93.12
349.128	100.12
349.355	100.12
349.583	85.12
349.81	87.12
350.037	94.12
350.265	79.12
350.492	98.12
350.72	95.12
350.947	109.12
351.174	106.12
351.402	109.12
351.629	117.12
351.856	109.12
352.083	99.12
352.311	118.12
352.538	109.12
352.765	113.12
352.992	124.12
353.22	110.12
353.447	95.12
353.674	112.12
353.901	118.12
354.128	91.12
354.355	84.12
354.583	91.12
354.81	95.12
355.037	92.12
355.264	92.12
355.491	89.12
355.718	89.12
355.945	93.12
356.172	89.12
356.399	95.12
356.626	91.12
356.853	102.12
357.08	94.12
357.307	89.12
357.534	85.12
357.761	102.12
357.988	93.12
358.215	91.12
358.441	90.12
358.668	84.12
358.895	89.12
359.122	88.12
359.349	112.12
359.576	97.12
359.802	128.12
360.029	119.12
360.256	132.12
360.483	114.12
360.709	99.12
360.936	91.12
361.163	100.12
361.39	84.12
361.616	90.12
361.843	94.12
362.07	90.12
362.296	99.12
362.523	103.12
362.749	109.12
362.976	100.12
363.203	93.12
363.429	94.12
363.656	87.12
363.882	80.12
364.109	99.12
364.335	85.12
364.562	77.12
364.788	90.12
365.015	91.12
365.241	96.12
365.468	98.12
365.694	131.12
365.92	104.12
366.147	106.12
366.373	101.12
366.599	95.12
366.826	100.12
367.052	87.12
367.278	96.12
367.505	104.12
367.731	99.12
367.957	79.12
368.184	86.12
368.41	110.12
368.636	130.12
368.862	122.12
369.089	107.12
369.315	100.12
369.541	88.12
369.767	91.12
369.993	100.12
370.219	100.12
370.445	92.12
370.672	90.12
370.898	98.12
371.124	78.12
371.35	89.12
371.576	85.12
371.802	93.12
372.028	84.12
372.254	82.12
372.48	97.12
372.706	78.12
372.932	82.12
373.158	89.12
373.384	87.12
373.61	83.12
373.835	92.12
374.061	79.12
374.287	78.12
374.513	96.12
374.739	84.12
374.965	86.12
375.191	88.12
375.416	77.12
375.642	96.12
375.868	98.12
376.094	89.12
376.319	94.12
376.545	92.12
376.771	102.12
376.997	77.12
377.222	85.12
377.448	86.12
377.674	107.12
377.899	97.12
378.125	107.12
378.35	91.12
378.576	86.12
378.802	81.12
379.027	90.12
379.253	86.12
379.478	92.12
379.704	90.12
379.929	85.12
380.155	96.12
380.38	107.12
380.606	86.12
380.831	97.12
381.057	89.12
381.282	98.12
381.507	89.12
381.733	99.12
381.958	101.12
382.184	98.12
382.409	92.12
382.634	91.12
382.86	106.12
383.085	92.12
383.31	105.12
383.535	106.12
383.761	92.12
383.986	109.12
384.211	91.12
384.436	101.12
384.662	89.12
384.887	101.12
385.112	109.12
385.337	93.12
385.562	119.12
385.787	100.12
386.013	116.12
386.238	115.12
386.463	106.12
386.688	103.12
386.913	118.12
387.138	116.12
387.363	94.12
387.588	99.12
387.813	111.12
388.038	103.12
388.263	108.12
388.488	112.12
388.713	88.12
388.938	91.12
389.163	94.12
389.387	78.12
389.612	93.12
389.837	76.12
390.062	103.12
390.287	89.12
390.512	83.12
390.736	89.12
390.961	99.12
391.186	96.12
391.411	97.12
391.636	102.12
391.86	78.12
392.085	92.12
392.31	92.12
392.534	93.12
392.759	87.12
392.984	84.12
393.208	83.12
393.433	85.12
393.658	78.12
393.882	85.12
394.107	88.12
394.331	82.12
394.556	84.12
394.78	83.12
395.005	91.12
395.229	73.12
395.454	87.12
395.678	82.12
395.903	89.12
396.127	90.12
396.352	94.12
396.576	78.12
396.801	96.12
397.025	108.12
397.249	96.12
397.474	100.12
397.698	86.12
397.922	79.12
398.147	90.12
398.371	87.12
398.595	72.12
398.82	79.12
399.044	82.12
399.268	73.12
399.492	90.12
399.717	84.12
399.941	83.12
400.165	97.12
400.389	90.12
400.613	81.12
400.837	78.12
401.062	102.12
401.286	93.12
401.51	83.12
401.734	112.12
401.958	106.12
402.182	130.12
402.406	166.12
402.63	118.12
402.854	101.12
403.078	104.12
403.302	89.12
403.526	84.12
403.75	83.12
403.974	82.12
404.198	83.12
404.422	83.12
404.645	88.12
404.869	90.12
405.093	99.12
405.317	125.12
405.541	136.12
405.765	109.12
405.988	122.12
406.212	192.12
406.436	280.12
406.66	169.12
406.883	100.12
407.107	88.12
407.331	98.12
407.555	105.12
407.778	101.12
408.002	83.12
408.226	88.12
408.449	102.12
408.673	90.12
408.896	92.12
409.12	100.12
409.344	81.12
409.567	89.12
409.791	75.12
410.014	97.12
410.238	97.12
410.461	89.12
410.685	90.12
410.908	100.12
411.132	92.12
411.355	102.12
411.578	94.12
411.802	92.12
412.025	84.12
412.249	99.12
412.472	105.12
412.695	123.12
412.919	109.12
413.142	100.12
413.365	87.12
413.589	92.12
413.812	82.12
414.035	76.12
414.258	84.12
414.482	85.12
414.705	84.12
414.928	85.12
415.151	105.12
415.374	85.12
415.597	93.12
415.821	92.12
416.044	91.12
416.267	93.12
416.49	92.12
416.713	83.12
416.936	87.12
417.159	73.12
417.382	83.12
417.605	87.12
417.828	96.12
418.051	121.12
418.274	88.12
418.497	82.12
418.72	74.12
418.943	104.12
419.166	92.12
419.389	87.12
419.611	80.12
419.834	98.12
420.057	96.12
420.28	84.12
420.503	97.12
420.726	87.12
420.948	88.12
421.171	91.12
421.394	93.12
421.617	93.12
421.839	85.12
422.062	78.12
422.285	86.12
422.507	93.12
422.73	108.12
422.953	88.12
423.175	88.12
423.398	85.12
423.621	89.12
423.843	93.12
424.066	92.12
424.288	88.12
424.511	77.12
424.733	98.12
424.956	117.12
425.178	104.12
425.401	109.12
425.623	74.12
425.846	107.12
426.068	99.12
426.291	101.12
426.513	101.12
426.735	88.12
426.958	92.12
427.18	104.12
427.402	165.12
427.625	216.12
427.847	186.12
428.069	169.12
428.292	105.12
428.514	99.12
428.736	86.12
428.958	85.12
429.181	84.12
429.403	96.12
429.625	84.12
429.847	98.12
430.069	100.12
430.292	101.12
430.514	84.12
430.736	85.12
430.958	85.12
431.18	83.12
431.402	74.12
431.624	86.12
431.846	80.12
432.068	83.12
432.29	95.12
432.512	90.12
432.734	91.12
432.956	96.12
433.178	91.12
433.4	96.12
433.622	88.12
433.844	89.12
434.066	86.12
434.287	96.12
434.509	85.12
434.731	100.12
434.953	85.12
435.175	100.12
435.397	85.12
435.618	96.12
435.84	110.12
436.062	139.12
436.284	129.12
436.505	101.12
436.727	117.12
436.949	91.12
437.17	73.12
437.392	77.12
437.614	100.12
437.835	132.12
438.057	123.12
438.278	118.12
438.5	116.12
438.721	135.12
438.943	91.12
439.165	86.12
439.386	91.12
439.608	89.12
439.829	95.12
440.05	131.12
440.272	174.12
440.493	108.12
440.715	92.12
440.936	89.12
441.158	87.12
441.379	83.12
441.6	91.12
441.822	106.12
442.043	93.12
442.264	87.12
442.486	109.12
442.707	90.12
442.928	110.12
443.149	163.12
443.371	153.12
443.592	102.12
443.813	114.12
444.034	119.12
444.255	85.12
444.476	101.12
444.698	84.12
444.919	80.12
445.14	142.12
445.361	139.12
445.582	146.12
445.803	158.12
446.024	159.12
446.245	139.12
446.466	111.12
446.687	92.12
446.908	96.12
447.129	93.12
447.35	86.12
447.571	96.12
447.792	84.12
448.013	106.12
448.234	109.12
448.455	97.12
448.675	109.12
448.896	115.12
449.117	104.12
449.338	114.12
449.559	148.12
449.779	140.12
450	95.12
450.221	93.12
450.442	84.12
450.662	82.12
450.883	121.12
451.104	128.12
451.324	108.12
451.545	91.12
451.766	82.12
451.986	74.12
452.207	86.12
452.428	95.12
452.648	109.12
452.869	118.12
453.089	125.12
453.31	140.12
453.53	99.12
453.751	88.12
453.971	113.12
454.192	134.12
454.412	102.12
454.633	67.12
454.853	80.12
455.073	77.12
455.294	87.12
455.514	109.12
455.734	90.12
455.955	90.12
456.175	92.12
456.395	79.12
456.616	87.12
456.836	92.12
457.056	93.12
457.276	57.12
457.497	90.12
457.717	81.12
457.937	92.12
458.157	101.12
458.377	92.12
458.598	112.12
458.818	175.12
459.038	210.12
459.258	140.12
459.478	77.12
459.698	80.12
459.918	75.12
460.138	91.12
460.358	94.12
460.578	97.12
460.798	82.12
461.018	86.12
461.238	81.12
461.458	82.12
461.678	89.12
461.898	72.12
462.118	86.12
462.338	82.12
462.558	91.12
462.777	82.12
462.997	81.12
463.217	92.12
463.437	85.12
463.657	91.12
463.876	94.12
464.096	82.12
464.316	89.12
464.536	100.12
464.755	101.12
464.975	121.12
465.195	199.12
465.414	197.12
465.634	102.12
465.854	90.12
466.073	83.12
466.293	91.12
466.512	90.12
466.732	85.12
466.951	85.12
467.171	84.12
467.391	102.12
467.61	118.12
467.829	150.12
468.049	280.12
468.268	420.12
468.488	149.12
468.707	106.12
468.927	91.12
469.146	83.12
469.365	85.12
469.585	82.12
469.804	98.12
470.023	96.12
470.243	108.12
470.462	101.12
470.681	128.12
470.901	105.12
471.12	86.12
471.339	88.12
471.558	102.12
471.777	134.12
471.997	183.12
472.216	532.12
472.435	1187.12
472.654	343.12
472.873	128.12
473.092	91.12
473.311	78.12
473.53	101.12
473.749	90.12
473.968	88.12
474.187	113.12
474.406	112.12
474.625	82.12
474.844	101.12
475.063	79.12
475.282	85.12
475.501	87.12
475.72	70.12
475.939	92.12
476.158	73.12
476.377	88.12
476.596	83.12
476.814	90.12
477.033	108.12
477.252	109.12
477.471	85.12
477.69	91.12
477.908	100.12
478.127	86.12
478.346	75.12
478.564	90.12
478.783	92.12
479.002	105.12
479.22	118.12
479.439	120.12
479.658	108.12
479.876	100.12
480.095	94.12
480.313	114.12
480.532	108.12
480.751	172.12
480.969	490.12
481.188	1944.12
481.406	1246.12
481.624	222.12
481.843	104.12
482.061	94.12
482.28	99.12
482.498	81.12
482.717	79.12
482.935	75.12
483.153	96.12
483.372	88.12
483.59	84.12
483.808	80.12
484.027	89.12
484.245	92.12
484.463	89.12
484.681	92.12
484.9	99.12
485.118	96.12
485.336	89.12
485.554	85.12
485.772	101.12
485.99	105.12
486.209	105.12
486.427	88.12
486.645	102.12
486.863	109.12
487.081	112.12
487.299	113.12
487.517	82.12
487.735	93.12
487.953	94.12
488.171	85.12
488.389	85.12
488.607	93.12
488.825	86.12
489.043	77.12
489.261	91.12
489.479	94.12
489.696	83.12
489.914	79.12
490.132	77.12
490.35	81.12
490.568	74.12
490.786	91.12
491.003	83.12
491.221	95.12
491.439	89.12
491.657	92.12
491.874	99.12
492.092	95.12
492.31	87.12
492.527	103.12
492.745	87.12
492.963	77.12
493.18	91.12
493.398	86.12
493.615	87.12
493.833	99.12
494.05	90.12
494.268	83.12
494.485	94.12
494.703	83.12
494.92	82.12
495.138	90.12
495.355	89.12
495.573	85.12
495.79	91.12
496.008	98.12
496.225	75.12
496.442	94.12
496.66	89.12
496.877	74.12
497.094	95.12
497.312	100.12
497.529	87.12
497.746	71.12
497.963	86.12
498.181	92.12
498.398	103.12
498.615	113.12
498.832	101.12
499.049	94.12
499.267	84.12
499.484	92.12
499.701	98.12
499.918	86.12
500.135	85.12
500.352	85.12
500.569	84.12
500.786	86.12
501.003	87.12
501.22	84.12
501.437	87.12
501.654	84.12
501.871	124.12
502.088	98.12
502.305	94.12
502.522	89.12
502.739	98.12
502.956	72.12
503.172	100.12
503.389	93.12
503.606	118.12
503.823	92.12
504.04	106.12
504.256	80.12
504.473	87.12
504.69	85.12
504.907	101.12
505.123	93.12
505.34	99.12
505.557	91.12
505.773	103.12
505.99	85.12
506.207	86.12
506.423	82.12
506.64	97.12
506.856	82.12
507.073	81.12
507.289	92.12
507.506	94.12
507.722	116.12
507.939	111.12
508.155	85.12
508.372	92.12
508.588	101.12
508.805	103.12
509.021	89.12
509.238	94.12
509.454	89.12
509.67	100.12
509.887	104.12
510.103	124.12
510.319	210.12
510.536	752.12
510.752	2626.12
510.968	757.12
511.184	164.12
511.401	102.12
511.617	94.12
511.833	99.12
512.049	96.12
512.265	87.12
512.481	91.12
512.698	104.12
512.914	96.12
513.13	76.12
513.346	85.12
513.562	102.12
513.778	107.12
513.994	99.12
514.21	91.12
514.426	140.12
514.642	168.12
