Data from Circ_2016_H10_HRD10591_00092.txt Node
Date: Wed Jan 03 09:58:59 EST 2024
User: Yrep
Spectrometer: HR+D1059
Trigger mode: 1
Integration Time (sec): 1.000000E-1
Scans to average: 1
Electric dark correction enabled: true
Nonlinearity correction enabled: false
Boxcar width: 0
XAxis mode: Wavelengths
Number of Pixels in Spectrum: 2048
>>>>>Begin Spectral Data<<<<<
223.165	-22.5
223.4	-22.5
223.635	-22.5
223.869	-15.5
224.104	-17.5
224.338	-23.5
224.573	-10.5
224.808	-15.5
225.042	-5.5
225.277	-2.5
225.511	1.5
225.746	-3.5
225.98	15.5
226.215	14.5
226.449	11.5
226.683	24.5
226.918	24.5
227.152	24.5
227.387	43.5
227.621	29.5
227.856	43.5
228.09	40.5
228.324	37.5
228.559	53.5
228.793	43.5
229.027	54.5
229.262	65.5
229.496	65.5
229.73	87.5
229.964	76.5
230.199	81.5
230.433	62.5
230.667	73.5
230.901	83.5
231.136	77.5
231.37	76.5
231.604	80.5
231.838	92.5
232.072	70.5
232.306	70.5
232.541	79.5
232.775	73.5
233.009	80.5
233.243	87.5
233.477	82.5
233.711	84.5
233.945	69.5
234.179	83.5
234.413	82.5
234.647	80.5
234.881	77.5
235.115	66.5
235.349	60.5
235.583	72.5
235.817	71.5
236.051	84.5
236.285	75.5
236.519	60.5
236.753	81.5
236.987	77.5
237.221	81.5
237.455	83.5
237.689	80.5
237.922	73.5
238.156	75.5
238.39	71.5
238.624	74.5
238.858	68.5
239.091	71.5
239.325	82.5
239.559	83.5
239.793	77.5
240.027	84.5
240.26	76.5
240.494	78.5
240.728	64.5
240.961	68.5
241.195	83.5
241.429	67.5
241.662	64.5
241.896	72.5
242.13	81.5
242.363	79.5
242.597	62.5
242.83	75.5
243.064	72.5
243.298	84.5
243.531	73.5
243.765	63.5
243.998	78.5
244.232	79.5
244.465	86.5
244.699	77.5
244.932	80.5
245.166	66.5
245.399	79.5
245.633	76.5
245.866	82.5
246.099	80.5
246.333	75.5
246.566	77.5
246.8	77.5
247.033	82.5
247.266	79.5
247.5	72.5
247.733	78.5
247.966	71.5
248.2	84.5
248.433	91.5
248.666	77.5
248.899	70.5
249.133	81.5
249.366	107.5
249.599	84.5
249.832	75.5
250.066	80.5
250.299	78.5
250.532	76.5
250.765	82.5
250.998	88.5
251.231	79.5
251.465	82.5
251.698	72.5
251.931	79.5
252.164	76.5
252.397	84.5
252.63	77.5
252.863	81.5
253.096	75.5
253.329	77.5
253.562	78.5
253.795	84.5
254.028	74.5
254.261	71.5
254.494	72.5
254.727	73.5
254.96	69.5
255.193	78.5
255.426	65.5
255.659	80.5
255.892	98.5
256.124	81.5
256.357	81.5
256.59	69.5
256.823	85.5
257.056	70.5
257.289	64.5
257.521	78.5
257.754	72.5
257.987	76.5
258.22	72.5
258.452	76.5
258.685	76.5
258.918	71.5
259.151	80.5
259.383	74.5
259.616	77.5
259.849	79.5
260.081	68.5
260.314	83.5
260.547	88.5
260.779	84.5
261.012	79.5
261.244	72.5
261.477	85.5
261.71	100.5
261.942	109.5
262.175	95.5
262.407	86.5
262.64	80.5
262.872	80.5
263.105	74.5
263.337	67.5
263.57	66.5
263.802	88.5
264.035	85.5
264.267	80.5
264.499	84.5
264.732	78.5
264.964	68.5
265.197	71.5
265.429	72.5
265.661	70.5
265.894	76.5
266.126	85.5
266.358	71.5
266.591	70.5
266.823	78.5
267.055	81.5
267.287	81.5
267.52	80.5
267.752	82.5
267.984	70.5
268.216	78.5
268.448	79.5
268.681	81.5
268.913	85.5
269.145	77.5
269.377	68.5
269.609	82.5
269.841	73.5
270.073	81.5
270.306	76.5
270.538	79.5
270.77	71.5
271.002	79.5
271.234	79.5
271.466	80.5
271.698	79.5
271.93	72.5
272.162	81.5
272.394	81.5
272.626	81.5
272.858	71.5
273.09	73.5
273.322	62.5
273.553	60.5
273.785	79.5
274.017	80.5
274.249	79.5
274.481	86.5
274.713	86.5
274.945	69.5
275.176	86.5
275.408	82.5
275.64	85.5
275.872	70.5
276.104	79.5
276.335	93.5
276.567	84.5
276.799	107.5
277.031	92.5
277.262	90.5
277.494	88.5
277.726	84.5
277.957	100.5
278.189	89.5
278.421	84.5
278.652	82.5
278.884	77.5
279.115	83.5
279.347	69.5
279.579	70.5
279.81	61.5
280.042	88.5
280.273	96.5
280.505	79.5
280.736	80.5
280.968	79.5
281.199	76.5
281.431	80.5
281.662	76.5
281.894	82.5
282.125	108.5
282.356	115.5
282.588	144.5
282.819	116.5
283.051	74.5
283.282	68.5
283.513	82.5
283.745	75.5
283.976	86.5
284.207	77.5
284.439	81.5
284.67	88.5
284.901	99.5
285.132	93.5
285.364	88.5
285.595	92.5
285.826	81.5
286.057	78.5
286.288	90.5
286.52	91.5
286.751	79.5
286.982	83.5
287.213	95.5
287.444	72.5
287.675	79.5
287.906	86.5
288.138	94.5
288.369	81.5
288.6	96.5
288.831	83.5
289.062	84.5
289.293	77.5
289.524	95.5
289.755	85.5
289.986	88.5
290.217	84.5
290.448	85.5
290.679	86.5
290.91	92.5
291.141	78.5
291.371	84.5
291.602	78.5
291.833	82.5
292.064	87.5
292.295	86.5
292.526	79.5
292.757	70.5
292.987	81.5
293.218	92.5
293.449	83.5
293.68	89.5
293.91	94.5
294.141	90.5
294.372	95.5
294.603	78.5
294.833	71.5
295.064	93.5
295.295	92.5
295.525	74.5
295.756	80.5
295.987	122.5
296.217	149.5
296.448	125.5
296.679	95.5
296.909	75.5
297.14	83.5
297.37	83.5
297.601	89.5
297.831	82.5
298.062	95.5
298.292	96.5
298.523	79.5
298.753	74.5
298.984	86.5
299.214	86.5
299.445	87.5
299.675	87.5
299.905	99.5
300.136	79.5
300.366	89.5
300.597	79.5
300.827	94.5
301.057	92.5
301.288	104.5
301.518	96.5
301.748	87.5
301.979	96.5
302.209	96.5
302.439	82.5
302.669	96.5
302.9	93.5
303.13	92.5
303.36	79.5
303.59	102.5
303.82	103.5
304.051	85.5
304.281	97.5
304.511	97.5
304.741	98.5
304.971	88.5
305.201	91.5
305.431	89.5
305.661	83.5
305.891	79.5
306.121	93.5
306.352	89.5
306.582	80.5
306.812	85.5
307.042	93.5
307.272	96.5
307.502	92.5
307.731	93.5
307.961	94.5
308.191	89.5
308.421	96.5
308.651	79.5
308.881	92.5
309.111	87.5
309.341	84.5
309.571	94.5
309.8	86.5
310.03	88.5
310.26	79.5
310.49	79.5
310.72	92.5
310.949	93.5
311.179	96.5
311.409	92.5
311.639	76.5
311.868	100.5
312.098	99.5
312.328	100.5
312.557	91.5
312.787	100.5
313.017	101.5
313.246	83.5
313.476	67.5
313.706	93.5
313.935	95.5
314.165	85.5
314.394	79.5
314.624	86.5
314.853	91.5
315.083	98.5
315.312	81.5
315.542	88.5
315.771	100.5
316.001	79.5
316.23	77.5
316.46	73.5
316.689	85.5
316.919	84.5
317.148	86.5
317.377	89.5
317.607	87.5
317.836	88.5
318.065	79.5
318.295	73.5
318.524	86.5
318.753	90.5
318.983	91.5
319.212	99.5
319.441	101.5
319.67	111.5
319.9	89.5
320.129	90.5
320.358	88.5
320.587	97.5
320.816	102.5
321.046	94.5
321.275	105.5
321.504	79.5
321.733	86.5
321.962	89.5
322.191	101.5
322.42	103.5
322.649	107.5
322.878	96.5
323.108	108.5
323.337	133.5
323.566	129.5
323.795	151.5
324.024	212.5
324.253	446.5
324.482	934.5
324.71	1936.5
324.939	2470.5
325.168	910.5
325.397	256.5
325.626	160.5
325.855	129.5
326.084	129.5
326.313	141.5
326.542	181.5
326.77	235.5
326.999	497.5
327.228	1077.5
327.457	1905.5
327.686	1500.5
327.914	408.5
328.143	226.5
328.372	152.5
328.6	127.5
328.829	87.5
329.058	110.5
329.287	121.5
329.515	121.5
329.744	105.5
329.972	106.5
330.201	142.5
330.43	180.5
330.658	133.5
330.887	117.5
331.115	119.5
331.344	96.5
331.572	105.5
331.801	98.5
332.03	109.5
332.258	99.5
332.486	95.5
332.715	66.5
332.943	85.5
333.172	93.5
333.4	100.5
333.629	112.5
333.857	119.5
334.085	123.5
334.314	151.5
334.542	199.5
334.771	192.5
334.999	106.5
335.227	86.5
335.455	103.5
335.684	95.5
335.912	85.5
336.14	104.5
336.369	94.5
336.597	97.5
336.825	87.5
337.053	85.5
337.281	84.5
337.51	86.5
337.738	94.5
337.966	102.5
338.194	88.5
338.422	82.5
338.65	99.5
338.878	98.5
339.106	85.5
339.334	90.5
339.562	87.5
339.79	78.5
340.018	92.5
340.246	91.5
340.474	89.5
340.702	97.5
340.93	89.5
341.158	77.5
341.386	88.5
341.614	100.5
341.842	81.5
342.07	99.5
342.298	85.5
342.526	84.5
342.754	93.5
342.981	83.5
343.209	90.5
343.437	84.5
343.665	78.5
343.893	105.5
344.12	82.5
344.348	90.5
344.576	82.5
344.804	112.5
345.031	93.5
345.259	88.5
345.487	91.5
345.714	89.5
345.942	87.5
346.17	100.5
346.397	97.5
346.625	92.5
346.853	83.5
347.08	96.5
347.308	90.5
347.535	70.5
347.763	101.5
347.99	116.5
348.218	96.5
348.445	109.5
348.673	84.5
348.9	91.5
349.128	96.5
349.355	93.5
349.583	88.5
349.81	89.5
350.037	82.5
350.265	101.5
350.492	99.5
350.72	88.5
350.947	92.5
351.174	96.5
351.402	91.5
351.629	106.5
351.856	87.5
352.083	100.5
352.311	95.5
352.538	108.5
352.765	106.5
352.992	108.5
353.22	123.5
353.447	92.5
353.674	96.5
353.901	98.5
354.128	94.5
354.355	94.5
354.583	97.5
354.81	96.5
355.037	93.5
355.264	100.5
355.491	88.5
355.718	92.5
355.945	85.5
356.172	76.5
356.399	96.5
356.626	95.5
356.853	97.5
357.08	92.5
357.307	94.5
357.534	81.5
357.761	96.5
357.988	96.5
358.215	91.5
358.441	93.5
358.668	93.5
358.895	80.5
359.122	89.5
359.349	86.5
359.576	91.5
359.802	91.5
360.029	93.5
360.256	101.5
360.483	97.5
360.709	88.5
360.936	96.5
361.163	87.5
361.39	78.5
361.616	82.5
361.843	81.5
362.07	93.5
362.296	91.5
362.523	86.5
362.749	89.5
362.976	84.5
363.203	85.5
363.429	80.5
363.656	82.5
363.882	85.5
364.109	89.5
364.335	87.5
364.562	101.5
364.788	101.5
365.015	83.5
365.241	83.5
365.468	97.5
365.694	96.5
365.92	80.5
366.147	72.5
366.373	78.5
366.599	89.5
366.826	73.5
367.052	75.5
367.278	96.5
367.505	93.5
367.731	93.5
367.957	88.5
368.184	88.5
368.41	104.5
368.636	116.5
368.862	112.5
369.089	100.5
369.315	80.5
369.541	84.5
369.767	77.5
369.993	94.5
370.219	94.5
370.445	87.5
370.672	85.5
370.898	91.5
371.124	92.5
371.35	86.5
371.576	76.5
371.802	94.5
372.028	91.5
372.254	68.5
372.48	76.5
372.706	100.5
372.932	68.5
373.158	81.5
373.384	72.5
373.61	65.5
373.835	93.5
374.061	83.5
374.287	88.5
374.513	94.5
374.739	90.5
374.965	82.5
375.191	87.5
375.416	79.5
375.642	89.5
375.868	95.5
376.094	87.5
376.319	94.5
376.545	76.5
376.771	89.5
376.997	97.5
377.222	91.5
377.448	80.5
377.674	94.5
377.899	80.5
378.125	94.5
378.35	96.5
378.576	94.5
378.802	89.5
379.027	95.5
379.253	85.5
379.478	94.5
379.704	93.5
379.929	95.5
380.155	84.5
380.38	104.5
380.606	87.5
380.831	81.5
381.057	121.5
381.282	92.5
381.507	85.5
381.733	87.5
381.958	95.5
382.184	80.5
382.409	108.5
382.634	97.5
382.86	100.5
383.085	110.5
383.31	99.5
383.535	82.5
383.761	111.5
383.986	105.5
384.211	93.5
384.436	91.5
384.662	86.5
384.887	96.5
385.112	98.5
385.337	90.5
385.562	111.5
385.787	106.5
386.013	125.5
386.238	108.5
386.463	120.5
386.688	99.5
386.913	95.5
387.138	113.5
387.363	102.5
387.588	98.5
387.813	83.5
388.038	96.5
388.263	117.5
388.488	102.5
388.713	108.5
388.938	98.5
389.163	94.5
389.387	88.5
389.612	97.5
389.837	82.5
390.062	92.5
390.287	79.5
390.512	80.5
390.736	86.5
390.961	85.5
391.186	108.5
391.411	95.5
391.636	83.5
391.86	83.5
392.085	82.5
392.31	86.5
392.534	77.5
392.759	85.5
392.984	84.5
393.208	93.5
393.433	95.5
393.658	93.5
393.882	96.5
394.107	90.5
394.331	84.5
394.556	83.5
394.78	72.5
395.005	81.5
395.229	97.5
395.454	75.5
395.678	69.5
395.903	83.5
396.127	91.5
396.352	80.5
396.576	82.5
396.801	91.5
397.025	88.5
397.249	79.5
397.474	86.5
397.698	84.5
397.922	64.5
398.147	79.5
398.371	78.5
398.595	79.5
398.82	82.5
399.044	76.5
399.268	73.5
399.492	84.5
399.717	84.5
399.941	90.5
400.165	83.5
400.389	93.5
400.613	81.5
400.837	84.5
401.062	79.5
401.286	80.5
401.51	79.5
401.734	88.5
401.958	106.5
402.182	129.5
402.406	156.5
402.63	107.5
402.854	78.5
403.078	76.5
403.302	91.5
403.526	83.5
403.75	85.5
403.974	86.5
404.198	81.5
404.422	84.5
404.645	77.5
404.869	86.5
405.093	82.5
405.317	104.5
405.541	89.5
405.765	92.5
405.988	101.5
406.212	174.5
406.436	240.5
406.66	144.5
406.883	94.5
407.107	98.5
407.331	92.5
407.555	93.5
407.778	97.5
408.002	95.5
408.226	91.5
408.449	82.5
408.673	87.5
408.896	93.5
409.12	92.5
409.344	88.5
409.567	86.5
409.791	86.5
410.014	89.5
410.238	80.5
410.461	74.5
410.685	80.5
410.908	105.5
411.132	115.5
411.355	94.5
411.578	92.5
411.802	76.5
412.025	82.5
412.249	85.5
412.472	84.5
412.695	75.5
412.919	81.5
413.142	80.5
413.365	99.5
413.589	78.5
413.812	70.5
414.035	71.5
414.258	82.5
414.482	78.5
414.705	81.5
414.928	80.5
415.151	79.5
415.374	97.5
415.597	85.5
415.821	73.5
416.044	87.5
416.267	81.5
416.49	78.5
416.713	90.5
416.936	89.5
417.159	70.5
417.382	82.5
417.605	66.5
417.828	83.5
418.051	95.5
418.274	94.5
418.497	84.5
418.72	88.5
418.943	95.5
419.166	93.5
419.389	93.5
419.611	83.5
419.834	85.5
420.057	94.5
420.28	91.5
420.503	81.5
420.726	78.5
420.948	71.5
421.171	104.5
421.394	87.5
421.617	78.5
421.839	79.5
422.062	80.5
422.285	85.5
422.507	83.5
422.73	98.5
422.953	100.5
423.175	86.5
423.398	82.5
423.621	92.5
423.843	82.5
424.066	76.5
424.288	87.5
424.511	86.5
424.733	92.5
424.956	116.5
425.178	78.5
425.401	92.5
425.623	85.5
425.846	82.5
426.068	85.5
426.291	85.5
426.513	79.5
426.735	87.5
426.958	84.5
427.18	95.5
427.402	123.5
427.625	178.5
427.847	129.5
428.069	132.5
428.292	92.5
428.514	92.5
428.736	83.5
428.958	82.5
429.181	77.5
429.403	76.5
429.625	89.5
429.847	84.5
430.069	94.5
430.292	88.5
430.514	66.5
430.736	80.5
430.958	83.5
431.18	77.5
431.402	80.5
431.624	64.5
431.846	88.5
432.068	73.5
432.29	82.5
432.512	94.5
432.734	64.5
432.956	84.5
433.178	96.5
433.4	90.5
433.622	86.5
433.844	78.5
434.066	85.5
434.287	69.5
434.509	91.5
434.731	88.5
434.953	88.5
435.175	86.5
435.397	77.5
435.618	88.5
435.84	96.5
436.062	116.5
436.284	109.5
436.505	87.5
436.727	92.5
436.949	80.5
437.17	82.5
437.392	97.5
437.614	96.5
437.835	99.5
438.057	113.5
438.278	98.5
438.5	88.5
438.721	120.5
438.943	95.5
439.165	93.5
439.386	75.5
439.608	90.5
439.829	97.5
440.05	115.5
440.272	114.5
440.493	94.5
440.715	77.5
440.936	85.5
441.158	101.5
441.379	87.5
441.6	87.5
441.822	76.5
442.043	95.5
442.264	85.5
442.486	77.5
442.707	90.5
442.928	95.5
443.149	127.5
443.371	124.5
443.592	93.5
443.813	98.5
444.034	111.5
444.255	79.5
444.476	81.5
444.698	94.5
444.919	83.5
445.14	106.5
445.361	112.5
445.582	119.5
445.803	134.5
446.024	149.5
446.245	136.5
446.466	105.5
446.687	85.5
446.908	88.5
447.129	87.5
447.35	80.5
447.571	92.5
447.792	79.5
448.013	96.5
448.234	103.5
448.455	99.5
448.675	95.5
448.896	116.5
449.117	88.5
449.338	94.5
449.559	123.5
449.779	114.5
450	93.5
450.221	92.5
450.442	89.5
450.662	81.5
450.883	108.5
451.104	102.5
451.324	95.5
451.545	83.5
451.766	89.5
451.986	82.5
452.207	87.5
452.428	83.5
452.648	92.5
452.869	111.5
453.089	109.5
453.31	101.5
453.53	95.5
453.751	90.5
453.971	98.5
454.192	103.5
454.412	96.5
454.633	81.5
454.853	93.5
455.073	74.5
455.294	98.5
455.514	87.5
455.734	72.5
455.955	68.5
456.175	82.5
456.395	81.5
456.616	80.5
456.836	93.5
457.056	71.5
457.276	80.5
457.497	76.5
457.717	83.5
457.937	69.5
458.157	76.5
458.377	78.5
458.598	86.5
458.818	135.5
459.038	153.5
459.258	127.5
459.478	82.5
459.698	79.5
459.918	83.5
460.138	74.5
460.358	80.5
460.578	94.5
460.798	77.5
461.018	90.5
461.238	90.5
461.458	84.5
461.678	87.5
461.898	84.5
462.118	83.5
462.338	86.5
462.558	83.5
462.777	84.5
462.997	89.5
463.217	85.5
463.437	71.5
463.657	67.5
463.876	80.5
464.096	87.5
464.316	84.5
464.536	95.5
464.755	90.5
464.975	102.5
465.195	168.5
465.414	158.5
465.634	96.5
465.854	78.5
466.073	85.5
466.293	84.5
466.512	79.5
466.732	81.5
466.951	88.5
467.171	80.5
467.391	94.5
467.61	101.5
467.829	92.5
468.049	129.5
468.268	133.5
468.488	92.5
468.707	87.5
468.927	68.5
469.146	79.5
469.365	71.5
469.585	89.5
469.804	107.5
470.023	96.5
470.243	99.5
470.462	89.5
470.681	110.5
470.901	87.5
471.12	66.5
471.339	86.5
471.558	78.5
471.777	94.5
471.997	101.5
472.216	156.5
472.435	241.5
472.654	117.5
472.873	77.5
473.092	86.5
473.311	93.5
473.53	78.5
473.749	88.5
473.968	87.5
474.187	92.5
474.406	96.5
474.625	85.5
474.844	75.5
475.063	86.5
475.282	82.5
475.501	90.5
475.72	86.5
475.939	84.5
476.158	78.5
476.377	85.5
476.596	85.5
476.814	88.5
477.033	80.5
477.252	90.5
477.471	68.5
477.69	77.5
477.908	86.5
478.127	83.5
478.346	90.5
478.564	94.5
478.783	97.5
479.002	86.5
479.22	86.5
479.439	97.5
479.658	102.5
479.876	94.5
480.095	73.5
480.313	81.5
480.532	92.5
480.751	102.5
480.969	156.5
481.188	385.5
481.406	264.5
481.624	111.5
481.843	86.5
482.061	91.5
482.28	72.5
482.498	85.5
482.717	95.5
482.935	85.5
483.153	69.5
483.372	78.5
483.59	79.5
483.808	69.5
484.027	93.5
484.245	83.5
484.463	88.5
484.681	88.5
484.9	84.5
485.118	97.5
485.336	103.5
485.554	98.5
485.772	110.5
485.99	95.5
486.209	104.5
486.427	101.5
486.645	117.5
486.863	114.5
487.081	92.5
487.299	91.5
487.517	80.5
487.735	80.5
487.953	78.5
488.171	96.5
488.389	88.5
488.607	92.5
488.825	74.5
489.043	95.5
489.261	68.5
489.479	72.5
489.696	64.5
489.914	82.5
490.132	92.5
490.35	99.5
490.568	89.5
490.786	90.5
491.003	87.5
491.221	84.5
491.439	94.5
491.657	80.5
491.874	73.5
492.092	91.5
492.31	88.5
492.527	90.5
492.745	98.5
492.963	83.5
493.18	83.5
493.398	83.5
493.615	98.5
493.833	97.5
494.05	83.5
494.268	84.5
494.485	80.5
494.703	96.5
494.92	92.5
495.138	87.5
495.355	89.5
495.573	89.5
495.79	89.5
496.008	96.5
496.225	108.5
496.442	80.5
496.66	82.5
496.877	100.5
497.094	90.5
497.312	82.5
497.529	97.5
497.746	93.5
497.963	92.5
498.181	87.5
498.398	94.5
498.615	99.5
498.832	103.5
499.049	85.5
499.267	84.5
499.484	76.5
499.701	71.5
499.918	96.5
500.135	88.5
500.352	88.5
500.569	75.5
500.786	91.5
501.003	97.5
501.22	78.5
501.437	91.5
501.654	103.5
501.871	98.5
502.088	92.5
502.305	89.5
502.522	88.5
502.739	92.5
502.956	85.5
503.172	99.5
503.389	99.5
503.606	104.5
503.823	91.5
504.04	96.5
504.256	86.5
504.473	77.5
504.69	79.5
504.907	78.5
505.123	100.5
505.34	92.5
505.557	82.5
505.773	80.5
505.99	79.5
506.207	100.5
506.423	87.5
506.64	80.5
506.856	92.5
507.073	81.5
507.289	84.5
507.506	91.5
507.722	115.5
507.939	109.5
508.155	86.5
508.372	100.5
508.588	91.5
508.805	80.5
509.021	92.5
509.238	91.5
509.454	94.5
509.67	99.5
509.887	107.5
510.103	137.5
510.319	215.5
510.536	820.5
510.752	2715.5
510.968	760.5
511.184	156.5
511.401	125.5
511.617	96.5
511.833	98.5
512.049	88.5
512.265	77.5
512.481	89.5
512.698	85.5
512.914	83.5
513.13	94.5
513.346	96.5
513.562	91.5
513.778	89.5
513.994	94.5
514.21	88.5
514.426	102.5
514.642	142.5
514.858	121.5
515.074	153.5
515.29	461.5
515.506	1603.5
515.721	617.5
515.937	144.5
516.153	96.5
516.369	76.5
516.585	93.5
516.801	94.5
517.016	96.5
517.232	103.5
517.448	94.5
517.664	96.5
517.879	87.5
518.095	94.5
518.311	81.5
518.527	88.5
518.742	95.5
518.958	77.5
519.173	95.5
519.389	96.5
519.605	96.5
519.82	87.5
520.036	102.5
520.251	129.5
520.467	86.5
520.682	99.5
520.898	112.5
521.113	103.5
521.329	132.5
521.544	215.5
521.76	595.5
521.975	2623.5
522.19	1627.5
522.406	342.5
522.621	131.5
522.836	96.5
523.052	83.5
523.267	98.5
523.482	87.5
523.698	110.5
523.913	110.5
524.128	108.5
524.343	103.5
524.559	86.5
524.774	87.5
524.989	92.5
525.204	100.5
525.419	88.5
525.634	90.5
525.849	93.5
526.064	82.5
526.28	86.5
526.495	89.5
526.71	86.5
526.925	79.5
527.14	86.5
527.355	98.5
527.57	85.5
527.785	92.5
527.999	93.5
528.214	90.5
528.429	87.5
528.644	88.5
528.859	81.5
529.074	91.5
529.289	110.5
529.503	189.5
529.718	94.5
529.933	80.5
530.148	71.5
530.363	102.5
530.577	95.5
530.792	73.5
531.007	93.5
531.221	92.5
531.436	86.5
531.651	94.5
531.865	95.5
532.08	88.5
532.295	96.5
532.509	82.5
532.724	88.5
532.938	95.5
533.153	91.5
533.367	92.5
533.582	87.5
533.796	89.5
534.011	80.5
534.225	79.5
534.44	100.5
534.654	79.5
534.868	98.5
535.083	86.5
535.297	83.5
535.511	87.5
535.726	91.5
535.94	108.5
536.154	90.5
536.369	91.5
536.583	88.5
536.797	79.5
