Data from Circ_2016_H10_HRD10591_00095.txt Node
Date: Wed Jan 03 09:58:59 EST 2024
User: Yrep
Spectrometer: HR+D1059
Trigger mode: 1
Integration Time (sec): 1.000000E-1
Scans to average: 1
Electric dark correction enabled: true
Nonlinearity correction enabled: false
Boxcar width: 0
XAxis mode: Wavelengths
Number of Pixels in Spectrum: 2048
>>>>>Begin Spectral Data<<<<<
223.165	-18.25
223.4	-18.25
223.635	-18.25
223.869	-17.25
224.104	-24.25
224.338	-17.25
224.573	-7.25
224.808	-6.25
225.042	-1.25
225.277	-6.25
225.511	-6.25
225.746	-8.25
225.98	20.75
226.215	6.75
226.449	14.75
226.683	18.75
226.918	28.75
227.152	22.75
227.387	45.75
227.621	43.75
227.856	42.75
228.09	62.75
228.324	47.75
228.559	49.75
228.793	51.75
229.027	65.75
229.262	65.75
229.496	60.75
229.73	76.75
229.964	77.75
230.199	68.75
230.433	72.75
230.667	70.75
230.901	95.75
231.136	77.75
231.37	74.75
231.604	79.75
231.838	72.75
232.072	63.75
232.306	91.75
232.541	78.75
232.775	76.75
233.009	87.75
233.243	85.75
233.477	85.75
233.711	68.75
233.945	88.75
234.179	81.75
234.413	87.75
234.647	80.75
234.881	102.75
235.115	75.75
235.349	78.75
235.583	72.75
235.817	77.75
236.051	79.75
236.285	91.75
236.519	93.75
236.753	93.75
236.987	78.75
237.221	75.75
237.455	98.75
237.689	69.75
237.922	75.75
238.156	83.75
238.39	71.75
238.624	82.75
238.858	89.75
239.091	69.75
239.325	70.75
239.559	78.75
239.793	76.75
240.027	85.75
240.26	84.75
240.494	75.75
240.728	81.75
240.961	83.75
241.195	86.75
241.429	88.75
241.662	89.75
241.896	75.75
242.13	75.75
242.363	82.75
242.597	77.75
242.83	81.75
243.064	79.75
243.298	77.75
243.531	73.75
243.765	79.75
243.998	91.75
244.232	79.75
244.465	91.75
244.699	90.75
244.932	85.75
245.166	82.75
245.399	87.75
245.633	83.75
245.866	74.75
246.099	60.75
246.333	87.75
246.566	75.75
246.8	81.75
247.033	81.75
247.266	82.75
247.5	77.75
247.733	69.75
247.966	80.75
248.2	84.75
248.433	74.75
248.666	88.75
248.899	97.75
249.133	91.75
249.366	101.75
249.599	103.75
249.832	75.75
250.066	66.75
250.299	76.75
250.532	83.75
250.765	85.75
250.998	85.75
251.231	86.75
251.465	94.75
251.698	80.75
251.931	91.75
252.164	81.75
252.397	70.75
252.63	69.75
252.863	72.75
253.096	79.75
253.329	79.75
253.562	77.75
253.795	76.75
254.028	73.75
254.261	72.75
254.494	82.75
254.727	89.75
254.96	75.75
255.193	81.75
255.426	83.75
255.659	75.75
255.892	88.75
256.124	67.75
256.357	80.75
256.59	88.75
256.823	77.75
257.056	80.75
257.289	101.75
257.521	80.75
257.754	77.75
257.987	81.75
258.22	80.75
258.452	85.75
258.685	84.75
258.918	79.75
259.151	93.75
259.383	86.75
259.616	84.75
259.849	80.75
260.081	65.75
260.314	83.75
260.547	73.75
260.779	87.75
261.012	87.75
261.244	89.75
261.477	91.75
261.71	97.75
261.942	109.75
262.175	125.75
262.407	87.75
262.64	93.75
262.872	78.75
263.105	81.75
263.337	83.75
263.57	99.75
263.802	84.75
264.035	82.75
264.267	92.75
264.499	95.75
264.732	69.75
264.964	72.75
265.197	81.75
265.429	92.75
265.661	85.75
265.894	74.75
266.126	73.75
266.358	89.75
266.591	87.75
266.823	89.75
267.055	83.75
267.287	99.75
267.52	102.75
267.752	92.75
267.984	83.75
268.216	104.75
268.448	74.75
268.681	78.75
268.913	98.75
269.145	88.75
269.377	77.75
269.609	82.75
269.841	96.75
270.073	96.75
270.306	83.75
270.538	87.75
270.77	79.75
271.002	82.75
271.234	89.75
271.466	76.75
271.698	85.75
271.93	68.75
272.162	91.75
272.394	85.75
272.626	89.75
272.858	78.75
273.09	85.75
273.322	85.75
273.553	85.75
273.785	88.75
274.017	76.75
274.249	77.75
274.481	90.75
274.713	73.75
274.945	102.75
275.176	80.75
275.408	87.75
275.64	94.75
275.872	87.75
276.104	98.75
276.335	99.75
276.567	107.75
276.799	109.75
277.031	94.75
277.262	100.75
277.494	111.75
277.726	84.75
277.957	83.75
278.189	92.75
278.421	78.75
278.652	77.75
278.884	88.75
279.115	73.75
279.347	84.75
279.579	91.75
279.81	83.75
280.042	86.75
280.273	84.75
280.505	92.75
280.736	86.75
280.968	77.75
281.199	94.75
281.431	91.75
281.662	94.75
281.894	90.75
282.125	101.75
282.356	124.75
282.588	134.75
282.819	102.75
283.051	85.75
283.282	87.75
283.513	88.75
283.745	72.75
283.976	83.75
284.207	80.75
284.439	78.75
284.67	89.75
284.901	90.75
285.132	93.75
285.364	83.75
285.595	88.75
285.826	89.75
286.057	101.75
286.288	80.75
286.52	98.75
286.751	81.75
286.982	88.75
287.213	98.75
287.444	91.75
287.675	85.75
287.906	85.75
288.138	91.75
288.369	96.75
288.6	97.75
288.831	83.75
289.062	90.75
289.293	78.75
289.524	99.75
289.755	95.75
289.986	87.75
290.217	97.75
290.448	84.75
290.679	78.75
290.91	95.75
291.141	74.75
291.371	86.75
291.602	86.75
291.833	84.75
292.064	76.75
292.295	95.75
292.526	100.75
292.757	88.75
292.987	78.75
293.218	83.75
293.449	77.75
293.68	82.75
293.91	97.75
294.141	98.75
294.372	95.75
294.603	83.75
294.833	77.75
295.064	78.75
295.295	97.75
295.525	93.75
295.756	90.75
295.987	118.75
296.217	138.75
296.448	134.75
296.679	96.75
296.909	87.75
297.14	101.75
297.37	98.75
297.601	87.75
297.831	74.75
298.062	101.75
298.292	77.75
298.523	78.75
298.753	94.75
298.984	94.75
299.214	94.75
299.445	91.75
299.675	91.75
299.905	93.75
300.136	75.75
300.366	89.75
300.597	83.75
300.827	95.75
301.057	86.75
301.288	101.75
301.518	86.75
301.748	90.75
301.979	98.75
302.209	87.75
302.439	90.75
302.669	86.75
302.9	75.75
303.13	94.75
303.36	96.75
303.59	104.75
303.82	102.75
304.051	81.75
304.281	103.75
304.511	102.75
304.741	94.75
304.971	77.75
305.201	91.75
305.431	78.75
305.661	92.75
305.891	99.75
306.121	101.75
306.352	98.75
306.582	104.75
306.812	83.75
307.042	80.75
307.272	94.75
307.502	96.75
307.731	101.75
307.961	89.75
308.191	85.75
308.421	85.75
308.651	86.75
308.881	89.75
309.111	74.75
309.341	95.75
309.571	102.75
309.8	107.75
310.03	90.75
310.26	82.75
310.49	96.75
310.72	89.75
310.949	109.75
311.179	84.75
311.409	92.75
311.639	95.75
311.868	100.75
312.098	103.75
312.328	106.75
312.557	96.75
312.787	101.75
313.017	108.75
313.246	99.75
313.476	91.75
313.706	97.75
313.935	108.75
314.165	90.75
314.394	86.75
314.624	79.75
314.853	99.75
315.083	87.75
315.312	94.75
315.542	92.75
315.771	96.75
316.001	87.75
316.23	100.75
316.46	102.75
316.689	81.75
316.919	84.75
317.148	84.75
317.377	90.75
317.607	91.75
317.836	84.75
318.065	86.75
318.295	93.75
318.524	89.75
318.753	102.75
318.983	113.75
319.212	102.75
319.441	116.75
319.67	106.75
319.9	98.75
320.129	91.75
320.358	94.75
320.587	102.75
320.816	98.75
321.046	96.75
321.275	103.75
321.504	83.75
321.733	99.75
321.962	101.75
322.191	87.75
322.42	112.75
322.649	108.75
322.878	99.75
323.108	106.75
323.337	114.75
323.566	130.75
323.795	165.75
324.024	220.75
324.253	409.75
324.482	897.75
324.71	1831.75
324.939	2379.75
325.168	860.75
325.397	238.75
325.626	158.75
325.855	135.75
326.084	122.75
326.313	129.75
326.542	157.75
326.77	220.75
326.999	482.75
327.228	1022.75
327.457	1866.75
327.686	1476.75
327.914	400.75
328.143	207.75
328.372	163.75
328.6	143.75
328.829	107.75
329.058	104.75
329.287	125.75
329.515	110.75
329.744	98.75
329.972	123.75
330.201	158.75
330.43	177.75
330.658	125.75
330.887	138.75
331.115	108.75
331.344	102.75
331.572	83.75
331.801	105.75
332.03	111.75
332.258	88.75
332.486	84.75
332.715	95.75
332.943	93.75
333.172	98.75
333.4	88.75
333.629	106.75
333.857	110.75
334.085	125.75
334.314	140.75
334.542	193.75
334.771	184.75
334.999	117.75
335.227	109.75
335.455	92.75
335.684	99.75
335.912	93.75
336.14	101.75
336.369	108.75
336.597	96.75
336.825	105.75
337.053	89.75
337.281	86.75
337.51	80.75
337.738	101.75
337.966	81.75
338.194	70.75
338.422	94.75
338.65	89.75
338.878	97.75
339.106	86.75
339.334	96.75
339.562	95.75
339.79	83.75
340.018	94.75
340.246	93.75
340.474	96.75
340.702	108.75
340.93	83.75
341.158	102.75
341.386	88.75
341.614	88.75
341.842	82.75
342.07	91.75
342.298	84.75
342.526	86.75
342.754	98.75
342.981	79.75
343.209	92.75
343.437	100.75
343.665	98.75
343.893	91.75
344.12	96.75
344.348	80.75
344.576	92.75
344.804	83.75
345.031	94.75
345.259	95.75
345.487	94.75
345.714	94.75
345.942	103.75
346.17	93.75
346.397	102.75
346.625	86.75
346.853	98.75
347.08	99.75
347.308	111.75
347.535	100.75
347.763	105.75
347.99	89.75
348.218	87.75
348.445	105.75
348.673	98.75
348.9	93.75
349.128	99.75
349.355	97.75
349.583	89.75
349.81	98.75
350.037	105.75
350.265	97.75
350.492	85.75
350.72	102.75
350.947	101.75
351.174	113.75
351.402	124.75
351.629	110.75
351.856	107.75
352.083	104.75
352.311	119.75
352.538	108.75
352.765	116.75
352.992	103.75
353.22	113.75
353.447	107.75
353.674	101.75
353.901	94.75
354.128	98.75
354.355	100.75
354.583	100.75
354.81	96.75
355.037	109.75
355.264	111.75
355.491	89.75
355.718	86.75
355.945	104.75
356.172	98.75
356.399	84.75
356.626	89.75
356.853	110.75
357.08	93.75
357.307	95.75
357.534	95.75
357.761	90.75
357.988	108.75
358.215	99.75
358.441	97.75
358.668	94.75
358.895	105.75
359.122	80.75
359.349	88.75
359.576	95.75
359.802	102.75
360.029	109.75
360.256	90.75
360.483	102.75
360.709	85.75
360.936	94.75
361.163	92.75
361.39	107.75
361.616	81.75
361.843	103.75
362.07	93.75
362.296	80.75
362.523	102.75
362.749	103.75
362.976	96.75
363.203	81.75
363.429	84.75
363.656	100.75
363.882	85.75
364.109	84.75
364.335	97.75
364.562	76.75
364.788	94.75
365.015	85.75
365.241	86.75
365.468	100.75
365.694	101.75
365.92	85.75
366.147	83.75
366.373	92.75
366.599	97.75
366.826	79.75
367.052	95.75
367.278	99.75
367.505	85.75
367.731	72.75
367.957	77.75
368.184	88.75
368.41	101.75
368.636	111.75
368.862	102.75
369.089	101.75
369.315	96.75
369.541	92.75
369.767	83.75
369.993	94.75
370.219	97.75
370.445	78.75
370.672	83.75
370.898	89.75
371.124	85.75
371.35	78.75
371.576	83.75
371.802	83.75
372.028	85.75
372.254	70.75
372.48	80.75
372.706	91.75
372.932	86.75
373.158	87.75
373.384	86.75
373.61	92.75
373.835	88.75
374.061	85.75
374.287	92.75
374.513	97.75
374.739	85.75
374.965	85.75
375.191	98.75
375.416	88.75
375.642	102.75
375.868	93.75
376.094	94.75
376.319	92.75
376.545	101.75
376.771	86.75
376.997	67.75
377.222	86.75
377.448	87.75
377.674	94.75
377.899	91.75
378.125	106.75
378.35	93.75
378.576	88.75
378.802	87.75
379.027	97.75
379.253	89.75
379.478	105.75
379.704	105.75
379.929	90.75
380.155	97.75
380.38	103.75
380.606	100.75
380.831	89.75
381.057	108.75
381.282	108.75
381.507	98.75
381.733	109.75
381.958	112.75
382.184	90.75
382.409	113.75
382.634	103.75
382.86	88.75
383.085	95.75
383.31	90.75
383.535	88.75
383.761	102.75
383.986	94.75
384.211	94.75
384.436	100.75
384.662	107.75
384.887	102.75
385.112	110.75
385.337	92.75
385.562	111.75
385.787	113.75
386.013	121.75
386.238	101.75
386.463	88.75
386.688	110.75
386.913	118.75
387.138	117.75
387.363	100.75
387.588	90.75
387.813	104.75
388.038	131.75
388.263	118.75
388.488	118.75
388.713	99.75
388.938	106.75
389.163	84.75
389.387	97.75
389.612	83.75
389.837	89.75
390.062	88.75
390.287	94.75
390.512	91.75
390.736	91.75
390.961	86.75
391.186	84.75
391.411	103.75
391.636	106.75
391.86	104.75
392.085	103.75
392.31	89.75
392.534	60.75
392.759	99.75
392.984	100.75
393.208	86.75
393.433	92.75
393.658	87.75
393.882	75.75
394.107	83.75
394.331	77.75
394.556	81.75
394.78	94.75
395.005	86.75
395.229	78.75
395.454	84.75
395.678	97.75
395.903	98.75
396.127	89.75
396.352	83.75
396.576	86.75
396.801	84.75
397.025	92.75
397.249	78.75
397.474	88.75
397.698	77.75
397.922	90.75
398.147	86.75
398.371	73.75
398.595	80.75
398.82	96.75
399.044	85.75
399.268	92.75
399.492	75.75
399.717	84.75
399.941	99.75
400.165	109.75
400.389	90.75
400.613	81.75
400.837	91.75
401.062	79.75
401.286	91.75
401.51	78.75
401.734	88.75
401.958	94.75
402.182	97.75
402.406	150.75
402.63	117.75
402.854	78.75
403.078	87.75
403.302	98.75
403.526	89.75
403.75	79.75
403.974	79.75
404.198	85.75
404.422	98.75
404.645	97.75
404.869	85.75
405.093	90.75
405.317	115.75
405.541	115.75
405.765	97.75
405.988	98.75
406.212	161.75
406.436	207.75
406.66	140.75
406.883	99.75
407.107	97.75
407.331	102.75
407.555	108.75
407.778	94.75
408.002	78.75
408.226	86.75
408.449	79.75
408.673	86.75
408.896	81.75
409.12	91.75
409.344	90.75
409.567	95.75
409.791	83.75
410.014	98.75
410.238	91.75
410.461	78.75
410.685	104.75
410.908	107.75
411.132	114.75
411.355	90.75
411.578	99.75
411.802	94.75
412.025	104.75
412.249	98.75
412.472	100.75
412.695	99.75
412.919	98.75
413.142	91.75
413.365	85.75
413.589	87.75
413.812	98.75
414.035	82.75
414.258	93.75
414.482	83.75
414.705	77.75
414.928	97.75
415.151	94.75
415.374	89.75
415.597	94.75
415.821	100.75
416.044	93.75
416.267	88.75
416.49	82.75
416.713	90.75
416.936	89.75
417.159	83.75
417.382	82.75
417.605	88.75
417.828	95.75
418.051	92.75
418.274	75.75
418.497	84.75
418.72	78.75
418.943	86.75
419.166	97.75
419.389	92.75
419.611	112.75
419.834	82.75
420.057	90.75
420.28	84.75
420.503	93.75
420.726	94.75
420.948	85.75
421.171	90.75
421.394	86.75
421.617	84.75
421.839	98.75
422.062	80.75
422.285	71.75
422.507	91.75
422.73	100.75
422.953	94.75
423.175	87.75
423.398	88.75
423.621	87.75
423.843	97.75
424.066	84.75
424.288	82.75
424.511	97.75
424.733	102.75
424.956	101.75
425.178	98.75
425.401	105.75
425.623	98.75
425.846	100.75
426.068	101.75
426.291	89.75
426.513	85.75
426.735	80.75
426.958	86.75
427.18	99.75
427.402	140.75
427.625	144.75
427.847	133.75
428.069	111.75
428.292	87.75
428.514	94.75
428.736	94.75
428.958	92.75
429.181	85.75
429.403	87.75
429.625	87.75
429.847	93.75
430.069	103.75
430.292	99.75
430.514	90.75
430.736	91.75
430.958	96.75
431.18	75.75
431.402	96.75
431.624	101.75
431.846	89.75
432.068	76.75
432.29	76.75
432.512	101.75
432.734	85.75
432.956	88.75
433.178	104.75
433.4	98.75
433.622	97.75
433.844	92.75
434.066	102.75
434.287	83.75
434.509	101.75
434.731	93.75
434.953	95.75
435.175	109.75
435.397	94.75
435.618	89.75
435.84	102.75
436.062	124.75
436.284	116.75
436.505	95.75
436.727	100.75
436.949	79.75
437.17	89.75
437.392	86.75
437.614	100.75
437.835	99.75
438.057	114.75
438.278	104.75
438.5	101.75
438.721	115.75
438.943	95.75
439.165	81.75
439.386	94.75
439.608	82.75
439.829	91.75
440.05	106.75
440.272	127.75
440.493	94.75
440.715	89.75
440.936	90.75
441.158	94.75
441.379	89.75
441.6	96.75
441.822	81.75
442.043	89.75
442.264	95.75
442.486	106.75
442.707	73.75
442.928	99.75
443.149	127.75
443.371	127.75
443.592	102.75
443.813	105.75
444.034	95.75
444.255	89.75
444.476	93.75
444.698	76.75
444.919	99.75
445.14	106.75
445.361	115.75
445.582	105.75
445.803	138.75
446.024	133.75
446.245	127.75
446.466	97.75
446.687	90.75
446.908	93.75
447.129	108.75
447.35	89.75
447.571	99.75
447.792	92.75
448.013	95.75
448.234	110.75
448.455	101.75
448.675	117.75
448.896	130.75
449.117	91.75
449.338	89.75
449.559	116.75
449.779	151.75
450	93.75
450.221	88.75
450.442	87.75
450.662	90.75
450.883	98.75
451.104	99.75
451.324	98.75
451.545	90.75
451.766	85.75
451.986	86.75
452.207	90.75
452.428	102.75
452.648	100.75
452.869	105.75
453.089	117.75
453.31	110.75
453.53	99.75
453.751	100.75
453.971	86.75
454.192	103.75
454.412	87.75
454.633	86.75
454.853	95.75
455.073	80.75
455.294	93.75
455.514	82.75
455.734	79.75
455.955	85.75
456.175	80.75
456.395	78.75
456.616	97.75
456.836	83.75
457.056	92.75
457.276	80.75
457.497	82.75
457.717	84.75
457.937	92.75
458.157	102.75
458.377	97.75
458.598	102.75
458.818	151.75
459.038	139.75
459.258	108.75
459.478	88.75
459.698	86.75
459.918	94.75
460.138	80.75
460.358	70.75
460.578	81.75
460.798	93.75
461.018	78.75
461.238	77.75
461.458	83.75
461.678	89.75
461.898	83.75
462.118	98.75
462.338	65.75
462.558	91.75
462.777	97.75
462.997	89.75
463.217	103.75
463.437	87.75
463.657	74.75
463.876	79.75
464.096	102.75
464.316	82.75
464.536	99.75
464.755	104.75
464.975	103.75
465.195	173.75
465.414	152.75
465.634	97.75
465.854	88.75
466.073	86.75
466.293	98.75
466.512	86.75
466.732	92.75
466.951	86.75
467.171	99.75
467.391	80.75
467.61	102.75
467.829	106.75
468.049	115.75
468.268	125.75
468.488	112.75
468.707	86.75
468.927	86.75
469.146	70.75
469.365	86.75
469.585	78.75
469.804	93.75
470.023	91.75
470.243	85.75
470.462	89.75
470.681	105.75
470.901	96.75
471.12	78.75
471.339	94.75
471.558	89.75
471.777	75.75
471.997	94.75
472.216	156.75
472.435	239.75
472.654	110.75
472.873	85.75
473.092	90.75
473.311	90.75
473.53	84.75
473.749	99.75
473.968	96.75
474.187	115.75
474.406	113.75
474.625	93.75
474.844	98.75
475.063	95.75
475.282	91.75
475.501	97.75
475.72	102.75
475.939	95.75
476.158	93.75
476.377	67.75
476.596	90.75
476.814	97.75
477.033	95.75
477.252	92.75
477.471	99.75
477.69	92.75
477.908	92.75
478.127	101.75
478.346	94.75
478.564	72.75
478.783	98.75
479.002	89.75
479.22	93.75
479.439	92.75
479.658	103.75
479.876	94.75
480.095	103.75
480.313	103.75
480.532	90.75
480.751	110.75
480.969	205.75
481.188	391.75
481.406	257.75
481.624	115.75
481.843	92.75
482.061	84.75
482.28	93.75
482.498	93.75
482.717	84.75
482.935	85.75
483.153	98.75
483.372	97.75
483.59	99.75
483.808	97.75
484.027	97.75
484.245	96.75
484.463	98.75
484.681	108.75
484.9	117.75
485.118	100.75
485.336	87.75
485.554	103.75
485.772	105.75
485.99	104.75
486.209	107.75
486.427	101.75
486.645	102.75
486.863	109.75
487.081	102.75
487.299	88.75
487.517	92.75
487.735	100.75
487.953	106.75
488.171	91.75
488.389	100.75
488.607	97.75
488.825	83.75
489.043	106.75
489.261	92.75
489.479	82.75
489.696	87.75
489.914	91.75
490.132	72.75
490.35	100.75
490.568	97.75
490.786	102.75
491.003	89.75
491.221	92.75
491.439	99.75
491.657	101.75
491.874	100.75
492.092	94.75
492.31	98.75
492.527	83.75
492.745	86.75
492.963	87.75
493.18	84.75
493.398	105.75
493.615	82.75
493.833	103.75
494.05	84.75
494.268	105.75
494.485	89.75
494.703	76.75
494.92	78.75
495.138	79.75
495.355	88.75
495.573	90.75
495.79	95.75
496.008	80.75
496.225	97.75
496.442	93.75
496.66	101.75
496.877	89.75
497.094	103.75
497.312	87.75
497.529	93.75
497.746	97.75
497.963	99.75
498.181	87.75
498.398	104.75
498.615	110.75
498.832	99.75
499.049	93.75
499.267	101.75
499.484	92.75
499.701	93.75
499.918	87.75
500.135	102.75
500.352	83.75
500.569	86.75
500.786	79.75
501.003	91.75
501.22	90.75
501.437	82.75
501.654	102.75
501.871	108.75
502.088	98.75
502.305	84.75
502.522	83.75
502.739	98.75
502.956	98.75
503.172	101.75
503.389	86.75
503.606	98.75
503.823	90.75
504.04	74.75
504.256	98.75
504.473	82.75
504.69	94.75
504.907	91.75
505.123	83.75
505.34	84.75
505.557	99.75
505.773	106.75
505.99	79.75
506.207	97.75
506.423	94.75
506.64	94.75
506.856	94.75
507.073	112.75
507.289	97.75
507.506	85.75
507.722	101.75
507.939	102.75
508.155	96.75
508.372	87.75
508.588	101.75
508.805	91.75
509.021	114.75
509.238	103.75
509.454	86.75
509.67	93.75
509.887	106.75
510.103	122.75
510.319	209.75
510.536	754.75
510.752	2427.75
510.968	697.75
511.184	159.75
511.401	119.75
511.617	93.75
511.833	103.75
512.049	89.75
512.265	100.75
512.481	107.75
512.698	105.75
512.914	97.75
513.13	95.75
513.346	72.75
513.562	109.75
513.778	90.75
513.994	98.75
514.21	104.75
514.426	124.75
514.642	123.75
514.858	126.75
515.074	155.75
515.29	422.75
