Data from Circ_2016_H10_HRD10591_00060.txt Node
Date: Wed Jan 03 09:58:52 EST 2024
User: Yrep
Spectrometer: HR+D1059
Trigger mode: 1
Integration Time (sec): 1.000000E-1
Scans to average: 1
Electric dark correction enabled: true
Nonlinearity correction enabled: false
Boxcar width: 0
XAxis mode: Wavelengths
Number of Pixels in Spectrum: 2048
>>>>>Begin Spectral Data<<<<<
223.165	-19.81
223.4	-19.81
223.635	-19.81
223.869	-28.81
224.104	-9.81
224.338	-25.81
224.573	-17.81
224.808	-11.81
225.042	-0.81
225.277	-4.81
225.511	9.19
225.746	1.19
225.98	12.19
226.215	20.19
226.449	7.19
226.683	24.19
226.918	25.19
227.152	20.19
227.387	27.19
227.621	42.19
227.856	37.19
228.09	58.19
228.324	45.19
228.559	49.19
228.793	60.19
229.027	64.19
229.262	67.19
229.496	78.19
229.73	80.19
229.964	78.19
230.199	84.19
230.433	87.19
230.667	76.19
230.901	74.19
231.136	80.19
231.37	94.19
231.604	82.19
231.838	81.19
232.072	92.19
232.306	81.19
232.541	73.19
232.775	78.19
233.009	84.19
233.243	78.19
233.477	84.19
233.711	88.19
233.945	76.19
234.179	83.19
234.413	81.19
234.647	91.19
234.881	80.19
235.115	90.19
235.349	85.19
235.583	84.19
235.817	85.19
236.051	79.19
236.285	75.19
236.519	78.19
236.753	79.19
236.987	84.19
237.221	88.19
237.455	87.19
237.689	80.19
237.922	78.19
238.156	68.19
238.39	87.19
238.624	88.19
238.858	75.19
239.091	80.19
239.325	66.19
239.559	83.19
239.793	77.19
240.027	68.19
240.26	79.19
240.494	86.19
240.728	85.19
240.961	69.19
241.195	79.19
241.429	70.19
241.662	77.19
241.896	60.19
242.13	73.19
242.363	76.19
242.597	74.19
242.83	85.19
243.064	71.19
243.298	83.19
243.531	74.19
243.765	82.19
243.998	70.19
244.232	81.19
244.465	90.19
244.699	87.19
244.932	74.19
245.166	74.19
245.399	85.19
245.633	85.19
245.866	85.19
246.099	82.19
246.333	85.19
246.566	86.19
246.8	92.19
247.033	80.19
247.266	76.19
247.5	87.19
247.733	92.19
247.966	68.19
248.2	89.19
248.433	83.19
248.666	78.19
248.899	87.19
249.133	83.19
249.366	102.19
249.599	85.19
249.832	81.19
250.066	78.19
250.299	87.19
250.532	89.19
250.765	93.19
250.998	72.19
251.231	75.19
251.465	78.19
251.698	93.19
251.931	83.19
252.164	89.19
252.397	82.19
252.63	89.19
252.863	85.19
253.096	84.19
253.329	85.19
253.562	75.19
253.795	74.19
254.028	88.19
254.261	83.19
254.494	78.19
254.727	69.19
254.96	84.19
255.193	86.19
255.426	77.19
255.659	86.19
255.892	92.19
256.124	88.19
256.357	85.19
256.59	93.19
256.823	75.19
257.056	85.19
257.289	84.19
257.521	88.19
257.754	77.19
257.987	92.19
258.22	85.19
258.452	84.19
258.685	89.19
258.918	83.19
259.151	92.19
259.383	103.19
259.616	90.19
259.849	82.19
260.081	98.19
260.314	85.19
260.547	82.19
260.779	99.19
261.012	82.19
261.244	88.19
261.477	82.19
261.71	83.19
261.942	107.19
262.175	129.19
262.407	88.19
262.64	77.19
262.872	75.19
263.105	90.19
263.337	86.19
263.57	88.19
263.802	80.19
264.035	85.19
264.267	83.19
264.499	88.19
264.732	87.19
264.964	84.19
265.197	92.19
265.429	82.19
265.661	93.19
265.894	86.19
266.126	100.19
266.358	80.19
266.591	79.19
266.823	74.19
267.055	79.19
267.287	86.19
267.52	94.19
267.752	79.19
267.984	98.19
268.216	71.19
268.448	81.19
268.681	87.19
268.913	92.19
269.145	87.19
269.377	95.19
269.609	79.19
269.841	84.19
270.073	97.19
270.306	105.19
270.538	89.19
270.77	83.19
271.002	97.19
271.234	77.19
271.466	84.19
271.698	76.19
271.93	97.19
272.162	87.19
272.394	89.19
272.626	77.19
272.858	87.19
273.09	79.19
273.322	94.19
273.553	84.19
273.785	93.19
274.017	77.19
274.249	85.19
274.481	88.19
274.713	84.19
274.945	87.19
275.176	105.19
275.408	95.19
275.64	84.19
275.872	92.19
276.104	79.19
276.335	94.19
276.567	102.19
276.799	77.19
277.031	98.19
277.262	87.19
277.494	84.19
277.726	91.19
277.957	88.19
278.189	79.19
278.421	82.19
278.652	90.19
278.884	73.19
279.115	83.19
279.347	94.19
279.579	91.19
279.81	91.19
280.042	100.19
280.273	91.19
280.505	95.19
280.736	86.19
280.968	98.19
281.199	95.19
281.431	93.19
281.662	95.19
281.894	98.19
282.125	116.19
282.356	120.19
282.588	144.19
282.819	133.19
283.051	96.19
283.282	83.19
283.513	97.19
283.745	92.19
283.976	89.19
284.207	75.19
284.439	95.19
284.67	90.19
284.901	93.19
285.132	91.19
285.364	87.19
285.595	75.19
285.826	77.19
286.057	82.19
286.288	74.19
286.52	84.19
286.751	94.19
286.982	87.19
287.213	85.19
287.444	76.19
287.675	87.19
287.906	91.19
288.138	89.19
288.369	86.19
288.6	101.19
288.831	94.19
289.062	82.19
289.293	101.19
289.524	94.19
289.755	92.19
289.986	98.19
290.217	83.19
290.448	78.19
290.679	84.19
290.91	88.19
291.141	108.19
291.371	97.19
291.602	83.19
291.833	105.19
292.064	94.19
292.295	92.19
292.526	77.19
292.757	89.19
292.987	79.19
293.218	94.19
293.449	94.19
293.68	94.19
293.91	79.19
294.141	100.19
294.372	108.19
294.603	88.19
294.833	88.19
295.064	82.19
295.295	96.19
295.525	95.19
295.756	102.19
295.987	119.19
296.217	132.19
296.448	121.19
296.679	91.19
296.909	89.19
297.14	101.19
297.37	95.19
297.601	88.19
297.831	93.19
298.062	97.19
298.292	86.19
298.523	83.19
298.753	84.19
298.984	89.19
299.214	90.19
299.445	90.19
299.675	78.19
299.905	102.19
300.136	89.19
300.366	89.19
300.597	95.19
300.827	98.19
301.057	94.19
301.288	103.19
301.518	96.19
301.748	80.19
301.979	90.19
302.209	90.19
302.439	92.19
302.669	88.19
302.9	101.19
303.13	86.19
303.36	89.19
303.59	99.19
303.82	93.19
304.051	83.19
304.281	89.19
304.511	98.19
304.741	85.19
304.971	96.19
305.201	82.19
305.431	83.19
305.661	87.19
305.891	88.19
306.121	92.19
306.352	97.19
306.582	86.19
306.812	98.19
307.042	92.19
307.272	90.19
307.502	103.19
307.731	97.19
307.961	83.19
308.191	91.19
308.421	100.19
308.651	89.19
308.881	108.19
309.111	107.19
309.341	101.19
309.571	113.19
309.8	90.19
310.03	102.19
310.26	101.19
310.49	94.19
310.72	99.19
310.949	88.19
311.179	110.19
311.409	105.19
311.639	110.19
311.868	102.19
312.098	89.19
312.328	71.19
312.557	93.19
312.787	95.19
313.017	94.19
313.246	93.19
313.476	87.19
313.706	110.19
313.935	87.19
314.165	86.19
314.394	92.19
314.624	108.19
314.853	95.19
315.083	77.19
315.312	75.19
315.542	90.19
315.771	100.19
316.001	91.19
316.23	99.19
316.46	96.19
316.689	98.19
316.919	87.19
317.148	89.19
317.377	110.19
317.607	96.19
317.836	99.19
318.065	90.19
318.295	92.19
318.524	86.19
318.753	93.19
318.983	91.19
319.212	88.19
319.441	101.19
319.67	116.19
319.9	106.19
320.129	106.19
320.358	109.19
320.587	99.19
320.816	98.19
321.046	103.19
321.275	95.19
321.504	91.19
321.733	92.19
321.962	89.19
322.191	98.19
322.42	113.19
322.649	100.19
322.878	117.19
323.108	118.19
323.337	127.19
323.566	121.19
323.795	152.19
324.024	219.19
324.253	394.19
324.482	837.19
324.71	1753.19
324.939	2326.19
325.168	849.19
325.397	251.19
325.626	163.19
325.855	131.19
326.084	118.19
326.313	134.19
326.542	146.19
326.77	261.19
326.999	495.19
327.228	969.19
327.457	1811.19
327.686	1439.19
327.914	381.19
328.143	196.19
328.372	149.19
328.6	124.19
328.829	121.19
329.058	132.19
329.287	134.19
329.515	128.19
329.744	108.19
329.972	125.19
330.201	140.19
330.43	146.19
330.658	134.19
330.887	121.19
331.115	129.19
331.344	99.19
331.572	100.19
331.801	95.19
332.03	102.19
332.258	90.19
332.486	90.19
332.715	104.19
332.943	104.19
333.172	92.19
333.4	105.19
333.629	99.19
333.857	134.19
334.085	111.19
334.314	113.19
334.542	143.19
334.771	157.19
334.999	102.19
335.227	95.19
335.455	97.19
335.684	100.19
335.912	99.19
336.14	101.19
336.369	85.19
336.597	94.19
336.825	100.19
337.053	96.19
337.281	90.19
337.51	106.19
337.738	81.19
337.966	105.19
338.194	90.19
338.422	100.19
338.65	102.19
338.878	105.19
339.106	92.19
339.334	93.19
339.562	107.19
339.79	85.19
340.018	97.19
340.246	98.19
340.474	91.19
340.702	99.19
340.93	102.19
341.158	97.19
341.386	92.19
341.614	99.19
341.842	89.19
342.07	93.19
342.298	94.19
342.526	99.19
342.754	99.19
342.981	95.19
343.209	94.19
343.437	92.19
343.665	91.19
343.893	97.19
344.12	91.19
344.348	91.19
344.576	94.19
344.804	92.19
345.031	92.19
345.259	97.19
345.487	92.19
345.714	79.19
345.942	98.19
346.17	89.19
346.397	103.19
346.625	106.19
346.853	94.19
347.08	95.19
347.308	89.19
347.535	95.19
347.763	96.19
347.99	108.19
348.218	85.19
348.445	107.19
348.673	95.19
348.9	105.19
349.128	101.19
349.355	104.19
349.583	75.19
349.81	97.19
350.037	94.19
350.265	105.19
350.492	92.19
350.72	101.19
350.947	102.19
351.174	89.19
351.402	107.19
351.629	113.19
351.856	105.19
352.083	103.19
352.311	99.19
352.538	119.19
352.765	108.19
352.992	93.19
353.22	108.19
353.447	119.19
353.674	103.19
353.901	97.19
354.128	104.19
354.355	89.19
354.583	102.19
354.81	120.19
355.037	103.19
355.264	104.19
355.491	109.19
355.718	97.19
355.945	108.19
356.172	102.19
356.399	105.19
356.626	102.19
356.853	101.19
357.08	86.19
357.307	83.19
357.534	92.19
357.761	96.19
357.988	92.19
358.215	86.19
358.441	104.19
358.668	92.19
358.895	96.19
359.122	97.19
359.349	101.19
359.576	86.19
359.802	107.19
360.029	100.19
360.256	117.19
360.483	103.19
360.709	97.19
360.936	90.19
361.163	100.19
361.39	98.19
361.616	82.19
361.843	100.19
362.07	85.19
362.296	88.19
362.523	86.19
362.749	93.19
362.976	90.19
363.203	98.19
363.429	86.19
363.656	86.19
363.882	92.19
364.109	109.19
364.335	90.19
364.562	89.19
364.788	89.19
365.015	90.19
365.241	101.19
365.468	102.19
365.694	107.19
365.92	95.19
366.147	90.19
366.373	104.19
366.599	103.19
366.826	89.19
367.052	83.19
367.278	86.19
367.505	87.19
367.731	88.19
367.957	91.19
368.184	106.19
368.41	102.19
368.636	108.19
368.862	120.19
369.089	105.19
369.315	85.19
369.541	93.19
369.767	100.19
369.993	95.19
370.219	90.19
370.445	85.19
370.672	89.19
370.898	90.19
371.124	93.19
371.35	87.19
371.576	94.19
371.802	95.19
372.028	98.19
372.254	89.19
372.48	69.19
372.706	82.19
372.932	94.19
373.158	98.19
373.384	92.19
373.61	101.19
373.835	80.19
374.061	92.19
374.287	97.19
374.513	106.19
374.739	109.19
374.965	95.19
375.191	79.19
375.416	93.19
375.642	96.19
375.868	85.19
376.094	81.19
376.319	89.19
376.545	92.19
376.771	86.19
376.997	76.19
377.222	94.19
377.448	102.19
377.674	96.19
377.899	98.19
378.125	86.19
378.35	82.19
378.576	98.19
378.802	84.19
379.027	92.19
379.253	90.19
379.478	98.19
379.704	104.19
379.929	100.19
380.155	95.19
380.38	84.19
380.606	89.19
380.831	100.19
381.057	89.19
381.282	109.19
381.507	98.19
381.733	94.19
381.958	107.19
382.184	109.19
382.409	94.19
382.634	109.19
382.86	103.19
383.085	111.19
383.31	102.19
383.535	111.19
383.761	112.19
383.986	113.19
384.211	108.19
384.436	90.19
384.662	100.19
384.887	109.19
385.112	106.19
385.337	122.19
385.562	118.19
385.787	109.19
386.013	129.19
386.238	126.19
386.463	113.19
386.688	119.19
386.913	112.19
387.138	110.19
387.363	100.19
387.588	108.19
387.813	106.19
388.038	104.19
388.263	113.19
388.488	124.19
388.713	93.19
388.938	85.19
389.163	87.19
389.387	90.19
389.612	91.19
389.837	88.19
390.062	75.19
390.287	91.19
390.512	94.19
390.736	94.19
390.961	95.19
391.186	95.19
391.411	97.19
391.636	98.19
391.86	87.19
392.085	100.19
392.31	87.19
392.534	89.19
392.759	99.19
392.984	91.19
393.208	88.19
393.433	103.19
393.658	94.19
393.882	89.19
394.107	81.19
394.331	90.19
394.556	84.19
394.78	89.19
395.005	86.19
395.229	76.19
395.454	95.19
395.678	89.19
395.903	85.19
396.127	77.19
396.352	89.19
396.576	85.19
396.801	83.19
397.025	84.19
397.249	103.19
397.474	94.19
397.698	86.19
397.922	98.19
398.147	92.19
398.371	83.19
398.595	90.19
398.82	89.19
399.044	91.19
399.268	90.19
399.492	86.19
399.717	91.19
399.941	95.19
400.165	87.19
400.389	85.19
400.613	92.19
400.837	91.19
401.062	85.19
401.286	90.19
401.51	97.19
401.734	85.19
401.958	105.19
402.182	126.19
402.406	154.19
402.63	134.19
402.854	106.19
403.078	95.19
403.302	85.19
403.526	97.19
403.75	80.19
403.974	97.19
404.198	95.19
404.422	95.19
404.645	76.19
404.869	108.19
405.093	85.19
405.317	104.19
405.541	101.19
405.765	113.19
405.988	123.19
406.212	180.19
406.436	227.19
406.66	148.19
406.883	112.19
407.107	92.19
407.331	76.19
407.555	100.19
407.778	95.19
408.002	89.19
408.226	93.19
408.449	89.19
408.673	86.19
408.896	91.19
409.12	83.19
409.344	87.19
409.567	102.19
409.791	105.19
410.014	92.19
410.238	96.19
410.461	86.19
410.685	88.19
410.908	101.19
411.132	88.19
411.355	103.19
411.578	93.19
411.802	85.19
412.025	85.19
412.249	102.19
412.472	91.19
412.695	100.19
412.919	83.19
413.142	87.19
413.365	90.19
413.589	83.19
413.812	103.19
414.035	106.19
414.258	85.19
414.482	82.19
414.705	94.19
414.928	85.19
415.151	81.19
415.374	102.19
415.597	92.19
415.821	91.19
416.044	84.19
416.267	89.19
416.49	108.19
416.713	94.19
416.936	84.19
417.159	90.19
417.382	94.19
417.605	106.19
417.828	105.19
418.051	93.19
418.274	103.19
418.497	93.19
418.72	94.19
418.943	85.19
419.166	85.19
419.389	97.19
419.611	81.19
419.834	74.19
420.057	98.19
420.28	90.19
420.503	84.19
420.726	85.19
420.948	84.19
421.171	103.19
421.394	110.19
421.617	88.19
421.839	90.19
422.062	99.19
422.285	103.19
422.507	87.19
422.73	116.19
422.953	96.19
423.175	89.19
423.398	87.19
423.621	105.19
423.843	88.19
424.066	91.19
424.288	82.19
424.511	96.19
424.733	109.19
424.956	112.19
425.178	102.19
425.401	99.19
425.623	105.19
425.846	93.19
426.068	100.19
426.291	94.19
426.513	87.19
426.735	84.19
426.958	105.19
427.18	106.19
427.402	137.19
427.625	168.19
427.847	130.19
428.069	103.19
428.292	84.19
428.514	87.19
428.736	72.19
428.958	91.19
429.181	87.19
429.403	102.19
429.625	101.19
429.847	86.19
430.069	109.19
430.292	108.19
430.514	76.19
430.736	86.19
430.958	80.19
431.18	91.19
431.402	71.19
431.624	83.19
431.846	93.19
432.068	84.19
432.29	85.19
432.512	86.19
432.734	93.19
432.956	103.19
433.178	97.19
433.4	95.19
433.622	78.19
433.844	83.19
434.066	88.19
434.287	86.19
434.509	102.19
434.731	105.19
434.953	92.19
435.175	85.19
435.397	96.19
435.618	85.19
435.84	108.19
436.062	115.19
436.284	107.19
436.505	93.19
436.727	102.19
436.949	102.19
437.17	85.19
437.392	91.19
437.614	83.19
437.835	104.19
438.057	118.19
438.278	97.19
438.5	108.19
438.721	125.19
438.943	97.19
439.165	85.19
439.386	98.19
439.608	97.19
439.829	95.19
440.05	115.19
440.272	141.19
440.493	94.19
440.715	88.19
440.936	98.19
441.158	74.19
441.379	91.19
441.6	93.19
441.822	87.19
442.043	103.19
442.264	86.19
442.486	98.19
442.707	87.19
442.928	95.19
443.149	151.19
443.371	126.19
443.592	108.19
443.813	116.19
444.034	133.19
444.255	90.19
444.476	93.19
444.698	96.19
444.919	92.19
445.14	118.19
445.361	133.19
445.582	110.19
445.803	137.19
446.024	138.19
446.245	119.19
446.466	110.19
446.687	103.19
446.908	94.19
447.129	91.19
447.35	94.19
447.571	91.19
447.792	88.19
448.013	98.19
448.234	117.19
448.455	98.19
448.675	108.19
448.896	126.19
449.117	93.19
449.338	103.19
449.559	137.19
449.779	125.19
450	92.19
450.221	90.19
450.442	94.19
450.662	83.19
450.883	104.19
451.104	107.19
451.324	92.19
451.545	92.19
451.766	93.19
451.986	90.19
452.207	107.19
452.428	93.19
452.648	98.19
452.869	104.19
453.089	109.19
453.31	114.19
453.53	84.19
453.751	86.19
453.971	105.19
454.192	114.19
454.412	89.19
454.633	84.19
454.853	83.19
455.073	93.19
455.294	94.19
455.514	90.19
455.734	105.19
455.955	82.19
456.175	88.19
456.395	83.19
456.616	85.19
456.836	84.19
457.056	78.19
457.276	94.19
457.497	87.19
457.717	91.19
457.937	88.19
458.157	103.19
458.377	90.19
458.598	89.19
458.818	141.19
459.038	149.19
459.258	117.19
459.478	95.19
459.698	90.19
459.918	98.19
460.138	83.19
460.358	81.19
460.578	85.19
460.798	79.19
461.018	84.19
461.238	87.19
461.458	79.19
461.678	89.19
461.898	95.19
462.118	79.19
462.338	101.19
462.558	87.19
462.777	81.19
462.997	101.19
463.217	91.19
463.437	95.19
463.657	88.19
463.876	92.19
464.096	90.19
464.316	93.19
464.536	113.19
464.755	87.19
464.975	117.19
465.195	173.19
465.414	163.19
465.634	117.19
465.854	92.19
466.073	63.19
466.293	78.19
466.512	84.19
466.732	102.19
466.951	84.19
467.171	88.19
467.391	96.19
467.61	111.19
467.829	102.19
468.049	114.19
468.268	115.19
468.488	104.19
468.707	78.19
468.927	80.19
469.146	85.19
469.365	87.19
469.585	94.19
469.804	93.19
470.023	97.19
470.243	104.19
470.462	93.19
470.681	109.19
470.901	86.19
471.12	93.19
471.339	98.19
471.558	98.19
471.777	91.19
471.997	83.19
472.216	109.19
472.435	169.19
472.654	91.19
472.873	84.19
473.092	102.19
473.311	78.19
473.53	86.19
473.749	82.19
473.968	108.19
474.187	96.19
474.406	108.19
474.625	95.19
474.844	76.19
475.063	81.19
475.282	89.19
475.501	71.19
475.72	99.19
475.939	77.19
476.158	85.19
476.377	97.19
476.596	82.19
476.814	98.19
477.033	94.19
477.252	78.19
477.471	92.19
477.69	78.19
477.908	100.19
478.127	90.19
478.346	91.19
478.564	95.19
478.783	109.19
479.002	91.19
479.22	85.19
479.439	103.19
479.658	99.19
479.876	112.19
480.095	89.19
480.313	101.19
480.532	113.19
480.751	95.19
480.969	121.19
481.188	226.19
481.406	194.19
481.624	105.19
481.843	100.19
482.061	94.19
482.28	82.19
482.498	86.19
482.717	84.19
482.935	83.19
483.153	91.19
483.372	77.19
483.59	85.19
483.808	102.19
484.027	90.19
484.245	103.19
484.463	89.19
484.681	111.19
484.9	88.19
485.118	98.19
485.336	97.19
485.554	100.19
485.772	107.19
485.99	107.19
486.209	98.19
486.427	108.19
486.645	102.19
486.863	104.19
487.081	116.19
487.299	90.19
487.517	95.19
487.735	89.19
487.953	96.19
488.171	87.19
488.389	94.19
488.607	102.19
488.825	100.19
489.043	94.19
489.261	101.19
489.479	90.19
489.696	89.19
489.914	101.19
490.132	79.19
490.35	100.19
490.568	84.19
490.786	87.19
491.003	90.19
491.221	87.19
491.439	85.19
491.657	86.19
491.874	95.19
492.092	75.19
492.31	78.19
492.527	91.19
492.745	81.19
492.963	91.19
493.18	95.19
493.398	77.19
493.615	93.19
493.833	104.19
494.05	78.19
494.268	83.19
494.485	82.19
494.703	90.19
494.92	98.19
495.138	88.19
495.355	95.19
495.573	86.19
495.79	95.19
496.008	103.19
496.225	88.19
496.442	88.19
496.66	87.19
496.877	104.19
497.094	113.19
497.312	93.19
497.529	88.19
497.746	97.19
497.963	84.19
498.181	103.19
498.398	96.19
498.615	113.19
498.832	91.19
499.049	95.19
499.267	98.19
499.484	93.19
499.701	80.19
499.918	82.19
500.135	80.19
500.352	83.19
500.569	97.19
500.786	107.19
501.003	98.19
501.22	100.19
501.437	96.19
501.654	81.19
501.871	103.19
502.088	93.19
502.305	84.19
502.522	93.19
502.739	97.19
502.956	75.19
503.172	103.19
503.389	99.19
503.606	90.19
503.823	92.19
504.04	102.19
504.256	86.19
504.473	103.19
504.69	86.19
504.907	85.19
505.123	91.19
505.34	85.19
505.557	100.19
505.773	91.19
505.99	80.19
506.207	86.19
506.423	84.19
506.64	98.19
506.856	83.19
507.073	100.19
507.289	86.19
507.506	100.19
507.722	117.19
507.939	118.19
508.155	93.19
508.372	96.19
508.588	98.19
508.805	101.19
509.021	93.19
509.238	97.19
509.454	98.19
509.67	108.19
509.887	106.19
510.103	120.19
510.319	211.19
510.536	802.19
510.752	2543.19
510.968	713.19
511.184	159.19
511.401	125.19
511.617	96.19
511.833	92.19
512.049	96.19
512.265	99.19
512.481	98.19
512.698	79.19
512.914	95.19
513.13	104.19
513.346	91.19
513.562	95.19
513.778	90.19
513.994	98.19
514.21	113.19
514.426	110.19
514.642	135.19
514.858	123.19
