Data from Circ_2016_H10_HRD10591_00003.txt Node
Date: Wed Jan 03 09:58:41 EST 2024
User: Yrep
Spectrometer: HR+D1059
Trigger mode: 1
Integration Time (sec): 1.000000E-1
Scans to average: 1
Electric dark correction enabled: true
Nonlinearity correction enabled: false
Boxcar width: 0
XAxis mode: Wavelengths
Number of Pixels in Spectrum: 2048
>>>>>Begin Spectral Data<<<<<
223.165	-24.12
223.4	-24.12
223.635	-24.12
223.869	-17.12
224.104	-5.12
224.338	-9.12
224.573	-14.12
224.808	-24.12
225.042	-11.12
225.277	-5.12
225.511	-1.12
225.746	10.88
225.98	8.88
226.215	2.88
226.449	2.88
226.683	15.88
226.918	36.88
227.152	32.88
227.387	31.88
227.621	35.88
227.856	49.88
228.09	38.88
228.324	46.88
228.559	49.88
228.793	86.88
229.027	60.88
229.262	64.88
229.496	69.88
229.73	75.88
229.964	70.88
230.199	75.88
230.433	66.88
230.667	68.88
230.901	71.88
231.136	76.88
231.37	86.88
231.604	85.88
231.838	83.88
232.072	81.88
232.306	82.88
232.541	91.88
232.775	82.88
233.009	76.88
233.243	79.88
233.477	82.88
233.711	61.88
233.945	73.88
234.179	87.88
234.413	75.88
234.647	79.88
234.881	68.88
235.115	65.88
235.349	79.88
235.583	75.88
235.817	86.88
236.051	79.88
236.285	73.88
236.519	83.88
236.753	74.88
236.987	82.88
237.221	71.88
237.455	78.88
237.689	74.88
237.922	71.88
238.156	85.88
238.39	74.88
238.624	80.88
238.858	76.88
239.091	80.88
239.325	67.88
239.559	83.88
239.793	69.88
240.027	65.88
240.26	70.88
240.494	80.88
240.728	73.88
240.961	67.88
241.195	79.88
241.429	76.88
241.662	78.88
241.896	82.88
242.13	62.88
242.363	70.88
242.597	66.88
242.83	65.88
243.064	62.88
243.298	70.88
243.531	81.88
243.765	75.88
243.998	67.88
244.232	82.88
244.465	87.88
244.699	81.88
244.932	82.88
245.166	81.88
245.399	84.88
245.633	82.88
245.866	75.88
246.099	73.88
246.333	82.88
246.566	73.88
246.8	57.88
247.033	77.88
247.266	76.88
247.5	62.88
247.733	74.88
247.966	84.88
248.2	81.88
248.433	69.88
248.666	57.88
248.899	88.88
249.133	76.88
249.366	86.88
249.599	79.88
249.832	79.88
250.066	80.88
250.299	71.88
250.532	88.88
250.765	87.88
250.998	74.88
251.231	79.88
251.465	82.88
251.698	89.88
251.931	83.88
252.164	74.88
252.397	76.88
252.63	88.88
252.863	83.88
253.096	80.88
253.329	80.88
253.562	71.88
253.795	71.88
254.028	73.88
254.261	75.88
254.494	86.88
254.727	87.88
254.96	86.88
255.193	77.88
255.426	67.88
255.659	78.88
255.892	82.88
256.124	90.88
256.357	82.88
256.59	79.88
256.823	66.88
257.056	79.88
257.289	77.88
257.521	79.88
257.754	94.88
257.987	76.88
258.22	80.88
258.452	98.88
258.685	64.88
258.918	83.88
259.151	84.88
259.383	89.88
259.616	73.88
259.849	90.88
260.081	78.88
260.314	76.88
260.547	85.88
260.779	88.88
261.012	89.88
261.244	80.88
261.477	99.88
261.71	89.88
261.942	94.88
262.175	102.88
262.407	97.88
262.64	70.88
262.872	84.88
263.105	86.88
263.337	77.88
263.57	79.88
263.802	85.88
264.035	92.88
264.267	86.88
264.499	73.88
264.732	83.88
264.964	82.88
265.197	76.88
265.429	90.88
265.661	97.88
265.894	89.88
266.126	98.88
266.358	91.88
266.591	87.88
266.823	84.88
267.055	92.88
267.287	79.88
267.52	77.88
267.752	76.88
267.984	93.88
268.216	77.88
268.448	94.88
268.681	83.88
268.913	70.88
269.145	87.88
269.377	78.88
269.609	63.88
269.841	75.88
270.073	86.88
270.306	69.88
270.538	81.88
270.77	88.88
271.002	75.88
271.234	69.88
271.466	82.88
271.698	92.88
271.93	79.88
272.162	83.88
272.394	95.88
272.626	85.88
272.858	73.88
273.09	90.88
273.322	85.88
273.553	90.88
273.785	85.88
274.017	85.88
274.249	76.88
274.481	73.88
274.713	90.88
274.945	88.88
275.176	81.88
275.408	72.88
275.64	82.88
275.872	79.88
276.104	81.88
276.335	94.88
276.567	76.88
276.799	93.88
277.031	89.88
277.262	95.88
277.494	94.88
277.726	82.88
277.957	86.88
278.189	98.88
278.421	86.88
278.652	86.88
278.884	82.88
279.115	91.88
279.347	84.88
279.579	78.88
279.81	95.88
280.042	74.88
280.273	83.88
280.505	82.88
280.736	85.88
280.968	100.88
281.199	91.88
281.431	83.88
281.662	81.88
281.894	86.88
282.125	89.88
282.356	110.88
282.588	111.88
282.819	98.88
283.051	83.88
283.282	76.88
283.513	86.88
283.745	91.88
283.976	84.88
284.207	81.88
284.439	89.88
284.67	77.88
284.901	98.88
285.132	87.88
285.364	86.88
285.595	80.88
285.826	87.88
286.057	83.88
286.288	67.88
286.52	78.88
286.751	87.88
286.982	102.88
287.213	87.88
287.444	81.88
287.675	84.88
287.906	89.88
288.138	82.88
288.369	93.88
288.6	87.88
288.831	82.88
289.062	84.88
289.293	93.88
289.524	96.88
289.755	75.88
289.986	83.88
290.217	73.88
290.448	98.88
290.679	107.88
290.91	92.88
291.141	80.88
291.371	84.88
291.602	66.88
291.833	82.88
292.064	82.88
292.295	90.88
292.526	84.88
292.757	88.88
292.987	88.88
293.218	89.88
293.449	86.88
293.68	90.88
293.91	89.88
294.141	100.88
294.372	95.88
294.603	86.88
294.833	83.88
295.064	77.88
295.295	86.88
295.525	97.88
295.756	95.88
295.987	121.88
296.217	115.88
296.448	114.88
296.679	97.88
296.909	87.88
297.14	91.88
297.37	91.88
297.601	89.88
297.831	70.88
298.062	97.88
298.292	81.88
298.523	82.88
298.753	88.88
298.984	83.88
299.214	83.88
299.445	87.88
299.675	84.88
299.905	78.88
300.136	87.88
300.366	88.88
300.597	93.88
300.827	73.88
301.057	88.88
301.288	101.88
301.518	86.88
301.748	86.88
301.979	82.88
302.209	74.88
302.439	95.88
302.669	85.88
302.9	88.88
303.13	92.88
303.36	101.88
303.59	90.88
303.82	103.88
304.051	91.88
304.281	90.88
304.511	93.88
304.741	79.88
304.971	84.88
305.201	79.88
305.431	86.88
305.661	94.88
305.891	88.88
306.121	104.88
306.352	95.88
306.582	85.88
306.812	91.88
307.042	95.88
307.272	92.88
307.502	90.88
307.731	92.88
307.961	91.88
308.191	97.88
308.421	100.88
308.651	95.88
308.881	105.88
309.111	87.88
309.341	97.88
309.571	88.88
309.8	81.88
310.03	96.88
310.26	110.88
310.49	94.88
310.72	86.88
310.949	76.88
311.179	101.88
311.409	76.88
311.639	91.88
311.868	89.88
312.098	97.88
312.328	97.88
312.557	100.88
312.787	92.88
313.017	84.88
313.246	87.88
313.476	88.88
313.706	92.88
313.935	90.88
314.165	100.88
314.394	102.88
314.624	97.88
314.853	97.88
315.083	86.88
315.312	95.88
315.542	85.88
315.771	101.88
316.001	74.88
316.23	86.88
316.46	91.88
316.689	90.88
316.919	83.88
317.148	72.88
317.377	110.88
317.607	90.88
317.836	85.88
318.065	91.88
318.295	93.88
318.524	99.88
318.753	91.88
318.983	86.88
319.212	81.88
319.441	105.88
319.67	97.88
319.9	96.88
320.129	91.88
320.358	101.88
320.587	87.88
320.816	89.88
321.046	94.88
321.275	100.88
321.504	88.88
321.733	89.88
321.962	103.88
322.191	92.88
322.42	105.88
322.649	101.88
322.878	114.88
323.108	112.88
323.337	128.88
323.566	120.88
323.795	121.88
324.024	169.88
324.253	314.88
324.482	622.88
324.71	1284.88
324.939	1698.88
325.168	642.88
325.397	185.88
325.626	126.88
325.855	110.88
326.084	113.88
326.313	119.88
326.542	128.88
326.77	194.88
326.999	369.88
327.228	767.88
327.457	1347.88
327.686	1108.88
327.914	306.88
328.143	161.88
328.372	119.88
328.6	111.88
328.829	116.88
329.058	121.88
329.287	106.88
329.515	104.88
329.744	98.88
329.972	100.88
330.201	103.88
330.43	97.88
330.658	101.88
330.887	116.88
331.115	114.88
331.344	97.88
331.572	98.88
331.801	88.88
332.03	87.88
332.258	88.88
332.486	86.88
332.715	100.88
332.943	88.88
333.172	79.88
333.4	82.88
333.629	94.88
333.857	100.88
334.085	110.88
334.314	84.88
334.542	88.88
334.771	96.88
334.999	97.88
335.227	75.88
335.455	85.88
335.684	103.88
335.912	92.88
336.14	102.88
336.369	116.88
336.597	92.88
336.825	97.88
337.053	84.88
337.281	96.88
337.51	106.88
337.738	88.88
337.966	93.88
338.194	99.88
338.422	106.88
338.65	107.88
338.878	96.88
339.106	90.88
339.334	98.88
339.562	105.88
339.79	94.88
340.018	70.88
340.246	103.88
340.474	87.88
340.702	91.88
340.93	86.88
341.158	86.88
341.386	94.88
341.614	85.88
341.842	100.88
342.07	96.88
342.298	99.88
342.526	94.88
342.754	88.88
342.981	94.88
343.209	83.88
343.437	116.88
343.665	111.88
343.893	97.88
344.12	100.88
344.348	92.88
344.576	84.88
344.804	87.88
345.031	99.88
345.259	98.88
345.487	91.88
345.714	91.88
345.942	88.88
346.17	91.88
346.397	98.88
346.625	104.88
346.853	95.88
347.08	103.88
347.308	98.88
347.535	114.88
347.763	100.88
347.99	97.88
348.218	95.88
348.445	93.88
348.673	93.88
348.9	92.88
349.128	90.88
349.355	106.88
349.583	96.88
349.81	82.88
350.037	82.88
350.265	87.88
350.492	99.88
350.72	108.88
350.947	111.88
351.174	106.88
351.402	115.88
351.629	103.88
351.856	103.88
352.083	97.88
352.311	96.88
352.538	114.88
352.765	107.88
352.992	120.88
353.22	99.88
353.447	120.88
353.674	103.88
353.901	112.88
354.128	99.88
354.355	105.88
354.583	95.88
354.81	88.88
355.037	104.88
355.264	96.88
355.491	95.88
355.718	100.88
355.945	102.88
356.172	98.88
356.399	93.88
356.626	87.88
356.853	91.88
357.08	91.88
357.307	100.88
357.534	98.88
357.761	102.88
357.988	98.88
358.215	131.88
358.441	135.88
358.668	116.88
358.895	118.88
359.122	107.88
359.349	107.88
359.576	94.88
359.802	120.88
360.029	81.88
360.256	103.88
360.483	109.88
360.709	83.88
360.936	87.88
361.163	92.88
361.39	100.88
361.616	80.88
361.843	89.88
362.07	87.88
362.296	101.88
362.523	89.88
362.749	96.88
362.976	84.88
363.203	106.88
363.429	96.88
363.656	75.88
363.882	94.88
364.109	83.88
364.335	101.88
364.562	94.88
364.788	84.88
365.015	94.88
365.241	96.88
365.468	86.88
365.694	93.88
365.92	92.88
366.147	92.88
366.373	95.88
366.599	69.88
366.826	92.88
367.052	88.88
367.278	91.88
367.505	75.88
367.731	87.88
367.957	83.88
368.184	95.88
368.41	92.88
368.636	96.88
368.862	113.88
369.089	91.88
369.315	88.88
369.541	102.88
369.767	89.88
369.993	81.88
370.219	101.88
370.445	95.88
370.672	91.88
370.898	80.88
371.124	79.88
371.35	101.88
371.576	89.88
371.802	91.88
372.028	91.88
372.254	99.88
372.48	83.88
372.706	86.88
372.932	83.88
373.158	82.88
373.384	91.88
373.61	88.88
373.835	87.88
374.061	100.88
374.287	111.88
374.513	83.88
374.739	102.88
374.965	97.88
375.191	98.88
375.416	95.88
375.642	98.88
375.868	103.88
376.094	100.88
376.319	107.88
376.545	111.88
376.771	100.88
376.997	113.88
377.222	112.88
377.448	93.88
377.674	107.88
377.899	115.88
378.125	110.88
378.35	108.88
378.576	124.88
378.802	123.88
379.027	119.88
379.253	110.88
379.478	110.88
379.704	121.88
379.929	122.88
380.155	131.88
380.38	139.88
380.606	128.88
380.831	128.88
381.057	129.88
381.282	126.88
381.507	123.88
381.733	142.88
381.958	143.88
382.184	140.88
382.409	148.88
382.634	141.88
382.86	152.88
383.085	153.88
383.31	138.88
383.535	145.88
383.761	154.88
383.986	152.88
384.211	146.88
384.436	163.88
384.662	168.88
384.887	201.88
385.112	191.88
385.337	195.88
385.562	194.88
385.787	203.88
386.013	217.88
386.238	209.88
386.463	185.88
386.688	181.88
386.913	214.88
387.138	209.88
387.363	195.88
387.588	155.88
387.813	154.88
388.038	200.88
388.263	251.88
388.488	228.88
388.713	126.88
388.938	89.88
389.163	91.88
389.387	101.88
389.612	91.88
389.837	87.88
390.062	94.88
390.287	94.88
390.512	94.88
390.736	92.88
390.961	103.88
391.186	95.88
391.411	101.88
391.636	96.88
391.86	92.88
392.085	88.88
392.31	97.88
392.534	87.88
392.759	95.88
392.984	105.88
393.208	130.88
393.433	174.88
393.658	142.88
393.882	94.88
394.107	89.88
394.331	94.88
394.556	81.88
394.78	68.88
395.005	91.88
395.229	93.88
395.454	96.88
395.678	88.88
395.903	95.88
396.127	100.88
396.352	85.88
396.576	107.88
396.801	119.88
397.025	135.88
397.249	100.88
397.474	90.88
397.698	93.88
397.922	81.88
398.147	76.88
398.371	85.88
398.595	70.88
398.82	75.88
399.044	86.88
399.268	90.88
399.492	95.88
399.717	76.88
399.941	81.88
400.165	87.88
400.389	95.88
400.613	85.88
400.837	87.88
401.062	92.88
401.286	81.88
401.51	82.88
401.734	69.88
401.958	87.88
402.182	99.88
402.406	119.88
402.63	117.88
402.854	80.88
403.078	95.88
403.302	83.88
403.526	99.88
403.75	83.88
403.974	91.88
404.198	88.88
404.422	91.88
404.645	84.88
404.869	87.88
405.093	90.88
405.317	95.88
405.541	97.88
405.765	81.88
405.988	110.88
406.212	129.88
406.436	166.88
406.66	115.88
406.883	110.88
407.107	92.88
407.331	87.88
407.555	100.88
407.778	95.88
408.002	79.88
408.226	75.88
408.449	90.88
408.673	75.88
408.896	84.88
409.12	87.88
409.344	94.88
409.567	97.88
409.791	96.88
410.014	88.88
410.238	81.88
410.461	95.88
410.685	98.88
410.908	96.88
411.132	103.88
411.355	87.88
411.578	94.88
411.802	95.88
412.025	95.88
412.249	83.88
412.472	83.88
412.695	90.88
412.919	84.88
413.142	80.88
413.365	97.88
413.589	84.88
413.812	96.88
414.035	82.88
414.258	99.88
414.482	100.88
414.705	89.88
414.928	102.88
415.151	117.88
415.374	102.88
415.597	105.88
415.821	100.88
416.044	117.88
416.267	108.88
416.49	105.88
416.713	102.88
416.936	104.88
417.159	96.88
417.382	95.88
417.605	98.88
417.828	107.88
418.051	98.88
418.274	86.88
418.497	87.88
418.72	79.88
418.943	94.88
419.166	103.88
419.389	92.88
419.611	108.88
419.834	97.88
420.057	75.88
420.28	86.88
420.503	87.88
420.726	86.88
420.948	86.88
421.171	101.88
421.394	83.88
421.617	103.88
421.839	87.88
422.062	101.88
422.285	85.88
422.507	109.88
422.73	165.88
422.953	136.88
423.175	112.88
423.398	74.88
423.621	89.88
423.843	95.88
424.066	88.88
424.288	94.88
424.511	92.88
424.733	84.88
424.956	98.88
425.178	84.88
425.401	99.88
425.623	98.88
425.846	95.88
426.068	75.88
426.291	80.88
426.513	94.88
426.735	95.88
426.958	84.88
427.18	110.88
427.402	132.88
427.625	145.88
427.847	106.88
428.069	113.88
428.292	92.88
428.514	95.88
428.736	87.88
428.958	75.88
429.181	91.88
429.403	69.88
429.625	82.88
429.847	73.88
430.069	99.88
430.292	80.88
430.514	74.88
430.736	70.88
430.958	87.88
431.18	88.88
431.402	88.88
431.624	83.88
431.846	70.88
432.068	77.88
432.29	66.88
432.512	102.88
432.734	78.88
432.956	94.88
433.178	91.88
433.4	105.88
433.622	74.88
433.844	94.88
434.066	87.88
434.287	82.88
434.509	95.88
434.731	83.88
434.953	90.88
435.175	89.88
435.397	99.88
435.618	96.88
435.84	98.88
436.062	103.88
436.284	110.88
436.505	94.88
436.727	96.88
436.949	78.88
437.17	87.88
437.392	80.88
437.614	97.88
437.835	92.88
438.057	103.88
438.278	95.88
438.5	97.88
438.721	113.88
438.943	92.88
439.165	89.88
439.386	70.88
439.608	89.88
439.829	100.88
440.05	90.88
440.272	115.88
440.493	81.88
440.715	79.88
440.936	89.88
441.158	76.88
441.379	88.88
441.6	94.88
441.822	80.88
442.043	76.88
442.264	89.88
442.486	95.88
442.707	84.88
442.928	93.88
443.149	106.88
443.371	118.88
443.592	99.88
443.813	107.88
444.034	98.88
444.255	77.88
444.476	86.88
444.698	92.88
444.919	86.88
445.14	145.88
445.361	120.88
445.582	115.88
445.803	130.88
446.024	119.88
446.245	118.88
446.466	91.88
446.687	82.88
446.908	79.88
447.129	83.88
447.35	95.88
447.571	96.88
447.792	87.88
448.013	84.88
448.234	82.88
448.455	100.88
448.675	91.88
448.896	98.88
449.117	86.88
449.338	106.88
449.559	111.88
449.779	111.88
450	91.88
450.221	87.88
450.442	86.88
450.662	95.88
450.883	110.88
451.104	103.88
451.324	88.88
451.545	85.88
451.766	79.88
451.986	75.88
452.207	78.88
452.428	82.88
452.648	83.88
452.869	90.88
453.089	105.88
453.31	122.88
453.53	96.88
453.751	83.88
453.971	92.88
454.192	88.88
454.412	93.88
454.633	101.88
454.853	87.88
455.073	89.88
455.294	82.88
455.514	79.88
455.734	84.88
455.955	72.88
456.175	93.88
456.395	87.88
456.616	72.88
456.836	81.88
457.056	72.88
457.276	75.88
457.497	75.88
457.717	82.88
457.937	77.88
458.157	78.88
458.377	92.88
458.598	91.88
458.818	111.88
459.038	138.88
459.258	98.88
459.478	83.88
459.698	81.88
459.918	84.88
460.138	85.88
460.358	79.88
460.578	79.88
460.798	96.88
461.018	86.88
461.238	87.88
461.458	96.88
461.678	71.88
461.898	91.88
462.118	80.88
462.338	83.88
462.558	74.88
462.777	84.88
462.997	88.88
463.217	81.88
463.437	82.88
463.657	75.88
463.876	88.88
464.096	78.88
464.316	88.88
464.536	92.88
464.755	84.88
464.975	105.88
465.195	122.88
465.414	123.88
465.634	89.88
465.854	90.88
466.073	75.88
466.293	88.88
466.512	96.88
466.732	91.88
466.951	81.88
467.171	87.88
467.391	83.88
467.61	89.88
467.829	89.88
468.049	76.88
468.268	83.88
468.488	65.88
468.707	99.88
468.927	83.88
469.146	88.88
469.365	74.88
469.585	79.88
469.804	107.88
470.023	91.88
470.243	101.88
470.462	98.88
470.681	99.88
470.901	91.88
471.12	82.88
471.339	78.88
471.558	91.88
471.777	90.88
471.997	89.88
472.216	95.88
472.435	87.88
472.654	78.88
472.873	72.88
473.092	83.88
473.311	87.88
473.53	94.88
473.749	80.88
473.968	80.88
474.187	95.88
474.406	99.88
474.625	81.88
474.844	82.88
475.063	80.88
475.282	83.88
475.501	74.88
475.72	81.88
475.939	74.88
476.158	71.88
476.377	90.88
476.596	75.88
476.814	84.88
477.033	83.88
477.252	91.88
477.471	98.88
477.69	92.88
477.908	94.88
478.127	76.88
478.346	74.88
478.564	74.88
478.783	86.88
479.002	89.88
479.22	77.88
479.439	91.88
479.658	107.88
479.876	83.88
480.095	76.88
480.313	96.88
480.532	90.88
480.751	87.88
480.969	78.88
481.188	90.88
481.406	90.88
481.624	86.88
481.843	89.88
482.061	70.88
482.28	95.88
482.498	86.88
482.717	87.88
482.935	91.88
483.153	78.88
483.372	89.88
483.59	84.88
483.808	87.88
484.027	82.88
484.245	97.88
484.463	96.88
484.681	98.88
484.9	96.88
485.118	91.88
485.336	95.88
485.554	94.88
485.772	100.88
485.99	122.88
486.209	114.88
486.427	113.88
486.645	105.88
486.863	104.88
487.081	100.88
487.299	112.88
487.517	98.88
487.735	83.88
487.953	92.88
488.171	97.88
488.389	80.88
488.607	76.88
488.825	75.88
489.043	86.88
489.261	94.88
489.479	87.88
489.696	95.88
489.914	85.88
490.132	84.88
490.35	74.88
490.568	93.88
490.786	82.88
491.003	86.88
491.221	90.88
491.439	82.88
491.657	89.88
491.874	112.88
492.092	95.88
492.31	75.88
492.527	88.88
492.745	80.88
492.963	93.88
493.18	93.88
493.398	81.88
493.615	89.88
493.833	81.88
494.05	87.88
494.268	92.88
494.485	78.88
494.703	70.88
494.92	84.88
495.138	98.88
495.355	87.88
495.573	98.88
495.79	97.88
496.008	108.88
496.225	81.88
496.442	99.88
496.66	87.88
496.877	92.88
497.094	71.88
497.312	77.88
497.529	75.88
497.746	86.88
497.963	83.88
498.181	89.88
498.398	98.88
498.615	105.88
498.832	91.88
499.049	87.88
499.267	89.88
499.484	88.88
499.701	86.88
499.918	75.88
500.135	86.88
500.352	74.88
500.569	80.88
500.786	86.88
501.003	98.88
501.22	84.88
501.437	84.88
501.654	75.88
501.871	90.88
502.088	88.88
502.305	86.88
502.522	90.88
502.739	84.88
502.956	103.88
503.172	83.88
503.389	85.88
503.606	95.88
503.823	99.88
504.04	85.88
504.256	88.88
504.473	78.88
504.69	82.88
504.907	81.88
505.123	90.88
505.34	103.88
505.557	88.88
505.773	83.88
505.99	82.88
506.207	83.88
506.423	82.88
506.64	85.88
506.856	82.88
507.073	81.88
507.289	90.88
507.506	96.88
507.722	94.88
507.939	90.88
508.155	92.88
508.372	95.88
508.588	97.88
508.805	92.88
509.021	78.88
509.238	92.88
509.454	92.88
509.67	87.88
509.887	105.88
510.103	111.88
510.319	179.88
510.536	524.88
510.752	1614.88
510.968	487.88
511.184	129.88
511.401	87.88
511.617	99.88
511.833	103.88
512.049	87.88
512.265	81.88
512.481	77.88
512.698	93.88
512.914	82.88
513.13	92.88
513.346	91.88
513.562	96.88
513.778	83.88
513.994	91.88
514.21	89.88
514.426	104.88
514.642	104.88
514.858	111.88
515.074	118.88
515.29	276.88
515.506	865.88
515.721	382.88
515.937	108.88
