Data from Circ_2016_H10_HRD10591_00018.txt Node
Date: Wed Jan 03 09:58:44 EST 2024
User: Yrep
Spectrometer: HR+D1059
Trigger mode: 1
Integration Time (sec): 1.000000E-1
Scans to average: 1
Electric dark correction enabled: true
Nonlinearity correction enabled: false
Boxcar width: 0
XAxis mode: Wavelengths
Number of Pixels in Spectrum: 2048
>>>>>Begin Spectral Data<<<<<
223.165	-21.94
223.4	-21.94
223.635	-21.94
223.869	-10.94
224.104	-21.94
224.338	-19.94
224.573	-10.94
224.808	-18.94
225.042	-6.94
225.277	5.06
225.511	-2.94
225.746	5.06
225.98	3.06
226.215	5.06
226.449	16.06
226.683	12.06
226.918	28.06
227.152	40.06
227.387	26.06
227.621	50.06
227.856	41.06
228.09	42.06
228.324	45.06
228.559	56.06
228.793	61.06
229.027	67.06
229.262	82.06
229.496	81.06
229.73	88.06
229.964	84.06
230.199	66.06
230.433	86.06
230.667	65.06
230.901	84.06
231.136	78.06
231.37	76.06
231.604	77.06
231.838	67.06
232.072	83.06
232.306	85.06
232.541	77.06
232.775	84.06
233.009	83.06
233.243	80.06
233.477	74.06
233.711	60.06
233.945	77.06
234.179	81.06
234.413	93.06
234.647	86.06
234.881	57.06
235.115	74.06
235.349	78.06
235.583	72.06
235.817	95.06
236.051	83.06
236.285	70.06
236.519	64.06
236.753	92.06
236.987	85.06
237.221	92.06
237.455	80.06
237.689	85.06
237.922	92.06
238.156	81.06
238.39	68.06
238.624	62.06
238.858	73.06
239.091	75.06
239.325	66.06
239.559	82.06
239.793	76.06
240.027	68.06
240.26	80.06
240.494	68.06
240.728	83.06
240.961	81.06
241.195	73.06
241.429	61.06
241.662	91.06
241.896	82.06
242.13	88.06
242.363	66.06
242.597	83.06
242.83	79.06
243.064	68.06
243.298	74.06
243.531	75.06
243.765	95.06
243.998	78.06
244.232	83.06
244.465	80.06
244.699	84.06
244.932	84.06
245.166	73.06
245.399	82.06
245.633	80.06
245.866	79.06
246.099	75.06
246.333	82.06
246.566	85.06
246.8	77.06
247.033	83.06
247.266	82.06
247.5	100.06
247.733	85.06
247.966	79.06
248.2	76.06
248.433	74.06
248.666	86.06
248.899	79.06
249.133	93.06
249.366	89.06
249.599	113.06
249.832	88.06
250.066	90.06
250.299	82.06
250.532	86.06
250.765	77.06
250.998	87.06
251.231	74.06
251.465	95.06
251.698	91.06
251.931	68.06
252.164	80.06
252.397	70.06
252.63	83.06
252.863	76.06
253.096	83.06
253.329	81.06
253.562	74.06
253.795	77.06
254.028	89.06
254.261	81.06
254.494	89.06
254.727	98.06
254.96	89.06
255.193	96.06
255.426	77.06
255.659	94.06
255.892	94.06
256.124	87.06
256.357	81.06
256.59	86.06
256.823	93.06
257.056	69.06
257.289	75.06
257.521	81.06
257.754	88.06
257.987	73.06
258.22	85.06
258.452	68.06
258.685	79.06
258.918	76.06
259.151	94.06
259.383	91.06
259.616	73.06
259.849	74.06
260.081	80.06
260.314	77.06
260.547	79.06
260.779	78.06
261.012	87.06
261.244	83.06
261.477	83.06
261.71	83.06
261.942	124.06
262.175	124.06
262.407	94.06
262.64	78.06
262.872	90.06
263.105	81.06
263.337	80.06
263.57	97.06
263.802	92.06
264.035	87.06
264.267	87.06
264.499	66.06
264.732	96.06
264.964	77.06
265.197	93.06
265.429	78.06
265.661	88.06
265.894	69.06
266.126	94.06
266.358	76.06
266.591	81.06
266.823	82.06
267.055	70.06
267.287	79.06
267.52	92.06
267.752	94.06
267.984	70.06
268.216	82.06
268.448	77.06
268.681	74.06
268.913	82.06
269.145	90.06
269.377	89.06
269.609	78.06
269.841	86.06
270.073	74.06
270.306	89.06
270.538	84.06
270.77	84.06
271.002	89.06
271.234	78.06
271.466	91.06
271.698	82.06
271.93	91.06
272.162	86.06
272.394	79.06
272.626	90.06
272.858	70.06
273.09	80.06
273.322	92.06
273.553	81.06
273.785	77.06
274.017	77.06
274.249	76.06
274.481	83.06
274.713	80.06
274.945	92.06
275.176	91.06
275.408	92.06
275.64	74.06
275.872	96.06
276.104	81.06
276.335	89.06
276.567	106.06
276.799	125.06
277.031	129.06
277.262	79.06
277.494	101.06
277.726	98.06
277.957	91.06
278.189	81.06
278.421	95.06
278.652	89.06
278.884	89.06
279.115	88.06
279.347	93.06
279.579	85.06
279.81	85.06
280.042	89.06
280.273	82.06
280.505	92.06
280.736	93.06
280.968	97.06
281.199	97.06
281.431	93.06
281.662	91.06
281.894	102.06
282.125	93.06
282.356	124.06
282.588	165.06
282.819	122.06
283.051	103.06
283.282	95.06
283.513	88.06
283.745	93.06
283.976	86.06
284.207	85.06
284.439	89.06
284.67	89.06
284.901	81.06
285.132	86.06
285.364	94.06
285.595	83.06
285.826	93.06
286.057	95.06
286.288	76.06
286.52	100.06
286.751	78.06
286.982	93.06
287.213	100.06
287.444	90.06
287.675	84.06
287.906	79.06
288.138	80.06
288.369	108.06
288.6	98.06
288.831	93.06
289.062	98.06
289.293	90.06
289.524	101.06
289.755	100.06
289.986	95.06
290.217	94.06
290.448	82.06
290.679	87.06
290.91	99.06
291.141	94.06
291.371	90.06
291.602	98.06
291.833	94.06
292.064	87.06
292.295	89.06
292.526	91.06
292.757	88.06
292.987	85.06
293.218	101.06
293.449	82.06
293.68	98.06
293.91	79.06
294.141	78.06
294.372	72.06
294.603	83.06
294.833	94.06
295.064	84.06
295.295	89.06
295.525	91.06
295.756	101.06
295.987	131.06
296.217	165.06
296.448	143.06
296.679	102.06
296.909	91.06
297.14	79.06
297.37	79.06
297.601	80.06
297.831	82.06
298.062	89.06
298.292	94.06
298.523	84.06
298.753	92.06
298.984	91.06
299.214	99.06
299.445	104.06
299.675	90.06
299.905	96.06
300.136	85.06
300.366	79.06
300.597	78.06
300.827	107.06
301.057	103.06
301.288	115.06
301.518	100.06
301.748	91.06
301.979	103.06
302.209	100.06
302.439	91.06
302.669	94.06
302.9	84.06
303.13	99.06
303.36	100.06
303.59	121.06
303.82	113.06
304.051	89.06
304.281	92.06
304.511	95.06
304.741	77.06
304.971	91.06
305.201	93.06
305.431	92.06
305.661	86.06
305.891	99.06
306.121	102.06
306.352	100.06
306.582	111.06
306.812	97.06
307.042	81.06
307.272	102.06
307.502	94.06
307.731	90.06
307.961	83.06
308.191	106.06
308.421	91.06
308.651	106.06
308.881	102.06
309.111	100.06
309.341	111.06
309.571	114.06
309.8	78.06
310.03	110.06
310.26	93.06
310.49	102.06
310.72	91.06
310.949	108.06
311.179	109.06
311.409	91.06
311.639	96.06
311.868	107.06
312.098	90.06
312.328	104.06
312.557	101.06
312.787	124.06
313.017	116.06
313.246	90.06
313.476	93.06
313.706	101.06
313.935	96.06
314.165	113.06
314.394	122.06
314.624	103.06
314.853	117.06
315.083	109.06
315.312	99.06
315.542	74.06
315.771	91.06
316.001	93.06
316.23	92.06
316.46	93.06
316.689	96.06
316.919	84.06
317.148	91.06
317.377	91.06
317.607	101.06
317.836	116.06
318.065	94.06
318.295	90.06
318.524	100.06
318.753	82.06
318.983	99.06
319.212	110.06
319.441	119.06
319.67	97.06
319.9	97.06
320.129	89.06
320.358	92.06
320.587	90.06
320.816	114.06
321.046	108.06
321.275	124.06
321.504	98.06
321.733	105.06
321.962	98.06
322.191	90.06
322.42	113.06
322.649	129.06
322.878	113.06
323.108	130.06
323.337	149.06
323.566	137.06
323.795	171.06
324.024	266.06
324.253	535.06
324.482	1176.06
324.71	2461.06
324.939	3232.06
325.168	1125.06
325.397	315.06
325.626	167.06
325.855	149.06
326.084	153.06
326.313	159.06
326.542	187.06
326.77	290.06
326.999	637.06
327.228	1311.06
327.457	2431.06
327.686	1920.06
327.914	487.06
328.143	222.06
328.372	184.06
328.6	147.06
328.829	150.06
329.058	160.06
329.287	150.06
329.515	102.06
329.744	100.06
329.972	115.06
330.201	108.06
330.43	123.06
330.658	139.06
330.887	177.06
331.115	130.06
331.344	99.06
331.572	106.06
331.801	101.06
332.03	115.06
332.258	97.06
332.486	104.06
332.715	103.06
332.943	109.06
333.172	87.06
333.4	98.06
333.629	106.06
333.857	124.06
334.085	110.06
334.314	102.06
334.542	102.06
334.771	100.06
334.999	108.06
335.227	98.06
335.455	100.06
335.684	123.06
335.912	102.06
336.14	99.06
336.369	110.06
336.597	103.06
336.825	111.06
337.053	108.06
337.281	88.06
337.51	85.06
337.738	94.06
337.966	95.06
338.194	105.06
338.422	108.06
338.65	98.06
338.878	109.06
339.106	87.06
339.334	91.06
339.562	97.06
339.79	95.06
340.018	98.06
340.246	96.06
340.474	97.06
340.702	103.06
340.93	85.06
341.158	89.06
341.386	93.06
341.614	100.06
341.842	104.06
342.07	95.06
342.298	93.06
342.526	87.06
342.754	88.06
342.981	94.06
343.209	104.06
343.437	88.06
343.665	74.06
343.893	96.06
344.12	87.06
344.348	105.06
344.576	94.06
344.804	97.06
345.031	101.06
345.259	100.06
345.487	80.06
345.714	102.06
345.942	102.06
346.17	108.06
346.397	79.06
346.625	96.06
346.853	97.06
347.08	102.06
347.308	96.06
347.535	86.06
347.763	113.06
347.99	103.06
348.218	117.06
348.445	115.06
348.673	104.06
348.9	94.06
349.128	90.06
349.355	104.06
349.583	98.06
349.81	91.06
350.037	105.06
350.265	103.06
350.492	95.06
350.72	94.06
350.947	93.06
351.174	116.06
351.402	119.06
351.629	121.06
351.856	117.06
352.083	113.06
352.311	99.06
352.538	117.06
352.765	117.06
352.992	116.06
353.22	118.06
353.447	122.06
353.674	105.06
353.901	96.06
354.128	102.06
354.355	93.06
354.583	92.06
354.81	90.06
355.037	110.06
355.264	96.06
355.491	103.06
355.718	102.06
355.945	102.06
356.172	102.06
356.399	104.06
356.626	94.06
356.853	103.06
357.08	95.06
357.307	89.06
357.534	87.06
357.761	103.06
357.988	104.06
358.215	117.06
358.441	109.06
358.668	92.06
358.895	106.06
359.122	88.06
359.349	91.06
359.576	102.06
359.802	110.06
360.029	126.06
360.256	123.06
360.483	98.06
360.709	72.06
360.936	98.06
361.163	95.06
361.39	93.06
361.616	99.06
361.843	101.06
362.07	114.06
362.296	108.06
362.523	89.06
362.749	105.06
362.976	105.06
363.203	98.06
363.429	100.06
363.656	107.06
363.882	84.06
364.109	105.06
364.335	90.06
364.562	72.06
364.788	81.06
365.015	85.06
365.241	110.06
365.468	129.06
365.694	129.06
365.92	100.06
366.147	86.06
366.373	89.06
366.599	89.06
366.826	90.06
367.052	79.06
367.278	86.06
367.505	95.06
367.731	90.06
367.957	96.06
368.184	105.06
368.41	108.06
368.636	123.06
368.862	131.06
369.089	120.06
369.315	111.06
369.541	111.06
369.767	95.06
369.993	83.06
370.219	90.06
370.445	91.06
370.672	93.06
370.898	89.06
371.124	89.06
371.35	94.06
371.576	88.06
371.802	89.06
372.028	93.06
372.254	79.06
372.48	97.06
372.706	100.06
372.932	92.06
373.158	94.06
373.384	98.06
373.61	108.06
373.835	101.06
374.061	79.06
374.287	91.06
374.513	91.06
374.739	88.06
374.965	83.06
375.191	94.06
375.416	95.06
375.642	101.06
375.868	104.06
376.094	95.06
376.319	83.06
376.545	98.06
376.771	93.06
376.997	97.06
377.222	99.06
377.448	111.06
377.674	115.06
377.899	101.06
378.125	107.06
378.35	126.06
378.576	97.06
378.802	94.06
379.027	92.06
379.253	110.06
379.478	107.06
379.704	106.06
379.929	107.06
380.155	107.06
380.38	113.06
380.606	111.06
380.831	103.06
381.057	124.06
381.282	119.06
381.507	122.06
381.733	123.06
381.958	122.06
382.184	116.06
382.409	126.06
382.634	131.06
382.86	120.06
383.085	137.06
383.31	131.06
383.535	115.06
383.761	138.06
383.986	129.06
384.211	120.06
384.436	132.06
384.662	120.06
384.887	146.06
385.112	142.06
385.337	149.06
385.562	149.06
385.787	160.06
386.013	157.06
386.238	167.06
386.463	144.06
386.688	141.06
386.913	138.06
387.138	173.06
387.363	161.06
387.588	122.06
387.813	139.06
388.038	140.06
388.263	163.06
388.488	171.06
388.713	108.06
388.938	97.06
389.163	102.06
389.387	95.06
389.612	96.06
389.837	104.06
390.062	92.06
390.287	98.06
390.512	115.06
390.736	99.06
390.961	90.06
391.186	96.06
391.411	101.06
391.636	95.06
391.86	85.06
392.085	82.06
392.31	92.06
392.534	92.06
392.759	93.06
392.984	85.06
393.208	110.06
393.433	124.06
393.658	100.06
393.882	84.06
394.107	75.06
394.331	99.06
394.556	94.06
394.78	107.06
395.005	81.06
395.229	92.06
395.454	110.06
395.678	97.06
395.903	97.06
396.127	90.06
396.352	87.06
396.576	99.06
396.801	108.06
397.025	121.06
397.249	101.06
397.474	101.06
397.698	83.06
397.922	87.06
398.147	91.06
398.371	99.06
398.595	105.06
398.82	102.06
399.044	83.06
399.268	64.06
399.492	88.06
399.717	94.06
399.941	107.06
400.165	113.06
400.389	83.06
400.613	87.06
400.837	88.06
401.062	99.06
401.286	101.06
401.51	99.06
401.734	97.06
401.958	95.06
402.182	131.06
402.406	182.06
402.63	137.06
402.854	115.06
403.078	99.06
403.302	94.06
403.526	87.06
403.75	79.06
403.974	83.06
404.198	89.06
404.422	94.06
404.645	94.06
404.869	101.06
405.093	105.06
405.317	116.06
405.541	112.06
405.765	113.06
405.988	119.06
406.212	185.06
406.436	260.06
406.66	182.06
406.883	104.06
407.107	113.06
407.331	108.06
407.555	113.06
407.778	106.06
408.002	79.06
408.226	90.06
408.449	98.06
408.673	85.06
408.896	92.06
409.12	88.06
409.344	91.06
409.567	89.06
409.791	100.06
410.014	97.06
410.238	87.06
410.461	105.06
410.685	105.06
410.908	100.06
411.132	101.06
411.355	106.06
411.578	89.06
411.802	97.06
412.025	93.06
412.249	97.06
412.472	83.06
412.695	93.06
412.919	86.06
413.142	93.06
413.365	94.06
413.589	97.06
413.812	86.06
414.035	105.06
414.258	100.06
414.482	82.06
414.705	98.06
414.928	102.06
415.151	99.06
415.374	98.06
415.597	105.06
415.821	90.06
416.044	90.06
416.267	86.06
416.49	95.06
416.713	91.06
416.936	96.06
417.159	85.06
417.382	94.06
417.605	91.06
417.828	94.06
418.051	99.06
418.274	92.06
418.497	95.06
418.72	87.06
418.943	75.06
419.166	83.06
419.389	104.06
419.611	92.06
419.834	82.06
420.057	94.06
420.28	106.06
420.503	85.06
420.726	94.06
420.948	88.06
421.171	95.06
421.394	106.06
421.617	97.06
421.839	89.06
422.062	85.06
422.285	101.06
422.507	120.06
422.73	131.06
422.953	110.06
423.175	99.06
423.398	89.06
423.621	90.06
423.843	87.06
424.066	79.06
424.288	97.06
424.511	106.06
424.733	101.06
424.956	94.06
425.178	117.06
425.401	116.06
425.623	123.06
425.846	101.06
426.068	100.06
426.291	95.06
426.513	88.06
426.735	103.06
426.958	98.06
427.18	110.06
427.402	164.06
427.625	194.06
427.847	128.06
428.069	102.06
428.292	84.06
428.514	106.06
428.736	84.06
428.958	78.06
429.181	82.06
429.403	78.06
429.625	88.06
429.847	92.06
430.069	98.06
430.292	102.06
430.514	100.06
430.736	94.06
430.958	94.06
431.18	90.06
431.402	93.06
431.624	79.06
431.846	94.06
432.068	92.06
432.29	83.06
432.512	88.06
432.734	92.06
432.956	109.06
433.178	104.06
433.4	108.06
433.622	92.06
433.844	85.06
434.066	105.06
434.287	95.06
434.509	82.06
434.731	100.06
434.953	101.06
435.175	93.06
435.397	99.06
435.618	113.06
435.84	114.06
436.062	115.06
436.284	125.06
436.505	114.06
436.727	92.06
436.949	95.06
437.17	81.06
437.392	99.06
437.614	91.06
437.835	91.06
438.057	116.06
438.278	126.06
438.5	111.06
438.721	145.06
438.943	90.06
439.165	98.06
439.386	86.06
439.608	103.06
439.829	140.06
440.05	137.06
440.272	170.06
440.493	114.06
440.715	98.06
440.936	77.06
441.158	84.06
441.379	102.06
441.6	94.06
441.822	92.06
442.043	93.06
442.264	107.06
442.486	102.06
442.707	97.06
442.928	115.06
443.149	143.06
443.371	140.06
443.592	107.06
443.813	120.06
444.034	117.06
444.255	88.06
444.476	86.06
444.698	79.06
444.919	97.06
445.14	126.06
445.361	150.06
445.582	123.06
445.803	158.06
446.024	158.06
446.245	161.06
446.466	120.06
446.687	97.06
446.908	83.06
447.129	91.06
447.35	102.06
447.571	104.06
447.792	101.06
448.013	97.06
448.234	110.06
448.455	100.06
448.675	116.06
448.896	125.06
449.117	109.06
449.338	110.06
449.559	153.06
449.779	148.06
450	109.06
450.221	102.06
450.442	102.06
450.662	97.06
450.883	108.06
451.104	133.06
451.324	98.06
451.545	79.06
451.766	90.06
451.986	93.06
452.207	78.06
452.428	96.06
452.648	86.06
452.869	104.06
453.089	120.06
453.31	129.06
453.53	109.06
453.751	96.06
453.971	106.06
454.192	120.06
454.412	102.06
454.633	104.06
454.853	89.06
455.073	91.06
455.294	88.06
455.514	95.06
455.734	93.06
455.955	95.06
456.175	91.06
456.395	83.06
456.616	81.06
456.836	83.06
457.056	104.06
457.276	92.06
457.497	89.06
457.717	84.06
457.937	90.06
458.157	87.06
458.377	108.06
458.598	126.06
458.818	175.06
459.038	191.06
459.258	127.06
459.478	87.06
459.698	75.06
459.918	80.06
460.138	83.06
460.358	88.06
460.578	86.06
460.798	104.06
461.018	89.06
461.238	91.06
461.458	98.06
461.678	100.06
461.898	79.06
462.118	93.06
462.338	88.06
462.558	86.06
462.777	85.06
462.997	79.06
463.217	83.06
463.437	93.06
463.657	88.06
463.876	91.06
464.096	87.06
464.316	95.06
464.536	106.06
464.755	119.06
464.975	113.06
465.195	188.06
465.414	191.06
465.634	98.06
465.854	94.06
466.073	94.06
466.293	85.06
466.512	97.06
466.732	109.06
466.951	93.06
467.171	79.06
467.391	100.06
467.61	100.06
467.829	102.06
468.049	82.06
468.268	88.06
468.488	95.06
468.707	98.06
468.927	83.06
469.146	89.06
469.365	89.06
469.585	76.06
469.804	100.06
470.023	106.06
470.243	98.06
470.462	105.06
470.681	110.06
470.901	77.06
471.12	91.06
471.339	82.06
471.558	87.06
471.777	97.06
471.997	84.06
472.216	79.06
472.435	96.06
472.654	107.06
472.873	81.06
473.092	79.06
473.311	89.06
473.53	85.06
473.749	85.06
473.968	84.06
474.187	104.06
474.406	102.06
474.625	74.06
474.844	89.06
475.063	85.06
475.282	91.06
475.501	97.06
475.72	85.06
475.939	82.06
476.158	89.06
476.377	99.06
476.596	91.06
476.814	99.06
477.033	95.06
477.252	108.06
477.471	98.06
477.69	87.06
477.908	78.06
478.127	102.06
478.346	77.06
478.564	87.06
478.783	94.06
479.002	87.06
479.22	95.06
479.439	94.06
479.658	109.06
479.876	97.06
480.095	98.06
480.313	96.06
480.532	95.06
480.751	89.06
480.969	81.06
481.188	95.06
481.406	111.06
481.624	97.06
481.843	86.06
482.061	91.06
482.28	73.06
482.498	85.06
482.717	87.06
482.935	84.06
483.153	99.06
483.372	96.06
483.59	92.06
483.808	100.06
484.027	91.06
484.245	87.06
484.463	96.06
484.681	98.06
484.9	97.06
485.118	91.06
485.336	93.06
485.554	117.06
485.772	106.06
485.99	104.06
486.209	108.06
486.427	100.06
486.645	130.06
486.863	127.06
487.081	121.06
487.299	118.06
487.517	106.06
487.735	92.06
487.953	106.06
488.171	91.06
488.389	98.06
488.607	102.06
488.825	93.06
489.043	88.06
489.261	90.06
489.479	91.06
489.696	90.06
489.914	94.06
490.132	86.06
490.35	95.06
490.568	94.06
490.786	100.06
491.003	98.06
491.221	88.06
491.439	90.06
491.657	91.06
491.874	83.06
492.092	92.06
492.31	105.06
492.527	100.06
492.745	95.06
492.963	92.06
493.18	103.06
493.398	87.06
493.615	89.06
493.833	95.06
494.05	82.06
494.268	89.06
494.485	97.06
494.703	78.06
494.92	97.06
495.138	108.06
495.355	83.06
495.573	93.06
495.79	84.06
496.008	97.06
496.225	81.06
496.442	100.06
496.66	89.06
496.877	92.06
497.094	89.06
497.312	101.06
497.529	89.06
497.746	91.06
497.963	88.06
498.181	94.06
498.398	101.06
498.615	110.06
498.832	117.06
499.049	92.06
499.267	82.06
499.484	83.06
499.701	91.06
499.918	93.06
500.135	76.06
500.352	92.06
500.569	87.06
500.786	100.06
501.003	83.06
501.22	82.06
501.437	86.06
501.654	100.06
501.871	111.06
502.088	107.06
502.305	91.06
502.522	84.06
502.739	86.06
502.956	89.06
503.172	99.06
503.389	98.06
503.606	121.06
503.823	106.06
504.04	89.06
504.256	92.06
504.473	77.06
504.69	92.06
504.907	93.06
505.123	98.06
505.34	94.06
505.557	93.06
505.773	112.06
505.99	83.06
506.207	98.06
506.423	88.06
506.64	87.06
506.856	84.06
507.073	85.06
507.289	95.06
507.506	113.06
507.722	115.06
507.939	116.06
508.155	85.06
508.372	92.06
508.588	116.06
508.805	101.06
509.021	97.06
509.238	109.06
509.454	105.06
509.67	114.06
509.887	107.06
510.103	133.06
510.319	232.06
510.536	905.06
510.752	3186.06
510.968	891.06
511.184	188.06
511.401	138.06
511.617	101.06
511.833	86.06
512.049	82.06
512.265	84.06
512.481	100.06
512.698	94.06
512.914	106.06
513.13	91.06
513.346	95.06
513.562	97.06
