Data from Circ_2016_H10_HRD10591_00007.txt Node
Date: Wed Jan 03 09:58:42 EST 2024
User: Yrep
Spectrometer: HR+D1059
Trigger mode: 1
Integration Time (sec): 1.000000E-1
Scans to average: 1
Electric dark correction enabled: true
Nonlinearity correction enabled: false
Boxcar width: 0
XAxis mode: Wavelengths
Number of Pixels in Spectrum: 2048
>>>>>Begin Spectral Data<<<<<
223.165	-25
223.4	-25
223.635	-25
223.869	-6
224.104	-6
224.338	-15
224.573	-21
224.808	-8
225.042	-19
225.277	-18
225.511	0
225.746	4
225.98	5
226.215	17
226.449	23
226.683	13
226.918	24
227.152	32
227.387	39
227.621	36
227.856	51
228.09	39
228.324	53
228.559	62
228.793	58
229.027	62
229.262	76
229.496	61
229.73	77
229.964	70
230.199	56
230.433	67
230.667	63
230.901	76
231.136	94
231.37	86
231.604	69
231.838	79
232.072	85
232.306	73
232.541	76
232.775	73
233.009	76
233.243	79
233.477	87
233.711	86
233.945	79
234.179	73
234.413	78
234.647	66
234.881	84
235.115	79
235.349	90
235.583	78
235.817	85
236.051	73
236.285	78
236.519	91
236.753	76
236.987	72
237.221	92
237.455	75
237.689	75
237.922	81
238.156	91
238.39	70
238.624	83
238.858	83
239.091	74
239.325	79
239.559	71
239.793	100
240.027	78
240.26	82
240.494	72
240.728	69
240.961	78
241.195	81
241.429	76
241.662	87
241.896	73
242.13	65
242.363	74
242.597	77
242.83	77
243.064	73
243.298	84
243.531	73
243.765	73
243.998	83
244.232	72
244.465	75
244.699	78
244.932	79
245.166	81
245.399	69
245.633	84
245.866	88
246.099	91
246.333	73
246.566	72
246.8	82
247.033	76
247.266	84
247.5	72
247.733	66
247.966	87
248.2	73
248.433	84
248.666	71
248.899	81
249.133	86
249.366	90
249.599	78
249.832	81
250.066	86
250.299	81
250.532	77
250.765	79
250.998	93
251.231	87
251.465	95
251.698	80
251.931	82
252.164	77
252.397	74
252.63	81
252.863	80
253.096	84
253.329	90
253.562	86
253.795	97
254.028	86
254.261	84
254.494	81
254.727	74
254.96	90
255.193	93
255.426	76
255.659	78
255.892	84
256.124	91
256.357	66
256.59	79
256.823	80
257.056	71
257.289	70
257.521	78
257.754	87
257.987	83
258.22	85
258.452	89
258.685	68
258.918	76
259.151	74
259.383	82
259.616	71
259.849	82
260.081	78
260.314	85
260.547	67
260.779	87
261.012	79
261.244	79
261.477	78
261.71	106
261.942	99
262.175	93
262.407	81
262.64	78
262.872	90
263.105	62
263.337	90
263.57	86
263.802	83
264.035	76
264.267	80
264.499	86
264.732	91
264.964	92
265.197	78
265.429	86
265.661	86
265.894	73
266.126	78
266.358	78
266.591	95
266.823	83
267.055	85
267.287	76
267.52	87
267.752	78
267.984	87
268.216	84
268.448	92
268.681	80
268.913	72
269.145	79
269.377	76
269.609	84
269.841	84
270.073	94
270.306	94
270.538	69
270.77	84
271.002	77
271.234	81
271.466	83
271.698	99
271.93	83
272.162	91
272.394	82
272.626	93
272.858	79
273.09	89
273.322	81
273.553	77
273.785	91
274.017	78
274.249	80
274.481	96
274.713	91
274.945	82
275.176	86
275.408	77
275.64	84
275.872	86
276.104	96
276.335	94
276.567	90
276.799	82
277.031	81
277.262	92
277.494	95
277.726	100
277.957	91
278.189	77
278.421	85
278.652	86
278.884	83
279.115	87
279.347	89
279.579	84
279.81	88
280.042	110
280.273	102
280.505	84
280.736	87
280.968	93
281.199	92
281.431	81
281.662	100
281.894	88
282.125	96
282.356	108
282.588	125
282.819	107
283.051	90
283.282	96
283.513	81
283.745	81
283.976	90
284.207	89
284.439	84
284.67	95
284.901	87
285.132	92
285.364	102
285.595	91
285.826	92
286.057	79
286.288	82
286.52	90
286.751	95
286.982	78
287.213	71
287.444	89
287.675	95
287.906	101
288.138	75
288.369	82
288.6	101
288.831	98
289.062	84
289.293	84
289.524	91
289.755	86
289.986	84
290.217	77
290.448	88
290.679	93
290.91	73
291.141	77
291.371	92
291.602	85
291.833	92
292.064	74
292.295	89
292.526	78
292.757	85
292.987	91
293.218	89
293.449	78
293.68	83
293.91	75
294.141	88
294.372	80
294.603	86
294.833	93
295.064	90
295.295	97
295.525	79
295.756	96
295.987	95
296.217	130
296.448	105
296.679	98
296.909	87
297.14	89
297.37	92
297.601	88
297.831	81
298.062	89
298.292	86
298.523	75
298.753	109
298.984	87
299.214	91
299.445	89
299.675	95
299.905	101
300.136	94
300.366	94
300.597	89
300.827	79
301.057	89
301.288	105
301.518	91
301.748	82
301.979	108
302.209	92
302.439	91
302.669	89
302.9	83
303.13	97
303.36	83
303.59	91
303.82	89
304.051	103
304.281	104
304.511	83
304.741	85
304.971	102
305.201	103
305.431	80
305.661	82
305.891	91
306.121	101
306.352	96
306.582	98
306.812	101
307.042	85
307.272	78
307.502	84
307.731	100
307.961	95
308.191	84
308.421	83
308.651	92
308.881	95
309.111	92
309.341	105
309.571	101
309.8	102
310.03	112
310.26	93
310.49	82
310.72	91
310.949	110
311.179	88
311.409	107
311.639	97
311.868	98
312.098	106
312.328	94
312.557	99
312.787	89
313.017	90
313.246	87
313.476	89
313.706	97
313.935	99
314.165	97
314.394	87
314.624	91
314.853	96
315.083	85
315.312	89
315.542	102
315.771	91
316.001	84
316.23	95
316.46	92
316.689	73
316.919	82
317.148	93
317.377	85
317.607	83
317.836	92
318.065	102
318.295	83
318.524	85
318.753	98
318.983	98
319.212	106
319.441	98
319.67	99
319.9	103
320.129	92
320.358	75
320.587	90
320.816	105
321.046	85
321.275	98
321.504	88
321.733	90
321.962	113
322.191	91
322.42	100
322.649	91
322.878	117
323.108	109
323.337	126
323.566	128
323.795	135
324.024	188
324.253	348
324.482	688
324.71	1389
324.939	1840
325.168	677
325.397	219
325.626	132
325.855	128
326.084	107
326.313	107
326.542	137
326.77	212
326.999	406
327.228	837
327.457	1456
327.686	1168
327.914	313
328.143	168
328.372	136
328.6	111
328.829	112
329.058	105
329.287	108
329.515	90
329.744	101
329.972	90
330.201	102
330.43	101
330.658	102
330.887	116
331.115	117
331.344	78
331.572	97
331.801	106
332.03	81
332.258	93
332.486	97
332.715	107
332.943	98
333.172	99
333.4	87
333.629	82
333.857	99
334.085	96
334.314	81
334.542	87
334.771	104
334.999	89
335.227	90
335.455	97
335.684	90
335.912	109
336.14	102
336.369	96
336.597	99
336.825	86
337.053	93
337.281	100
337.51	94
337.738	90
337.966	86
338.194	115
338.422	92
338.65	90
338.878	83
339.106	81
339.334	85
339.562	93
339.79	84
340.018	104
340.246	105
340.474	84
340.702	91
340.93	84
341.158	97
341.386	87
341.614	92
341.842	99
342.07	85
342.298	97
342.526	79
342.754	90
342.981	92
343.209	83
343.437	97
343.665	84
343.893	90
344.12	89
344.348	89
344.576	89
344.804	92
345.031	100
345.259	94
345.487	85
345.714	85
345.942	94
346.17	93
346.397	99
346.625	85
346.853	79
347.08	87
347.308	110
347.535	100
347.763	94
347.99	91
348.218	87
348.445	89
348.673	88
348.9	96
349.128	79
349.355	105
349.583	93
349.81	75
350.037	104
350.265	97
350.492	110
350.72	97
350.947	119
351.174	119
351.402	106
351.629	97
351.856	96
352.083	104
352.311	106
352.538	109
352.765	122
352.992	105
353.22	97
353.447	105
353.674	104
353.901	114
354.128	98
354.355	124
354.583	108
354.81	108
355.037	114
355.264	96
355.491	87
355.718	100
355.945	107
356.172	101
356.399	89
356.626	107
356.853	94
357.08	80
357.307	77
357.534	94
357.761	98
357.988	112
358.215	106
358.441	108
358.668	130
358.895	113
359.122	96
359.349	108
359.576	90
359.802	88
360.029	102
360.256	112
360.483	104
360.709	92
360.936	86
361.163	97
361.39	96
361.616	108
361.843	82
362.07	104
362.296	99
362.523	84
362.749	86
362.976	98
363.203	102
363.429	90
363.656	92
363.882	91
364.109	93
364.335	100
364.562	69
364.788	85
365.015	77
365.241	99
365.468	109
365.694	102
365.92	93
366.147	94
366.373	90
366.599	87
366.826	84
367.052	74
367.278	89
367.505	93
367.731	97
367.957	77
368.184	90
368.41	81
368.636	115
368.862	102
369.089	103
369.315	95
369.541	78
369.767	112
369.993	102
370.219	87
370.445	79
370.672	75
370.898	92
371.124	84
371.35	87
371.576	92
371.802	96
372.028	81
372.254	86
372.48	98
372.706	93
372.932	94
373.158	74
373.384	83
373.61	90
373.835	92
374.061	91
374.287	86
374.513	95
374.739	90
374.965	90
375.191	94
375.416	85
375.642	99
375.868	110
376.094	77
376.319	97
376.545	89
376.771	100
376.997	105
377.222	89
377.448	88
377.674	98
377.899	121
378.125	101
378.35	109
378.576	100
378.802	98
379.027	118
379.253	108
379.478	118
379.704	111
379.929	119
380.155	100
380.38	113
380.606	123
380.831	130
381.057	139
381.282	121
381.507	118
381.733	117
381.958	128
382.184	132
382.409	118
382.634	131
382.86	131
383.085	148
383.31	130
383.535	149
383.761	152
383.986	172
384.211	143
384.436	146
384.662	157
384.887	172
385.112	180
385.337	185
385.562	180
385.787	181
386.013	184
386.238	204
386.463	160
386.688	159
386.913	161
387.138	195
387.363	189
387.588	140
387.813	143
388.038	184
388.263	230
388.488	202
388.713	121
388.938	97
389.163	92
389.387	99
389.612	88
389.837	92
390.062	89
390.287	101
390.512	90
390.736	102
390.961	100
391.186	85
391.411	95
391.636	98
391.86	87
392.085	83
392.31	91
392.534	89
392.759	84
392.984	108
393.208	128
393.433	160
393.658	131
393.882	93
394.107	90
394.331	89
394.556	93
394.78	93
395.005	83
395.229	84
395.454	94
395.678	75
395.903	86
396.127	82
396.352	87
396.576	94
396.801	114
397.025	139
397.249	114
397.474	106
397.698	99
397.922	84
398.147	103
398.371	88
398.595	86
398.82	86
399.044	88
399.268	84
399.492	86
399.717	95
399.941	90
400.165	97
400.389	91
400.613	85
400.837	89
401.062	80
401.286	87
401.51	93
401.734	80
401.958	97
402.182	105
402.406	139
402.63	116
402.854	92
403.078	77
403.302	89
403.526	85
403.75	85
403.974	89
404.198	88
404.422	92
404.645	103
404.869	88
405.093	87
405.317	88
405.541	101
405.765	91
405.988	106
406.212	157
406.436	192
406.66	135
406.883	108
407.107	93
407.331	92
407.555	105
407.778	89
408.002	107
408.226	78
408.449	82
408.673	93
408.896	80
409.12	102
409.344	100
409.567	94
409.791	89
410.014	89
410.238	96
410.461	91
410.685	81
410.908	96
411.132	105
411.355	93
411.578	93
411.802	101
412.025	101
412.249	98
412.472	106
412.695	85
412.919	91
413.142	90
413.365	92
413.589	82
413.812	91
414.035	101
414.258	107
414.482	97
414.705	92
414.928	90
415.151	93
415.374	82
415.597	76
415.821	103
416.044	91
416.267	94
416.49	101
416.713	105
416.936	92
417.159	100
417.382	93
417.605	115
417.828	103
418.051	109
418.274	87
418.497	85
418.72	93
418.943	104
419.166	96
419.389	108
419.611	93
419.834	101
420.057	83
420.28	90
420.503	90
420.726	90
420.948	85
421.171	72
421.394	89
421.617	99
421.839	86
422.062	87
422.285	94
422.507	113
422.73	135
422.953	132
423.175	96
423.398	77
423.621	87
423.843	92
424.066	79
424.288	88
424.511	78
424.733	94
424.956	85
425.178	107
425.401	91
425.623	88
425.846	86
426.068	103
426.291	93
426.513	96
426.735	76
426.958	84
427.18	111
427.402	125
427.625	155
427.847	115
428.069	93
428.292	100
428.514	105
428.736	88
428.958	89
429.181	91
429.403	98
429.625	77
429.847	89
430.069	81
430.292	98
430.514	94
430.736	84
430.958	96
431.18	87
431.402	87
431.624	85
431.846	82
432.068	86
432.29	88
432.512	88
432.734	77
432.956	88
433.178	96
433.4	107
433.622	84
433.844	93
434.066	90
434.287	91
434.509	93
434.731	80
434.953	90
435.175	89
435.397	82
435.618	88
435.84	92
436.062	104
436.284	98
436.505	90
436.727	107
436.949	92
437.17	97
437.392	75
437.614	90
437.835	97
438.057	110
438.278	105
438.5	81
438.721	111
438.943	99
439.165	100
439.386	99
439.608	90
439.829	88
440.05	105
440.272	135
440.493	102
440.715	78
440.936	93
441.158	87
441.379	83
441.6	92
441.822	99
442.043	74
442.264	87
442.486	93
442.707	81
442.928	106
443.149	106
443.371	120
443.592	100
443.813	94
444.034	98
444.255	97
444.476	82
444.698	84
444.919	84
445.14	118
445.361	99
445.582	108
445.803	106
446.024	118
446.245	117
446.466	94
446.687	80
446.908	93
447.129	83
447.35	90
447.571	104
447.792	83
448.013	91
448.234	87
448.455	94
448.675	116
448.896	117
449.117	72
449.338	96
449.559	118
449.779	115
450	99
450.221	92
450.442	81
450.662	89
450.883	99
451.104	104
451.324	93
451.545	83
451.766	98
451.986	77
452.207	92
452.428	91
452.648	97
452.869	112
453.089	99
453.31	105
453.53	91
453.751	100
453.971	84
454.192	96
454.412	78
454.633	81
454.853	85
455.073	71
455.294	95
455.514	89
455.734	82
455.955	86
456.175	96
456.395	87
456.616	90
456.836	82
457.056	81
457.276	86
457.497	91
457.717	77
457.937	78
458.157	96
458.377	92
458.598	86
458.818	133
459.038	128
459.258	112
459.478	90
459.698	87
459.918	96
460.138	93
460.358	83
460.578	86
460.798	87
461.018	93
461.238	87
461.458	81
461.678	86
461.898	92
462.118	72
462.338	89
462.558	81
462.777	76
462.997	82
463.217	95
463.437	86
463.657	88
463.876	74
464.096	69
464.316	101
464.536	83
464.755	75
464.975	100
465.195	130
465.414	118
465.634	83
465.854	77
466.073	86
466.293	92
466.512	80
466.732	92
466.951	99
467.171	94
467.391	72
467.61	94
467.829	88
468.049	83
468.268	99
468.488	91
468.707	82
468.927	90
469.146	94
469.365	89
469.585	78
469.804	106
470.023	93
470.243	88
470.462	86
470.681	96
470.901	95
471.12	100
471.339	83
471.558	83
471.777	82
471.997	88
472.216	96
472.435	97
472.654	79
472.873	91
473.092	88
473.311	84
473.53	76
473.749	73
473.968	82
474.187	90
474.406	85
474.625	73
474.844	93
475.063	99
475.282	77
475.501	81
475.72	79
475.939	88
476.158	78
476.377	88
476.596	84
476.814	86
477.033	86
477.252	97
477.471	80
477.69	88
477.908	90
478.127	92
478.346	89
478.564	91
478.783	80
479.002	77
479.22	91
479.439	76
479.658	93
479.876	93
480.095	89
480.313	83
480.532	89
480.751	84
480.969	82
481.188	96
481.406	92
481.624	86
481.843	95
482.061	88
482.28	98
482.498	97
482.717	74
482.935	74
483.153	100
483.372	76
483.59	83
483.808	99
484.027	98
484.245	94
484.463	86
484.681	106
484.9	83
485.118	105
485.336	102
485.554	106
485.772	105
485.99	115
486.209	126
486.427	122
486.645	112
486.863	109
487.081	104
487.299	106
487.517	94
487.735	97
487.953	97
488.171	101
488.389	100
488.607	101
488.825	91
489.043	83
489.261	99
489.479	86
489.696	90
489.914	99
490.132	95
490.35	90
490.568	92
490.786	100
491.003	81
491.221	82
491.439	97
491.657	87
491.874	92
492.092	81
492.31	79
492.527	92
492.745	85
492.963	81
493.18	90
493.398	91
493.615	85
493.833	98
494.05	94
494.268	73
494.485	84
494.703	93
494.92	99
495.138	73
495.355	73
495.573	76
495.79	90
496.008	89
496.225	98
496.442	84
496.66	93
496.877	95
497.094	102
497.312	89
497.529	101
497.746	71
497.963	88
498.181	80
498.398	92
498.615	98
498.832	101
499.049	82
499.267	98
499.484	89
499.701	107
499.918	102
500.135	84
500.352	80
500.569	97
500.786	97
501.003	104
501.22	83
501.437	93
501.654	80
501.871	110
502.088	85
502.305	77
502.522	100
502.739	92
502.956	78
503.172	101
503.389	86
503.606	91
503.823	78
504.04	100
504.256	99
504.473	100
504.69	99
504.907	109
505.123	96
505.34	102
505.557	92
505.773	87
505.99	99
506.207	81
506.423	92
506.64	76
506.856	90
507.073	83
507.289	91
507.506	88
507.722	101
507.939	101
508.155	100
508.372	93
508.588	92
508.805	84
509.021	104
509.238	106
509.454	98
509.67	102
509.887	115
510.103	108
510.319	191
510.536	556
510.752	1718
510.968	512
511.184	134
511.401	110
511.617	87
511.833	102
512.049	98
512.265	82
512.481	115
512.698	78
512.914	90
513.13	87
513.346	102
513.562	94
513.778	87
513.994	91
514.21	102
514.426	99
514.642	114
514.858	119
515.074	136
515.29	326
515.506	997
515.721	411
515.937	140
516.153	87
516.369	77
516.585	87
516.801	94
517.016	89
517.232	88
517.448	93
517.664	79
517.879	100
518.095	89
518.311	106
518.527	89
518.742	98
518.958	93
519.173	87
519.389	89
519.605	90
519.82	97
520.036	92
520.251	114
520.467	96
520.682	122
520.898	94
521.113	103
521.329	126
521.544	157
521.76	368
521.975	1546
522.19	1019
522.406	240
522.621	108
522.836	98
523.052	91
523.267	92
523.482	83
523.698	90
523.913	117
524.128	101
524.343	102
524.559	101
524.774	83
524.989	86
525.204	104
525.419	98
525.634	84
525.849	88
526.064	91
526.28	100
526.495	88
526.71	91
526.925	86
527.14	93
527.355	83
527.57	77
527.785	94
527.999	100
528.214	103
528.429	98
528.644	103
528.859	92
529.074	98
529.289	101
529.503	152
529.718	114
529.933	99
530.148	97
530.363	98
530.577	100
530.792	96
531.007	98
531.221	89
531.436	88
531.651	80
531.865	101
532.08	82
532.295	85
532.509	74
532.724	100
532.938	99
533.153	89
533.367	105
533.582	100
533.796	95
534.011	96
534.225	91
534.44	90
534.654	89
534.868	99
535.083	87
535.297	89
535.511	96
535.726	102
535.94	100
536.154	86
536.369	93
536.583	88
536.797	101
537.011	98
537.225	99
537.44	84
537.654	74
537.868	94
538.082	96
538.296	85
538.51	87
538.724	77
538.938	80
539.153	92
539.367	106
539.581	94
539.795	83
540.009	81
540.222	86
540.436	87
540.65	90
540.864	87
541.078	97
541.292	104
541.506	87
541.72	85
541.934	94
542.147	86
542.361	86
542.575	100
542.789	75
543.002	92
543.216	94
543.43	87
543.644	89
543.857	80
544.071	68
544.285	84
544.498	81
544.712	90
544.925	92
545.139	85
545.352	69
545.566	95
545.779	95
545.993	98
546.206	99
546.42	74
546.633	82
546.847	92
547.06	79
547.274	98
547.487	82
547.7	91
547.914	82
548.127	90
548.34	93
548.554	77
548.767	92
548.98	96
549.193	81
549.407	78
549.62	75
549.833	95
550.046	83
550.259	72
550.473	88
550.686	91
550.899	90
551.112	92
551.325	87
551.538	77
551.751	84
551.964	90
552.177	95
552.39	87
552.603	91
552.816	96
553.029	89
553.242	98
553.455	105
553.667	105
553.88	74
554.093	92
554.306	85
554.519	94
554.732	78
554.944	78
555.157	97
555.37	104
555.583	97
555.795	98
556.008	85
556.221	80
556.433	86
556.646	93
556.859	86
557.071	93
557.284	92
557.496	90
557.709	86
557.921	91
558.134	84
558.346	84
558.559	88
558.771	97
558.984	98
559.196	77
559.409	83
559.621	89
559.833	77
560.046	86
560.258	91
560.47	88
560.683	91
560.895	89
561.107	89
561.32	84
561.532	103
561.744	92
561.956	100
562.168	98
562.381	93
562.593	80
562.805	84
563.017	92
563.229	94
563.441	97
563.653	85
563.865	85
564.077	92
564.289	88
564.501	97
564.713	97
564.925	97
565.137	106
565.349	96
565.561	94
565.773	97
565.985	88
566.197	82
566.408	82
566.62	113
566.832	94
567.044	92
567.255	76
567.467	91
567.679	77
567.891	86
568.102	88
568.314	84
568.526	84
568.737	70
568.949	84
569.161	89
569.372	74
569.584	93
569.795	107
570.007	113
570.218	194
570.43	131
570.641	90
570.853	89
571.064	98
571.276	102
571.487	78
571.698	78
571.91	97
572.121	88
572.333	80
572.544	95
572.755	86
572.966	76
573.178	90
573.389	91
573.6	92
573.811	95
574.023	80
574.234	91
574.445	87
574.656	103
574.867	91
575.078	82
575.289	93
575.501	90
575.712	91
575.923	85
576.134	93
576.345	82
576.556	94
576.767	85
576.978	88
577.188	93
577.399	93
577.61	88
577.821	98
578.032	105
578.243	198
578.454	594
578.665	194
578.875	97
579.086	89
579.297	82
579.508	98
579.718	91
579.929	88
580.14	75
580.35	91
580.561	73
580.772	86
580.982	80
581.193	96
581.403	82
581.614	88
581.825	79
582.035	81
582.246	72
582.456	77
582.667	86
582.877	72
583.087	84
583.298	96
583.508	85
583.719	92
583.929	91
584.139	99
584.35	100
