Data from Circ_2016_H10_HRD10591_00061.txt Node
Date: Wed Jan 03 09:58:52 EST 2024
User: Yrep
Spectrometer: HR+D1059
Trigger mode: 1
Integration Time (sec): 1.000000E-1
Scans to average: 1
Electric dark correction enabled: true
Nonlinearity correction enabled: false
Boxcar width: 0
XAxis mode: Wavelengths
Number of Pixels in Spectrum: 2048
>>>>>Begin Spectral Data<<<<<
223.165	-19.12
223.4	-19.12
223.635	-19.12
223.869	-15.12
224.104	-28.12
224.338	-24.12
224.573	-26.12
224.808	-25.12
225.042	-12.12
225.277	-8.12
225.511	-7.12
225.746	13.88
225.98	12.88
226.215	21.88
226.449	26.88
226.683	28.88
226.918	26.88
227.152	33.88
227.387	50.88
227.621	35.88
227.856	37.88
228.09	38.88
228.324	40.88
228.559	42.88
228.793	66.88
229.027	60.88
229.262	59.88
229.496	69.88
229.73	76.88
229.964	74.88
230.199	79.88
230.433	85.88
230.667	81.88
230.901	64.88
231.136	76.88
231.37	75.88
231.604	80.88
231.838	81.88
232.072	78.88
232.306	82.88
232.541	74.88
232.775	77.88
233.009	77.88
233.243	82.88
233.477	72.88
233.711	83.88
233.945	80.88
234.179	85.88
234.413	71.88
234.647	98.88
234.881	73.88
235.115	76.88
235.349	70.88
235.583	69.88
235.817	71.88
236.051	75.88
236.285	82.88
236.519	70.88
236.753	93.88
236.987	73.88
237.221	86.88
237.455	79.88
237.689	73.88
237.922	85.88
238.156	92.88
238.39	83.88
238.624	82.88
238.858	83.88
239.091	68.88
239.325	75.88
239.559	78.88
239.793	75.88
240.027	79.88
240.26	75.88
240.494	97.88
240.728	80.88
240.961	77.88
241.195	70.88
241.429	86.88
241.662	72.88
241.896	76.88
242.13	70.88
242.363	89.88
242.597	74.88
242.83	80.88
243.064	65.88
243.298	77.88
243.531	78.88
243.765	75.88
243.998	84.88
244.232	71.88
244.465	73.88
244.699	73.88
244.932	69.88
245.166	73.88
245.399	90.88
245.633	83.88
245.866	78.88
246.099	75.88
246.333	77.88
246.566	72.88
246.8	83.88
247.033	80.88
247.266	77.88
247.5	85.88
247.733	75.88
247.966	61.88
248.2	79.88
248.433	67.88
248.666	78.88
248.899	88.88
249.133	84.88
249.366	89.88
249.599	96.88
249.832	75.88
250.066	79.88
250.299	92.88
250.532	83.88
250.765	82.88
250.998	68.88
251.231	74.88
251.465	88.88
251.698	85.88
251.931	86.88
252.164	77.88
252.397	74.88
252.63	72.88
252.863	82.88
253.096	85.88
253.329	84.88
253.562	72.88
253.795	70.88
254.028	88.88
254.261	82.88
254.494	93.88
254.727	91.88
254.96	74.88
255.193	84.88
255.426	78.88
255.659	85.88
255.892	87.88
256.124	75.88
256.357	99.88
256.59	67.88
256.823	62.88
257.056	79.88
257.289	74.88
257.521	78.88
257.754	78.88
257.987	58.88
258.22	90.88
258.452	72.88
258.685	67.88
258.918	88.88
259.151	100.88
259.383	73.88
259.616	76.88
259.849	78.88
260.081	67.88
260.314	90.88
260.547	86.88
260.779	79.88
261.012	79.88
261.244	94.88
261.477	88.88
261.71	91.88
261.942	112.88
262.175	101.88
262.407	90.88
262.64	88.88
262.872	91.88
263.105	83.88
263.337	93.88
263.57	74.88
263.802	90.88
264.035	91.88
264.267	67.88
264.499	82.88
264.732	83.88
264.964	82.88
265.197	75.88
265.429	88.88
265.661	89.88
265.894	88.88
266.126	79.88
266.358	84.88
266.591	86.88
266.823	85.88
267.055	83.88
267.287	81.88
267.52	77.88
267.752	89.88
267.984	89.88
268.216	76.88
268.448	83.88
268.681	76.88
268.913	92.88
269.145	93.88
269.377	77.88
269.609	73.88
269.841	75.88
270.073	80.88
270.306	87.88
270.538	92.88
270.77	89.88
271.002	84.88
271.234	96.88
271.466	86.88
271.698	90.88
271.93	88.88
272.162	86.88
272.394	99.88
272.626	91.88
272.858	77.88
273.09	65.88
273.322	92.88
273.553	82.88
273.785	80.88
274.017	83.88
274.249	88.88
274.481	96.88
274.713	79.88
274.945	89.88
275.176	97.88
275.408	87.88
275.64	85.88
275.872	78.88
276.104	81.88
276.335	92.88
276.567	99.88
276.799	92.88
277.031	105.88
277.262	107.88
277.494	79.88
277.726	84.88
277.957	77.88
278.189	74.88
278.421	93.88
278.652	78.88
278.884	91.88
279.115	88.88
279.347	97.88
279.579	82.88
279.81	89.88
280.042	87.88
280.273	85.88
280.505	89.88
280.736	79.88
280.968	84.88
281.199	78.88
281.431	82.88
281.662	91.88
281.894	85.88
282.125	89.88
282.356	106.88
282.588	135.88
282.819	105.88
283.051	98.88
283.282	77.88
283.513	96.88
283.745	76.88
283.976	75.88
284.207	82.88
284.439	86.88
284.67	91.88
284.901	101.88
285.132	77.88
285.364	83.88
285.595	92.88
285.826	91.88
286.057	93.88
286.288	86.88
286.52	90.88
286.751	82.88
286.982	91.88
287.213	77.88
287.444	103.88
287.675	85.88
287.906	79.88
288.138	88.88
288.369	86.88
288.6	82.88
288.831	80.88
289.062	88.88
289.293	91.88
289.524	80.88
289.755	80.88
289.986	88.88
290.217	74.88
290.448	79.88
290.679	90.88
290.91	95.88
291.141	83.88
291.371	90.88
291.602	102.88
291.833	100.88
292.064	79.88
292.295	89.88
292.526	83.88
292.757	81.88
292.987	87.88
293.218	93.88
293.449	86.88
293.68	71.88
293.91	89.88
294.141	87.88
294.372	81.88
294.603	88.88
294.833	85.88
295.064	87.88
295.295	93.88
295.525	82.88
295.756	100.88
295.987	108.88
296.217	132.88
296.448	114.88
296.679	83.88
296.909	93.88
297.14	89.88
297.37	92.88
297.601	88.88
297.831	85.88
298.062	89.88
298.292	92.88
298.523	83.88
298.753	79.88
298.984	98.88
299.214	88.88
299.445	91.88
299.675	82.88
299.905	88.88
300.136	88.88
300.366	97.88
300.597	101.88
300.827	84.88
301.057	97.88
301.288	92.88
301.518	100.88
301.748	94.88
301.979	86.88
302.209	84.88
302.439	92.88
302.669	86.88
302.9	92.88
303.13	87.88
303.36	97.88
303.59	101.88
303.82	93.88
304.051	80.88
304.281	98.88
304.511	97.88
304.741	79.88
304.971	97.88
305.201	89.88
305.431	94.88
305.661	86.88
305.891	92.88
306.121	102.88
306.352	84.88
306.582	90.88
306.812	97.88
307.042	91.88
307.272	102.88
307.502	98.88
307.731	93.88
307.961	83.88
308.191	86.88
308.421	91.88
308.651	88.88
308.881	96.88
309.111	87.88
309.341	92.88
309.571	99.88
309.8	94.88
310.03	81.88
310.26	82.88
310.49	96.88
310.72	99.88
310.949	108.88
311.179	94.88
311.409	101.88
311.639	95.88
311.868	98.88
312.098	90.88
312.328	85.88
312.557	111.88
312.787	95.88
313.017	95.88
313.246	88.88
313.476	81.88
313.706	79.88
313.935	89.88
314.165	90.88
314.394	102.88
314.624	93.88
314.853	94.88
315.083	106.88
315.312	90.88
315.542	87.88
315.771	99.88
316.001	91.88
316.23	90.88
316.46	93.88
316.689	83.88
316.919	100.88
317.148	87.88
317.377	98.88
317.607	92.88
317.836	98.88
318.065	87.88
318.295	93.88
318.524	94.88
318.753	89.88
318.983	93.88
319.212	83.88
319.441	107.88
319.67	107.88
319.9	86.88
320.129	104.88
320.358	99.88
320.587	92.88
320.816	98.88
321.046	103.88
321.275	93.88
321.504	89.88
321.733	85.88
321.962	95.88
322.191	103.88
322.42	101.88
322.649	115.88
322.878	113.88
323.108	129.88
323.337	103.88
323.566	131.88
323.795	152.88
324.024	183.88
324.253	370.88
324.482	797.88
324.71	1634.88
324.939	2068.88
325.168	793.88
325.397	230.88
325.626	144.88
325.855	124.88
326.084	128.88
326.313	139.88
326.542	148.88
326.77	224.88
326.999	446.88
327.228	899.88
327.457	1610.88
327.686	1332.88
327.914	353.88
328.143	176.88
328.372	146.88
328.6	130.88
328.829	118.88
329.058	128.88
329.287	138.88
329.515	112.88
329.744	112.88
329.972	115.88
330.201	134.88
330.43	143.88
330.658	127.88
330.887	109.88
331.115	111.88
331.344	101.88
331.572	109.88
331.801	108.88
332.03	108.88
332.258	94.88
332.486	89.88
332.715	99.88
332.943	102.88
333.172	90.88
333.4	101.88
333.629	95.88
333.857	89.88
334.085	122.88
334.314	110.88
334.542	144.88
334.771	150.88
334.999	111.88
335.227	102.88
335.455	78.88
335.684	105.88
335.912	90.88
336.14	88.88
336.369	98.88
336.597	94.88
336.825	99.88
337.053	83.88
337.281	85.88
337.51	94.88
337.738	100.88
337.966	90.88
338.194	105.88
338.422	81.88
338.65	94.88
338.878	99.88
339.106	87.88
339.334	101.88
339.562	91.88
339.79	82.88
340.018	91.88
340.246	86.88
340.474	87.88
340.702	97.88
340.93	83.88
341.158	92.88
341.386	99.88
341.614	91.88
341.842	102.88
342.07	91.88
342.298	85.88
342.526	88.88
342.754	89.88
342.981	92.88
343.209	90.88
343.437	109.88
343.665	85.88
343.893	93.88
344.12	86.88
344.348	104.88
344.576	90.88
344.804	102.88
345.031	99.88
345.259	101.88
345.487	97.88
345.714	92.88
345.942	99.88
346.17	88.88
346.397	78.88
346.625	106.88
346.853	100.88
347.08	95.88
347.308	87.88
347.535	93.88
347.763	90.88
347.99	105.88
348.218	107.88
348.445	85.88
348.673	95.88
348.9	101.88
349.128	98.88
349.355	88.88
349.583	94.88
349.81	111.88
350.037	85.88
350.265	92.88
350.492	93.88
350.72	91.88
350.947	96.88
351.174	85.88
351.402	115.88
351.629	85.88
351.856	97.88
352.083	97.88
352.311	104.88
352.538	98.88
352.765	112.88
352.992	110.88
353.22	102.88
353.447	121.88
353.674	109.88
353.901	85.88
354.128	93.88
354.355	105.88
354.583	91.88
354.81	85.88
355.037	102.88
355.264	93.88
355.491	93.88
355.718	99.88
355.945	89.88
356.172	85.88
356.399	69.88
356.626	98.88
356.853	98.88
357.08	91.88
357.307	101.88
357.534	78.88
357.761	100.88
357.988	112.88
358.215	88.88
358.441	81.88
358.668	83.88
358.895	93.88
359.122	94.88
359.349	87.88
359.576	95.88
359.802	108.88
360.029	105.88
360.256	95.88
360.483	103.88
360.709	92.88
360.936	97.88
361.163	92.88
361.39	89.88
361.616	101.88
361.843	103.88
362.07	90.88
362.296	88.88
362.523	94.88
362.749	75.88
362.976	89.88
363.203	100.88
363.429	84.88
363.656	102.88
363.882	98.88
364.109	94.88
364.335	91.88
364.562	89.88
364.788	97.88
365.015	87.88
365.241	101.88
365.468	100.88
365.694	108.88
365.92	91.88
366.147	83.88
366.373	91.88
366.599	87.88
366.826	89.88
367.052	104.88
367.278	90.88
367.505	83.88
367.731	85.88
367.957	87.88
368.184	89.88
368.41	95.88
368.636	99.88
368.862	106.88
369.089	101.88
369.315	91.88
369.541	95.88
369.767	89.88
369.993	102.88
370.219	99.88
370.445	83.88
370.672	82.88
370.898	87.88
371.124	98.88
371.35	89.88
371.576	95.88
371.802	83.88
372.028	90.88
372.254	88.88
372.48	92.88
372.706	76.88
372.932	94.88
373.158	92.88
373.384	96.88
373.61	96.88
373.835	91.88
374.061	95.88
374.287	74.88
374.513	81.88
374.739	87.88
374.965	87.88
375.191	90.88
375.416	80.88
375.642	96.88
375.868	100.88
376.094	89.88
376.319	90.88
376.545	78.88
376.771	90.88
376.997	94.88
377.222	92.88
377.448	91.88
377.674	98.88
377.899	89.88
378.125	94.88
378.35	97.88
378.576	99.88
378.802	83.88
379.027	92.88
379.253	99.88
379.478	97.88
379.704	86.88
379.929	101.88
380.155	92.88
380.38	86.88
380.606	94.88
380.831	109.88
381.057	106.88
381.282	113.88
381.507	89.88
381.733	97.88
381.958	105.88
382.184	91.88
382.409	103.88
382.634	124.88
382.86	103.88
383.085	105.88
383.31	108.88
383.535	99.88
383.761	103.88
383.986	93.88
384.211	112.88
384.436	100.88
384.662	114.88
384.887	93.88
385.112	119.88
385.337	116.88
385.562	116.88
385.787	131.88
386.013	112.88
386.238	132.88
386.463	114.88
386.688	115.88
386.913	108.88
387.138	140.88
387.363	91.88
387.588	96.88
387.813	116.88
388.038	102.88
388.263	112.88
388.488	120.88
388.713	98.88
388.938	86.88
389.163	86.88
389.387	91.88
389.612	96.88
389.837	92.88
390.062	97.88
390.287	92.88
390.512	82.88
390.736	92.88
390.961	84.88
391.186	97.88
391.411	85.88
391.636	84.88
391.86	96.88
392.085	83.88
392.31	101.88
392.534	100.88
392.759	80.88
392.984	93.88
393.208	97.88
393.433	87.88
393.658	77.88
393.882	89.88
394.107	98.88
394.331	84.88
394.556	92.88
394.78	100.88
395.005	88.88
395.229	86.88
395.454	98.88
395.678	71.88
395.903	75.88
396.127	89.88
396.352	79.88
396.576	80.88
396.801	73.88
397.025	79.88
397.249	86.88
397.474	105.88
397.698	92.88
397.922	83.88
398.147	91.88
398.371	86.88
398.595	80.88
398.82	74.88
399.044	83.88
399.268	96.88
399.492	88.88
399.717	95.88
399.941	77.88
400.165	94.88
400.389	87.88
400.613	90.88
400.837	78.88
401.062	80.88
401.286	88.88
401.51	91.88
401.734	100.88
401.958	93.88
402.182	127.88
402.406	143.88
402.63	121.88
402.854	87.88
403.078	86.88
403.302	82.88
403.526	79.88
403.75	92.88
403.974	89.88
404.198	96.88
404.422	91.88
404.645	82.88
404.869	93.88
405.093	100.88
405.317	100.88
405.541	92.88
405.765	93.88
405.988	111.88
406.212	158.88
406.436	207.88
406.66	138.88
406.883	100.88
407.107	98.88
407.331	101.88
407.555	89.88
407.778	87.88
408.002	95.88
408.226	100.88
408.449	82.88
408.673	94.88
408.896	96.88
409.12	84.88
409.344	104.88
409.567	78.88
409.791	93.88
410.014	107.88
410.238	85.88
410.461	82.88
410.685	92.88
410.908	85.88
411.132	101.88
411.355	110.88
411.578	91.88
411.802	97.88
412.025	85.88
412.249	82.88
412.472	84.88
412.695	95.88
412.919	90.88
413.142	86.88
413.365	89.88
413.589	83.88
413.812	90.88
414.035	93.88
414.258	83.88
414.482	90.88
414.705	94.88
414.928	97.88
415.151	106.88
415.374	95.88
415.597	97.88
415.821	94.88
416.044	96.88
416.267	112.88
416.49	93.88
416.713	86.88
416.936	73.88
417.159	84.88
417.382	86.88
417.605	91.88
417.828	97.88
418.051	100.88
418.274	85.88
418.497	79.88
418.72	80.88
418.943	99.88
419.166	77.88
419.389	89.88
419.611	90.88
419.834	73.88
420.057	79.88
420.28	90.88
420.503	93.88
420.726	80.88
420.948	96.88
421.171	98.88
421.394	97.88
421.617	97.88
421.839	97.88
422.062	88.88
422.285	94.88
422.507	88.88
422.73	108.88
422.953	83.88
423.175	92.88
423.398	104.88
423.621	84.88
423.843	88.88
424.066	86.88
424.288	86.88
424.511	85.88
424.733	96.88
424.956	98.88
425.178	101.88
425.401	110.88
425.623	98.88
425.846	90.88
426.068	89.88
426.291	82.88
426.513	91.88
426.735	108.88
426.958	94.88
427.18	98.88
427.402	130.88
427.625	151.88
427.847	124.88
428.069	92.88
428.292	91.88
428.514	102.88
428.736	96.88
428.958	94.88
429.181	98.88
429.403	96.88
429.625	85.88
429.847	91.88
430.069	95.88
430.292	94.88
430.514	90.88
430.736	84.88
430.958	82.88
431.18	93.88
431.402	91.88
431.624	71.88
431.846	86.88
432.068	87.88
432.29	67.88
432.512	81.88
432.734	90.88
432.956	85.88
433.178	113.88
433.4	102.88
433.622	84.88
433.844	87.88
434.066	88.88
434.287	81.88
434.509	82.88
434.731	90.88
434.953	93.88
435.175	86.88
435.397	91.88
435.618	84.88
435.84	93.88
436.062	116.88
436.284	105.88
436.505	101.88
436.727	98.88
436.949	94.88
437.17	87.88
437.392	73.88
437.614	78.88
437.835	114.88
438.057	105.88
438.278	93.88
438.5	86.88
438.721	112.88
438.943	102.88
439.165	88.88
439.386	80.88
439.608	76.88
439.829	88.88
440.05	100.88
440.272	139.88
440.493	97.88
440.715	100.88
440.936	93.88
441.158	71.88
441.379	82.88
441.6	90.88
441.822	90.88
442.043	95.88
442.264	108.88
442.486	116.88
442.707	76.88
442.928	107.88
443.149	117.88
443.371	135.88
443.592	107.88
443.813	100.88
444.034	99.88
444.255	92.88
444.476	83.88
444.698	74.88
444.919	85.88
445.14	129.88
445.361	120.88
445.582	112.88
445.803	129.88
446.024	126.88
446.245	128.88
446.466	102.88
446.687	77.88
446.908	92.88
447.129	84.88
447.35	76.88
447.571	78.88
447.792	79.88
448.013	93.88
448.234	92.88
448.455	115.88
448.675	108.88
448.896	105.88
449.117	97.88
449.338	103.88
449.559	141.88
449.779	112.88
450	91.88
450.221	87.88
450.442	88.88
450.662	82.88
450.883	108.88
451.104	109.88
451.324	81.88
451.545	93.88
451.766	86.88
451.986	70.88
452.207	88.88
452.428	89.88
452.648	105.88
452.869	117.88
453.089	107.88
453.31	109.88
453.53	92.88
453.751	85.88
453.971	99.88
454.192	101.88
454.412	84.88
454.633	90.88
454.853	88.88
455.073	86.88
455.294	100.88
455.514	97.88
455.734	85.88
455.955	72.88
456.175	89.88
456.395	91.88
456.616	98.88
456.836	97.88
457.056	80.88
457.276	64.88
457.497	63.88
457.717	93.88
457.937	72.88
458.157	88.88
458.377	80.88
458.598	94.88
458.818	142.88
459.038	142.88
459.258	114.88
459.478	97.88
459.698	88.88
459.918	85.88
460.138	87.88
460.358	81.88
460.578	87.88
460.798	88.88
461.018	87.88
461.238	97.88
461.458	86.88
461.678	98.88
461.898	78.88
462.118	81.88
462.338	91.88
462.558	92.88
462.777	96.88
462.997	80.88
463.217	82.88
463.437	94.88
463.657	92.88
463.876	85.88
464.096	81.88
464.316	91.88
464.536	95.88
464.755	102.88
464.975	106.88
465.195	157.88
465.414	160.88
465.634	109.88
465.854	92.88
466.073	84.88
466.293	92.88
466.512	78.88
466.732	81.88
466.951	80.88
467.171	93.88
467.391	90.88
467.61	98.88
467.829	86.88
468.049	114.88
468.268	117.88
468.488	96.88
468.707	80.88
468.927	84.88
469.146	84.88
469.365	92.88
469.585	88.88
469.804	97.88
470.023	84.88
470.243	98.88
470.462	101.88
470.681	110.88
470.901	86.88
471.12	87.88
471.339	88.88
471.558	93.88
471.777	89.88
471.997	84.88
472.216	118.88
472.435	153.88
472.654	82.88
472.873	93.88
473.092	86.88
473.311	83.88
473.53	90.88
473.749	92.88
473.968	95.88
474.187	99.88
474.406	92.88
474.625	91.88
474.844	87.88
475.063	91.88
475.282	92.88
475.501	85.88
475.72	91.88
475.939	92.88
476.158	91.88
476.377	88.88
476.596	87.88
476.814	78.88
477.033	88.88
477.252	90.88
477.471	90.88
477.69	89.88
477.908	88.88
478.127	101.88
478.346	95.88
478.564	91.88
478.783	87.88
479.002	87.88
479.22	97.88
479.439	97.88
479.658	110.88
479.876	105.88
480.095	107.88
480.313	88.88
480.532	84.88
480.751	89.88
480.969	119.88
481.188	236.88
481.406	166.88
481.624	98.88
481.843	93.88
482.061	85.88
482.28	105.88
482.498	76.88
482.717	83.88
482.935	101.88
483.153	72.88
483.372	92.88
483.59	80.88
483.808	83.88
484.027	104.88
484.245	87.88
484.463	83.88
484.681	84.88
484.9	82.88
485.118	91.88
485.336	101.88
485.554	96.88
485.772	97.88
485.99	107.88
486.209	111.88
486.427	103.88
486.645	108.88
486.863	112.88
487.081	101.88
487.299	100.88
487.517	87.88
487.735	97.88
487.953	89.88
488.171	88.88
488.389	95.88
488.607	104.88
488.825	96.88
489.043	84.88
489.261	90.88
489.479	96.88
489.696	80.88
489.914	83.88
490.132	85.88
490.35	99.88
490.568	93.88
490.786	99.88
491.003	98.88
491.221	84.88
491.439	82.88
491.657	89.88
491.874	76.88
492.092	85.88
492.31	96.88
492.527	94.88
492.745	91.88
492.963	96.88
493.18	72.88
493.398	87.88
493.615	94.88
493.833	95.88
494.05	88.88
494.268	89.88
494.485	92.88
494.703	94.88
494.92	92.88
495.138	85.88
495.355	96.88
495.573	96.88
495.79	87.88
496.008	103.88
496.225	88.88
496.442	94.88
496.66	94.88
496.877	90.88
497.094	89.88
497.312	73.88
497.529	102.88
497.746	95.88
497.963	104.88
498.181	101.88
498.398	95.88
498.615	117.88
498.832	104.88
499.049	89.88
499.267	82.88
499.484	65.88
499.701	97.88
499.918	100.88
500.135	104.88
500.352	96.88
500.569	74.88
500.786	92.88
501.003	85.88
501.22	88.88
501.437	99.88
501.654	98.88
501.871	106.88
502.088	89.88
502.305	90.88
502.522	98.88
502.739	82.88
502.956	88.88
503.172	85.88
503.389	99.88
503.606	101.88
503.823	86.88
504.04	88.88
504.256	109.88
504.473	93.88
504.69	95.88
504.907	102.88
505.123	86.88
505.34	92.88
505.557	85.88
505.773	95.88
505.99	81.88
506.207	102.88
506.423	88.88
506.64	87.88
506.856	77.88
507.073	83.88
507.289	104.88
507.506	83.88
507.722	86.88
507.939	114.88
508.155	101.88
508.372	91.88
508.588	94.88
508.805	97.88
509.021	94.88
509.238	101.88
509.454	89.88
509.67	99.88
509.887	112.88
510.103	129.88
510.319	208.88
510.536	703.88
510.752	2300.88
510.968	672.88
511.184	149.88
511.401	107.88
511.617	98.88
511.833	111.88
512.049	88.88
512.265	96.88
512.481	81.88
512.698	101.88
512.914	94.88
513.13	86.88
513.346	92.88
513.562	96.88
513.778	88.88
513.994	104.88
514.21	121.88
514.426	100.88
514.642	106.88
514.858	130.88
515.074	148.88
515.29	393.88
515.506	1336.88
515.721	524.88
