Data from Circ_2016_H10_HRD10591_00085.txt Node
Date: Wed Jan 03 09:58:57 EST 2024
User: Yrep
Spectrometer: HR+D1059
Trigger mode: 1
Integration Time (sec): 1.000000E-1
Scans to average: 1
Electric dark correction enabled: true
Nonlinearity correction enabled: false
Boxcar width: 0
XAxis mode: Wavelengths
Number of Pixels in Spectrum: 2048
>>>>>Begin Spectral Data<<<<<
223.165	-7.81
223.4	-7.81
223.635	-7.81
223.869	-9.81
224.104	-27.81
224.338	-3.81
224.573	0.19
224.808	-20.81
225.042	-14.81
225.277	-7.81
225.511	-17.81
225.746	5.19
225.98	12.19
226.215	17.19
226.449	10.19
226.683	37.19
226.918	5.19
227.152	23.19
227.387	34.19
227.621	39.19
227.856	34.19
228.09	66.19
228.324	63.19
228.559	48.19
228.793	55.19
229.027	71.19
229.262	58.19
229.496	70.19
229.73	85.19
229.964	94.19
230.199	86.19
230.433	74.19
230.667	75.19
230.901	81.19
231.136	69.19
231.37	73.19
231.604	66.19
231.838	70.19
232.072	63.19
232.306	79.19
232.541	83.19
232.775	81.19
233.009	70.19
233.243	71.19
233.477	67.19
233.711	78.19
233.945	88.19
234.179	82.19
234.413	87.19
234.647	77.19
234.881	70.19
235.115	70.19
235.349	61.19
235.583	72.19
235.817	63.19
236.051	79.19
236.285	68.19
236.519	85.19
236.753	80.19
236.987	71.19
237.221	74.19
237.455	78.19
237.689	72.19
237.922	72.19
238.156	75.19
238.39	72.19
238.624	59.19
238.858	77.19
239.091	73.19
239.325	76.19
239.559	68.19
239.793	81.19
240.027	82.19
240.26	82.19
240.494	62.19
240.728	75.19
240.961	79.19
241.195	74.19
241.429	70.19
241.662	75.19
241.896	66.19
242.13	61.19
242.363	75.19
242.597	71.19
242.83	76.19
243.064	74.19
243.298	78.19
243.531	87.19
243.765	87.19
243.998	84.19
244.232	75.19
244.465	63.19
244.699	72.19
244.932	71.19
245.166	80.19
245.399	72.19
245.633	71.19
245.866	79.19
246.099	78.19
246.333	66.19
246.566	78.19
246.8	69.19
247.033	90.19
247.266	85.19
247.5	77.19
247.733	69.19
247.966	61.19
248.2	86.19
248.433	88.19
248.666	63.19
248.899	71.19
249.133	80.19
249.366	99.19
249.599	93.19
249.832	101.19
250.066	82.19
250.299	78.19
250.532	81.19
250.765	64.19
250.998	70.19
251.231	65.19
251.465	80.19
251.698	79.19
251.931	82.19
252.164	79.19
252.397	75.19
252.63	68.19
252.863	80.19
253.096	80.19
253.329	78.19
253.562	76.19
253.795	100.19
254.028	94.19
254.261	75.19
254.494	91.19
254.727	72.19
254.96	72.19
255.193	73.19
255.426	67.19
255.659	91.19
255.892	82.19
256.124	100.19
256.357	69.19
256.59	78.19
256.823	75.19
257.056	75.19
257.289	57.19
257.521	70.19
257.754	81.19
257.987	72.19
258.22	70.19
258.452	84.19
258.685	98.19
258.918	92.19
259.151	71.19
259.383	87.19
259.616	86.19
259.849	91.19
260.081	70.19
260.314	76.19
260.547	86.19
260.779	60.19
261.012	84.19
261.244	83.19
261.477	76.19
261.71	93.19
261.942	100.19
262.175	103.19
262.407	87.19
262.64	60.19
262.872	74.19
263.105	88.19
263.337	83.19
263.57	86.19
263.802	88.19
264.035	77.19
264.267	75.19
264.499	73.19
264.732	80.19
264.964	94.19
265.197	91.19
265.429	88.19
265.661	73.19
265.894	78.19
266.126	86.19
266.358	83.19
266.591	78.19
266.823	82.19
267.055	88.19
267.287	86.19
267.52	78.19
267.752	73.19
267.984	94.19
268.216	76.19
268.448	91.19
268.681	83.19
268.913	99.19
269.145	74.19
269.377	90.19
269.609	86.19
269.841	79.19
270.073	82.19
270.306	82.19
270.538	65.19
270.77	87.19
271.002	79.19
271.234	76.19
271.466	76.19
271.698	80.19
271.93	88.19
272.162	73.19
272.394	98.19
272.626	76.19
272.858	68.19
273.09	86.19
273.322	75.19
273.553	70.19
273.785	87.19
274.017	79.19
274.249	94.19
274.481	86.19
274.713	81.19
274.945	84.19
275.176	65.19
275.408	97.19
275.64	82.19
275.872	80.19
276.104	71.19
276.335	78.19
276.567	106.19
276.799	114.19
277.031	103.19
277.262	87.19
277.494	78.19
277.726	84.19
277.957	88.19
278.189	71.19
278.421	81.19
278.652	75.19
278.884	83.19
279.115	75.19
279.347	79.19
279.579	95.19
279.81	79.19
280.042	84.19
280.273	92.19
280.505	87.19
280.736	88.19
280.968	92.19
281.199	78.19
281.431	83.19
281.662	82.19
281.894	84.19
282.125	82.19
282.356	115.19
282.588	136.19
282.819	104.19
283.051	88.19
283.282	98.19
283.513	75.19
283.745	89.19
283.976	79.19
284.207	85.19
284.439	71.19
284.67	78.19
284.901	105.19
285.132	103.19
285.364	87.19
285.595	90.19
285.826	77.19
286.057	92.19
286.288	77.19
286.52	78.19
286.751	97.19
286.982	90.19
287.213	83.19
287.444	83.19
287.675	81.19
287.906	83.19
288.138	91.19
288.369	104.19
288.6	104.19
288.831	84.19
289.062	80.19
289.293	88.19
289.524	95.19
289.755	89.19
289.986	81.19
290.217	92.19
290.448	90.19
290.679	78.19
290.91	86.19
291.141	85.19
291.371	89.19
291.602	80.19
291.833	78.19
292.064	78.19
292.295	90.19
292.526	87.19
292.757	89.19
292.987	88.19
293.218	77.19
293.449	78.19
293.68	73.19
293.91	83.19
294.141	83.19
294.372	99.19
294.603	86.19
294.833	84.19
295.064	83.19
295.295	81.19
295.525	94.19
295.756	101.19
295.987	102.19
296.217	136.19
296.448	125.19
296.679	83.19
296.909	74.19
297.14	78.19
297.37	87.19
297.601	88.19
297.831	83.19
298.062	95.19
298.292	91.19
298.523	95.19
298.753	81.19
298.984	84.19
299.214	81.19
299.445	85.19
299.675	99.19
299.905	95.19
300.136	82.19
300.366	84.19
300.597	81.19
300.827	91.19
301.057	92.19
301.288	113.19
301.518	84.19
301.748	92.19
301.979	96.19
302.209	79.19
302.439	95.19
302.669	87.19
302.9	85.19
303.13	98.19
303.36	78.19
303.59	93.19
303.82	108.19
304.051	91.19
304.281	80.19
304.511	93.19
304.741	85.19
304.971	92.19
305.201	92.19
305.431	93.19
305.661	80.19
305.891	97.19
306.121	85.19
306.352	96.19
306.582	99.19
306.812	103.19
307.042	73.19
307.272	100.19
307.502	97.19
307.731	94.19
307.961	82.19
308.191	90.19
308.421	90.19
308.651	98.19
308.881	83.19
309.111	80.19
309.341	91.19
309.571	99.19
309.8	77.19
310.03	89.19
310.26	85.19
310.49	95.19
310.72	88.19
310.949	100.19
311.179	98.19
311.409	88.19
311.639	94.19
311.868	84.19
312.098	98.19
312.328	90.19
312.557	81.19
312.787	107.19
313.017	85.19
313.246	103.19
313.476	83.19
313.706	89.19
313.935	114.19
314.165	95.19
314.394	106.19
314.624	99.19
314.853	103.19
315.083	94.19
315.312	103.19
315.542	98.19
315.771	88.19
316.001	89.19
316.23	87.19
316.46	88.19
316.689	103.19
316.919	91.19
317.148	92.19
317.377	95.19
317.607	96.19
317.836	98.19
318.065	85.19
318.295	80.19
318.524	82.19
318.753	98.19
318.983	99.19
319.212	91.19
319.441	111.19
319.67	117.19
319.9	96.19
320.129	88.19
320.358	89.19
320.587	96.19
320.816	95.19
321.046	105.19
321.275	114.19
321.504	97.19
321.733	96.19
321.962	91.19
322.191	106.19
322.42	104.19
322.649	115.19
322.878	113.19
323.108	130.19
323.337	121.19
323.566	148.19
323.795	154.19
324.024	225.19
324.253	430.19
324.482	935.19
324.71	1897.19
324.939	2516.19
325.168	902.19
325.397	262.19
325.626	163.19
325.855	129.19
326.084	136.19
326.313	135.19
326.542	162.19
326.77	252.19
326.999	518.19
327.228	1044.19
327.457	1982.19
327.686	1503.19
327.914	402.19
328.143	193.19
328.372	162.19
328.6	123.19
328.829	121.19
329.058	124.19
329.287	137.19
329.515	114.19
329.744	112.19
329.972	120.19
330.201	155.19
330.43	169.19
330.658	160.19
330.887	170.19
331.115	138.19
331.344	98.19
331.572	91.19
331.801	106.19
332.03	100.19
332.258	103.19
332.486	97.19
332.715	103.19
332.943	94.19
333.172	90.19
333.4	114.19
333.629	106.19
333.857	104.19
334.085	128.19
334.314	135.19
334.542	175.19
334.771	183.19
334.999	124.19
335.227	89.19
335.455	86.19
335.684	97.19
335.912	88.19
336.14	110.19
336.369	101.19
336.597	99.19
336.825	90.19
337.053	87.19
337.281	83.19
337.51	88.19
337.738	97.19
337.966	90.19
338.194	87.19
338.422	96.19
338.65	93.19
338.878	88.19
339.106	95.19
339.334	93.19
339.562	91.19
339.79	82.19
340.018	76.19
340.246	75.19
340.474	98.19
340.702	90.19
340.93	80.19
341.158	86.19
341.386	87.19
341.614	97.19
341.842	95.19
342.07	76.19
342.298	95.19
342.526	101.19
342.754	83.19
342.981	89.19
343.209	75.19
343.437	101.19
343.665	88.19
343.893	84.19
344.12	79.19
344.348	85.19
344.576	87.19
344.804	99.19
345.031	94.19
345.259	89.19
345.487	98.19
345.714	76.19
345.942	97.19
346.17	89.19
346.397	86.19
346.625	70.19
346.853	83.19
347.08	87.19
347.308	100.19
347.535	98.19
347.763	106.19
347.99	91.19
348.218	95.19
348.445	115.19
348.673	84.19
348.9	91.19
349.128	98.19
349.355	102.19
349.583	74.19
349.81	85.19
350.037	82.19
350.265	88.19
350.492	87.19
350.72	91.19
350.947	94.19
351.174	107.19
351.402	105.19
351.629	92.19
351.856	103.19
352.083	96.19
352.311	106.19
352.538	127.19
352.765	113.19
352.992	106.19
353.22	108.19
353.447	105.19
353.674	105.19
353.901	99.19
354.128	102.19
354.355	113.19
354.583	90.19
354.81	86.19
355.037	79.19
355.264	100.19
355.491	92.19
355.718	92.19
355.945	92.19
356.172	95.19
356.399	97.19
356.626	88.19
356.853	94.19
357.08	97.19
357.307	91.19
357.534	90.19
357.761	92.19
357.988	105.19
358.215	94.19
358.441	97.19
358.668	91.19
358.895	99.19
359.122	88.19
359.349	88.19
359.576	97.19
359.802	107.19
360.029	113.19
360.256	106.19
360.483	88.19
360.709	76.19
360.936	88.19
361.163	64.19
361.39	97.19
361.616	89.19
361.843	99.19
362.07	84.19
362.296	105.19
362.523	87.19
362.749	92.19
362.976	84.19
363.203	84.19
363.429	95.19
363.656	89.19
363.882	91.19
364.109	83.19
364.335	88.19
364.562	98.19
364.788	82.19
365.015	90.19
365.241	93.19
365.468	101.19
365.694	100.19
365.92	92.19
366.147	87.19
366.373	102.19
366.599	87.19
366.826	80.19
367.052	88.19
367.278	93.19
367.505	99.19
367.731	81.19
367.957	97.19
368.184	96.19
368.41	110.19
368.636	118.19
368.862	118.19
369.089	115.19
369.315	95.19
369.541	75.19
369.767	95.19
369.993	81.19
370.219	107.19
370.445	81.19
370.672	79.19
370.898	73.19
371.124	80.19
371.35	63.19
371.576	91.19
371.802	77.19
372.028	83.19
372.254	96.19
372.48	97.19
372.706	82.19
372.932	90.19
373.158	84.19
373.384	94.19
373.61	89.19
373.835	83.19
374.061	87.19
374.287	91.19
374.513	92.19
374.739	89.19
374.965	73.19
375.191	87.19
375.416	97.19
375.642	86.19
375.868	85.19
376.094	86.19
376.319	73.19
376.545	80.19
376.771	87.19
376.997	89.19
377.222	100.19
377.448	103.19
377.674	99.19
377.899	103.19
378.125	96.19
378.35	88.19
378.576	100.19
378.802	84.19
379.027	88.19
379.253	96.19
379.478	91.19
379.704	83.19
379.929	90.19
380.155	89.19
380.38	82.19
380.606	81.19
380.831	107.19
381.057	99.19
381.282	99.19
381.507	98.19
381.733	112.19
381.958	110.19
382.184	84.19
382.409	89.19
382.634	97.19
382.86	104.19
383.085	88.19
383.31	90.19
383.535	96.19
383.761	112.19
383.986	107.19
384.211	106.19
384.436	96.19
384.662	99.19
384.887	113.19
385.112	106.19
385.337	104.19
385.562	114.19
385.787	94.19
386.013	115.19
386.238	112.19
386.463	95.19
386.688	104.19
386.913	123.19
387.138	105.19
387.363	103.19
387.588	99.19
387.813	112.19
388.038	119.19
388.263	122.19
388.488	107.19
388.713	95.19
388.938	94.19
389.163	98.19
389.387	100.19
389.612	88.19
389.837	71.19
390.062	100.19
390.287	89.19
390.512	82.19
390.736	96.19
390.961	93.19
391.186	103.19
391.411	85.19
391.636	92.19
391.86	92.19
392.085	84.19
392.31	87.19
392.534	86.19
392.759	81.19
392.984	80.19
393.208	91.19
393.433	98.19
393.658	84.19
393.882	80.19
394.107	91.19
394.331	73.19
394.556	82.19
394.78	85.19
395.005	92.19
395.229	77.19
395.454	68.19
395.678	85.19
395.903	82.19
396.127	87.19
396.352	85.19
396.576	73.19
396.801	85.19
397.025	85.19
397.249	89.19
397.474	81.19
397.698	84.19
397.922	81.19
398.147	86.19
398.371	76.19
398.595	86.19
398.82	78.19
399.044	84.19
399.268	93.19
399.492	75.19
399.717	89.19
399.941	91.19
400.165	115.19
400.389	81.19
400.613	80.19
400.837	94.19
401.062	85.19
401.286	82.19
401.51	86.19
401.734	92.19
401.958	92.19
402.182	120.19
402.406	161.19
402.63	113.19
402.854	90.19
403.078	87.19
403.302	85.19
403.526	89.19
403.75	77.19
403.974	88.19
404.198	90.19
404.422	87.19
404.645	83.19
404.869	94.19
405.093	79.19
405.317	90.19
405.541	87.19
405.765	101.19
405.988	111.19
406.212	185.19
406.436	235.19
406.66	143.19
406.883	101.19
407.107	92.19
407.331	95.19
407.555	86.19
407.778	93.19
408.002	97.19
408.226	84.19
408.449	83.19
408.673	78.19
408.896	83.19
409.12	114.19
409.344	86.19
409.567	71.19
409.791	96.19
410.014	99.19
410.238	84.19
410.461	92.19
410.685	105.19
410.908	98.19
411.132	108.19
411.355	102.19
411.578	97.19
411.802	93.19
412.025	76.19
412.249	100.19
412.472	91.19
412.695	118.19
412.919	74.19
413.142	81.19
413.365	87.19
413.589	92.19
413.812	89.19
414.035	85.19
414.258	100.19
414.482	91.19
414.705	75.19
414.928	90.19
415.151	81.19
415.374	74.19
415.597	84.19
415.821	83.19
416.044	83.19
416.267	86.19
416.49	83.19
416.713	78.19
416.936	91.19
417.159	75.19
417.382	83.19
417.605	84.19
417.828	81.19
418.051	78.19
418.274	84.19
418.497	83.19
418.72	87.19
418.943	88.19
419.166	92.19
419.389	98.19
419.611	103.19
419.834	76.19
420.057	97.19
420.28	86.19
420.503	84.19
420.726	93.19
420.948	95.19
421.171	94.19
421.394	105.19
421.617	84.19
421.839	86.19
422.062	98.19
422.285	83.19
422.507	110.19
422.73	103.19
422.953	97.19
423.175	91.19
423.398	90.19
423.621	90.19
423.843	86.19
424.066	84.19
424.288	96.19
424.511	100.19
424.733	91.19
424.956	100.19
425.178	109.19
425.401	88.19
425.623	102.19
425.846	80.19
426.068	92.19
426.291	90.19
426.513	88.19
426.735	89.19
426.958	86.19
427.18	113.19
427.402	128.19
427.625	170.19
427.847	149.19
428.069	108.19
428.292	93.19
428.514	78.19
428.736	88.19
428.958	70.19
429.181	90.19
429.403	77.19
429.625	91.19
429.847	89.19
430.069	91.19
430.292	91.19
430.514	117.19
430.736	79.19
430.958	83.19
431.18	95.19
431.402	90.19
431.624	95.19
431.846	89.19
432.068	83.19
432.29	88.19
432.512	81.19
432.734	90.19
432.956	89.19
433.178	101.19
433.4	105.19
433.622	87.19
433.844	86.19
434.066	77.19
434.287	84.19
434.509	74.19
434.731	95.19
434.953	93.19
435.175	94.19
435.397	93.19
435.618	89.19
435.84	92.19
436.062	126.19
436.284	110.19
436.505	96.19
436.727	107.19
436.949	100.19
437.17	89.19
437.392	81.19
437.614	100.19
437.835	103.19
438.057	129.19
438.278	107.19
438.5	110.19
438.721	119.19
438.943	89.19
439.165	88.19
439.386	94.19
439.608	103.19
439.829	96.19
440.05	130.19
440.272	138.19
440.493	105.19
440.715	102.19
440.936	88.19
441.158	82.19
441.379	71.19
441.6	80.19
441.822	82.19
442.043	111.19
442.264	94.19
442.486	96.19
442.707	94.19
442.928	110.19
443.149	121.19
443.371	127.19
443.592	117.19
443.813	100.19
444.034	108.19
444.255	95.19
444.476	75.19
444.698	78.19
444.919	90.19
445.14	115.19
445.361	110.19
445.582	119.19
445.803	140.19
446.024	136.19
446.245	128.19
446.466	117.19
446.687	79.19
446.908	79.19
447.129	86.19
447.35	92.19
447.571	100.19
447.792	90.19
448.013	90.19
448.234	106.19
448.455	104.19
448.675	112.19
448.896	119.19
449.117	99.19
449.338	110.19
449.559	136.19
449.779	122.19
450	99.19
450.221	88.19
450.442	96.19
450.662	84.19
450.883	103.19
451.104	105.19
451.324	94.19
451.545	76.19
451.766	86.19
451.986	84.19
452.207	85.19
452.428	100.19
452.648	91.19
452.869	113.19
453.089	106.19
453.31	114.19
453.53	67.19
453.751	94.19
453.971	97.19
454.192	99.19
454.412	89.19
454.633	77.19
454.853	83.19
455.073	100.19
455.294	78.19
455.514	109.19
455.734	79.19
455.955	87.19
456.175	72.19
456.395	90.19
456.616	86.19
456.836	89.19
457.056	94.19
457.276	80.19
457.497	93.19
457.717	81.19
457.937	85.19
458.157	88.19
458.377	89.19
458.598	98.19
458.818	144.19
459.038	157.19
459.258	117.19
459.478	87.19
459.698	75.19
459.918	75.19
460.138	70.19
460.358	85.19
460.578	80.19
460.798	75.19
461.018	104.19
461.238	83.19
461.458	74.19
461.678	85.19
461.898	86.19
462.118	84.19
462.338	86.19
462.558	74.19
462.777	82.19
462.997	90.19
463.217	94.19
463.437	98.19
463.657	87.19
463.876	90.19
464.096	88.19
464.316	79.19
464.536	91.19
464.755	96.19
464.975	107.19
465.195	159.19
465.414	169.19
465.634	89.19
465.854	90.19
466.073	82.19
466.293	88.19
466.512	89.19
466.732	90.19
466.951	71.19
467.171	77.19
467.391	95.19
467.61	107.19
467.829	105.19
468.049	112.19
468.268	140.19
468.488	85.19
468.707	87.19
468.927	86.19
469.146	85.19
469.365	82.19
469.585	92.19
469.804	94.19
470.023	96.19
470.243	83.19
470.462	105.19
470.681	107.19
470.901	90.19
471.12	75.19
471.339	83.19
471.558	87.19
471.777	80.19
471.997	83.19
472.216	158.19
472.435	219.19
472.654	115.19
472.873	89.19
473.092	96.19
473.311	87.19
473.53	94.19
473.749	75.19
473.968	99.19
474.187	110.19
474.406	98.19
474.625	99.19
474.844	77.19
475.063	92.19
475.282	73.19
475.501	82.19
475.72	81.19
475.939	70.19
476.158	91.19
476.377	79.19
476.596	65.19
476.814	86.19
477.033	84.19
477.252	99.19
477.471	63.19
477.69	76.19
477.908	86.19
478.127	89.19
478.346	92.19
478.564	97.19
478.783	94.19
479.002	81.19
479.22	80.19
479.439	97.19
479.658	98.19
479.876	93.19
480.095	84.19
480.313	94.19
480.532	96.19
480.751	116.19
480.969	150.19
481.188	363.19
481.406	242.19
481.624	103.19
481.843	76.19
482.061	95.19
482.28	105.19
482.498	84.19
482.717	82.19
482.935	82.19
483.153	84.19
483.372	81.19
483.59	79.19
483.808	86.19
484.027	86.19
484.245	84.19
484.463	94.19
484.681	88.19
484.9	90.19
485.118	102.19
485.336	91.19
485.554	97.19
485.772	91.19
485.99	95.19
486.209	112.19
486.427	97.19
486.645	107.19
486.863	99.19
487.081	109.19
487.299	95.19
487.517	103.19
487.735	99.19
487.953	96.19
488.171	82.19
488.389	93.19
488.607	96.19
488.825	107.19
489.043	87.19
489.261	85.19
489.479	94.19
489.696	87.19
489.914	81.19
490.132	86.19
490.35	80.19
490.568	90.19
490.786	83.19
491.003	93.19
491.221	88.19
491.439	90.19
491.657	94.19
491.874	91.19
492.092	92.19
492.31	100.19
492.527	89.19
492.745	85.19
492.963	102.19
493.18	79.19
493.398	98.19
493.615	73.19
493.833	89.19
494.05	86.19
494.268	76.19
494.485	83.19
494.703	91.19
494.92	84.19
495.138	86.19
495.355	80.19
495.573	86.19
495.79	68.19
496.008	89.19
496.225	95.19
496.442	92.19
496.66	94.19
496.877	86.19
497.094	83.19
497.312	71.19
497.529	93.19
497.746	78.19
497.963	91.19
498.181	88.19
498.398	88.19
498.615	91.19
498.832	94.19
499.049	76.19
499.267	99.19
499.484	87.19
499.701	74.19
499.918	92.19
500.135	102.19
500.352	79.19
500.569	92.19
500.786	78.19
501.003	73.19
501.22	76.19
501.437	100.19
501.654	95.19
501.871	96.19
502.088	77.19
502.305	92.19
502.522	93.19
502.739	84.19
502.956	71.19
503.172	82.19
503.389	93.19
503.606	92.19
503.823	84.19
504.04	96.19
504.256	86.19
504.473	72.19
504.69	66.19
504.907	84.19
505.123	89.19
505.34	90.19
505.557	95.19
505.773	100.19
505.99	88.19
506.207	83.19
506.423	79.19
506.64	88.19
506.856	94.19
507.073	87.19
507.289	78.19
507.506	88.19
507.722	105.19
507.939	91.19
508.155	100.19
508.372	102.19
508.588	85.19
508.805	90.19
509.021	97.19
509.238	90.19
509.454	92.19
509.67	96.19
509.887	122.19
510.103	133.19
510.319	219.19
510.536	809.19
510.752	2723.19
510.968	764.19
511.184	164.19
511.401	116.19
511.617	81.19
511.833	86.19
512.049	103.19
512.265	84.19
512.481	102.19
512.698	78.19
512.914	77.19
513.13	102.19
513.346	104.19
513.562	105.19
513.778	99.19
513.994	106.19
514.21	103.19
514.426	92.19
514.642	134.19
514.858	132.19
515.074	175.19
515.29	469.19
515.506	1626.19
515.721	620.19
515.937	150.19
516.153	110.19
