Data from Circ_2016_H10_HRD10591_00063.txt Node
Date: Wed Jan 03 09:58:53 EST 2024
User: Yrep
Spectrometer: HR+D1059
Trigger mode: 1
Integration Time (sec): 1.000000E-1
Scans to average: 1
Electric dark correction enabled: true
Nonlinearity correction enabled: false
Boxcar width: 0
XAxis mode: Wavelengths
Number of Pixels in Spectrum: 2048
>>>>>Begin Spectral Data<<<<<
223.165	-13.31
223.4	-13.31
223.635	-13.31
223.869	-30.31
224.104	-19.31
224.338	-7.31
224.573	-22.31
224.808	-18.31
225.042	-8.31
225.277	-16.31
225.511	-7.31
225.746	9.69
225.98	7.69
226.215	13.69
226.449	5.69
226.683	31.69
226.918	23.69
227.152	50.69
227.387	49.69
227.621	27.69
227.856	31.69
228.09	41.69
228.324	51.69
228.559	60.69
228.793	50.69
229.027	72.69
229.262	72.69
229.496	70.69
229.73	78.69
229.964	90.69
230.199	78.69
230.433	75.69
230.667	74.69
230.901	79.69
231.136	83.69
231.37	85.69
231.604	84.69
231.838	93.69
232.072	88.69
232.306	77.69
232.541	78.69
232.775	91.69
233.009	69.69
233.243	86.69
233.477	85.69
233.711	79.69
233.945	86.69
234.179	88.69
234.413	71.69
234.647	77.69
234.881	69.69
235.115	84.69
235.349	74.69
235.583	76.69
235.817	87.69
236.051	80.69
236.285	76.69
236.519	75.69
236.753	90.69
236.987	77.69
237.221	76.69
237.455	79.69
237.689	72.69
237.922	66.69
238.156	77.69
238.39	84.69
238.624	73.69
238.858	78.69
239.091	70.69
239.325	85.69
239.559	74.69
239.793	78.69
240.027	79.69
240.26	86.69
240.494	85.69
240.728	88.69
240.961	80.69
241.195	80.69
241.429	71.69
241.662	74.69
241.896	70.69
242.13	78.69
242.363	88.69
242.597	73.69
242.83	78.69
243.064	70.69
243.298	77.69
243.531	79.69
243.765	77.69
243.998	93.69
244.232	89.69
244.465	87.69
244.699	78.69
244.932	73.69
245.166	73.69
245.399	99.69
245.633	86.69
245.866	82.69
246.099	80.69
246.333	89.69
246.566	79.69
246.8	78.69
247.033	68.69
247.266	71.69
247.5	74.69
247.733	79.69
247.966	76.69
248.2	83.69
248.433	84.69
248.666	86.69
248.899	84.69
249.133	92.69
249.366	94.69
249.599	98.69
249.832	92.69
250.066	86.69
250.299	91.69
250.532	78.69
250.765	80.69
250.998	73.69
251.231	75.69
251.465	91.69
251.698	76.69
251.931	82.69
252.164	90.69
252.397	70.69
252.63	85.69
252.863	83.69
253.096	70.69
253.329	87.69
253.562	80.69
253.795	72.69
254.028	71.69
254.261	77.69
254.494	85.69
254.727	80.69
254.96	74.69
255.193	79.69
255.426	79.69
255.659	78.69
255.892	91.69
256.124	98.69
256.357	78.69
256.59	81.69
256.823	81.69
257.056	93.69
257.289	86.69
257.521	76.69
257.754	84.69
257.987	83.69
258.22	98.69
258.452	79.69
258.685	62.69
258.918	78.69
259.151	83.69
259.383	89.69
259.616	87.69
259.849	69.69
260.081	85.69
260.314	75.69
260.547	75.69
260.779	80.69
261.012	77.69
261.244	89.69
261.477	82.69
261.71	94.69
261.942	116.69
262.175	131.69
262.407	84.69
262.64	96.69
262.872	96.69
263.105	87.69
263.337	76.69
263.57	82.69
263.802	86.69
264.035	69.69
264.267	86.69
264.499	81.69
264.732	77.69
264.964	89.69
265.197	83.69
265.429	78.69
265.661	88.69
265.894	87.69
266.126	88.69
266.358	96.69
266.591	93.69
266.823	77.69
267.055	80.69
267.287	76.69
267.52	88.69
267.752	93.69
267.984	87.69
268.216	83.69
268.448	102.69
268.681	76.69
268.913	86.69
269.145	83.69
269.377	90.69
269.609	78.69
269.841	74.69
270.073	90.69
270.306	86.69
270.538	86.69
270.77	83.69
271.002	86.69
271.234	89.69
271.466	91.69
271.698	86.69
271.93	86.69
272.162	104.69
272.394	79.69
272.626	103.69
272.858	82.69
273.09	87.69
273.322	78.69
273.553	86.69
273.785	88.69
274.017	89.69
274.249	86.69
274.481	91.69
274.713	71.69
274.945	78.69
275.176	83.69
275.408	84.69
275.64	91.69
275.872	92.69
276.104	92.69
276.335	103.69
276.567	90.69
276.799	99.69
277.031	101.69
277.262	100.69
277.494	88.69
277.726	75.69
277.957	87.69
278.189	90.69
278.421	82.69
278.652	96.69
278.884	84.69
279.115	93.69
279.347	95.69
279.579	70.69
279.81	77.69
280.042	82.69
280.273	92.69
280.505	91.69
280.736	77.69
280.968	88.69
281.199	89.69
281.431	85.69
281.662	90.69
281.894	105.69
282.125	110.69
282.356	110.69
282.588	151.69
282.819	116.69
283.051	84.69
283.282	85.69
283.513	93.69
283.745	93.69
283.976	97.69
284.207	91.69
284.439	78.69
284.67	81.69
284.901	93.69
285.132	97.69
285.364	87.69
285.595	93.69
285.826	89.69
286.057	93.69
286.288	93.69
286.52	74.69
286.751	98.69
286.982	88.69
287.213	75.69
287.444	86.69
287.675	95.69
287.906	113.69
288.138	93.69
288.369	90.69
288.6	85.69
288.831	97.69
289.062	90.69
289.293	79.69
289.524	91.69
289.755	84.69
289.986	85.69
290.217	100.69
290.448	86.69
290.679	96.69
290.91	101.69
291.141	98.69
291.371	96.69
291.602	86.69
291.833	98.69
292.064	92.69
292.295	91.69
292.526	86.69
292.757	99.69
292.987	91.69
293.218	77.69
293.449	99.69
293.68	82.69
293.91	85.69
294.141	82.69
294.372	80.69
294.603	78.69
294.833	87.69
295.064	98.69
295.295	87.69
295.525	92.69
295.756	97.69
295.987	110.69
296.217	140.69
296.448	129.69
296.679	91.69
296.909	87.69
297.14	89.69
297.37	97.69
297.601	94.69
297.831	75.69
298.062	92.69
298.292	105.69
298.523	93.69
298.753	99.69
298.984	90.69
299.214	100.69
299.445	90.69
299.675	96.69
299.905	94.69
300.136	84.69
300.366	89.69
300.597	99.69
300.827	84.69
301.057	86.69
301.288	110.69
301.518	98.69
301.748	83.69
301.979	92.69
302.209	92.69
302.439	85.69
302.669	100.69
302.9	87.69
303.13	91.69
303.36	102.69
303.59	105.69
303.82	100.69
304.051	93.69
304.281	93.69
304.511	94.69
304.741	89.69
304.971	83.69
305.201	78.69
305.431	94.69
305.661	86.69
305.891	99.69
306.121	93.69
306.352	114.69
306.582	96.69
306.812	89.69
307.042	101.69
307.272	85.69
307.502	102.69
307.731	94.69
307.961	98.69
308.191	96.69
308.421	108.69
308.651	92.69
308.881	89.69
309.111	104.69
309.341	87.69
309.571	91.69
309.8	92.69
310.03	91.69
310.26	92.69
310.49	97.69
310.72	90.69
310.949	95.69
311.179	92.69
311.409	98.69
311.639	109.69
311.868	103.69
312.098	98.69
312.328	101.69
312.557	97.69
312.787	115.69
313.017	98.69
313.246	100.69
313.476	94.69
313.706	93.69
313.935	90.69
314.165	107.69
314.394	115.69
314.624	91.69
314.853	99.69
315.083	95.69
315.312	85.69
315.542	87.69
315.771	96.69
316.001	98.69
316.23	97.69
316.46	84.69
316.689	65.69
316.919	89.69
317.148	103.69
317.377	107.69
317.607	92.69
317.836	76.69
318.065	89.69
318.295	105.69
318.524	92.69
318.753	97.69
318.983	96.69
319.212	107.69
319.441	113.69
319.67	106.69
319.9	101.69
320.129	77.69
320.358	84.69
320.587	87.69
320.816	106.69
321.046	113.69
321.275	95.69
321.504	92.69
321.733	116.69
321.962	89.69
322.191	93.69
322.42	116.69
322.649	113.69
322.878	104.69
323.108	114.69
323.337	137.69
323.566	133.69
323.795	150.69
324.024	211.69
324.253	411.69
324.482	869.69
324.71	1715.69
324.939	2275.69
325.168	849.69
325.397	253.69
325.626	155.69
325.855	126.69
326.084	129.69
326.313	132.69
326.542	152.69
326.77	249.69
326.999	468.69
327.228	1003.69
327.457	1726.69
327.686	1382.69
327.914	375.69
328.143	201.69
328.372	169.69
328.6	119.69
328.829	116.69
329.058	127.69
329.287	132.69
329.515	111.69
329.744	124.69
329.972	101.69
330.201	139.69
330.43	147.69
330.658	138.69
330.887	153.69
331.115	118.69
331.344	85.69
331.572	109.69
331.801	104.69
332.03	100.69
332.258	96.69
332.486	87.69
332.715	96.69
332.943	90.69
333.172	99.69
333.4	100.69
333.629	125.69
333.857	120.69
334.085	113.69
334.314	135.69
334.542	158.69
334.771	155.69
334.999	101.69
335.227	102.69
335.455	82.69
335.684	102.69
335.912	94.69
336.14	86.69
336.369	93.69
336.597	91.69
336.825	102.69
337.053	83.69
337.281	90.69
337.51	89.69
337.738	90.69
337.966	115.69
338.194	99.69
338.422	85.69
338.65	105.69
338.878	115.69
339.106	105.69
339.334	104.69
339.562	104.69
339.79	87.69
340.018	87.69
340.246	89.69
340.474	80.69
340.702	83.69
340.93	90.69
341.158	86.69
341.386	100.69
341.614	86.69
341.842	78.69
342.07	101.69
342.298	98.69
342.526	98.69
342.754	98.69
342.981	92.69
343.209	84.69
343.437	99.69
343.665	99.69
343.893	84.69
344.12	114.69
344.348	86.69
344.576	91.69
344.804	102.69
345.031	96.69
345.259	107.69
345.487	101.69
345.714	94.69
345.942	91.69
346.17	99.69
346.397	99.69
346.625	101.69
346.853	90.69
347.08	79.69
347.308	105.69
347.535	93.69
347.763	94.69
347.99	85.69
348.218	102.69
348.445	101.69
348.673	105.69
348.9	99.69
349.128	83.69
349.355	99.69
349.583	92.69
349.81	88.69
350.037	95.69
350.265	92.69
350.492	95.69
350.72	96.69
350.947	105.69
351.174	102.69
351.402	103.69
351.629	97.69
351.856	110.69
352.083	117.69
352.311	119.69
352.538	93.69
352.765	117.69
352.992	98.69
353.22	133.69
353.447	92.69
353.674	85.69
353.901	104.69
354.128	105.69
354.355	101.69
354.583	102.69
354.81	94.69
355.037	106.69
355.264	97.69
355.491	106.69
355.718	106.69
355.945	90.69
356.172	90.69
356.399	90.69
356.626	100.69
356.853	106.69
357.08	86.69
357.307	71.69
357.534	83.69
357.761	80.69
357.988	85.69
358.215	91.69
358.441	94.69
358.668	98.69
358.895	84.69
359.122	80.69
359.349	79.69
359.576	86.69
359.802	105.69
360.029	108.69
360.256	128.69
360.483	112.69
360.709	91.69
360.936	90.69
361.163	103.69
361.39	97.69
361.616	93.69
361.843	85.69
362.07	94.69
362.296	98.69
362.523	90.69
362.749	98.69
362.976	97.69
363.203	86.69
363.429	101.69
363.656	97.69
363.882	85.69
364.109	86.69
364.335	88.69
364.562	92.69
364.788	95.69
365.015	91.69
365.241	103.69
365.468	94.69
365.694	89.69
365.92	105.69
366.147	90.69
366.373	95.69
366.599	96.69
366.826	101.69
367.052	82.69
367.278	96.69
367.505	81.69
367.731	86.69
367.957	92.69
368.184	90.69
368.41	102.69
368.636	94.69
368.862	130.69
369.089	102.69
369.315	94.69
369.541	98.69
369.767	74.69
369.993	85.69
370.219	86.69
370.445	83.69
370.672	101.69
370.898	89.69
371.124	97.69
371.35	88.69
371.576	90.69
371.802	97.69
372.028	97.69
372.254	80.69
372.48	102.69
372.706	100.69
372.932	81.69
373.158	83.69
373.384	91.69
373.61	95.69
373.835	101.69
374.061	91.69
374.287	91.69
374.513	81.69
374.739	88.69
374.965	90.69
375.191	90.69
375.416	83.69
375.642	97.69
375.868	78.69
376.094	91.69
376.319	86.69
376.545	82.69
376.771	86.69
376.997	74.69
377.222	94.69
377.448	95.69
377.674	84.69
377.899	85.69
378.125	82.69
378.35	100.69
378.576	85.69
378.802	87.69
379.027	85.69
379.253	110.69
379.478	81.69
379.704	88.69
379.929	99.69
380.155	99.69
380.38	91.69
380.606	104.69
380.831	96.69
381.057	102.69
381.282	91.69
381.507	98.69
381.733	106.69
381.958	99.69
382.184	102.69
382.409	111.69
382.634	109.69
382.86	106.69
383.085	95.69
383.31	108.69
383.535	97.69
383.761	110.69
383.986	97.69
384.211	94.69
384.436	94.69
384.662	96.69
384.887	112.69
385.112	110.69
385.337	116.69
385.562	117.69
385.787	110.69
386.013	116.69
386.238	137.69
386.463	100.69
386.688	120.69
386.913	116.69
387.138	134.69
387.363	105.69
387.588	107.69
387.813	103.69
388.038	126.69
388.263	110.69
388.488	115.69
388.713	101.69
388.938	87.69
389.163	94.69
389.387	99.69
389.612	98.69
389.837	98.69
390.062	93.69
390.287	99.69
390.512	90.69
390.736	104.69
390.961	90.69
391.186	89.69
391.411	88.69
391.636	85.69
391.86	84.69
392.085	88.69
392.31	84.69
392.534	77.69
392.759	82.69
392.984	88.69
393.208	90.69
393.433	83.69
393.658	101.69
393.882	83.69
394.107	83.69
394.331	97.69
394.556	87.69
394.78	94.69
395.005	91.69
395.229	93.69
395.454	76.69
395.678	88.69
395.903	94.69
396.127	92.69
396.352	82.69
396.576	86.69
396.801	88.69
397.025	87.69
397.249	93.69
397.474	87.69
397.698	91.69
397.922	76.69
398.147	87.69
398.371	86.69
398.595	90.69
398.82	92.69
399.044	97.69
399.268	91.69
399.492	95.69
399.717	89.69
399.941	88.69
400.165	87.69
400.389	78.69
400.613	62.69
400.837	97.69
401.062	86.69
401.286	90.69
401.51	93.69
401.734	84.69
401.958	106.69
402.182	106.69
402.406	158.69
402.63	138.69
402.854	95.69
403.078	93.69
403.302	83.69
403.526	90.69
403.75	84.69
403.974	94.69
404.198	78.69
404.422	95.69
404.645	96.69
404.869	90.69
405.093	87.69
405.317	105.69
405.541	90.69
405.765	105.69
405.988	111.69
406.212	169.69
406.436	244.69
406.66	145.69
406.883	107.69
407.107	89.69
407.331	91.69
407.555	96.69
407.778	94.69
408.002	77.69
408.226	97.69
408.449	105.69
408.673	94.69
408.896	105.69
409.12	96.69
409.344	92.69
409.567	94.69
409.791	93.69
410.014	102.69
410.238	113.69
410.461	85.69
410.685	103.69
410.908	109.69
411.132	106.69
411.355	90.69
411.578	94.69
411.802	99.69
412.025	88.69
412.249	91.69
412.472	91.69
412.695	84.69
412.919	89.69
413.142	84.69
413.365	74.69
413.589	90.69
413.812	95.69
414.035	85.69
414.258	103.69
414.482	78.69
414.705	81.69
414.928	89.69
415.151	92.69
415.374	95.69
415.597	78.69
415.821	75.69
416.044	78.69
416.267	94.69
416.49	90.69
416.713	93.69
416.936	84.69
417.159	75.69
417.382	98.69
417.605	81.69
417.828	99.69
418.051	101.69
418.274	90.69
418.497	87.69
418.72	80.69
418.943	87.69
419.166	89.69
419.389	85.69
419.611	79.69
419.834	92.69
420.057	104.69
420.28	105.69
420.503	83.69
420.726	88.69
420.948	74.69
421.171	90.69
421.394	85.69
421.617	80.69
421.839	83.69
422.062	102.69
422.285	94.69
422.507	90.69
422.73	102.69
422.953	94.69
423.175	94.69
423.398	80.69
423.621	90.69
423.843	84.69
424.066	84.69
424.288	95.69
424.511	88.69
424.733	87.69
424.956	109.69
425.178	99.69
425.401	107.69
425.623	108.69
425.846	95.69
426.068	102.69
426.291	95.69
426.513	70.69
426.735	91.69
426.958	92.69
427.18	104.69
427.402	153.69
427.625	165.69
427.847	134.69
428.069	119.69
428.292	89.69
428.514	91.69
428.736	102.69
428.958	93.69
429.181	90.69
429.403	89.69
429.625	82.69
429.847	88.69
430.069	102.69
430.292	87.69
430.514	85.69
430.736	91.69
430.958	77.69
431.18	90.69
431.402	91.69
431.624	82.69
431.846	90.69
432.068	77.69
432.29	74.69
432.512	89.69
432.734	84.69
432.956	79.69
433.178	89.69
433.4	86.69
433.622	97.69
433.844	85.69
434.066	85.69
434.287	99.69
434.509	102.69
434.731	79.69
434.953	92.69
435.175	89.69
435.397	87.69
435.618	87.69
435.84	86.69
436.062	108.69
436.284	120.69
436.505	103.69
436.727	97.69
436.949	88.69
437.17	92.69
437.392	86.69
437.614	87.69
437.835	94.69
438.057	115.69
438.278	107.69
438.5	96.69
438.721	121.69
438.943	106.69
439.165	91.69
439.386	91.69
439.608	91.69
439.829	92.69
440.05	110.69
440.272	139.69
440.493	91.69
440.715	93.69
440.936	95.69
441.158	85.69
441.379	90.69
441.6	93.69
441.822	86.69
442.043	94.69
442.264	100.69
442.486	111.69
442.707	95.69
442.928	108.69
443.149	148.69
443.371	133.69
443.592	94.69
443.813	116.69
444.034	103.69
444.255	91.69
444.476	97.69
444.698	93.69
444.919	92.69
445.14	141.69
445.361	129.69
445.582	110.69
445.803	131.69
446.024	137.69
446.245	133.69
446.466	109.69
446.687	81.69
446.908	82.69
447.129	86.69
447.35	84.69
447.571	93.69
447.792	90.69
448.013	110.69
448.234	93.69
448.455	100.69
448.675	115.69
448.896	134.69
449.117	97.69
449.338	89.69
449.559	118.69
449.779	136.69
450	100.69
450.221	83.69
450.442	102.69
450.662	101.69
450.883	87.69
451.104	102.69
451.324	85.69
451.545	86.69
451.766	93.69
451.986	79.69
452.207	86.69
452.428	94.69
452.648	93.69
452.869	110.69
453.089	109.69
453.31	117.69
453.53	93.69
453.751	105.69
453.971	114.69
454.192	95.69
454.412	93.69
454.633	85.69
454.853	81.69
455.073	74.69
455.294	91.69
455.514	87.69
455.734	85.69
455.955	83.69
456.175	89.69
456.395	85.69
456.616	90.69
456.836	90.69
457.056	72.69
457.276	92.69
457.497	85.69
457.717	94.69
457.937	75.69
458.157	93.69
458.377	95.69
458.598	105.69
458.818	146.69
459.038	157.69
459.258	123.69
459.478	90.69
459.698	93.69
459.918	77.69
460.138	79.69
460.358	79.69
460.578	78.69
460.798	86.69
461.018	76.69
461.238	99.69
461.458	85.69
461.678	77.69
461.898	91.69
462.118	85.69
462.338	84.69
462.558	94.69
462.777	95.69
462.997	83.69
463.217	94.69
463.437	86.69
463.657	89.69
463.876	88.69
464.096	80.69
464.316	90.69
464.536	86.69
464.755	82.69
464.975	110.69
465.195	161.69
465.414	165.69
465.634	91.69
465.854	99.69
466.073	105.69
466.293	100.69
466.512	83.69
466.732	89.69
466.951	97.69
467.171	97.69
467.391	98.69
467.61	106.69
467.829	98.69
468.049	101.69
468.268	103.69
468.488	84.69
468.707	80.69
468.927	85.69
469.146	94.69
469.365	86.69
469.585	102.69
469.804	94.69
470.023	96.69
470.243	108.69
470.462	106.69
470.681	97.69
470.901	88.69
471.12	89.69
471.339	90.69
471.558	95.69
471.777	89.69
471.997	92.69
472.216	131.69
472.435	182.69
472.654	104.69
472.873	106.69
473.092	87.69
473.311	85.69
473.53	97.69
473.749	91.69
473.968	84.69
474.187	93.69
474.406	100.69
474.625	87.69
474.844	89.69
475.063	87.69
475.282	82.69
475.501	93.69
475.72	94.69
475.939	93.69
476.158	94.69
476.377	92.69
476.596	75.69
476.814	86.69
477.033	109.69
477.252	103.69
477.471	67.69
477.69	95.69
477.908	92.69
478.127	85.69
478.346	87.69
478.564	91.69
478.783	105.69
479.002	110.69
479.22	95.69
479.439	96.69
479.658	110.69
479.876	89.69
480.095	80.69
480.313	100.69
480.532	93.69
480.751	86.69
480.969	127.69
481.188	258.69
481.406	168.69
481.624	96.69
481.843	79.69
482.061	90.69
482.28	87.69
482.498	88.69
482.717	90.69
482.935	86.69
483.153	85.69
483.372	91.69
483.59	84.69
483.808	90.69
484.027	85.69
484.245	94.69
484.463	97.69
484.681	82.69
484.9	96.69
485.118	94.69
485.336	103.69
485.554	91.69
485.772	113.69
485.99	103.69
486.209	110.69
486.427	110.69
486.645	127.69
486.863	100.69
487.081	106.69
487.299	102.69
487.517	97.69
487.735	95.69
487.953	92.69
488.171	96.69
488.389	96.69
488.607	107.69
488.825	99.69
489.043	90.69
489.261	99.69
489.479	90.69
489.696	91.69
489.914	86.69
490.132	72.69
490.35	101.69
490.568	73.69
490.786	86.69
491.003	86.69
491.221	87.69
491.439	98.69
491.657	95.69
491.874	94.69
492.092	92.69
492.31	98.69
492.527	95.69
492.745	65.69
492.963	89.69
493.18	93.69
493.398	88.69
493.615	94.69
493.833	88.69
494.05	99.69
494.268	98.69
494.485	96.69
494.703	97.69
494.92	85.69
495.138	79.69
495.355	91.69
495.573	83.69
495.79	97.69
496.008	89.69
496.225	91.69
496.442	89.69
496.66	98.69
496.877	91.69
497.094	96.69
497.312	97.69
497.529	103.69
497.746	97.69
497.963	94.69
498.181	88.69
498.398	98.69
498.615	96.69
498.832	100.69
499.049	103.69
499.267	87.69
499.484	79.69
499.701	96.69
499.918	89.69
500.135	85.69
500.352	82.69
500.569	93.69
500.786	99.69
501.003	93.69
501.22	79.69
501.437	82.69
501.654	107.69
501.871	103.69
502.088	87.69
502.305	99.69
502.522	91.69
502.739	93.69
502.956	91.69
503.172	101.69
503.389	100.69
503.606	107.69
503.823	103.69
504.04	91.69
504.256	86.69
504.473	86.69
504.69	75.69
504.907	90.69
505.123	106.69
505.34	78.69
505.557	91.69
505.773	76.69
505.99	80.69
506.207	78.69
506.423	93.69
506.64	84.69
506.856	88.69
507.073	87.69
507.289	101.69
507.506	83.69
507.722	97.69
507.939	103.69
508.155	100.69
508.372	96.69
508.588	90.69
508.805	102.69
509.021	109.69
509.238	103.69
509.454	99.69
509.67	114.69
509.887	115.69
510.103	127.69
510.319	215.69
510.536	844.69
510.752	2785.69
510.968	785.69
511.184	181.69
511.401	114.69
511.617	100.69
511.833	85.69
512.049	99.69
512.265	90.69
512.481	88.69
512.698	82.69
512.914	96.69
513.13	99.69
513.346	89.69
513.562	87.69
513.778	106.69
513.994	103.69
514.21	103.69
514.426	146.69
514.642	139.69
514.858	135.69
515.074	173.69
515.29	463.69
