Data from Circ_2016_H10_HRD10591_00097.txt Node
Date: Wed Jan 03 09:59:00 EST 2024
User: Yrep
Spectrometer: HR+D1059
Trigger mode: 1
Integration Time (sec): 1.000000E-1
Scans to average: 1
Electric dark correction enabled: true
Nonlinearity correction enabled: false
Boxcar width: 0
XAxis mode: Wavelengths
Number of Pixels in Spectrum: 2048
>>>>>Begin Spectral Data<<<<<
223.165	-30.44
223.4	-30.44
223.635	-30.44
223.869	-29.44
224.104	-18.44
224.338	-11.44
224.573	-6.44
224.808	-17.44
225.042	-6.44
225.277	-1.44
225.511	-20.44
225.746	-2.44
225.98	3.56
226.215	12.56
226.449	24.56
226.683	27.56
226.918	36.56
227.152	39.56
227.387	28.56
227.621	37.56
227.856	39.56
228.09	37.56
228.324	61.56
228.559	55.56
228.793	50.56
229.027	62.56
229.262	54.56
229.496	82.56
229.73	73.56
229.964	74.56
230.199	80.56
230.433	80.56
230.667	76.56
230.901	79.56
231.136	76.56
231.37	81.56
231.604	78.56
231.838	85.56
232.072	79.56
232.306	78.56
232.541	72.56
232.775	82.56
233.009	82.56
233.243	85.56
233.477	75.56
233.711	84.56
233.945	77.56
234.179	85.56
234.413	79.56
234.647	77.56
234.881	88.56
235.115	78.56
235.349	76.56
235.583	91.56
235.817	82.56
236.051	82.56
236.285	78.56
236.519	87.56
236.753	82.56
236.987	76.56
237.221	81.56
237.455	85.56
237.689	81.56
237.922	77.56
238.156	67.56
238.39	77.56
238.624	70.56
238.858	82.56
239.091	82.56
239.325	69.56
239.559	70.56
239.793	75.56
240.027	79.56
240.26	79.56
240.494	91.56
240.728	68.56
240.961	83.56
241.195	77.56
241.429	75.56
241.662	81.56
241.896	78.56
242.13	87.56
242.363	77.56
242.597	76.56
242.83	77.56
243.064	79.56
243.298	63.56
243.531	70.56
243.765	93.56
243.998	81.56
244.232	89.56
244.465	79.56
244.699	91.56
244.932	79.56
245.166	80.56
245.399	71.56
245.633	63.56
245.866	73.56
246.099	94.56
246.333	91.56
246.566	85.56
246.8	71.56
247.033	87.56
247.266	74.56
247.5	84.56
247.733	80.56
247.966	74.56
248.2	69.56
248.433	90.56
248.666	87.56
248.899	83.56
249.133	98.56
249.366	78.56
249.599	90.56
249.832	84.56
250.066	82.56
250.299	83.56
250.532	72.56
250.765	75.56
250.998	68.56
251.231	87.56
251.465	69.56
251.698	74.56
251.931	87.56
252.164	74.56
252.397	97.56
252.63	76.56
252.863	78.56
253.096	78.56
253.329	86.56
253.562	74.56
253.795	82.56
254.028	87.56
254.261	93.56
254.494	77.56
254.727	90.56
254.96	93.56
255.193	90.56
255.426	79.56
255.659	71.56
255.892	83.56
256.124	81.56
256.357	89.56
256.59	88.56
256.823	82.56
257.056	92.56
257.289	78.56
257.521	72.56
257.754	83.56
257.987	86.56
258.22	84.56
258.452	77.56
258.685	75.56
258.918	75.56
259.151	92.56
259.383	84.56
259.616	94.56
259.849	74.56
260.081	68.56
260.314	86.56
260.547	89.56
260.779	78.56
261.012	71.56
261.244	81.56
261.477	91.56
261.71	90.56
261.942	95.56
262.175	110.56
262.407	97.56
262.64	79.56
262.872	83.56
263.105	83.56
263.337	75.56
263.57	92.56
263.802	89.56
264.035	85.56
264.267	90.56
264.499	87.56
264.732	87.56
264.964	90.56
265.197	94.56
265.429	88.56
265.661	78.56
265.894	73.56
266.126	77.56
266.358	87.56
266.591	79.56
266.823	69.56
267.055	82.56
267.287	75.56
267.52	77.56
267.752	85.56
267.984	78.56
268.216	83.56
268.448	90.56
268.681	85.56
268.913	84.56
269.145	89.56
269.377	85.56
269.609	69.56
269.841	84.56
270.073	74.56
270.306	83.56
270.538	84.56
270.77	92.56
271.002	84.56
271.234	73.56
271.466	79.56
271.698	94.56
271.93	106.56
272.162	71.56
272.394	99.56
272.626	79.56
272.858	82.56
273.09	74.56
273.322	81.56
273.553	87.56
273.785	93.56
274.017	88.56
274.249	88.56
274.481	82.56
274.713	78.56
274.945	85.56
275.176	83.56
275.408	84.56
275.64	88.56
275.872	75.56
276.104	86.56
276.335	98.56
276.567	89.56
276.799	90.56
277.031	95.56
277.262	85.56
277.494	91.56
277.726	96.56
277.957	81.56
278.189	91.56
278.421	91.56
278.652	87.56
278.884	86.56
279.115	87.56
279.347	84.56
279.579	77.56
279.81	79.56
280.042	96.56
280.273	86.56
280.505	105.56
280.736	92.56
280.968	83.56
281.199	102.56
281.431	73.56
281.662	86.56
281.894	89.56
282.125	102.56
282.356	114.56
282.588	129.56
282.819	118.56
283.051	84.56
283.282	89.56
283.513	78.56
283.745	74.56
283.976	88.56
284.207	79.56
284.439	87.56
284.67	98.56
284.901	79.56
285.132	95.56
285.364	86.56
285.595	86.56
285.826	92.56
286.057	92.56
286.288	84.56
286.52	83.56
286.751	95.56
286.982	86.56
287.213	79.56
287.444	84.56
287.675	91.56
287.906	89.56
288.138	89.56
288.369	89.56
288.6	92.56
288.831	84.56
289.062	91.56
289.293	77.56
289.524	91.56
289.755	81.56
289.986	94.56
290.217	91.56
290.448	90.56
290.679	93.56
290.91	74.56
291.141	91.56
291.371	78.56
291.602	89.56
291.833	69.56
292.064	95.56
292.295	100.56
292.526	85.56
292.757	80.56
292.987	92.56
293.218	68.56
293.449	84.56
293.68	84.56
293.91	94.56
294.141	81.56
294.372	74.56
294.603	90.56
294.833	84.56
295.064	85.56
295.295	106.56
295.525	86.56
295.756	94.56
295.987	114.56
296.217	130.56
296.448	115.56
296.679	82.56
296.909	85.56
297.14	78.56
297.37	95.56
297.601	93.56
297.831	85.56
298.062	92.56
298.292	101.56
298.523	97.56
298.753	90.56
298.984	93.56
299.214	88.56
299.445	98.56
299.675	96.56
299.905	85.56
300.136	88.56
300.366	85.56
300.597	86.56
300.827	98.56
301.057	91.56
301.288	99.56
301.518	98.56
301.748	97.56
301.979	109.56
302.209	87.56
302.439	79.56
302.669	89.56
302.9	81.56
303.13	84.56
303.36	95.56
303.59	111.56
303.82	117.56
304.051	92.56
304.281	92.56
304.511	94.56
304.741	93.56
304.971	89.56
305.201	93.56
305.431	83.56
305.661	76.56
305.891	99.56
306.121	95.56
306.352	95.56
306.582	110.56
306.812	98.56
307.042	82.56
307.272	91.56
307.502	104.56
307.731	98.56
307.961	95.56
308.191	93.56
308.421	83.56
308.651	85.56
308.881	108.56
309.111	101.56
309.341	98.56
309.571	92.56
309.8	96.56
310.03	101.56
310.26	102.56
310.49	103.56
310.72	112.56
310.949	105.56
311.179	109.56
311.409	89.56
311.639	83.56
311.868	103.56
312.098	77.56
312.328	94.56
312.557	85.56
312.787	83.56
313.017	93.56
313.246	81.56
313.476	83.56
313.706	80.56
313.935	84.56
314.165	82.56
314.394	103.56
314.624	94.56
314.853	103.56
315.083	96.56
315.312	81.56
315.542	91.56
315.771	92.56
316.001	97.56
316.23	100.56
316.46	83.56
316.689	88.56
316.919	87.56
317.148	88.56
317.377	90.56
317.607	94.56
317.836	85.56
318.065	87.56
318.295	72.56
318.524	85.56
318.753	88.56
318.983	90.56
319.212	97.56
319.441	94.56
319.67	94.56
319.9	103.56
320.129	96.56
320.358	96.56
320.587	97.56
320.816	99.56
321.046	93.56
321.275	79.56
321.504	93.56
321.733	104.56
321.962	94.56
322.191	97.56
322.42	107.56
322.649	112.56
322.878	106.56
323.108	111.56
323.337	123.56
323.566	127.56
323.795	141.56
324.024	196.56
324.253	394.56
324.482	835.56
324.71	1697.56
324.939	2209.56
325.168	816.56
325.397	262.56
325.626	160.56
325.855	107.56
326.084	142.56
326.313	137.56
326.542	139.56
326.77	206.56
326.999	452.56
327.228	954.56
327.457	1698.56
327.686	1345.56
327.914	369.56
328.143	189.56
328.372	163.56
328.6	119.56
328.829	105.56
329.058	106.56
329.287	110.56
329.515	114.56
329.744	116.56
329.972	122.56
330.201	140.56
330.43	171.56
330.658	132.56
330.887	115.56
331.115	98.56
331.344	104.56
331.572	106.56
331.801	101.56
332.03	102.56
332.258	102.56
332.486	87.56
332.715	92.56
332.943	97.56
333.172	92.56
333.4	92.56
333.629	100.56
333.857	114.56
334.085	127.56
334.314	140.56
334.542	197.56
334.771	168.56
334.999	96.56
335.227	103.56
335.455	92.56
335.684	87.56
335.912	100.56
336.14	92.56
336.369	90.56
336.597	108.56
336.825	100.56
337.053	84.56
337.281	89.56
337.51	88.56
337.738	99.56
337.966	99.56
338.194	103.56
338.422	98.56
338.65	83.56
338.878	75.56
339.106	79.56
339.334	81.56
339.562	112.56
339.79	101.56
340.018	87.56
340.246	85.56
340.474	90.56
340.702	90.56
340.93	95.56
341.158	95.56
341.386	98.56
341.614	95.56
341.842	89.56
342.07	90.56
342.298	104.56
342.526	79.56
342.754	86.56
342.981	80.56
343.209	84.56
343.437	106.56
343.665	94.56
343.893	98.56
344.12	103.56
344.348	90.56
344.576	93.56
344.804	78.56
345.031	105.56
345.259	93.56
345.487	83.56
345.714	90.56
345.942	83.56
346.17	91.56
346.397	82.56
346.625	91.56
346.853	88.56
347.08	102.56
347.308	83.56
347.535	104.56
347.763	96.56
347.99	97.56
348.218	105.56
348.445	101.56
348.673	76.56
348.9	82.56
349.128	98.56
349.355	89.56
349.583	99.56
349.81	93.56
350.037	86.56
350.265	86.56
350.492	80.56
350.72	84.56
350.947	100.56
351.174	102.56
351.402	120.56
351.629	91.56
351.856	91.56
352.083	91.56
352.311	103.56
352.538	88.56
352.765	109.56
352.992	106.56
353.22	114.56
353.447	107.56
353.674	86.56
353.901	88.56
354.128	105.56
354.355	92.56
354.583	102.56
354.81	97.56
355.037	98.56
355.264	95.56
355.491	83.56
355.718	92.56
355.945	85.56
356.172	92.56
356.399	94.56
356.626	92.56
356.853	97.56
357.08	85.56
357.307	89.56
357.534	88.56
357.761	96.56
357.988	100.56
358.215	89.56
358.441	104.56
358.668	93.56
358.895	85.56
359.122	68.56
359.349	93.56
359.576	91.56
359.802	107.56
360.029	110.56
360.256	107.56
360.483	89.56
360.709	95.56
360.936	91.56
361.163	94.56
361.39	99.56
361.616	95.56
361.843	91.56
362.07	99.56
362.296	92.56
362.523	89.56
362.749	89.56
362.976	91.56
363.203	95.56
363.429	92.56
363.656	90.56
363.882	82.56
364.109	94.56
364.335	98.56
364.562	100.56
364.788	85.56
365.015	92.56
365.241	105.56
365.468	122.56
365.694	105.56
365.92	94.56
366.147	91.56
366.373	86.56
366.599	90.56
366.826	103.56
367.052	83.56
367.278	95.56
367.505	82.56
367.731	86.56
367.957	87.56
368.184	93.56
368.41	84.56
368.636	110.56
368.862	113.56
369.089	94.56
369.315	104.56
369.541	97.56
369.767	106.56
369.993	91.56
370.219	89.56
370.445	75.56
370.672	80.56
370.898	93.56
371.124	98.56
371.35	83.56
371.576	88.56
371.802	96.56
372.028	88.56
372.254	87.56
372.48	97.56
372.706	96.56
372.932	102.56
373.158	81.56
373.384	109.56
373.61	94.56
373.835	108.56
374.061	94.56
374.287	90.56
374.513	89.56
374.739	95.56
374.965	97.56
375.191	76.56
375.416	86.56
375.642	76.56
375.868	119.56
376.094	95.56
376.319	98.56
376.545	93.56
376.771	83.56
376.997	91.56
377.222	80.56
377.448	98.56
377.674	89.56
377.899	94.56
378.125	92.56
378.35	91.56
378.576	99.56
378.802	85.56
379.027	98.56
379.253	97.56
379.478	89.56
379.704	92.56
379.929	100.56
380.155	89.56
380.38	105.56
380.606	95.56
380.831	86.56
381.057	106.56
381.282	87.56
381.507	85.56
381.733	95.56
381.958	82.56
382.184	98.56
382.409	96.56
382.634	93.56
382.86	97.56
383.085	98.56
383.31	100.56
383.535	99.56
383.761	98.56
383.986	91.56
384.211	95.56
384.436	112.56
384.662	97.56
384.887	87.56
385.112	104.56
385.337	93.56
385.562	106.56
385.787	115.56
386.013	100.56
386.238	117.56
386.463	99.56
386.688	128.56
386.913	105.56
387.138	107.56
387.363	101.56
387.588	113.56
387.813	108.56
388.038	104.56
388.263	123.56
388.488	113.56
388.713	104.56
388.938	99.56
389.163	94.56
389.387	97.56
389.612	86.56
389.837	80.56
390.062	95.56
390.287	101.56
390.512	86.56
390.736	88.56
390.961	98.56
391.186	89.56
391.411	79.56
391.636	81.56
391.86	96.56
392.085	88.56
392.31	80.56
392.534	91.56
392.759	91.56
392.984	89.56
393.208	86.56
393.433	102.56
393.658	96.56
393.882	84.56
394.107	81.56
394.331	101.56
394.556	92.56
394.78	82.56
395.005	87.56
395.229	108.56
395.454	87.56
395.678	94.56
395.903	88.56
396.127	92.56
396.352	92.56
396.576	85.56
396.801	97.56
397.025	84.56
397.249	88.56
397.474	94.56
397.698	106.56
397.922	89.56
398.147	98.56
398.371	97.56
398.595	86.56
398.82	91.56
399.044	86.56
399.268	81.56
399.492	80.56
399.717	96.56
399.941	98.56
400.165	87.56
400.389	82.56
400.613	81.56
400.837	89.56
401.062	83.56
401.286	95.56
401.51	82.56
401.734	91.56
401.958	94.56
402.182	121.56
402.406	141.56
402.63	118.56
402.854	90.56
403.078	78.56
403.302	91.56
403.526	84.56
403.75	87.56
403.974	99.56
404.198	94.56
404.422	90.56
404.645	77.56
404.869	86.56
405.093	106.56
405.317	97.56
405.541	96.56
405.765	98.56
405.988	118.56
406.212	150.56
406.436	201.56
406.66	135.56
406.883	94.56
407.107	99.56
407.331	105.56
407.555	102.56
407.778	97.56
408.002	109.56
408.226	85.56
408.449	86.56
408.673	79.56
408.896	91.56
409.12	99.56
409.344	103.56
409.567	79.56
409.791	85.56
410.014	99.56
410.238	87.56
410.461	86.56
410.685	94.56
410.908	97.56
411.132	108.56
411.355	102.56
411.578	94.56
411.802	83.56
412.025	83.56
412.249	84.56
412.472	84.56
412.695	100.56
412.919	94.56
413.142	91.56
413.365	108.56
413.589	89.56
413.812	100.56
414.035	96.56
414.258	91.56
414.482	86.56
414.705	93.56
414.928	91.56
415.151	95.56
415.374	90.56
415.597	95.56
415.821	89.56
416.044	74.56
416.267	83.56
416.49	84.56
416.713	104.56
416.936	103.56
417.159	93.56
417.382	87.56
417.605	94.56
417.828	97.56
418.051	92.56
418.274	92.56
418.497	87.56
418.72	82.56
418.943	88.56
419.166	90.56
419.389	97.56
419.611	93.56
419.834	89.56
420.057	85.56
420.28	98.56
420.503	79.56
420.726	95.56
420.948	98.56
421.171	108.56
421.394	86.56
421.617	77.56
421.839	82.56
422.062	86.56
422.285	106.56
422.507	94.56
422.73	105.56
422.953	104.56
423.175	98.56
423.398	93.56
423.621	84.56
423.843	81.56
424.066	84.56
424.288	84.56
424.511	106.56
424.733	110.56
424.956	102.56
425.178	89.56
425.401	89.56
425.623	83.56
425.846	86.56
426.068	97.56
426.291	91.56
426.513	109.56
426.735	91.56
426.958	92.56
427.18	95.56
427.402	126.56
427.625	146.56
427.847	137.56
428.069	114.56
428.292	85.56
428.514	94.56
428.736	87.56
428.958	85.56
429.181	70.56
429.403	94.56
429.625	79.56
429.847	101.56
430.069	91.56
430.292	102.56
430.514	90.56
430.736	91.56
430.958	61.56
431.18	89.56
431.402	101.56
431.624	77.56
431.846	81.56
432.068	91.56
432.29	85.56
432.512	88.56
432.734	95.56
432.956	95.56
433.178	101.56
433.4	97.56
433.622	87.56
433.844	95.56
434.066	90.56
434.287	100.56
434.509	91.56
434.731	89.56
434.953	84.56
435.175	96.56
435.397	77.56
435.618	87.56
435.84	95.56
436.062	108.56
436.284	104.56
436.505	107.56
436.727	90.56
436.949	101.56
437.17	90.56
437.392	78.56
437.614	104.56
437.835	101.56
438.057	113.56
438.278	100.56
438.5	92.56
438.721	130.56
438.943	105.56
439.165	94.56
439.386	96.56
439.608	84.56
439.829	114.56
440.05	116.56
440.272	133.56
440.493	77.56
440.715	89.56
440.936	83.56
441.158	94.56
441.379	88.56
441.6	87.56
441.822	104.56
442.043	93.56
442.264	99.56
442.486	112.56
442.707	95.56
442.928	100.56
443.149	124.56
443.371	122.56
443.592	100.56
443.813	114.56
444.034	102.56
444.255	78.56
444.476	88.56
444.698	85.56
444.919	81.56
445.14	125.56
445.361	124.56
445.582	129.56
445.803	120.56
446.024	126.56
446.245	136.56
446.466	104.56
446.687	98.56
446.908	82.56
447.129	82.56
447.35	92.56
447.571	90.56
447.792	84.56
448.013	101.56
448.234	98.56
448.455	89.56
448.675	120.56
448.896	121.56
449.117	109.56
449.338	107.56
449.559	115.56
449.779	123.56
450	83.56
450.221	87.56
450.442	80.56
450.662	89.56
450.883	107.56
451.104	103.56
451.324	91.56
451.545	93.56
451.766	94.56
451.986	84.56
452.207	81.56
452.428	92.56
452.648	99.56
452.869	104.56
453.089	103.56
453.31	110.56
453.53	90.56
453.751	96.56
453.971	85.56
454.192	98.56
454.412	93.56
454.633	94.56
454.853	85.56
455.073	86.56
455.294	76.56
455.514	100.56
455.734	87.56
455.955	78.56
456.175	96.56
456.395	97.56
456.616	92.56
456.836	77.56
457.056	87.56
457.276	90.56
457.497	80.56
457.717	94.56
457.937	101.56
458.157	75.56
458.377	82.56
458.598	94.56
458.818	149.56
459.038	125.56
459.258	110.56
459.478	90.56
459.698	83.56
459.918	95.56
460.138	91.56
460.358	79.56
460.578	103.56
460.798	94.56
461.018	89.56
461.238	81.56
461.458	81.56
461.678	82.56
461.898	98.56
462.118	87.56
462.338	77.56
462.558	71.56
462.777	92.56
462.997	83.56
463.217	82.56
463.437	91.56
463.657	74.56
463.876	70.56
464.096	94.56
464.316	87.56
464.536	94.56
464.755	87.56
464.975	97.56
465.195	145.56
465.414	145.56
465.634	79.56
465.854	83.56
466.073	94.56
466.293	85.56
466.512	93.56
466.732	86.56
466.951	90.56
467.171	85.56
467.391	86.56
467.61	98.56
467.829	100.56
468.049	127.56
468.268	134.56
468.488	92.56
468.707	97.56
468.927	85.56
469.146	80.56
469.365	89.56
469.585	84.56
469.804	86.56
470.023	90.56
470.243	89.56
470.462	91.56
470.681	118.56
470.901	86.56
471.12	93.56
471.339	96.56
471.558	82.56
471.777	83.56
471.997	76.56
472.216	133.56
472.435	211.56
472.654	128.56
472.873	84.56
473.092	75.56
473.311	77.56
473.53	78.56
473.749	108.56
473.968	92.56
474.187	89.56
474.406	70.56
474.625	73.56
474.844	76.56
475.063	89.56
475.282	88.56
475.501	82.56
475.72	79.56
475.939	94.56
476.158	93.56
476.377	76.56
476.596	85.56
476.814	92.56
477.033	96.56
477.252	78.56
477.471	87.56
477.69	86.56
477.908	102.56
478.127	79.56
478.346	70.56
478.564	86.56
478.783	96.56
479.002	85.56
479.22	101.56
479.439	102.56
479.658	98.56
479.876	92.56
480.095	98.56
480.313	103.56
480.532	87.56
480.751	91.56
480.969	141.56
481.188	360.56
481.406	252.56
481.624	101.56
481.843	89.56
482.061	96.56
482.28	92.56
482.498	94.56
482.717	108.56
482.935	84.56
483.153	97.56
483.372	100.56
483.59	93.56
483.808	82.56
484.027	106.56
484.245	96.56
484.463	76.56
484.681	86.56
484.9	90.56
485.118	99.56
485.336	108.56
485.554	98.56
485.772	102.56
485.99	102.56
486.209	106.56
486.427	97.56
486.645	100.56
486.863	106.56
487.081	101.56
487.299	102.56
487.517	98.56
487.735	99.56
487.953	91.56
488.171	89.56
488.389	82.56
488.607	100.56
488.825	88.56
489.043	85.56
489.261	92.56
489.479	87.56
489.696	79.56
489.914	93.56
490.132	100.56
490.35	87.56
490.568	99.56
490.786	84.56
491.003	76.56
491.221	89.56
491.439	92.56
491.657	105.56
491.874	104.56
492.092	98.56
492.31	100.56
492.527	100.56
492.745	100.56
492.963	97.56
493.18	96.56
493.398	100.56
493.615	92.56
493.833	93.56
494.05	83.56
494.268	83.56
494.485	99.56
494.703	94.56
494.92	96.56
495.138	93.56
495.355	87.56
495.573	98.56
495.79	103.56
496.008	98.56
496.225	104.56
496.442	97.56
496.66	106.56
496.877	90.56
497.094	101.56
497.312	96.56
497.529	86.56
497.746	98.56
497.963	94.56
498.181	102.56
498.398	84.56
498.615	104.56
498.832	106.56
499.049	91.56
499.267	95.56
499.484	86.56
499.701	100.56
499.918	98.56
500.135	94.56
500.352	98.56
500.569	96.56
500.786	92.56
501.003	83.56
501.22	102.56
501.437	91.56
501.654	86.56
501.871	108.56
502.088	88.56
502.305	69.56
502.522	77.56
502.739	94.56
502.956	82.56
503.172	87.56
503.389	104.56
503.606	104.56
503.823	105.56
504.04	92.56
504.256	100.56
504.473	89.56
504.69	91.56
504.907	106.56
505.123	94.56
505.34	80.56
505.557	83.56
505.773	108.56
505.99	79.56
506.207	94.56
506.423	98.56
506.64	91.56
506.856	89.56
507.073	100.56
507.289	83.56
507.506	100.56
507.722	101.56
507.939	90.56
508.155	85.56
508.372	89.56
508.588	89.56
508.805	114.56
509.021	84.56
509.238	78.56
509.454	90.56
509.67	92.56
509.887	99.56
510.103	139.56
510.319	193.56
510.536	680.56
510.752	2177.56
510.968	644.56
511.184	147.56
511.401	110.56
511.617	102.56
511.833	92.56
512.049	98.56
512.265	91.56
512.481	113.56
512.698	92.56
512.914	82.56
513.13	93.56
513.346	95.56
513.562	90.56
513.778	79.56
513.994	94.56
514.21	95.56
514.426	99.56
514.642	116.56
514.858	129.56
515.074	151.56
515.29	389.56
515.506	1218.56
515.721	486.56
