Data from Circ_2016_H10_HRD10591_00081.txt Node
Date: Wed Jan 03 09:58:56 EST 2024
User: Yrep
Spectrometer: HR+D1059
Trigger mode: 1
Integration Time (sec): 1.000000E-1
Scans to average: 1
Electric dark correction enabled: true
Nonlinearity correction enabled: false
Boxcar width: 0
XAxis mode: Wavelengths
Number of Pixels in Spectrum: 2048
>>>>>Begin Spectral Data<<<<<
223.165	-21.81
223.4	-21.81
223.635	-21.81
223.869	-21.81
224.104	-22.81
224.338	-24.81
224.573	-15.81
224.808	-11.81
225.042	-9.81
225.277	-2.81
225.511	-6.81
225.746	13.19
225.98	20.19
226.215	12.19
226.449	15.19
226.683	22.19
226.918	17.19
227.152	38.19
227.387	39.19
227.621	38.19
227.856	54.19
228.09	42.19
228.324	43.19
228.559	51.19
228.793	157.19
229.027	466.19
229.262	505.19
229.496	596.19
229.73	806.19
229.964	793.19
230.199	527.19
230.433	490.19
230.667	468.19
230.901	435.19
231.136	434.19
231.37	445.19
231.604	438.19
231.838	468.19
232.072	446.19
232.306	464.19
232.541	463.19
232.775	503.19
233.009	480.19
233.243	467.19
233.477	471.19
233.711	477.19
233.945	517.19
234.179	538.19
234.413	498.19
234.647	509.19
234.881	512.19
235.115	535.19
235.349	567.19
235.583	562.19
235.817	576.19
236.051	625.19
236.285	603.19
236.519	628.19
236.753	701.19
236.987	917.19
237.221	1323.19
237.455	1457.19
237.689	880.19
237.922	744.19
238.156	723.19
238.39	656.19
238.624	641.19
238.858	632.19
239.091	660.19
239.325	681.19
239.559	689.19
239.793	727.19
240.027	770.19
240.26	899.19
240.494	955.19
240.728	940.19
240.961	898.19
241.195	831.19
241.429	800.19
241.662	800.19
241.896	787.19
242.13	780.19
242.363	778.19
242.597	801.19
242.83	840.19
243.064	857.19
243.298	852.19
243.531	835.19
243.765	875.19
243.998	844.19
244.232	866.19
244.465	903.19
244.699	930.19
244.932	916.19
245.166	921.19
245.399	935.19
245.633	918.19
245.866	924.19
246.099	944.19
246.333	954.19
246.566	978.19
246.8	972.19
247.033	1031.19
247.266	1064.19
247.5	1126.19
247.733	1134.19
247.966	1159.19
248.2	1153.19
248.433	1177.19
248.666	1234.19
248.899	1335.19
249.133	1485.19
249.366	1412.19
249.599	1342.19
249.832	1221.19
250.066	1281.19
250.299	1404.19
250.532	1555.19
250.765	1735.19
250.998	1790.19
251.231	1672.19
251.465	1539.19
251.698	1487.19
251.931	1404.19
252.164	1405.19
252.397	1444.19
252.63	1516.19
252.863	1555.19
253.096	1666.19
253.329	1731.19
253.562	1609.19
253.795	1606.19
254.028	1568.19
254.261	1641.19
254.494	1863.19
254.727	2141.19
254.96	2237.19
255.193	1985.19
255.426	1810.19
255.659	1770.19
255.892	1960.19
256.124	2177.19
256.357	2049.19
256.59	1807.19
256.823	1722.19
257.056	1634.19
257.289	1620.19
257.521	1621.19
257.754	1608.19
257.987	1590.19
258.22	1566.19
258.452	1563.19
258.685	1570.19
258.918	1626.19
259.151	1639.19
259.383	1686.19
259.616	1757.19
259.849	1785.19
260.081	1960.19
260.314	2094.19
260.547	2032.19
260.779	1877.19
261.012	1788.19
261.244	1760.19
261.477	1710.19
261.71	1695.19
261.942	1779.19
262.175	1788.19
262.407	1737.19
262.64	1652.19
262.872	1698.19
263.105	1665.19
263.337	1673.19
263.57	1688.19
263.802	1687.19
264.035	1686.19
264.267	1706.19
264.499	1727.19
264.732	1749.19
264.964	1719.19
265.197	1741.19
265.429	1731.19
265.661	1775.19
265.894	1731.19
266.126	1823.19
266.358	1818.19
266.591	1817.19
266.823	1899.19
267.055	1900.19
267.287	1873.19
267.52	1870.19
267.752	1839.19
267.984	1885.19
268.216	1923.19
268.448	2007.19
268.681	2074.19
268.913	2118.19
269.145	2360.19
269.377	2413.19
269.609	2277.19
269.841	2263.19
270.073	2415.19
270.306	2663.19
270.538	2787.19
270.77	2626.19
271.002	2533.19
271.234	2482.19
271.466	2602.19
271.698	2762.19
271.93	2741.19
272.162	2759.19
272.394	2641.19
272.626	2494.19
272.858	2391.19
273.09	2319.19
273.322	2330.19
273.553	2272.19
273.785	2262.19
274.017	2263.19
274.249	2302.19
274.481	2310.19
274.713	2323.19
274.945	2352.19
275.176	2351.19
275.408	2283.19
275.64	2324.19
275.872	2285.19
276.104	2346.19
276.335	2376.19
276.567	2480.19
276.799	2576.19
277.031	2862.19
277.262	2944.19
277.494	2816.19
277.726	2618.19
277.957	2551.19
278.189	2537.19
278.421	2432.19
278.652	2441.19
278.884	2450.19
279.115	2430.19
279.347	2428.19
279.579	2421.19
279.81	2418.19
280.042	2466.19
280.273	2520.19
280.505	2501.19
280.736	2463.19
280.968	2490.19
281.199	2482.19
281.431	2535.19
281.662	2481.19
281.894	2559.19
282.125	2580.19
282.356	2770.19
282.588	2852.19
282.819	2763.19
283.051	2582.19
283.282	2619.19
283.513	2562.19
283.745	2647.19
283.976	2718.19
284.207	2726.19
284.439	2663.19
284.67	2682.19
284.901	2677.19
285.132	2649.19
285.364	2679.19
285.595	2671.19
285.826	2685.19
286.057	2714.19
286.288	2771.19
286.52	2704.19
286.751	2762.19
286.982	2745.19
287.213	2768.19
287.444	2805.19
287.675	2842.19
287.906	2942.19
288.138	2990.19
288.369	2955.19
288.6	2976.19
288.831	2882.19
289.062	2895.19
289.293	2896.19
289.524	2868.19
289.755	2832.19
289.986	2842.19
290.217	2839.19
290.448	2838.19
290.679	2826.19
290.91	2854.19
291.141	2849.19
291.371	2904.19
291.602	2876.19
291.833	2881.19
292.064	2918.19
292.295	2878.19
292.526	2873.19
292.757	2873.19
292.987	2861.19
293.218	2898.19
293.449	2942.19
293.68	2875.19
293.91	2917.19
294.141	2885.19
294.372	2903.19
294.603	2877.19
294.833	2909.19
295.064	2926.19
295.295	2954.19
295.525	2879.19
295.756	2992.19
295.987	3048.19
296.217	3291.19
296.448	3171.19
296.679	3041.19
296.909	2975.19
297.14	3047.19
297.37	3058.19
297.601	3124.19
297.831	3075.19
298.062	3137.19
298.292	3152.19
298.523	3182.19
298.753	3191.19
298.984	3113.19
299.214	3182.19
299.445	3175.19
299.675	3175.19
299.905	3201.19
300.136	3211.19
300.366	3173.19
300.597	3233.19
300.827	3356.19
301.057	3371.19
301.288	3436.19
301.518	3359.19
301.748	3347.19
301.979	3449.19
302.209	3411.19
302.439	3403.19
302.669	3428.19
302.9	3421.19
303.13	3309.19
303.36	3394.19
303.59	3454.19
303.82	3490.19
304.051	3452.19
304.281	3396.19
304.511	3358.19
304.741	3331.19
304.971	3327.19
305.201	3372.19
305.431	3295.19
305.661	3369.19
305.891	3334.19
306.121	3288.19
306.352	3400.19
306.582	3389.19
306.812	3298.19
307.042	3406.19
307.272	3376.19
307.502	3384.19
307.731	3348.19
307.961	3355.19
308.191	3403.19
308.421	3395.19
308.651	3365.19
308.881	3412.19
309.111	3439.19
309.341	3463.19
309.571	3552.19
309.8	3593.19
310.03	3650.19
310.26	3768.19
310.49	3685.19
310.72	3803.19
310.949	3877.19
311.179	3853.19
311.409	3694.19
311.639	3707.19
311.868	3719.19
312.098	3826.19
312.328	3823.19
312.557	3976.19
312.787	4054.19
313.017	3927.19
313.246	3856.19
313.476	3871.19
313.706	3818.19
313.935	3926.19
314.165	4020.19
314.394	4053.19
314.624	4018.19
314.853	3840.19
315.083	3802.19
315.312	3841.19
315.542	3806.19
315.771	3754.19
316.001	3798.19
316.23	3787.19
316.46	3769.19
316.689	3814.19
316.919	3883.19
317.148	3922.19
317.377	3842.19
317.607	3844.19
317.836	3780.19
318.065	3763.19
318.295	3772.19
318.524	3794.19
318.753	3735.19
318.983	3751.19
319.212	3755.19
319.441	3840.19
319.67	3807.19
319.9	3807.19
320.129	3839.19
320.358	3758.19
320.587	3827.19
320.816	3910.19
321.046	3917.19
321.275	3915.19
321.504	3898.19
321.733	3982.19
321.962	4016.19
322.191	4108.19
322.42	4225.19
322.649	4374.19
322.878	4436.19
323.108	4478.19
323.337	4733.19
323.566	4898.19
323.795	5167.19
324.024	5846.19
324.253	7740.19
324.482	11696.19
324.71	15596.19
324.939	15596.19
325.168	13445.19
325.397	7000.19
325.626	5488.19
325.855	5090.19
326.084	4936.19
326.313	4982.19
326.542	5142.19
326.77	5847.19
326.999	7446.19
327.228	11015.19
327.457	14834.19
327.686	13974.19
327.914	7787.19
328.143	6363.19
328.372	5945.19
328.6	5679.19
328.829	5472.19
329.058	5622.19
329.287	5643.19
329.515	5323.19
329.744	5314.19
329.972	5502.19
330.201	5962.19
330.43	6358.19
330.658	6101.19
330.887	6161.19
331.115	5604.19
331.344	5224.19
331.572	5083.19
331.801	5203.19
332.03	5207.19
332.258	5122.19
332.486	5161.19
332.715	5255.19
332.943	5460.19
333.172	5640.19
333.4	5679.19
333.629	5932.19
333.857	6169.19
334.085	6367.19
334.314	6791.19
334.542	7239.19
334.771	6908.19
334.999	6002.19
335.227	5608.19
335.455	5472.19
335.684	5236.19
335.912	5209.19
336.14	5135.19
336.369	5184.19
336.597	5124.19
336.825	5091.19
337.053	4976.19
337.281	4974.19
337.51	4842.19
337.738	4872.19
337.966	4790.19
338.194	4796.19
338.422	4780.19
338.65	4686.19
338.878	4651.19
339.106	4646.19
339.334	4638.19
339.562	4571.19
339.79	4487.19
340.018	4507.19
340.246	4476.19
340.474	4501.19
340.702	4465.19
340.93	4525.19
341.158	4518.19
341.386	4468.19
341.614	4500.19
341.842	4499.19
342.07	4415.19
342.298	4400.19
342.526	4381.19
342.754	4390.19
342.981	4420.19
343.209	4523.19
343.437	4790.19
343.665	4990.19
343.893	5286.19
344.12	5278.19
344.348	4983.19
344.576	4897.19
344.804	4754.19
345.031	4756.19
345.259	4690.19
345.487	4539.19
345.714	4436.19
345.942	4307.19
346.17	4381.19
346.397	4345.19
346.625	4288.19
346.853	4270.19
347.08	4277.19
347.308	4367.19
347.535	4457.19
347.763	4411.19
347.99	4388.19
348.218	4448.19
348.445	4452.19
348.673	4303.19
348.9	4238.19
349.128	4234.19
349.355	4199.19
349.583	4158.19
349.81	4143.19
350.037	4131.19
350.265	4158.19
350.492	4179.19
350.72	4133.19
350.947	4229.19
351.174	4317.19
351.402	4342.19
351.629	4287.19
351.856	4288.19
352.083	4256.19
352.311	4298.19
352.538	4313.19
352.765	4349.19
352.992	4304.19
353.22	4166.19
353.447	4191.19
353.674	4146.19
353.901	4099.19
354.128	4046.19
354.355	4026.19
354.583	4087.19
354.81	4015.19
355.037	4091.19
355.264	4101.19
355.491	4036.19
355.718	4038.19
355.945	4076.19
356.172	4048.19
356.399	4037.19
356.626	4073.19
356.853	4019.19
357.08	4010.19
357.307	4056.19
357.534	4080.19
357.761	4052.19
357.988	4066.19
358.215	4093.19
358.441	4114.19
358.668	4158.19
358.895	4192.19
359.122	4178.19
359.349	4209.19
359.576	4339.19
359.802	4540.19
360.029	4708.19
360.256	4719.19
360.483	4480.19
360.709	4328.19
360.936	4318.19
361.163	4391.19
361.39	4329.19
361.616	4293.19
361.843	4320.19
362.07	4329.19
362.296	4296.19
362.523	4306.19
362.749	4308.19
362.976	4195.19
363.203	4227.19
363.429	4133.19
363.656	4187.19
363.882	4191.19
364.109	4086.19
364.335	4074.19
364.562	4142.19
364.788	4159.19
365.015	4211.19
365.241	4139.19
365.468	4158.19
365.694	4200.19
365.92	4190.19
366.147	4134.19
366.373	4128.19
366.599	4150.19
366.826	4076.19
367.052	4110.19
367.278	4176.19
367.505	4168.19
367.731	4187.19
367.957	4182.19
368.184	4199.19
368.41	4312.19
368.636	4372.19
368.862	4415.19
369.089	4289.19
369.315	4224.19
369.541	4274.19
369.767	4300.19
369.993	4332.19
370.219	4264.19
370.445	4344.19
370.672	4306.19
370.898	4384.19
371.124	4406.19
371.35	4389.19
371.576	4376.19
371.802	4359.19
372.028	4346.19
372.254	4349.19
372.48	4495.19
372.706	4505.19
372.932	4610.19
373.158	4523.19
373.384	4476.19
373.61	4406.19
373.835	4438.19
374.061	4423.19
374.287	4520.19
374.513	4622.19
374.739	4731.19
374.965	4858.19
375.191	4804.19
375.416	4745.19
375.642	4582.19
375.868	4586.19
376.094	4564.19
376.319	4494.19
376.545	4483.19
376.771	4486.19
376.997	4412.19
377.222	4391.19
377.448	4432.19
377.674	4386.19
377.899	4403.19
378.125	4372.19
378.35	4354.19
378.576	4368.19
378.802	4332.19
379.027	4323.19
379.253	4337.19
379.478	4350.19
379.704	4334.19
379.929	4384.19
380.155	4390.19
380.38	4367.19
380.606	4406.19
380.831	4385.19
381.057	4421.19
381.282	4448.19
381.507	4408.19
381.733	4528.19
381.958	4546.19
382.184	4611.19
382.409	4612.19
382.634	4621.19
382.86	4641.19
383.085	4735.19
383.31	4716.19
383.535	4852.19
383.761	4892.19
383.986	5007.19
384.211	5032.19
384.436	5118.19
384.662	5167.19
384.887	5247.19
385.112	5269.19
385.337	5315.19
385.562	5361.19
385.787	5342.19
386.013	5347.19
386.238	5422.19
386.463	5346.19
386.688	5323.19
386.913	5207.19
387.138	5257.19
387.363	5234.19
387.588	5166.19
387.813	5211.19
388.038	5145.19
388.263	5293.19
388.488	5263.19
388.713	5303.19
388.938	5251.19
389.163	5241.19
389.387	5274.19
389.612	5149.19
389.837	5232.19
390.062	5195.19
390.287	5118.19
390.512	5168.19
390.736	5262.19
390.961	5369.19
391.186	5460.19
391.411	5644.19
391.636	5731.19
391.86	5867.19
392.085	5801.19
392.31	5769.19
392.534	5634.19
392.759	5528.19
392.984	5472.19
393.208	5482.19
393.433	5378.19
393.658	5428.19
393.882	5430.19
394.107	5490.19
394.331	5515.19
394.556	5464.19
394.78	5507.19
395.005	5684.19
395.229	5634.19
395.454	5803.19
395.678	5893.19
395.903	5943.19
396.127	5969.19
396.352	5737.19
396.576	5559.19
396.801	5543.19
397.025	5608.19
397.249	5707.19
397.474	5913.19
397.698	5881.19
397.922	6033.19
398.147	6130.19
398.371	6176.19
398.595	6438.19
398.82	6720.19
399.044	7226.19
399.268	8033.19
399.492	9129.19
399.717	9649.19
399.941	9382.19
400.165	8764.19
400.389	8074.19
400.613	7419.19
400.837	6988.19
401.062	6780.19
401.286	6641.19
401.51	6622.19
401.734	6610.19
401.958	6721.19
402.182	6805.19
402.406	6889.19
402.63	6985.19
402.854	7115.19
403.078	7192.19
403.302	7355.19
403.526	7460.19
403.75	7546.19
403.974	7526.19
404.198	7532.19
404.422	7656.19
404.645	7608.19
404.869	7634.19
405.093	7967.19
405.317	8257.19
405.541	8295.19
405.765	7685.19
405.988	7539.19
406.212	7571.19
406.436	7815.19
406.66	7839.19
406.883	7834.19
407.107	8336.19
407.331	8958.19
407.555	9522.19
407.778	9187.19
408.002	8462.19
408.226	8071.19
408.449	7930.19
408.673	7801.19
408.896	7912.19
409.12	8017.19
409.344	7653.19
409.567	7272.19
409.791	7374.19
410.014	7181.19
410.238	7126.19
410.461	7174.19
410.685	7168.19
410.908	7303.19
411.132	7466.19
411.355	7511.19
411.578	7201.19
411.802	6947.19
412.025	7038.19
412.249	7250.19
412.472	7590.19
412.695	7832.19
412.919	7234.19
413.142	6943.19
413.365	6821.19
413.589	6738.19
413.812	6567.19
414.035	6496.19
414.258	6544.19
414.482	6569.19
414.705	6613.19
414.928	6600.19
415.151	6559.19
415.374	6500.19
415.597	6487.19
415.821	6401.19
416.044	6379.19
416.267	6294.19
416.49	6307.19
416.713	6342.19
416.936	6358.19
417.159	6381.19
417.382	6501.19
417.605	6532.19
417.828	6717.19
418.051	6786.19
418.274	6610.19
418.497	6515.19
418.72	6623.19
418.943	6628.19
419.166	7024.19
419.389	7415.19
419.611	7284.19
419.834	7113.19
420.057	7044.19
420.28	7027.19
420.503	6842.19
420.726	6836.19
420.948	6869.19
421.171	7165.19
421.394	7143.19
421.617	6687.19
421.839	6602.19
422.062	6786.19
422.285	6924.19
422.507	7526.19
422.73	7969.19
422.953	7426.19
423.175	7056.19
423.398	7092.19
423.621	7090.19
423.843	7342.19
424.066	7358.19
424.288	7191.19
424.511	7467.19
424.733	7826.19
424.956	8338.19
425.178	7855.19
425.401	7924.19
425.623	7889.19
425.846	6897.19
426.068	6818.19
426.291	6741.19
426.513	6664.19
426.735	6750.19
426.958	7178.19
427.18	7976.19
427.402	9099.19
427.625	9271.19
427.847	8021.19
428.069	7514.19
428.292	6745.19
428.514	6306.19
428.736	6108.19
428.958	6088.19
429.181	5927.19
429.403	5920.19
429.625	6166.19
429.847	6471.19
430.069	6901.19
430.292	6529.19
430.514	5948.19
430.736	6002.19
430.958	5883.19
431.18	5801.19
431.402	5786.19
431.624	5806.19
431.846	5764.19
432.068	5876.19
432.29	5911.19
432.512	5855.19
432.734	6022.19
432.956	5894.19
433.178	6001.19
433.4	5931.19
433.622	5831.19
433.844	5862.19
434.066	5896.19
434.287	5966.19
434.509	6207.19
434.731	6474.19
434.953	6627.19
435.175	6748.19
435.397	6792.19
435.618	6740.19
435.84	7090.19
436.062	7878.19
436.284	7926.19
436.505	6637.19
436.727	6315.19
436.949	6088.19
437.17	5960.19
437.392	5864.19
437.614	6068.19
437.835	6497.19
438.057	7417.19
438.278	8053.19
438.5	7944.19
438.721	8652.19
438.943	7783.19
439.165	6502.19
439.386	6278.19
439.608	6408.19
439.829	6534.19
440.05	6797.19
440.272	7151.19
440.493	6557.19
440.715	6296.19
440.936	6212.19
441.158	6247.19
441.379	6339.19
441.6	6713.19
441.822	6966.19
442.043	7471.19
442.264	8136.19
442.486	7899.19
442.707	6951.19
442.928	6771.19
443.149	7001.19
443.371	7190.19
443.592	7823.19
443.813	8890.19
444.034	8725.19
444.255	7609.19
444.476	7448.19
444.698	7642.19
444.919	7748.19
445.14	7539.19
445.361	7448.19
445.582	7543.19
445.803	8105.19
446.024	8720.19
446.245	8339.19
446.466	7510.19
446.687	6519.19
446.908	6196.19
447.129	5883.19
447.35	5712.19
447.571	5799.19
447.792	5641.19
448.013	5808.19
448.234	5967.19
448.455	6658.19
448.675	7825.19
448.896	8233.19
449.117	6842.19
449.338	7082.19
449.559	8302.19
449.779	8443.19
450	6555.19
450.221	5858.19
450.442	5630.19
450.662	5519.19
450.883	5675.19
451.104	5791.19
451.324	5647.19
451.545	5414.19
451.766	5334.19
451.986	5222.19
452.207	5189.19
452.428	5178.19
452.648	5233.19
452.869	5232.19
453.089	5241.19
453.31	5336.19
453.53	5217.19
453.751	5173.19
453.971	5159.19
454.192	5278.19
454.412	5134.19
454.633	5018.19
454.853	4984.19
455.073	5021.19
455.294	5442.19
455.514	5970.19
455.734	5483.19
455.955	4902.19
456.175	4730.19
456.395	4756.19
456.616	4723.19
456.836	4803.19
457.056	4771.19
457.276	4692.19
457.497	4885.19
457.717	4812.19
457.937	4907.19
458.157	4976.19
458.377	5109.19
458.598	5429.19
458.818	6131.19
459.038	6758.19
459.258	6726.19
459.478	5975.19
459.698	5949.19
459.918	6021.19
460.138	6189.19
460.358	6431.19
460.578	6420.19
460.798	6525.19
461.018	6502.19
461.238	6382.19
461.458	6416.19
461.678	6335.19
461.898	6390.19
462.118	6520.19
462.338	6831.19
462.558	6912.19
462.777	7249.19
462.997	7888.19
463.217	8128.19
463.437	8078.19
463.657	7468.19
463.876	7289.19
464.096	7334.19
464.316	7194.19
464.536	7307.19
464.755	7070.19
464.975	7021.19
465.195	7123.19
465.414	7184.19
465.634	6312.19
465.854	6029.19
466.073	5850.19
466.293	5665.19
466.512	5377.19
466.732	5345.19
466.951	5345.19
467.171	5342.19
467.391	5456.19
467.61	5475.19
467.829	5479.19
468.049	5477.19
468.268	5456.19
468.488	5237.19
468.707	5225.19
468.927	5210.19
469.146	5129.19
469.365	5196.19
469.585	5231.19
469.804	5414.19
470.023	5556.19
470.243	5602.19
470.462	5617.19
470.681	5739.19
470.901	5660.19
471.12	5493.19
471.339	5469.19
471.558	5476.19
471.777	5362.19
471.997	5317.19
472.216	5591.19
472.435	6123.19
472.654	5663.19
472.873	5335.19
473.092	5259.19
473.311	5192.19
473.53	5219.19
473.749	5388.19
473.968	5878.19
474.187	6929.19
474.406	6388.19
474.625	5449.19
474.844	5158.19
475.063	5166.19
475.282	5222.19
475.501	5266.19
475.72	5268.19
475.939	5296.19
476.158	5369.19
476.377	5351.19
476.596	5300.19
476.814	5500.19
477.033	5554.19
477.252	5676.19
477.471	5667.19
477.69	5865.19
477.908	5989.19
478.127	6005.19
478.346	6107.19
478.564	6277.19
478.783	6302.19
479.002	6472.19
479.22	6443.19
479.439	6549.19
479.658	6736.19
479.876	6781.19
480.095	6962.19
480.313	7353.19
480.532	7287.19
480.751	7189.19
480.969	7394.19
481.188	8462.19
481.406	8297.19
481.624	7198.19
481.843	6753.19
482.061	6458.19
482.28	6268.19
482.498	6198.19
482.717	6139.19
482.935	6185.19
483.153	6103.19
483.372	6117.19
483.59	6090.19
483.808	6100.19
484.027	6101.19
484.245	6278.19
484.463	6195.19
484.681	6217.19
484.9	6327.19
485.118	6345.19
485.336	6365.19
485.554	6452.19
485.772	6536.19
485.99	6486.19
486.209	6540.19
486.427	6514.19
486.645	6611.19
486.863	6659.19
487.081	6650.19
487.299	6529.19
487.517	6504.19
487.735	6533.19
