Data from Circ_2016_H10_HRD10591_00068.txt Node
Date: Wed Jan 03 09:58:54 EST 2024
User: Yrep
Spectrometer: HR+D1059
Trigger mode: 1
Integration Time (sec): 1.000000E-1
Scans to average: 1
Electric dark correction enabled: true
Nonlinearity correction enabled: false
Boxcar width: 0
XAxis mode: Wavelengths
Number of Pixels in Spectrum: 2048
>>>>>Begin Spectral Data<<<<<
223.165	-26.06
223.4	-26.06
223.635	-26.06
223.869	-29.06
224.104	-18.06
224.338	-13.06
224.573	-11.06
224.808	-15.06
225.042	-5.06
225.277	8.94
225.511	-9.06
225.746	2.94
225.98	15.94
226.215	16.94
226.449	13.94
226.683	9.94
226.918	29.94
227.152	27.94
227.387	21.94
227.621	41.94
227.856	39.94
228.09	68.94
228.324	52.94
228.559	64.94
228.793	65.94
229.027	64.94
229.262	65.94
229.496	67.94
229.73	84.94
229.964	85.94
230.199	79.94
230.433	81.94
230.667	79.94
230.901	83.94
231.136	83.94
231.37	89.94
231.604	79.94
231.838	86.94
232.072	69.94
232.306	95.94
232.541	74.94
232.775	82.94
233.009	89.94
233.243	74.94
233.477	75.94
233.711	83.94
233.945	82.94
234.179	84.94
234.413	79.94
234.647	90.94
234.881	72.94
235.115	79.94
235.349	83.94
235.583	85.94
235.817	91.94
236.051	90.94
236.285	61.94
236.519	71.94
236.753	67.94
236.987	83.94
237.221	83.94
237.455	85.94
237.689	86.94
237.922	89.94
238.156	82.94
238.39	75.94
238.624	67.94
238.858	66.94
239.091	83.94
239.325	65.94
239.559	79.94
239.793	75.94
240.027	81.94
240.26	78.94
240.494	87.94
240.728	88.94
240.961	73.94
241.195	87.94
241.429	82.94
241.662	68.94
241.896	70.94
242.13	79.94
242.363	72.94
242.597	74.94
242.83	81.94
243.064	86.94
243.298	75.94
243.531	73.94
243.765	79.94
243.998	79.94
244.232	87.94
244.465	92.94
244.699	75.94
244.932	79.94
245.166	81.94
245.399	84.94
245.633	73.94
245.866	86.94
246.099	75.94
246.333	75.94
246.566	84.94
246.8	85.94
247.033	90.94
247.266	79.94
247.5	71.94
247.733	79.94
247.966	81.94
248.2	82.94
248.433	79.94
248.666	87.94
248.899	84.94
249.133	75.94
249.366	92.94
249.599	77.94
249.832	91.94
250.066	89.94
250.299	74.94
250.532	88.94
250.765	75.94
250.998	78.94
251.231	79.94
251.465	73.94
251.698	78.94
251.931	87.94
252.164	68.94
252.397	79.94
252.63	84.94
252.863	73.94
253.096	73.94
253.329	82.94
253.562	73.94
253.795	75.94
254.028	85.94
254.261	74.94
254.494	77.94
254.727	83.94
254.96	88.94
255.193	76.94
255.426	94.94
255.659	85.94
255.892	89.94
256.124	93.94
256.357	71.94
256.59	83.94
256.823	81.94
257.056	87.94
257.289	85.94
257.521	89.94
257.754	87.94
257.987	95.94
258.22	99.94
258.452	94.94
258.685	85.94
258.918	94.94
259.151	83.94
259.383	85.94
259.616	77.94
259.849	91.94
260.081	75.94
260.314	79.94
260.547	90.94
260.779	75.94
261.012	85.94
261.244	77.94
261.477	94.94
261.71	90.94
261.942	121.94
262.175	105.94
262.407	88.94
262.64	88.94
262.872	75.94
263.105	81.94
263.337	84.94
263.57	85.94
263.802	84.94
264.035	83.94
264.267	88.94
264.499	91.94
264.732	89.94
264.964	82.94
265.197	91.94
265.429	87.94
265.661	95.94
265.894	80.94
266.126	82.94
266.358	82.94
266.591	75.94
266.823	78.94
267.055	83.94
267.287	86.94
267.52	74.94
267.752	91.94
267.984	85.94
268.216	87.94
268.448	91.94
268.681	89.94
268.913	74.94
269.145	77.94
269.377	71.94
269.609	73.94
269.841	83.94
270.073	95.94
270.306	78.94
270.538	92.94
270.77	85.94
271.002	93.94
271.234	97.94
271.466	101.94
271.698	76.94
271.93	92.94
272.162	73.94
272.394	79.94
272.626	87.94
272.858	94.94
273.09	95.94
273.322	82.94
273.553	96.94
273.785	84.94
274.017	89.94
274.249	99.94
274.481	81.94
274.713	72.94
274.945	86.94
275.176	81.94
275.408	91.94
275.64	79.94
275.872	89.94
276.104	105.94
276.335	83.94
276.567	82.94
276.799	100.94
277.031	101.94
277.262	87.94
277.494	100.94
277.726	100.94
277.957	80.94
278.189	84.94
278.421	84.94
278.652	84.94
278.884	89.94
279.115	81.94
279.347	82.94
279.579	84.94
279.81	95.94
280.042	94.94
280.273	92.94
280.505	101.94
280.736	97.94
280.968	82.94
281.199	79.94
281.431	91.94
281.662	88.94
281.894	96.94
282.125	86.94
282.356	118.94
282.588	116.94
282.819	105.94
283.051	94.94
283.282	82.94
283.513	89.94
283.745	78.94
283.976	87.94
284.207	82.94
284.439	78.94
284.67	78.94
284.901	84.94
285.132	74.94
285.364	81.94
285.595	93.94
285.826	76.94
286.057	77.94
286.288	81.94
286.52	75.94
286.751	76.94
286.982	96.94
287.213	100.94
287.444	71.94
287.675	85.94
287.906	94.94
288.138	100.94
288.369	100.94
288.6	85.94
288.831	75.94
289.062	98.94
289.293	81.94
289.524	99.94
289.755	94.94
289.986	89.94
290.217	88.94
290.448	85.94
290.679	90.94
290.91	90.94
291.141	88.94
291.371	81.94
291.602	86.94
291.833	98.94
292.064	90.94
292.295	55.94
292.526	80.94
292.757	98.94
292.987	93.94
293.218	95.94
293.449	94.94
293.68	104.94
293.91	87.94
294.141	79.94
294.372	91.94
294.603	87.94
294.833	107.94
295.064	96.94
295.295	82.94
295.525	93.94
295.756	85.94
295.987	117.94
296.217	127.94
296.448	111.94
296.679	94.94
296.909	97.94
297.14	93.94
297.37	95.94
297.601	100.94
297.831	97.94
298.062	88.94
298.292	86.94
298.523	84.94
298.753	86.94
298.984	90.94
299.214	102.94
299.445	103.94
299.675	101.94
299.905	93.94
300.136	81.94
300.366	73.94
300.597	85.94
300.827	91.94
301.057	103.94
301.288	104.94
301.518	102.94
301.748	86.94
301.979	108.94
302.209	81.94
302.439	91.94
302.669	87.94
302.9	92.94
303.13	95.94
303.36	86.94
303.59	109.94
303.82	103.94
304.051	98.94
304.281	90.94
304.511	101.94
304.741	102.94
304.971	68.94
305.201	86.94
305.431	97.94
305.661	85.94
305.891	85.94
306.121	100.94
306.352	91.94
306.582	99.94
306.812	89.94
307.042	87.94
307.272	99.94
307.502	94.94
307.731	92.94
307.961	89.94
308.191	99.94
308.421	80.94
308.651	93.94
308.881	95.94
309.111	86.94
309.341	100.94
309.571	95.94
309.8	103.94
310.03	90.94
310.26	94.94
310.49	87.94
310.72	91.94
310.949	92.94
311.179	100.94
311.409	91.94
311.639	94.94
311.868	93.94
312.098	92.94
312.328	96.94
312.557	102.94
312.787	100.94
313.017	97.94
313.246	91.94
313.476	86.94
313.706	97.94
313.935	92.94
314.165	93.94
314.394	93.94
314.624	106.94
314.853	99.94
315.083	94.94
315.312	95.94
315.542	95.94
315.771	87.94
316.001	101.94
316.23	93.94
316.46	96.94
316.689	105.94
316.919	70.94
317.148	106.94
317.377	102.94
317.607	110.94
317.836	99.94
318.065	93.94
318.295	103.94
318.524	105.94
318.753	97.94
318.983	83.94
319.212	103.94
319.441	89.94
319.67	106.94
319.9	103.94
320.129	86.94
320.358	98.94
320.587	99.94
320.816	91.94
321.046	99.94
321.275	95.94
321.504	100.94
321.733	103.94
321.962	92.94
322.191	101.94
322.42	104.94
322.649	101.94
322.878	118.94
323.108	114.94
323.337	110.94
323.566	108.94
323.795	141.94
324.024	196.94
324.253	377.94
324.482	771.94
324.71	1553.94
324.939	2072.94
325.168	762.94
325.397	220.94
325.626	128.94
325.855	122.94
326.084	126.94
326.313	140.94
326.542	146.94
326.77	221.94
326.999	414.94
327.228	867.94
327.457	1593.94
327.686	1295.94
327.914	354.94
328.143	189.94
328.372	161.94
328.6	125.94
328.829	117.94
329.058	123.94
329.287	116.94
329.515	102.94
329.744	100.94
329.972	99.94
330.201	138.94
330.43	138.94
330.658	137.94
330.887	140.94
331.115	122.94
331.344	106.94
331.572	103.94
331.801	102.94
332.03	101.94
332.258	107.94
332.486	98.94
332.715	86.94
332.943	105.94
333.172	106.94
333.4	108.94
333.629	97.94
333.857	98.94
334.085	111.94
334.314	135.94
334.542	167.94
334.771	150.94
334.999	103.94
335.227	85.94
335.455	112.94
335.684	105.94
335.912	102.94
336.14	95.94
336.369	106.94
336.597	105.94
336.825	83.94
337.053	104.94
337.281	102.94
337.51	88.94
337.738	90.94
337.966	91.94
338.194	95.94
338.422	100.94
338.65	115.94
338.878	81.94
339.106	94.94
339.334	90.94
339.562	86.94
339.79	97.94
340.018	102.94
340.246	92.94
340.474	89.94
340.702	92.94
340.93	77.94
341.158	92.94
341.386	94.94
341.614	96.94
341.842	98.94
342.07	87.94
342.298	85.94
342.526	90.94
342.754	105.94
342.981	102.94
343.209	91.94
343.437	89.94
343.665	88.94
343.893	85.94
344.12	106.94
344.348	91.94
344.576	80.94
344.804	98.94
345.031	81.94
345.259	93.94
345.487	91.94
345.714	94.94
345.942	103.94
346.17	84.94
346.397	90.94
346.625	91.94
346.853	95.94
347.08	91.94
347.308	78.94
347.535	87.94
347.763	89.94
347.99	81.94
348.218	110.94
348.445	103.94
348.673	94.94
348.9	90.94
349.128	99.94
349.355	98.94
349.583	97.94
349.81	91.94
350.037	88.94
350.265	95.94
350.492	94.94
350.72	106.94
350.947	97.94
351.174	96.94
351.402	101.94
351.629	89.94
351.856	106.94
352.083	104.94
352.311	103.94
352.538	104.94
352.765	95.94
352.992	113.94
353.22	114.94
353.447	107.94
353.674	107.94
353.901	108.94
354.128	107.94
354.355	81.94
354.583	91.94
354.81	95.94
355.037	94.94
355.264	90.94
355.491	98.94
355.718	94.94
355.945	100.94
356.172	103.94
356.399	101.94
356.626	101.94
356.853	102.94
357.08	92.94
357.307	101.94
357.534	86.94
357.761	92.94
357.988	98.94
358.215	96.94
358.441	100.94
358.668	91.94
358.895	85.94
359.122	91.94
359.349	83.94
359.576	89.94
359.802	91.94
360.029	107.94
360.256	112.94
360.483	100.94
360.709	91.94
360.936	93.94
361.163	93.94
361.39	94.94
361.616	99.94
361.843	96.94
362.07	92.94
362.296	98.94
362.523	102.94
362.749	87.94
362.976	100.94
363.203	94.94
363.429	83.94
363.656	89.94
363.882	89.94
364.109	94.94
364.335	100.94
364.562	93.94
364.788	90.94
365.015	97.94
365.241	95.94
365.468	100.94
365.694	93.94
365.92	93.94
366.147	81.94
366.373	96.94
366.599	105.94
366.826	95.94
367.052	78.94
367.278	90.94
367.505	90.94
367.731	83.94
367.957	95.94
368.184	98.94
368.41	98.94
368.636	103.94
368.862	113.94
369.089	104.94
369.315	94.94
369.541	89.94
369.767	84.94
369.993	100.94
370.219	95.94
370.445	87.94
370.672	85.94
370.898	87.94
371.124	98.94
371.35	111.94
371.576	76.94
371.802	94.94
372.028	96.94
372.254	84.94
372.48	88.94
372.706	87.94
372.932	84.94
373.158	94.94
373.384	91.94
373.61	93.94
373.835	99.94
374.061	103.94
374.287	109.94
374.513	88.94
374.739	106.94
374.965	90.94
375.191	103.94
375.416	98.94
375.642	93.94
375.868	96.94
376.094	98.94
376.319	95.94
376.545	84.94
376.771	92.94
376.997	95.94
377.222	99.94
377.448	88.94
377.674	103.94
377.899	86.94
378.125	87.94
378.35	85.94
378.576	85.94
378.802	87.94
379.027	91.94
379.253	90.94
379.478	90.94
379.704	90.94
379.929	98.94
380.155	105.94
380.38	113.94
380.606	101.94
380.831	101.94
381.057	112.94
381.282	110.94
381.507	103.94
381.733	118.94
381.958	95.94
382.184	86.94
382.409	100.94
382.634	107.94
382.86	92.94
383.085	102.94
383.31	99.94
383.535	107.94
383.761	92.94
383.986	109.94
384.211	102.94
384.436	102.94
384.662	107.94
384.887	106.94
385.112	113.94
385.337	108.94
385.562	116.94
385.787	108.94
386.013	107.94
386.238	113.94
386.463	108.94
386.688	113.94
386.913	113.94
387.138	111.94
387.363	108.94
387.588	107.94
387.813	115.94
388.038	108.94
388.263	106.94
388.488	105.94
388.713	101.94
388.938	81.94
389.163	99.94
389.387	102.94
389.612	85.94
389.837	85.94
390.062	95.94
390.287	100.94
390.512	94.94
390.736	99.94
390.961	95.94
391.186	93.94
391.411	82.94
391.636	91.94
391.86	90.94
392.085	89.94
392.31	95.94
392.534	101.94
392.759	113.94
392.984	90.94
393.208	86.94
393.433	84.94
393.658	88.94
393.882	82.94
394.107	88.94
394.331	91.94
394.556	87.94
394.78	91.94
395.005	96.94
395.229	89.94
395.454	100.94
395.678	83.94
395.903	100.94
396.127	91.94
396.352	101.94
396.576	93.94
396.801	101.94
397.025	96.94
397.249	87.94
397.474	83.94
397.698	92.94
397.922	101.94
398.147	78.94
398.371	94.94
398.595	86.94
398.82	78.94
399.044	84.94
399.268	89.94
399.492	82.94
399.717	90.94
399.941	91.94
400.165	90.94
400.389	86.94
400.613	87.94
400.837	92.94
401.062	78.94
401.286	98.94
401.51	82.94
401.734	101.94
401.958	108.94
402.182	110.94
402.406	157.94
402.63	126.94
402.854	100.94
403.078	86.94
403.302	79.94
403.526	75.94
403.75	87.94
403.974	86.94
404.198	100.94
404.422	83.94
404.645	86.94
404.869	82.94
405.093	100.94
405.317	106.94
405.541	84.94
405.765	93.94
405.988	108.94
406.212	148.94
406.436	193.94
406.66	141.94
406.883	84.94
407.107	82.94
407.331	86.94
407.555	92.94
407.778	99.94
408.002	101.94
408.226	87.94
408.449	87.94
408.673	83.94
408.896	96.94
409.12	101.94
409.344	87.94
409.567	94.94
409.791	91.94
410.014	82.94
410.238	86.94
410.461	84.94
410.685	97.94
410.908	94.94
411.132	108.94
411.355	97.94
411.578	88.94
411.802	87.94
412.025	90.94
412.249	102.94
412.472	112.94
412.695	95.94
412.919	101.94
413.142	97.94
413.365	89.94
413.589	96.94
413.812	99.94
414.035	91.94
414.258	86.94
414.482	95.94
414.705	98.94
414.928	93.94
415.151	91.94
415.374	78.94
415.597	99.94
415.821	92.94
416.044	91.94
416.267	79.94
416.49	107.94
416.713	91.94
416.936	91.94
417.159	85.94
417.382	89.94
417.605	82.94
417.828	99.94
418.051	92.94
418.274	84.94
418.497	91.94
418.72	85.94
418.943	101.94
419.166	103.94
419.389	77.94
419.611	89.94
419.834	95.94
420.057	102.94
420.28	99.94
420.503	83.94
420.726	95.94
420.948	85.94
421.171	86.94
421.394	93.94
421.617	94.94
421.839	94.94
422.062	88.94
422.285	98.94
422.507	90.94
422.73	87.94
422.953	82.94
423.175	94.94
423.398	89.94
423.621	90.94
423.843	101.94
424.066	84.94
424.288	87.94
424.511	87.94
424.733	79.94
424.956	99.94
425.178	106.94
425.401	95.94
425.623	91.94
425.846	90.94
426.068	81.94
426.291	84.94
426.513	92.94
426.735	91.94
426.958	94.94
427.18	94.94
427.402	125.94
427.625	163.94
427.847	133.94
428.069	122.94
428.292	92.94
428.514	80.94
428.736	74.94
428.958	84.94
429.181	90.94
429.403	94.94
429.625	95.94
429.847	79.94
430.069	92.94
430.292	102.94
430.514	101.94
430.736	97.94
430.958	85.94
431.18	98.94
431.402	83.94
431.624	90.94
431.846	87.94
432.068	97.94
432.29	85.94
432.512	80.94
432.734	85.94
432.956	103.94
433.178	93.94
433.4	94.94
433.622	93.94
433.844	93.94
434.066	96.94
434.287	94.94
434.509	79.94
434.731	87.94
434.953	84.94
435.175	102.94
435.397	93.94
435.618	100.94
435.84	90.94
436.062	126.94
436.284	104.94
436.505	104.94
436.727	100.94
436.949	94.94
437.17	98.94
437.392	87.94
437.614	90.94
437.835	106.94
438.057	114.94
438.278	109.94
438.5	106.94
438.721	118.94
438.943	107.94
439.165	109.94
439.386	81.94
439.608	94.94
439.829	105.94
440.05	104.94
440.272	110.94
440.493	91.94
440.715	81.94
440.936	73.94
441.158	76.94
441.379	71.94
441.6	99.94
441.822	96.94
442.043	103.94
442.264	106.94
442.486	97.94
442.707	94.94
442.928	97.94
443.149	107.94
443.371	106.94
443.592	100.94
443.813	102.94
444.034	118.94
444.255	85.94
444.476	80.94
444.698	87.94
444.919	92.94
445.14	123.94
445.361	115.94
445.582	109.94
445.803	123.94
446.024	136.94
446.245	133.94
446.466	118.94
446.687	91.94
446.908	92.94
447.129	104.94
447.35	94.94
447.571	94.94
447.792	104.94
448.013	104.94
448.234	115.94
448.455	95.94
448.675	103.94
448.896	103.94
449.117	105.94
449.338	97.94
449.559	124.94
449.779	127.94
450	97.94
450.221	93.94
450.442	107.94
450.662	93.94
450.883	89.94
451.104	114.94
451.324	92.94
451.545	90.94
451.766	87.94
451.986	95.94
452.207	78.94
452.428	91.94
452.648	95.94
452.869	95.94
453.089	93.94
453.31	112.94
453.53	101.94
453.751	77.94
453.971	93.94
454.192	98.94
454.412	90.94
454.633	94.94
454.853	95.94
455.073	75.94
455.294	76.94
455.514	89.94
455.734	113.94
455.955	80.94
456.175	84.94
456.395	79.94
456.616	89.94
456.836	89.94
457.056	101.94
457.276	84.94
457.497	86.94
457.717	103.94
457.937	90.94
458.157	87.94
458.377	93.94
458.598	106.94
458.818	125.94
459.038	131.94
459.258	123.94
459.478	93.94
459.698	97.94
459.918	86.94
460.138	84.94
460.358	80.94
460.578	77.94
460.798	94.94
461.018	80.94
461.238	98.94
461.458	99.94
461.678	85.94
461.898	84.94
462.118	81.94
462.338	85.94
462.558	101.94
462.777	93.94
462.997	83.94
463.217	84.94
463.437	95.94
463.657	97.94
463.876	97.94
464.096	84.94
464.316	88.94
464.536	93.94
464.755	104.94
464.975	107.94
465.195	154.94
465.414	142.94
465.634	83.94
465.854	83.94
466.073	83.94
466.293	83.94
466.512	89.94
466.732	84.94
466.951	110.94
467.171	90.94
467.391	96.94
467.61	106.94
467.829	96.94
468.049	107.94
468.268	107.94
468.488	110.94
468.707	87.94
468.927	82.94
469.146	74.94
469.365	85.94
469.585	79.94
469.804	83.94
470.023	90.94
470.243	96.94
470.462	93.94
470.681	106.94
470.901	91.94
471.12	87.94
471.339	91.94
471.558	92.94
471.777	84.94
471.997	86.94
472.216	124.94
472.435	164.94
472.654	95.94
472.873	88.94
473.092	79.94
473.311	80.94
473.53	92.94
473.749	76.94
473.968	90.94
474.187	89.94
474.406	92.94
474.625	89.94
474.844	92.94
475.063	76.94
475.282	90.94
475.501	73.94
475.72	86.94
475.939	80.94
476.158	83.94
476.377	76.94
476.596	90.94
476.814	98.94
477.033	97.94
477.252	92.94
477.471	93.94
477.69	90.94
477.908	74.94
478.127	85.94
478.346	78.94
478.564	98.94
478.783	84.94
479.002	82.94
479.22	84.94
479.439	100.94
479.658	92.94
479.876	86.94
480.095	86.94
480.313	87.94
480.532	97.94
480.751	108.94
480.969	124.94
481.188	250.94
481.406	190.94
481.624	105.94
481.843	105.94
482.061	83.94
482.28	96.94
482.498	74.94
482.717	98.94
482.935	93.94
483.153	105.94
483.372	83.94
483.59	98.94
483.808	92.94
484.027	106.94
484.245	81.94
484.463	98.94
484.681	99.94
484.9	93.94
485.118	96.94
485.336	85.94
485.554	99.94
485.772	108.94
485.99	96.94
486.209	124.94
486.427	115.94
486.645	113.94
486.863	116.94
487.081	106.94
487.299	98.94
487.517	100.94
487.735	94.94
487.953	90.94
488.171	103.94
488.389	94.94
488.607	94.94
488.825	87.94
489.043	89.94
489.261	91.94
489.479	105.94
489.696	83.94
489.914	83.94
490.132	85.94
490.35	84.94
490.568	90.94
490.786	89.94
491.003	85.94
491.221	80.94
491.439	85.94
491.657	90.94
491.874	97.94
492.092	95.94
492.31	100.94
492.527	87.94
492.745	84.94
492.963	92.94
493.18	92.94
493.398	104.94
493.615	101.94
493.833	93.94
494.05	85.94
494.268	97.94
494.485	92.94
494.703	92.94
494.92	93.94
495.138	98.94
495.355	97.94
495.573	87.94
495.79	90.94
496.008	95.94
496.225	107.94
496.442	87.94
496.66	100.94
496.877	81.94
497.094	92.94
497.312	92.94
497.529	81.94
497.746	111.94
497.963	93.94
498.181	96.94
498.398	95.94
498.615	103.94
498.832	96.94
499.049	79.94
499.267	90.94
499.484	77.94
499.701	85.94
499.918	97.94
500.135	84.94
500.352	95.94
500.569	92.94
500.786	87.94
501.003	100.94
501.22	101.94
501.437	82.94
501.654	108.94
501.871	105.94
502.088	92.94
502.305	92.94
502.522	93.94
502.739	90.94
502.956	71.94
503.172	101.94
503.389	104.94
503.606	89.94
503.823	101.94
504.04	90.94
504.256	86.94
504.473	93.94
504.69	72.94
504.907	99.94
505.123	93.94
505.34	91.94
505.557	90.94
505.773	97.94
505.99	88.94
506.207	93.94
506.423	86.94
506.64	91.94
506.856	92.94
507.073	95.94
507.289	102.94
507.506	96.94
507.722	89.94
507.939	106.94
508.155	92.94
508.372	107.94
508.588	104.94
508.805	88.94
509.021	94.94
509.238	87.94
509.454	101.94
509.67	97.94
509.887	104.94
510.103	120.94
510.319	197.94
510.536	665.94
510.752	2212.94
510.968	633.94
511.184	143.94
511.401	124.94
511.617	92.94
511.833	90.94
512.049	86.94
512.265	83.94
512.481	93.94
512.698	78.94
512.914	95.94
513.13	95.94
513.346	98.94
513.562	101.94
513.778	81.94
513.994	90.94
514.21	95.94
514.426	123.94
514.642	133.94
514.858	108.94
515.074	138.94
515.29	381.94
