Data from Circ_2016_H10_HRD10591_00010.txt Node
Date: Wed Jan 03 09:58:42 EST 2024
User: Yrep
Spectrometer: HR+D1059
Trigger mode: 1
Integration Time (sec): 1.000000E-1
Scans to average: 1
Electric dark correction enabled: true
Nonlinearity correction enabled: false
Boxcar width: 0
XAxis mode: Wavelengths
Number of Pixels in Spectrum: 2048
>>>>>Begin Spectral Data<<<<<
223.165	-10.06
223.4	-10.06
223.635	-10.06
223.869	-18.06
224.104	-21.06
224.338	-25.06
224.573	-6.06
224.808	-8.06
225.042	-10.06
225.277	-5.06
225.511	-5.06
225.746	10.94
225.98	-1.06
226.215	11.94
226.449	14.94
226.683	20.94
226.918	19.94
227.152	30.94
227.387	27.94
227.621	37.94
227.856	41.94
228.09	40.94
228.324	52.94
228.559	47.94
228.793	146.94
229.027	404.94
229.262	474.94
229.496	545.94
229.73	722.94
229.964	717.94
230.199	504.94
230.433	449.94
230.667	433.94
230.901	441.94
231.136	405.94
231.37	426.94
231.604	425.94
231.838	422.94
232.072	440.94
232.306	447.94
232.541	427.94
232.775	456.94
233.009	444.94
233.243	453.94
233.477	460.94
233.711	461.94
233.945	474.94
234.179	481.94
234.413	455.94
234.647	467.94
234.881	506.94
235.115	492.94
235.349	499.94
235.583	524.94
235.817	571.94
236.051	595.94
236.285	591.94
236.519	575.94
236.753	662.94
236.987	869.94
237.221	1237.94
237.455	1296.94
237.689	837.94
237.922	681.94
238.156	672.94
238.39	641.94
238.624	620.94
238.858	616.94
239.091	601.94
239.325	595.94
239.559	641.94
239.793	677.94
240.027	722.94
240.26	807.94
240.494	876.94
240.728	849.94
240.961	823.94
241.195	752.94
241.429	757.94
241.662	731.94
241.896	713.94
242.13	747.94
242.363	748.94
242.597	733.94
242.83	787.94
243.064	756.94
243.298	771.94
243.531	787.94
243.765	787.94
243.998	807.94
244.232	766.94
244.465	847.94
244.699	863.94
244.932	876.94
245.166	853.94
245.399	866.94
245.633	880.94
245.866	899.94
246.099	862.94
246.333	881.94
246.566	930.94
246.8	937.94
247.033	957.94
247.266	967.94
247.5	1057.94
247.733	1125.94
247.966	1105.94
248.2	1118.94
248.433	1112.94
248.666	1163.94
248.899	1249.94
249.133	1303.94
249.366	1308.94
249.599	1226.94
249.832	1164.94
250.066	1156.94
250.299	1188.94
250.532	1270.94
250.765	1404.94
250.998	1549.94
251.231	1471.94
251.465	1391.94
251.698	1347.94
251.931	1304.94
252.164	1331.94
252.397	1339.94
252.63	1411.94
252.863	1464.94
253.096	1563.94
253.329	1603.94
253.562	1571.94
253.795	1451.94
254.028	1413.94
254.261	1511.94
254.494	1699.94
254.727	1916.94
254.96	2035.94
255.193	1784.94
255.426	1627.94
255.659	1530.94
255.892	1472.94
256.124	1489.94
256.357	1461.94
256.59	1423.94
256.823	1402.94
257.056	1430.94
257.289	1434.94
257.521	1456.94
257.754	1480.94
257.987	1474.94
258.22	1470.94
258.452	1464.94
258.685	1447.94
258.918	1509.94
259.151	1531.94
259.383	1630.94
259.616	1618.94
259.849	1683.94
260.081	1787.94
260.314	1919.94
260.547	1895.94
260.779	1795.94
261.012	1691.94
261.244	1606.94
261.477	1618.94
261.71	1632.94
261.942	1670.94
262.175	1650.94
262.407	1633.94
262.64	1567.94
262.872	1597.94
263.105	1584.94
263.337	1583.94
263.57	1561.94
263.802	1591.94
264.035	1604.94
264.267	1596.94
264.499	1602.94
264.732	1585.94
264.964	1631.94
265.197	1623.94
265.429	1650.94
265.661	1698.94
265.894	1648.94
266.126	1683.94
266.358	1695.94
266.591	1725.94
266.823	1754.94
267.055	1809.94
267.287	1779.94
267.52	1753.94
267.752	1775.94
267.984	1814.94
268.216	1832.94
268.448	1909.94
268.681	1942.94
268.913	1975.94
269.145	2193.94
269.377	2234.94
269.609	2167.94
269.841	2109.94
270.073	2247.94
270.306	2470.94
270.538	2579.94
270.77	2477.94
271.002	2378.94
271.234	2301.94
271.466	2408.94
271.698	2548.94
271.93	2481.94
272.162	2523.94
272.394	2445.94
272.626	2363.94
272.858	2270.94
273.09	2178.94
273.322	2161.94
273.553	2093.94
273.785	2130.94
274.017	2160.94
274.249	2135.94
274.481	2160.94
274.713	2167.94
274.945	2175.94
275.176	2175.94
275.408	2146.94
275.64	2136.94
275.872	2205.94
276.104	2197.94
276.335	2216.94
276.567	2265.94
276.799	2396.94
277.031	2499.94
277.262	2668.94
277.494	2539.94
277.726	2411.94
277.957	2359.94
278.189	2345.94
278.421	2293.94
278.652	2268.94
278.884	2279.94
279.115	2257.94
279.347	2267.94
279.579	2289.94
279.81	2282.94
280.042	2283.94
280.273	2277.94
280.505	2277.94
280.736	2293.94
280.968	2350.94
281.199	2351.94
281.431	2341.94
281.662	2363.94
281.894	2367.94
282.125	2423.94
282.356	2552.94
282.588	2655.94
282.819	2561.94
283.051	2428.94
283.282	2418.94
283.513	2493.94
283.745	2531.94
283.976	2564.94
284.207	2579.94
284.439	2559.94
284.67	2547.94
284.901	2541.94
285.132	2553.94
285.364	2548.94
285.595	2519.94
285.826	2520.94
286.057	2520.94
286.288	2598.94
286.52	2567.94
286.751	2576.94
286.982	2617.94
287.213	2621.94
287.444	2671.94
287.675	2715.94
287.906	2783.94
288.138	2809.94
288.369	2774.94
288.6	2824.94
288.831	2770.94
289.062	2724.94
289.293	2724.94
289.524	2675.94
289.755	2743.94
289.986	2659.94
290.217	2720.94
290.448	2724.94
290.679	2699.94
290.91	2744.94
291.141	2702.94
291.371	2704.94
291.602	2742.94
291.833	2721.94
292.064	2747.94
292.295	2690.94
292.526	2728.94
292.757	2721.94
292.987	2650.94
293.218	2711.94
293.449	2732.94
293.68	2746.94
293.91	2781.94
294.141	2753.94
294.372	2743.94
294.603	2760.94
294.833	2802.94
295.064	2747.94
295.295	2747.94
295.525	2779.94
295.756	2827.94
295.987	2895.94
296.217	2975.94
296.448	2969.94
296.679	2880.94
296.909	2890.94
297.14	2848.94
297.37	2911.94
297.601	2959.94
297.831	2969.94
298.062	2930.94
298.292	2978.94
298.523	3009.94
298.753	3014.94
298.984	3025.94
299.214	2974.94
299.445	2980.94
299.675	3025.94
299.905	3025.94
300.136	3064.94
300.366	3081.94
300.597	3076.94
300.827	3171.94
301.057	3260.94
301.288	3217.94
301.518	3183.94
301.748	3207.94
301.979	3282.94
302.209	3263.94
302.439	3260.94
302.669	3201.94
302.9	3228.94
303.13	3144.94
303.36	3211.94
303.59	3274.94
303.82	3305.94
304.051	3254.94
304.281	3212.94
304.511	3191.94
304.741	3206.94
304.971	3163.94
305.201	3160.94
305.431	3175.94
305.661	3155.94
305.891	3147.94
306.121	3150.94
306.352	3213.94
306.582	3217.94
306.812	3106.94
307.042	3127.94
307.272	3136.94
307.502	3156.94
307.731	3165.94
307.961	3164.94
308.191	3196.94
308.421	3175.94
308.651	3228.94
308.881	3226.94
309.111	3230.94
309.341	3275.94
309.571	3307.94
309.8	3328.94
310.03	3444.94
310.26	3442.94
310.49	3383.94
310.72	3576.94
310.949	3603.94
311.179	3579.94
311.409	3449.94
311.639	3478.94
311.868	3472.94
312.098	3564.94
312.328	3562.94
312.557	3708.94
312.787	3732.94
313.017	3632.94
313.246	3645.94
313.476	3588.94
313.706	3637.94
313.935	3670.94
314.165	3761.94
314.394	3719.94
314.624	3699.94
314.853	3701.94
315.083	3605.94
315.312	3576.94
315.542	3602.94
315.771	3485.94
316.001	3542.94
316.23	3527.94
316.46	3551.94
316.689	3613.94
316.919	3616.94
317.148	3697.94
317.377	3684.94
317.607	3576.94
317.836	3585.94
318.065	3517.94
318.295	3515.94
318.524	3592.94
318.753	3539.94
318.983	3536.94
319.212	3569.94
319.441	3616.94
319.67	3619.94
319.9	3567.94
320.129	3575.94
320.358	3542.94
320.587	3617.94
320.816	3671.94
321.046	3725.94
321.275	3681.94
321.504	3649.94
321.733	3742.94
321.962	3827.94
322.191	3874.94
322.42	3950.94
322.649	3984.94
322.878	3994.94
323.108	4135.94
323.337	4285.94
323.566	4440.94
323.795	4694.94
324.024	5156.94
324.253	6798.94
324.482	10151.94
324.71	14583.94
324.939	15597.94
325.168	11102.94
325.397	6065.94
325.626	5020.94
325.855	4607.94
326.084	4486.94
326.313	4538.94
326.542	4692.94
326.77	5219.94
326.999	6571.94
327.228	9585.94
327.457	13571.94
327.686	12595.94
327.914	6697.94
328.143	5401.94
328.372	5080.94
328.6	4885.94
328.829	4856.94
329.058	5036.94
329.287	4917.94
329.515	4612.94
329.744	4469.94
329.972	4503.94
330.201	4642.94
330.43	4831.94
330.658	5020.94
330.887	5276.94
331.115	4947.94
331.344	4676.94
331.572	4620.94
331.801	4810.94
332.03	4795.94
332.258	4742.94
332.486	4692.94
332.715	4836.94
332.943	4951.94
333.172	5041.94
333.4	5239.94
333.629	5295.94
333.857	5458.94
334.085	5275.94
334.314	5137.94
334.542	5120.94
334.771	5098.94
334.999	5013.94
335.227	5020.94
335.455	4904.94
335.684	4813.94
335.912	4778.94
336.14	4761.94
336.369	4780.94
336.597	4829.94
336.825	4759.94
337.053	4708.94
337.281	4554.94
337.51	4553.94
337.738	4583.94
337.966	4539.94
338.194	4470.94
338.422	4422.94
338.65	4369.94
338.878	4420.94
339.106	4339.94
339.334	4393.94
339.562	4286.94
339.79	4163.94
340.018	4259.94
340.246	4274.94
340.474	4239.94
340.702	4215.94
340.93	4234.94
341.158	4219.94
341.386	4275.94
341.614	4210.94
341.842	4161.94
342.07	4109.94
342.298	4184.94
342.526	4136.94
342.754	4109.94
342.981	4199.94
343.209	4237.94
343.437	4535.94
343.665	4787.94
343.893	5001.94
344.12	5045.94
344.348	4709.94
344.576	4603.94
344.804	4492.94
345.031	4457.94
345.259	4381.94
345.487	4241.94
345.714	4239.94
345.942	4123.94
346.17	4072.94
346.397	4074.94
346.625	4069.94
346.853	3982.94
347.08	4027.94
347.308	4057.94
347.535	4164.94
347.763	4186.94
347.99	4092.94
348.218	4103.94
348.445	4165.94
348.673	4055.94
348.9	3957.94
349.128	3968.94
349.355	3923.94
349.583	3978.94
349.81	3909.94
350.037	3888.94
350.265	3890.94
350.492	3878.94
350.72	3869.94
350.947	3909.94
351.174	4139.94
351.402	4045.94
351.629	3979.94
351.856	3993.94
352.083	4085.94
352.311	4064.94
352.538	4067.94
352.765	4018.94
352.992	3935.94
353.22	3937.94
353.447	3903.94
353.674	3871.94
353.901	3873.94
354.128	3840.94
354.355	3810.94
354.583	3852.94
354.81	3850.94
355.037	3861.94
355.264	3798.94
355.491	3818.94
355.718	3855.94
355.945	3821.94
356.172	3818.94
356.399	3837.94
356.626	3865.94
356.853	3828.94
357.08	3794.94
357.307	3857.94
357.534	3791.94
357.761	3900.94
357.988	3905.94
358.215	3883.94
358.441	3954.94
358.668	3905.94
358.895	3913.94
359.122	3932.94
359.349	3970.94
359.576	4033.94
359.802	4241.94
360.029	4338.94
360.256	4369.94
360.483	4207.94
360.709	4079.94
360.936	4056.94
361.163	4032.94
361.39	4073.94
361.616	4044.94
361.843	4031.94
362.07	3990.94
362.296	4044.94
362.523	3976.94
362.749	4030.94
362.976	4019.94
363.203	3914.94
363.429	3841.94
363.656	3935.94
363.882	3926.94
364.109	3881.94
364.335	3903.94
364.562	3890.94
364.788	3884.94
365.015	3925.94
365.241	3903.94
365.468	3977.94
365.694	3952.94
365.92	3914.94
366.147	3857.94
366.373	3911.94
366.599	3910.94
366.826	3862.94
367.052	3864.94
367.278	3885.94
367.505	3955.94
367.731	3922.94
367.957	3941.94
368.184	3920.94
368.41	4053.94
368.636	4084.94
368.862	4103.94
369.089	4018.94
369.315	3992.94
369.541	4029.94
369.767	4049.94
369.993	4074.94
370.219	4035.94
370.445	4097.94
370.672	4092.94
370.898	4061.94
371.124	4141.94
371.35	4206.94
371.576	4148.94
371.802	4153.94
372.028	4104.94
372.254	4154.94
372.48	4102.94
372.706	4287.94
372.932	4348.94
373.158	4323.94
373.384	4220.94
373.61	4238.94
373.835	4230.94
374.061	4233.94
374.287	4345.94
374.513	4337.94
374.739	4515.94
374.965	4699.94
375.191	4579.94
375.416	4545.94
375.642	4412.94
375.868	4344.94
376.094	4308.94
376.319	4268.94
376.545	4275.94
376.771	4294.94
376.997	4295.94
377.222	4196.94
377.448	4226.94
377.674	4157.94
377.899	4149.94
378.125	4177.94
378.35	4165.94
378.576	4144.94
378.802	4126.94
379.027	4167.94
379.253	4170.94
379.478	4114.94
379.704	4124.94
379.929	4224.94
380.155	4223.94
380.38	4224.94
380.606	4240.94
380.831	4149.94
381.057	4335.94
381.282	4230.94
381.507	4283.94
381.733	4313.94
381.958	4315.94
382.184	4365.94
382.409	4422.94
382.634	4440.94
382.86	4516.94
383.085	4539.94
383.31	4624.94
383.535	4649.94
383.761	4694.94
383.986	4778.94
384.211	4907.94
384.436	4963.94
384.662	5068.94
384.887	5071.94
385.112	5154.94
385.337	5180.94
385.562	5184.94
385.787	5128.94
386.013	5279.94
386.238	5234.94
386.463	5220.94
386.688	5213.94
386.913	5157.94
387.138	5133.94
387.363	5129.94
387.588	5005.94
387.813	4972.94
388.038	5140.94
388.263	5168.94
388.488	5132.94
388.713	5092.94
388.938	4979.94
389.163	4966.94
389.387	4963.94
389.612	4837.94
389.837	4982.94
390.062	4863.94
390.287	4920.94
390.512	4897.94
390.736	5025.94
390.961	5139.94
391.186	5204.94
391.411	5227.94
391.636	5414.94
391.86	5591.94
392.085	5672.94
392.31	5490.94
392.534	5364.94
392.759	5316.94
392.984	5231.94
393.208	5249.94
393.433	5410.94
393.658	5282.94
393.882	5178.94
394.107	5222.94
394.331	5271.94
394.556	5232.94
394.78	5348.94
395.005	5331.94
395.229	5359.94
395.454	5503.94
395.678	5643.94
395.903	5600.94
396.127	5657.94
396.352	5461.94
396.576	5280.94
396.801	5292.94
397.025	5532.94
397.249	5549.94
397.474	5568.94
397.698	5607.94
397.922	5744.94
398.147	5858.94
398.371	5966.94
398.595	6074.94
398.82	6310.94
399.044	6886.94
399.268	7712.94
399.492	8770.94
399.717	9301.94
399.941	8995.94
400.165	8337.94
400.389	7792.94
400.613	7002.94
400.837	6591.94
401.062	6488.94
401.286	6315.94
401.51	6233.94
401.734	6246.94
401.958	6375.94
402.182	6534.94
402.406	6615.94
402.63	6605.94
402.854	6724.94
403.078	6860.94
403.302	6937.94
403.526	7052.94
403.75	7072.94
403.974	7221.94
404.198	7160.94
404.422	7307.94
404.645	7182.94
404.869	7043.94
405.093	7222.94
405.317	7193.94
405.541	7236.94
405.765	7032.94
405.988	6915.94
406.212	7164.94
406.436	7174.94
406.66	7424.94
406.883	7485.94
407.107	7989.94
407.331	8474.94
407.555	8929.94
407.778	8687.94
408.002	7976.94
408.226	7597.94
408.449	7442.94
408.673	7329.94
408.896	7455.94
409.12	7586.94
409.344	7266.94
409.567	6886.94
409.791	6888.94
410.014	6788.94
410.238	6744.94
410.461	6790.94
410.685	6678.94
410.908	6804.94
411.132	7114.94
411.355	7124.94
411.578	6777.94
411.802	6481.94
412.025	6485.94
412.249	6570.94
412.472	6477.94
412.695	6395.94
412.919	6181.94
413.142	6191.94
413.365	6257.94
413.589	6241.94
413.812	6122.94
414.035	6133.94
414.258	6078.94
414.482	6036.94
414.705	6311.94
414.928	6229.94
415.151	6175.94
415.374	6196.94
415.597	6161.94
415.821	6074.94
416.044	6090.94
416.267	6072.94
416.49	5994.94
416.713	6015.94
416.936	6078.94
417.159	6007.94
417.382	6120.94
417.605	6061.94
417.828	6201.94
418.051	6429.94
418.274	6280.94
418.497	6176.94
418.72	6338.94
418.943	6213.94
419.166	6651.94
419.389	6975.94
419.611	6880.94
419.834	6577.94
420.057	6420.94
420.28	6305.94
420.503	6116.94
420.726	6216.94
420.948	6369.94
421.171	6711.94
421.394	6692.94
421.617	6303.94
421.839	6249.94
422.062	6389.94
422.285	6558.94
422.507	7167.94
422.73	7575.94
422.953	7143.94
423.175	6689.94
423.398	6832.94
423.621	6714.94
423.843	6906.94
424.066	6933.94
424.288	6808.94
424.511	6996.94
424.733	7426.94
424.956	7711.94
425.178	7338.94
425.401	7458.94
425.623	7365.94
425.846	6435.94
426.068	6399.94
426.291	6320.94
426.513	6184.94
426.735	6371.94
426.958	6771.94
427.18	7431.94
427.402	8463.94
427.625	8460.94
427.847	7097.94
428.069	6426.94
428.292	6091.94
428.514	5837.94
428.736	5680.94
428.958	5745.94
429.181	5620.94
429.403	5617.94
429.625	5704.94
429.847	6085.94
430.069	6491.94
430.292	6053.94
430.514	5662.94
430.736	5545.94
430.958	5542.94
431.18	5483.94
431.402	5475.94
431.624	5510.94
431.846	5482.94
432.068	5536.94
432.29	5596.94
432.512	5558.94
432.734	5639.94
432.956	5546.94
433.178	5685.94
433.4	5624.94
433.622	5505.94
433.844	5539.94
434.066	5556.94
434.287	5668.94
434.509	5868.94
434.731	6085.94
434.953	6225.94
435.175	6355.94
435.397	6406.94
435.618	6338.94
435.84	6656.94
436.062	7384.94
436.284	7331.94
436.505	6264.94
436.727	6005.94
436.949	5681.94
437.17	5674.94
437.392	5563.94
437.614	5641.94
437.835	6098.94
438.057	6883.94
438.278	7433.94
438.5	7407.94
438.721	8078.94
438.943	7256.94
439.165	6051.94
439.386	5926.94
439.608	6000.94
439.829	5984.94
440.05	6269.94
440.272	6602.94
440.493	6162.94
440.715	5927.94
440.936	5885.94
441.158	5976.94
441.379	6076.94
441.6	6399.94
441.822	6600.94
442.043	6917.94
442.264	7592.94
442.486	7382.94
442.707	6679.94
442.928	6431.94
443.149	6587.94
443.371	6811.94
443.592	7322.94
443.813	8185.94
444.034	8042.94
444.255	7139.94
444.476	7137.94
444.698	7217.94
444.919	7392.94
445.14	7138.94
445.361	7029.94
445.582	7055.94
445.803	7540.94
446.024	8100.94
446.245	7642.94
446.466	6972.94
446.687	6191.94
446.908	5951.94
447.129	5529.94
447.35	5533.94
447.571	5402.94
447.792	5350.94
448.013	5461.94
448.234	5654.94
448.455	6240.94
448.675	7266.94
448.896	7728.94
449.117	6355.94
449.338	6573.94
449.559	7795.94
449.779	7913.94
450	6106.94
450.221	5451.94
450.442	5351.94
450.662	5267.94
450.883	5299.94
451.104	5356.94
451.324	5223.94
451.545	5181.94
451.766	5054.94
451.986	4929.94
452.207	4815.94
452.428	4824.94
452.648	4928.94
452.869	4915.94
453.089	4996.94
453.31	5077.94
453.53	4892.94
453.751	4768.94
453.971	4875.94
454.192	4989.94
454.412	4802.94
454.633	4753.94
454.853	4675.94
455.073	4754.94
455.294	5085.94
455.514	5555.94
455.734	5111.94
455.955	4593.94
456.175	4536.94
456.395	4563.94
456.616	4477.94
456.836	4498.94
457.056	4464.94
457.276	4427.94
457.497	4522.94
457.717	4565.94
457.937	4640.94
458.157	4660.94
458.377	4791.94
458.598	5047.94
458.818	5678.94
459.038	6240.94
459.258	6235.94
459.478	5747.94
459.698	5644.94
459.918	5739.94
460.138	5913.94
460.358	6159.94
460.578	6106.94
460.798	6127.94
461.018	6186.94
461.238	6074.94
461.458	6042.94
461.678	5983.94
461.898	6149.94
462.118	6216.94
462.338	6441.94
462.558	6666.94
462.777	6979.94
462.997	7418.94
463.217	7943.94
463.437	7688.94
463.657	7134.94
463.876	6946.94
464.096	6964.94
464.316	6927.94
464.536	6942.94
464.755	6754.94
464.975	6625.94
465.195	6672.94
465.414	6645.94
465.634	5933.94
465.854	5688.94
466.073	5531.94
466.293	5383.94
466.512	5135.94
466.732	5098.94
466.951	5045.94
467.171	5112.94
467.391	5172.94
467.61	5154.94
467.829	5104.94
468.049	5051.94
468.268	4860.94
468.488	4854.94
468.707	4796.94
468.927	4855.94
469.146	4829.94
469.365	4899.94
469.585	5001.94
469.804	5060.94
470.023	5247.94
470.243	5222.94
470.462	5331.94
470.681	5418.94
470.901	5309.94
471.12	5159.94
471.339	5180.94
471.558	5061.94
471.777	5036.94
471.997	4889.94
472.216	4879.94
472.435	4843.94
472.654	4822.94
472.873	4813.94
473.092	4829.94
473.311	4743.94
473.53	4840.94
473.749	4902.94
473.968	5388.94
474.187	6273.94
474.406	5918.94
474.625	5155.94
474.844	4887.94
475.063	4849.94
475.282	4872.94
475.501	4952.94
475.72	4973.94
475.939	4996.94
476.158	4955.94
476.377	5037.94
476.596	5012.94
476.814	5162.94
477.033	5236.94
477.252	5324.94
477.471	5393.94
477.69	5484.94
477.908	5537.94
478.127	5751.94
478.346	5791.94
478.564	5877.94
478.783	5900.94
479.002	6071.94
479.22	6047.94
479.439	6222.94
479.658	6288.94
479.876	6374.94
480.095	6515.94
480.313	6818.94
480.532	6894.94
480.751	6620.94
480.969	6399.94
481.188	6375.94
481.406	6148.94
481.624	5976.94
481.843	5916.94
482.061	5783.94
482.28	5777.94
482.498	5653.94
482.717	5647.94
482.935	5780.94
483.153	5744.94
483.372	5688.94
483.59	5724.94
483.808	5628.94
484.027	5692.94
484.245	5830.94
484.463	5756.94
484.681	5852.94
484.9	5867.94
485.118	5981.94
485.336	6021.94
485.554	6079.94
485.772	6113.94
485.99	6079.94
486.209	6172.94
486.427	6204.94
486.645	6205.94
486.863	6334.94
487.081	6232.94
487.299	6245.94
487.517	6161.94
487.735	6089.94
487.953	6151.94
