Data from Circ_2016_H10_HRD10591_00074.txt Node
Date: Wed Jan 03 09:58:55 EST 2024
User: Yrep
Spectrometer: HR+D1059
Trigger mode: 1
Integration Time (sec): 1.000000E-1
Scans to average: 1
Electric dark correction enabled: true
Nonlinearity correction enabled: false
Boxcar width: 0
XAxis mode: Wavelengths
Number of Pixels in Spectrum: 2048
>>>>>Begin Spectral Data<<<<<
223.165	-16.94
223.4	-16.94
223.635	-16.94
223.869	-24.94
224.104	-18.94
224.338	-3.94
224.573	-15.94
224.808	-33.94
225.042	-5.94
225.277	-9.94
225.511	1.06
225.746	-9.94
225.98	9.06
226.215	19.06
226.449	25.06
226.683	30.06
226.918	23.06
227.152	33.06
227.387	42.06
227.621	31.06
227.856	31.06
228.09	51.06
228.324	50.06
228.559	58.06
228.793	156.06
229.027	435.06
229.262	485.06
229.496	591.06
229.73	757.06
229.964	766.06
230.199	534.06
230.433	469.06
230.667	460.06
230.901	458.06
231.136	449.06
231.37	452.06
231.604	446.06
231.838	452.06
232.072	458.06
232.306	443.06
232.541	448.06
232.775	457.06
233.009	488.06
233.243	474.06
233.477	482.06
233.711	487.06
233.945	485.06
234.179	494.06
234.413	496.06
234.647	480.06
234.881	500.06
235.115	516.06
235.349	527.06
235.583	539.06
235.817	586.06
236.051	629.06
236.285	590.06
236.519	620.06
236.753	687.06
236.987	898.06
237.221	1358.06
237.455	1462.06
237.689	892.06
237.922	753.06
238.156	698.06
238.39	687.06
238.624	668.06
238.858	650.06
239.091	650.06
239.325	664.06
239.559	683.06
239.793	714.06
240.027	775.06
240.26	872.06
240.494	951.06
240.728	918.06
240.961	870.06
241.195	800.06
241.429	788.06
241.662	756.06
241.896	768.06
242.13	758.06
242.363	784.06
242.597	791.06
242.83	818.06
243.064	804.06
243.298	835.06
243.531	846.06
243.765	854.06
243.998	855.06
244.232	867.06
244.465	891.06
244.699	913.06
244.932	924.06
245.166	898.06
245.399	886.06
245.633	892.06
245.866	933.06
246.099	919.06
246.333	934.06
246.566	956.06
246.8	935.06
247.033	1054.06
247.266	1057.06
247.5	1084.06
247.733	1150.06
247.966	1137.06
248.2	1129.06
248.433	1164.06
248.666	1235.06
248.899	1314.06
249.133	1422.06
249.366	1429.06
249.599	1325.06
249.832	1218.06
250.066	1260.06
250.299	1350.06
250.532	1514.06
250.765	1624.06
250.998	1763.06
251.231	1668.06
251.465	1479.06
251.698	1415.06
251.931	1395.06
252.164	1388.06
252.397	1408.06
252.63	1444.06
252.863	1548.06
253.096	1666.06
253.329	1714.06
253.562	1601.06
253.795	1581.06
254.028	1560.06
254.261	1582.06
254.494	1788.06
254.727	2123.06
254.96	2114.06
255.193	1926.06
255.426	1776.06
255.659	1726.06
255.892	1878.06
256.124	2061.06
256.357	1951.06
256.59	1781.06
256.823	1653.06
257.056	1576.06
257.289	1584.06
257.521	1555.06
257.754	1584.06
257.987	1570.06
258.22	1520.06
258.452	1550.06
258.685	1534.06
258.918	1563.06
259.151	1608.06
259.383	1648.06
259.616	1677.06
259.849	1748.06
260.081	1934.06
260.314	2055.06
260.547	1935.06
260.779	1800.06
261.012	1762.06
261.244	1714.06
261.477	1651.06
261.71	1649.06
261.942	1698.06
262.175	1771.06
262.407	1700.06
262.64	1653.06
262.872	1643.06
263.105	1622.06
263.337	1646.06
263.57	1642.06
263.802	1666.06
264.035	1680.06
264.267	1661.06
264.499	1651.06
264.732	1716.06
264.964	1738.06
265.197	1662.06
265.429	1699.06
265.661	1672.06
265.894	1730.06
266.126	1736.06
266.358	1759.06
266.591	1794.06
266.823	1844.06
267.055	1834.06
267.287	1883.06
267.52	1869.06
267.752	1819.06
267.984	1853.06
268.216	1914.06
268.448	1928.06
268.681	1971.06
268.913	2103.06
269.145	2312.06
269.377	2367.06
269.609	2240.06
269.841	2268.06
270.073	2362.06
270.306	2657.06
270.538	2774.06
270.77	2646.06
271.002	2427.06
271.234	2451.06
271.466	2565.06
271.698	2676.06
271.93	2701.06
272.162	2703.06
272.394	2623.06
272.626	2518.06
272.858	2342.06
273.09	2271.06
273.322	2212.06
273.553	2235.06
273.785	2228.06
274.017	2245.06
274.249	2283.06
274.481	2290.06
274.713	2252.06
274.945	2288.06
275.176	2296.06
275.408	2262.06
275.64	2244.06
275.872	2272.06
276.104	2301.06
276.335	2324.06
276.567	2416.06
276.799	2609.06
277.031	2808.06
277.262	2903.06
277.494	2726.06
277.726	2594.06
277.957	2517.06
278.189	2431.06
278.421	2368.06
278.652	2346.06
278.884	2376.06
279.115	2381.06
279.347	2416.06
279.579	2393.06
279.81	2432.06
280.042	2448.06
280.273	2420.06
280.505	2453.06
280.736	2380.06
280.968	2426.06
281.199	2387.06
281.431	2452.06
281.662	2457.06
281.894	2481.06
282.125	2543.06
282.356	2742.06
282.588	2832.06
282.819	2718.06
283.051	2560.06
283.282	2523.06
283.513	2584.06
283.745	2603.06
283.976	2569.06
284.207	2635.06
284.439	2629.06
284.67	2605.06
284.901	2618.06
285.132	2621.06
285.364	2618.06
285.595	2616.06
285.826	2630.06
286.057	2641.06
286.288	2686.06
286.52	2689.06
286.751	2642.06
286.982	2691.06
287.213	2734.06
287.444	2760.06
287.675	2800.06
287.906	2847.06
288.138	2908.06
288.369	2914.06
288.6	2909.06
288.831	2858.06
289.062	2856.06
289.293	2809.06
289.524	2796.06
289.755	2782.06
289.986	2789.06
290.217	2797.06
290.448	2793.06
290.679	2856.06
290.91	2789.06
291.141	2787.06
291.371	2771.06
291.602	2818.06
291.833	2778.06
292.064	2794.06
292.295	2799.06
292.526	2850.06
292.757	2813.06
292.987	2804.06
293.218	2786.06
293.449	2848.06
293.68	2884.06
293.91	2847.06
294.141	2819.06
294.372	2804.06
294.603	2829.06
294.833	2829.06
295.064	2829.06
295.295	2880.06
295.525	2871.06
295.756	2949.06
295.987	3025.06
296.217	3212.06
296.448	3067.06
296.679	2894.06
296.909	2944.06
297.14	2949.06
297.37	3010.06
297.601	3057.06
297.831	3011.06
298.062	3023.06
298.292	3083.06
298.523	3162.06
298.753	3144.06
298.984	3054.06
299.214	3051.06
299.445	3065.06
299.675	3127.06
299.905	3177.06
300.136	3178.06
300.366	3111.06
300.597	3185.06
300.827	3248.06
301.057	3379.06
301.288	3380.06
301.518	3316.06
301.748	3332.06
301.979	3374.06
302.209	3392.06
302.439	3356.06
302.669	3345.06
302.9	3289.06
303.13	3285.06
303.36	3335.06
303.59	3385.06
303.82	3375.06
304.051	3357.06
304.281	3368.06
304.511	3255.06
304.741	3253.06
304.971	3235.06
305.201	3233.06
305.431	3252.06
305.661	3272.06
305.891	3250.06
306.121	3254.06
306.352	3289.06
306.582	3285.06
306.812	3248.06
307.042	3282.06
307.272	3248.06
307.502	3276.06
307.731	3290.06
307.961	3272.06
308.191	3280.06
308.421	3300.06
308.651	3307.06
308.881	3284.06
309.111	3341.06
309.341	3362.06
309.571	3476.06
309.8	3548.06
310.03	3537.06
310.26	3641.06
310.49	3630.06
310.72	3716.06
310.949	3819.06
311.179	3772.06
311.409	3642.06
311.639	3594.06
311.868	3724.06
312.098	3660.06
312.328	3782.06
312.557	3923.06
312.787	3945.06
313.017	3936.06
313.246	3770.06
313.476	3737.06
313.706	3797.06
313.935	3879.06
314.165	3976.06
314.394	4007.06
314.624	3948.06
314.853	3805.06
315.083	3747.06
315.312	3773.06
315.542	3753.06
315.771	3672.06
316.001	3628.06
316.23	3602.06
316.46	3669.06
316.689	3698.06
316.919	3769.06
317.148	3798.06
317.377	3744.06
317.607	3711.06
317.836	3706.06
318.065	3668.06
318.295	3653.06
318.524	3697.06
318.753	3703.06
318.983	3675.06
319.212	3658.06
319.441	3783.06
319.67	3774.06
319.9	3729.06
320.129	3684.06
320.358	3755.06
320.587	3758.06
320.816	3810.06
321.046	3838.06
321.275	3808.06
321.504	3832.06
321.733	3929.06
321.962	3959.06
322.191	4032.06
322.42	4162.06
322.649	4217.06
322.878	4287.06
323.108	4360.06
323.337	4609.06
323.566	4790.06
323.795	5079.06
324.024	5658.06
324.253	7502.06
324.482	11406.06
324.71	15488.06
324.939	15596.06
325.168	13142.06
325.397	6719.06
325.626	5312.06
325.855	4945.06
326.084	4812.06
326.313	4909.06
326.542	5067.06
326.77	5704.06
326.999	7286.06
327.228	10710.06
327.457	14603.06
327.686	13808.06
327.914	7551.06
328.143	6118.06
328.372	5796.06
328.6	5534.06
328.829	5395.06
329.058	5520.06
329.287	5431.06
329.515	5206.06
329.744	5118.06
329.972	5300.06
330.201	5720.06
330.43	6106.06
330.658	5981.06
330.887	5988.06
331.115	5548.06
331.344	5059.06
331.572	5054.06
331.801	5127.06
332.03	5058.06
332.258	5011.06
332.486	5054.06
332.715	5099.06
332.943	5323.06
333.172	5424.06
333.4	5582.06
333.629	5812.06
333.857	5990.06
334.085	6053.06
334.314	6457.06
334.542	6877.06
334.771	6616.06
334.999	5754.06
335.227	5504.06
335.455	5376.06
335.684	5105.06
335.912	5097.06
336.14	5037.06
336.369	5040.06
336.597	5113.06
336.825	4994.06
337.053	4885.06
337.281	4838.06
337.51	4840.06
337.738	4736.06
337.966	4670.06
338.194	4753.06
338.422	4697.06
338.65	4563.06
338.878	4538.06
339.106	4521.06
339.334	4532.06
339.562	4476.06
339.79	4411.06
340.018	4390.06
340.246	4398.06
340.474	4435.06
340.702	4425.06
340.93	4451.06
341.158	4450.06
341.386	4426.06
341.614	4456.06
341.842	4353.06
342.07	4370.06
342.298	4367.06
342.526	4302.06
342.754	4340.06
342.981	4357.06
343.209	4414.06
343.437	4644.06
343.665	4864.06
343.893	5151.06
344.12	5138.06
344.348	4884.06
344.576	4754.06
344.804	4714.06
345.031	4694.06
345.259	4546.06
345.487	4481.06
345.714	4409.06
345.942	4286.06
346.17	4277.06
346.397	4197.06
346.625	4275.06
346.853	4207.06
347.08	4158.06
347.308	4230.06
347.535	4310.06
347.763	4322.06
347.99	4325.06
348.218	4311.06
348.445	4336.06
348.673	4257.06
348.9	4155.06
349.128	4118.06
349.355	4063.06
349.583	4110.06
349.81	4027.06
350.037	4026.06
350.265	4087.06
350.492	4044.06
350.72	4043.06
350.947	4180.06
351.174	4238.06
351.402	4280.06
351.629	4130.06
351.856	4199.06
352.083	4240.06
352.311	4311.06
352.538	4274.06
352.765	4235.06
352.992	4185.06
353.22	4146.06
353.447	4130.06
353.674	4026.06
353.901	3938.06
354.128	4009.06
354.355	3985.06
354.583	3964.06
354.81	3969.06
355.037	3985.06
355.264	3984.06
355.491	3963.06
355.718	3923.06
355.945	3964.06
356.172	3921.06
356.399	3944.06
356.626	3970.06
356.853	4000.06
357.08	3931.06
357.307	3967.06
357.534	3946.06
357.761	3987.06
357.988	4019.06
358.215	3967.06
358.441	4005.06
358.668	3970.06
358.895	4091.06
359.122	4070.06
359.349	4176.06
359.576	4332.06
359.802	4465.06
360.029	4640.06
360.256	4604.06
360.483	4439.06
360.709	4232.06
360.936	4210.06
361.163	4284.06
361.39	4195.06
361.616	4191.06
361.843	4210.06
362.07	4160.06
362.296	4245.06
362.523	4164.06
362.749	4181.06
362.976	4207.06
363.203	4174.06
363.429	4044.06
363.656	4146.06
363.882	4078.06
364.109	4051.06
364.335	3990.06
364.562	4050.06
364.788	4046.06
365.015	4030.06
365.241	4080.06
365.468	4134.06
365.694	4176.06
365.92	4111.06
366.147	4008.06
366.373	4107.06
366.599	4066.06
366.826	4049.06
367.052	3979.06
367.278	4082.06
367.505	4085.06
367.731	4148.06
367.957	4090.06
368.184	4053.06
368.41	4201.06
368.636	4297.06
368.862	4238.06
369.089	4112.06
369.315	4142.06
369.541	4196.06
369.767	4180.06
369.993	4117.06
370.219	4146.06
370.445	4173.06
370.672	4278.06
370.898	4266.06
371.124	4262.06
371.35	4427.06
371.576	4333.06
371.802	4183.06
372.028	4251.06
372.254	4343.06
372.48	4379.06
372.706	4489.06
372.932	4508.06
373.158	4434.06
373.384	4375.06
373.61	4395.06
373.835	4375.06
374.061	4408.06
374.287	4455.06
374.513	4574.06
374.739	4689.06
374.965	4763.06
375.191	4711.06
375.416	4645.06
375.642	4483.06
375.868	4515.06
376.094	4498.06
376.319	4357.06
376.545	4388.06
376.771	4308.06
376.997	4326.06
377.222	4306.06
377.448	4293.06
377.674	4266.06
377.899	4296.06
378.125	4320.06
378.35	4197.06
378.576	4262.06
378.802	4289.06
379.027	4254.06
379.253	4299.06
379.478	4246.06
379.704	4302.06
379.929	4339.06
380.155	4250.06
380.38	4311.06
380.606	4338.06
380.831	4313.06
381.057	4416.06
381.282	4358.06
381.507	4378.06
381.733	4382.06
381.958	4415.06
382.184	4451.06
382.409	4478.06
382.634	4555.06
382.86	4535.06
383.085	4556.06
383.31	4656.06
383.535	4764.06
383.761	4820.06
383.986	4873.06
384.211	4979.06
384.436	4978.06
384.662	5135.06
384.887	5168.06
385.112	5187.06
385.337	5211.06
385.562	5176.06
385.787	5222.06
386.013	5280.06
386.238	5340.06
386.463	5242.06
386.688	5242.06
386.913	5178.06
387.138	5138.06
387.363	5155.06
387.588	5047.06
387.813	5154.06
388.038	5118.06
388.263	5208.06
388.488	5180.06
388.713	5190.06
388.938	5120.06
389.163	5104.06
389.387	5060.06
389.612	5021.06
389.837	5137.06
390.062	5042.06
390.287	5025.06
390.512	5072.06
390.736	5138.06
390.961	5239.06
391.186	5254.06
391.411	5476.06
391.636	5662.06
391.86	5722.06
392.085	5783.06
392.31	5651.06
392.534	5472.06
392.759	5495.06
392.984	5411.06
393.208	5326.06
393.433	5333.06
393.658	5371.06
393.882	5266.06
394.107	5331.06
394.331	5428.06
394.556	5407.06
394.78	5430.06
395.005	5461.06
395.229	5480.06
395.454	5691.06
395.678	5855.06
395.903	5790.06
396.127	5827.06
396.352	5632.06
396.576	5508.06
396.801	5450.06
397.025	5476.06
397.249	5610.06
397.474	5696.06
397.698	5800.06
397.922	5946.06
398.147	6054.06
398.371	6174.06
398.595	6257.06
398.82	6615.06
399.044	7083.06
399.268	7849.06
399.492	8860.06
399.717	9535.06
399.941	9323.06
400.165	8640.06
400.389	8000.06
400.613	7237.06
400.837	6770.06
401.062	6665.06
401.286	6502.06
401.51	6451.06
401.734	6485.06
401.958	6536.06
402.182	6670.06
402.406	6718.06
402.63	6873.06
402.854	6965.06
403.078	7019.06
403.302	7205.06
403.526	7237.06
403.75	7315.06
403.974	7388.06
404.198	7447.06
404.422	7433.06
404.645	7533.06
404.869	7524.06
405.093	7826.06
405.317	8133.06
405.541	8085.06
405.765	7539.06
405.988	7274.06
406.212	7412.06
406.436	7580.06
406.66	7722.06
406.883	7691.06
407.107	8360.06
407.331	8745.06
407.555	9316.06
407.778	8976.06
408.002	8186.06
408.226	7874.06
408.449	7760.06
408.673	7622.06
408.896	7732.06
409.12	7995.06
409.344	7533.06
409.567	7162.06
409.791	7182.06
410.014	7014.06
410.238	6964.06
410.461	7018.06
410.685	7063.06
410.908	7121.06
411.132	7344.06
411.355	7270.06
411.578	6997.06
411.802	6824.06
412.025	6908.06
412.249	7126.06
412.472	7424.06
412.695	7563.06
412.919	7088.06
413.142	6744.06
413.365	6689.06
413.589	6590.06
413.812	6432.06
414.035	6372.06
414.258	6390.06
414.482	6461.06
414.705	6474.06
414.928	6400.06
415.151	6451.06
415.374	6377.06
415.597	6326.06
415.821	6256.06
416.044	6266.06
416.267	6190.06
416.49	6235.06
416.713	6162.06
416.936	6342.06
417.159	6234.06
417.382	6335.06
417.605	6314.06
417.828	6499.06
418.051	6672.06
418.274	6500.06
418.497	6452.06
418.72	6551.06
418.943	6472.06
419.166	6914.06
419.389	7318.06
419.611	7166.06
419.834	6990.06
420.057	6928.06
420.28	6827.06
420.503	6693.06
420.726	6630.06
420.948	6728.06
421.171	7128.06
421.394	7065.06
421.617	6555.06
421.839	6630.06
422.062	6611.06
422.285	6755.06
422.507	7401.06
422.73	7874.06
422.953	7414.06
423.175	6912.06
423.398	7003.06
423.621	7002.06
423.843	7232.06
424.066	7094.06
424.288	7090.06
424.511	7227.06
424.733	7771.06
424.956	8110.06
425.178	7754.06
425.401	7827.06
425.623	7644.06
425.846	6803.06
426.068	6544.06
426.291	6534.06
426.513	6594.06
426.735	6638.06
426.958	7147.06
427.18	7861.06
427.402	8916.06
427.625	9196.06
427.847	7908.06
428.069	7266.06
428.292	6625.06
428.514	6095.06
428.736	5977.06
428.958	5994.06
429.181	5785.06
429.403	5823.06
429.625	5975.06
429.847	6265.06
430.069	6789.06
430.292	6334.06
430.514	5782.06
430.736	5803.06
430.958	5770.06
431.18	5659.06
431.402	5637.06
431.624	5635.06
431.846	5754.06
432.068	5811.06
432.29	5861.06
432.512	5682.06
432.734	5766.06
432.956	5782.06
433.178	5856.06
433.4	5823.06
433.622	5727.06
433.844	5750.06
434.066	5771.06
434.287	5867.06
434.509	6071.06
434.731	6368.06
434.953	6418.06
435.175	6547.06
435.397	6756.06
435.618	6602.06
435.84	6968.06
436.062	7711.06
436.284	7711.06
436.505	6517.06
436.727	6190.06
436.949	6027.06
437.17	5865.06
437.392	5838.06
437.614	5961.06
437.835	6322.06
438.057	7302.06
438.278	7999.06
438.5	7820.06
438.721	8688.06
438.943	7571.06
439.165	6390.06
439.386	6256.06
439.608	6252.06
439.829	6369.06
440.05	6660.06
440.272	7003.06
440.493	6442.06
440.715	6203.06
440.936	6052.06
441.158	6157.06
441.379	6220.06
441.6	6662.06
441.822	6880.06
442.043	7236.06
442.264	8062.06
442.486	7749.06
442.707	6933.06
442.928	6716.06
443.149	6928.06
443.371	7137.06
443.592	7721.06
443.813	8563.06
444.034	8548.06
444.255	7417.06
444.476	7282.06
444.698	7417.06
444.919	7600.06
445.14	7339.06
445.361	7235.06
445.582	7330.06
445.803	7960.06
446.024	8558.06
446.245	8218.06
446.466	7285.06
446.687	6353.06
446.908	6130.06
447.129	5832.06
447.35	5703.06
447.571	5698.06
447.792	5567.06
448.013	5637.06
448.234	5828.06
448.455	6480.06
448.675	7760.06
448.896	8104.06
449.117	6761.06
449.338	7060.06
449.559	8280.06
449.779	8387.06
450	6399.06
450.221	5678.06
450.442	5571.06
450.662	5497.06
450.883	5579.06
451.104	5712.06
451.324	5455.06
451.545	5300.06
451.766	5226.06
451.986	5097.06
452.207	5081.06
452.428	5081.06
452.648	5093.06
452.869	5157.06
453.089	5175.06
453.31	5322.06
453.53	5084.06
453.751	5007.06
453.971	5123.06
454.192	5159.06
454.412	4987.06
454.633	4954.06
454.853	4863.06
455.073	4978.06
455.294	5402.06
455.514	5796.06
455.734	5420.06
455.955	4774.06
456.175	4749.06
456.395	4659.06
456.616	4654.06
456.836	4694.06
457.056	4640.06
457.276	4574.06
457.497	4793.06
457.717	4754.06
457.937	4751.06
458.157	4855.06
458.377	5035.06
458.598	5328.06
458.818	6048.06
459.038	6787.06
459.258	6624.06
459.478	5983.06
459.698	5814.06
459.918	5892.06
460.138	6099.06
460.358	6302.06
460.578	6318.06
460.798	6393.06
461.018	6441.06
461.238	6272.06
461.458	6217.06
461.678	6193.06
461.898	6335.06
462.118	6318.06
462.338	6704.06
462.558	6761.06
462.777	7116.06
462.997	7788.06
463.217	8154.06
463.437	7825.06
463.657	7257.06
463.876	7041.06
464.096	7209.06
464.316	7187.06
464.536	7201.06
464.755	6992.06
464.975	6952.06
465.195	7088.06
465.414	7159.06
465.634	6352.06
465.854	5838.06
466.073	5713.06
466.293	5487.06
466.512	5355.06
466.732	5296.06
466.951	5272.06
467.171	5175.06
467.391	5307.06
467.61	5403.06
467.829	5291.06
468.049	5300.06
468.268	5324.06
468.488	5087.06
468.707	5059.06
468.927	5059.06
469.146	5047.06
469.365	5026.06
469.585	5141.06
469.804	5310.06
470.023	5432.06
470.243	5437.06
470.462	5516.06
470.681	5724.06
470.901	5540.06
471.12	5447.06
471.339	5335.06
471.558	5358.06
471.777	5250.06
471.997	5183.06
472.216	5379.06
472.435	5904.06
472.654	5445.06
472.873	5156.06
473.092	5127.06
473.311	5056.06
473.53	5122.06
473.749	5221.06
473.968	5685.06
474.187	6705.06
474.406	6254.06
474.625	5323.06
474.844	5106.06
475.063	5064.06
475.282	5134.06
475.501	5136.06
475.72	5162.06
475.939	5217.06
476.158	5240.06
476.377	5246.06
476.596	5242.06
476.814	5393.06
477.033	5474.06
477.252	5526.06
477.471	5565.06
477.69	5713.06
477.908	5839.06
478.127	5886.06
478.346	5995.06
478.564	6151.06
478.783	6252.06
479.002	6310.06
479.22	6380.06
479.439	6449.06
479.658	6561.06
479.876	6662.06
480.095	6806.06
480.313	7285.06
480.532	7170.06
480.751	7052.06
480.969	7239.06
481.188	8078.06
481.406	7872.06
481.624	6909.06
481.843	6465.06
482.061	6296.06
482.28	6062.06
482.498	6008.06
482.717	6084.06
482.935	5958.06
483.153	5941.06
483.372	6037.06
483.59	6020.06
483.808	5924.06
484.027	5928.06
484.245	5973.06
484.463	6144.06
484.681	5997.06
484.9	6191.06
485.118	6266.06
485.336	6297.06
485.554	6294.06
485.772	6436.06
485.99	6395.06
486.209	6424.06
486.427	6463.06
486.645	6494.06
486.863	6529.06
487.081	6504.06
487.299	6515.06
487.517	6400.06
487.735	6371.06
487.953	6366.06
