Data from Circ_2016_H10_HRD10591_00076.txt Node
Date: Wed Jan 03 09:58:55 EST 2024
User: Yrep
Spectrometer: HR+D1059
Trigger mode: 1
Integration Time (sec): 1.000000E-1
Scans to average: 1
Electric dark correction enabled: true
Nonlinearity correction enabled: false
Boxcar width: 0
XAxis mode: Wavelengths
Number of Pixels in Spectrum: 2048
>>>>>Begin Spectral Data<<<<<
223.165	-16.31
223.4	-16.31
223.635	-16.31
223.869	-19.31
224.104	-7.31
224.338	-28.31
224.573	-19.31
224.808	-8.31
225.042	0.69
225.277	-10.31
225.511	6.69
225.746	-0.31
225.98	7.69
226.215	4.69
226.449	8.69
226.683	16.69
226.918	27.69
227.152	36.69
227.387	34.69
227.621	32.69
227.856	51.69
228.09	58.69
228.324	53.69
228.559	56.69
228.793	54.69
229.027	65.69
229.262	69.69
229.496	74.69
229.73	92.69
229.964	85.69
230.199	71.69
230.433	75.69
230.667	81.69
230.901	77.69
231.136	61.69
231.37	80.69
231.604	73.69
231.838	84.69
232.072	79.69
232.306	69.69
232.541	82.69
232.775	79.69
233.009	82.69
233.243	79.69
233.477	90.69
233.711	87.69
233.945	89.69
234.179	74.69
234.413	71.69
234.647	62.69
234.881	89.69
235.115	77.69
235.349	65.69
235.583	64.69
235.817	84.69
236.051	93.69
236.285	94.69
236.519	84.69
236.753	74.69
236.987	88.69
237.221	73.69
237.455	88.69
237.689	83.69
237.922	70.69
238.156	84.69
238.39	87.69
238.624	71.69
238.858	65.69
239.091	75.69
239.325	85.69
239.559	81.69
239.793	78.69
240.027	74.69
240.26	68.69
240.494	71.69
240.728	80.69
240.961	77.69
241.195	83.69
241.429	80.69
241.662	73.69
241.896	71.69
242.13	75.69
242.363	73.69
242.597	91.69
242.83	76.69
243.064	73.69
243.298	81.69
243.531	81.69
243.765	84.69
243.998	82.69
244.232	85.69
244.465	71.69
244.699	81.69
244.932	73.69
245.166	68.69
245.399	59.69
245.633	68.69
245.866	81.69
246.099	85.69
246.333	83.69
246.566	70.69
246.8	73.69
247.033	82.69
247.266	72.69
247.5	88.69
247.733	87.69
247.966	86.69
248.2	87.69
248.433	82.69
248.666	76.69
248.899	86.69
249.133	76.69
249.366	95.69
249.599	83.69
249.832	90.69
250.066	85.69
250.299	84.69
250.532	102.69
250.765	83.69
250.998	74.69
251.231	87.69
251.465	87.69
251.698	81.69
251.931	80.69
252.164	66.69
252.397	81.69
252.63	92.69
252.863	85.69
253.096	69.69
253.329	75.69
253.562	89.69
253.795	91.69
254.028	70.69
254.261	78.69
254.494	79.69
254.727	86.69
254.96	76.69
255.193	92.69
255.426	74.69
255.659	81.69
255.892	85.69
256.124	81.69
256.357	91.69
256.59	84.69
256.823	83.69
257.056	80.69
257.289	92.69
257.521	82.69
257.754	88.69
257.987	74.69
258.22	84.69
258.452	76.69
258.685	71.69
258.918	89.69
259.151	89.69
259.383	79.69
259.616	69.69
259.849	96.69
260.081	80.69
260.314	81.69
260.547	77.69
260.779	84.69
261.012	79.69
261.244	96.69
261.477	87.69
261.71	96.69
261.942	106.69
262.175	122.69
262.407	90.69
262.64	69.69
262.872	73.69
263.105	82.69
263.337	86.69
263.57	89.69
263.802	72.69
264.035	83.69
264.267	77.69
264.499	85.69
264.732	78.69
264.964	71.69
265.197	83.69
265.429	82.69
265.661	85.69
265.894	92.69
266.126	99.69
266.358	88.69
266.591	87.69
266.823	79.69
267.055	77.69
267.287	78.69
267.52	95.69
267.752	84.69
267.984	86.69
268.216	87.69
268.448	70.69
268.681	67.69
268.913	84.69
269.145	76.69
269.377	81.69
269.609	79.69
269.841	84.69
270.073	82.69
270.306	82.69
270.538	77.69
270.77	75.69
271.002	82.69
271.234	86.69
271.466	82.69
271.698	81.69
271.93	94.69
272.162	74.69
272.394	82.69
272.626	88.69
272.858	87.69
273.09	84.69
273.322	67.69
273.553	81.69
273.785	75.69
274.017	73.69
274.249	76.69
274.481	81.69
274.713	90.69
274.945	81.69
275.176	66.69
275.408	79.69
275.64	79.69
275.872	82.69
276.104	93.69
276.335	87.69
276.567	100.69
276.799	108.69
277.031	94.69
277.262	98.69
277.494	96.69
277.726	87.69
277.957	72.69
278.189	86.69
278.421	92.69
278.652	69.69
278.884	87.69
279.115	93.69
279.347	77.69
279.579	84.69
279.81	91.69
280.042	81.69
280.273	100.69
280.505	86.69
280.736	68.69
280.968	70.69
281.199	86.69
281.431	94.69
281.662	88.69
281.894	97.69
282.125	97.69
282.356	114.69
282.588	136.69
282.819	96.69
283.051	87.69
283.282	95.69
283.513	95.69
283.745	85.69
283.976	81.69
284.207	99.69
284.439	77.69
284.67	86.69
284.901	85.69
285.132	89.69
285.364	76.69
285.595	88.69
285.826	91.69
286.057	93.69
286.288	83.69
286.52	91.69
286.751	77.69
286.982	74.69
287.213	86.69
287.444	76.69
287.675	86.69
287.906	95.69
288.138	79.69
288.369	104.69
288.6	77.69
288.831	77.69
289.062	80.69
289.293	76.69
289.524	91.69
289.755	91.69
289.986	87.69
290.217	77.69
290.448	81.69
290.679	83.69
290.91	83.69
291.141	91.69
291.371	92.69
291.602	90.69
291.833	81.69
292.064	75.69
292.295	87.69
292.526	86.69
292.757	92.69
292.987	84.69
293.218	98.69
293.449	95.69
293.68	89.69
293.91	86.69
294.141	78.69
294.372	83.69
294.603	96.69
294.833	86.69
295.064	86.69
295.295	86.69
295.525	93.69
295.756	101.69
295.987	109.69
296.217	139.69
296.448	126.69
296.679	102.69
296.909	93.69
297.14	108.69
297.37	89.69
297.601	75.69
297.831	84.69
298.062	98.69
298.292	73.69
298.523	89.69
298.753	96.69
298.984	89.69
299.214	90.69
299.445	90.69
299.675	87.69
299.905	83.69
300.136	85.69
300.366	92.69
300.597	87.69
300.827	85.69
301.057	94.69
301.288	99.69
301.518	86.69
301.748	92.69
301.979	104.69
302.209	85.69
302.439	89.69
302.669	99.69
302.9	87.69
303.13	89.69
303.36	96.69
303.59	95.69
303.82	115.69
304.051	95.69
304.281	78.69
304.511	88.69
304.741	85.69
304.971	87.69
305.201	82.69
305.431	96.69
305.661	76.69
305.891	76.69
306.121	89.69
306.352	91.69
306.582	106.69
306.812	99.69
307.042	96.69
307.272	88.69
307.502	101.69
307.731	88.69
307.961	87.69
308.191	95.69
308.421	84.69
308.651	87.69
308.881	74.69
309.111	93.69
309.341	83.69
309.571	89.69
309.8	91.69
310.03	86.69
310.26	115.69
310.49	101.69
310.72	106.69
310.949	98.69
311.179	100.69
311.409	103.69
311.639	102.69
311.868	95.69
312.098	87.69
312.328	95.69
312.557	100.69
312.787	104.69
313.017	111.69
313.246	105.69
313.476	85.69
313.706	88.69
313.935	89.69
314.165	85.69
314.394	89.69
314.624	97.69
314.853	99.69
315.083	91.69
315.312	102.69
315.542	106.69
315.771	86.69
316.001	82.69
316.23	83.69
316.46	100.69
316.689	86.69
316.919	97.69
317.148	94.69
317.377	86.69
317.607	92.69
317.836	95.69
318.065	103.69
318.295	89.69
318.524	87.69
318.753	91.69
318.983	98.69
319.212	92.69
319.441	103.69
319.67	112.69
319.9	95.69
320.129	87.69
320.358	97.69
320.587	92.69
320.816	85.69
321.046	103.69
321.275	100.69
321.504	92.69
321.733	93.69
321.962	103.69
322.191	99.69
322.42	103.69
322.649	108.69
322.878	119.69
323.108	105.69
323.337	118.69
323.566	114.69
323.795	149.69
324.024	209.69
324.253	399.69
324.482	826.69
324.71	1698.69
324.939	2261.69
325.168	861.69
325.397	261.69
325.626	140.69
325.855	142.69
326.084	122.69
326.313	131.69
326.542	161.69
326.77	249.69
326.999	448.69
327.228	952.69
327.457	1719.69
327.686	1381.69
327.914	381.69
328.143	203.69
328.372	151.69
328.6	142.69
328.829	128.69
329.058	129.69
329.287	116.69
329.515	104.69
329.744	106.69
329.972	128.69
330.201	149.69
330.43	154.69
330.658	129.69
330.887	131.69
331.115	120.69
331.344	111.69
331.572	104.69
331.801	107.69
332.03	112.69
332.258	99.69
332.486	94.69
332.715	93.69
332.943	101.69
333.172	84.69
333.4	96.69
333.629	113.69
333.857	134.69
334.085	135.69
334.314	125.69
334.542	154.69
334.771	166.69
334.999	105.69
335.227	104.69
335.455	92.69
335.684	99.69
335.912	98.69
336.14	89.69
336.369	95.69
336.597	104.69
336.825	102.69
337.053	107.69
337.281	91.69
337.51	77.69
337.738	98.69
337.966	92.69
338.194	91.69
338.422	90.69
338.65	87.69
338.878	103.69
339.106	92.69
339.334	93.69
339.562	93.69
339.79	96.69
340.018	85.69
340.246	101.69
340.474	82.69
340.702	75.69
340.93	90.69
341.158	84.69
341.386	90.69
341.614	101.69
341.842	93.69
342.07	92.69
342.298	86.69
342.526	76.69
342.754	98.69
342.981	87.69
343.209	89.69
343.437	107.69
343.665	96.69
343.893	89.69
344.12	88.69
344.348	91.69
344.576	97.69
344.804	105.69
345.031	93.69
345.259	92.69
345.487	103.69
345.714	91.69
345.942	97.69
346.17	105.69
346.397	94.69
346.625	96.69
346.853	103.69
347.08	88.69
347.308	94.69
347.535	108.69
347.763	84.69
347.99	107.69
348.218	118.69
348.445	105.69
348.673	101.69
348.9	99.69
349.128	95.69
349.355	82.69
349.583	96.69
349.81	83.69
350.037	81.69
350.265	105.69
350.492	103.69
350.72	105.69
350.947	94.69
351.174	91.69
351.402	117.69
351.629	87.69
351.856	99.69
352.083	92.69
352.311	102.69
352.538	98.69
352.765	108.69
352.992	109.69
353.22	109.69
353.447	108.69
353.674	92.69
353.901	98.69
354.128	107.69
354.355	96.69
354.583	88.69
354.81	95.69
355.037	88.69
355.264	99.69
355.491	95.69
355.718	94.69
355.945	93.69
356.172	104.69
356.399	98.69
356.626	88.69
356.853	98.69
357.08	97.69
357.307	76.69
357.534	96.69
357.761	104.69
357.988	92.69
358.215	96.69
358.441	96.69
358.668	92.69
358.895	87.69
359.122	89.69
359.349	83.69
359.576	82.69
359.802	101.69
360.029	105.69
360.256	111.69
360.483	91.69
360.709	84.69
360.936	85.69
361.163	94.69
361.39	85.69
361.616	101.69
361.843	85.69
362.07	99.69
362.296	93.69
362.523	88.69
362.749	87.69
362.976	98.69
363.203	92.69
363.429	83.69
363.656	89.69
363.882	88.69
364.109	96.69
364.335	93.69
364.562	100.69
364.788	74.69
365.015	98.69
365.241	89.69
365.468	100.69
365.694	97.69
365.92	91.69
366.147	87.69
366.373	92.69
366.599	92.69
366.826	85.69
367.052	76.69
367.278	99.69
367.505	83.69
367.731	95.69
367.957	79.69
368.184	87.69
368.41	79.69
368.636	103.69
368.862	102.69
369.089	114.69
369.315	95.69
369.541	96.69
369.767	92.69
369.993	90.69
370.219	96.69
370.445	85.69
370.672	82.69
370.898	83.69
371.124	92.69
371.35	101.69
371.576	101.69
371.802	88.69
372.028	94.69
372.254	97.69
372.48	77.69
372.706	84.69
372.932	91.69
373.158	87.69
373.384	90.69
373.61	83.69
373.835	92.69
374.061	93.69
374.287	80.69
374.513	90.69
374.739	75.69
374.965	91.69
375.191	78.69
375.416	81.69
375.642	84.69
375.868	92.69
376.094	97.69
376.319	77.69
376.545	83.69
376.771	90.69
376.997	83.69
377.222	79.69
377.448	99.69
377.674	86.69
377.899	102.69
378.125	87.69
378.35	80.69
378.576	83.69
378.802	74.69
379.027	90.69
379.253	101.69
379.478	95.69
379.704	101.69
379.929	99.69
380.155	84.69
380.38	101.69
380.606	82.69
380.831	86.69
381.057	87.69
381.282	88.69
381.507	86.69
381.733	94.69
381.958	91.69
382.184	102.69
382.409	106.69
382.634	91.69
382.86	99.69
383.085	102.69
383.31	107.69
383.535	118.69
383.761	98.69
383.986	106.69
384.211	97.69
384.436	102.69
384.662	111.69
384.887	115.69
385.112	101.69
385.337	116.69
385.562	106.69
385.787	108.69
386.013	120.69
386.238	115.69
386.463	125.69
386.688	115.69
386.913	101.69
387.138	113.69
387.363	117.69
387.588	107.69
387.813	108.69
388.038	114.69
388.263	108.69
388.488	113.69
388.713	91.69
388.938	87.69
389.163	101.69
389.387	94.69
389.612	100.69
389.837	97.69
390.062	85.69
390.287	90.69
390.512	100.69
390.736	101.69
390.961	85.69
391.186	93.69
391.411	104.69
391.636	100.69
391.86	83.69
392.085	90.69
392.31	97.69
392.534	88.69
392.759	95.69
392.984	87.69
393.208	98.69
393.433	93.69
393.658	83.69
393.882	95.69
394.107	87.69
394.331	85.69
394.556	103.69
394.78	92.69
395.005	87.69
395.229	82.69
395.454	90.69
395.678	95.69
395.903	80.69
396.127	92.69
396.352	84.69
396.576	100.69
396.801	86.69
397.025	92.69
397.249	103.69
397.474	86.69
397.698	87.69
397.922	82.69
398.147	93.69
398.371	95.69
398.595	76.69
398.82	89.69
399.044	88.69
399.268	88.69
399.492	90.69
399.717	83.69
399.941	80.69
400.165	103.69
400.389	85.69
400.613	79.69
400.837	74.69
401.062	95.69
401.286	95.69
401.51	85.69
401.734	90.69
401.958	98.69
402.182	131.69
402.406	163.69
402.63	124.69
402.854	94.69
403.078	88.69
403.302	83.69
403.526	84.69
403.75	94.69
403.974	90.69
404.198	84.69
404.422	99.69
404.645	92.69
404.869	79.69
405.093	95.69
405.317	108.69
405.541	100.69
405.765	91.69
405.988	104.69
406.212	160.69
406.436	217.69
406.66	123.69
406.883	85.69
407.107	97.69
407.331	93.69
407.555	101.69
407.778	87.69
408.002	75.69
408.226	96.69
408.449	97.69
408.673	84.69
408.896	95.69
409.12	95.69
409.344	92.69
409.567	87.69
409.791	75.69
410.014	97.69
410.238	91.69
410.461	79.69
410.685	96.69
410.908	102.69
411.132	114.69
411.355	95.69
411.578	80.69
411.802	84.69
412.025	95.69
412.249	97.69
412.472	95.69
412.695	93.69
412.919	81.69
413.142	76.69
413.365	82.69
413.589	88.69
413.812	100.69
414.035	97.69
414.258	88.69
414.482	92.69
414.705	81.69
414.928	89.69
415.151	91.69
415.374	96.69
415.597	97.69
415.821	87.69
416.044	82.69
416.267	95.69
416.49	91.69
416.713	76.69
416.936	83.69
417.159	83.69
417.382	82.69
417.605	91.69
417.828	90.69
418.051	83.69
418.274	91.69
418.497	84.69
418.72	84.69
418.943	87.69
419.166	82.69
419.389	92.69
419.611	88.69
419.834	83.69
420.057	81.69
420.28	96.69
420.503	93.69
420.726	76.69
420.948	82.69
421.171	96.69
421.394	80.69
421.617	88.69
421.839	89.69
422.062	84.69
422.285	90.69
422.507	99.69
422.73	89.69
422.953	105.69
423.175	76.69
423.398	94.69
423.621	92.69
423.843	90.69
424.066	81.69
424.288	85.69
424.511	100.69
424.733	92.69
424.956	100.69
425.178	88.69
425.401	98.69
425.623	93.69
425.846	93.69
426.068	87.69
426.291	89.69
426.513	84.69
426.735	80.69
426.958	101.69
427.18	90.69
427.402	123.69
427.625	149.69
427.847	136.69
428.069	117.69
428.292	93.69
428.514	93.69
428.736	86.69
428.958	76.69
429.181	82.69
429.403	84.69
429.625	91.69
429.847	97.69
430.069	106.69
430.292	105.69
430.514	93.69
430.736	91.69
430.958	85.69
431.18	92.69
431.402	95.69
431.624	100.69
431.846	89.69
432.068	97.69
432.29	72.69
432.512	84.69
432.734	82.69
432.956	72.69
433.178	84.69
433.4	91.69
433.622	97.69
433.844	90.69
434.066	90.69
434.287	84.69
434.509	80.69
434.731	92.69
434.953	75.69
435.175	87.69
435.397	85.69
435.618	84.69
435.84	103.69
436.062	104.69
436.284	105.69
436.505	106.69
436.727	99.69
436.949	87.69
437.17	100.69
437.392	93.69
437.614	82.69
437.835	96.69
438.057	130.69
438.278	101.69
438.5	91.69
438.721	119.69
438.943	111.69
439.165	82.69
439.386	94.69
439.608	91.69
439.829	90.69
440.05	116.69
440.272	133.69
440.493	92.69
440.715	84.69
440.936	96.69
441.158	98.69
441.379	81.69
441.6	86.69
441.822	89.69
442.043	83.69
442.264	93.69
442.486	81.69
442.707	87.69
442.928	107.69
443.149	113.69
443.371	123.69
443.592	95.69
443.813	108.69
444.034	100.69
444.255	83.69
444.476	81.69
444.698	70.69
444.919	87.69
445.14	135.69
445.361	121.69
445.582	118.69
445.803	116.69
446.024	122.69
446.245	131.69
446.466	99.69
446.687	89.69
446.908	100.69
447.129	81.69
447.35	98.69
447.571	87.69
447.792	110.69
448.013	104.69
448.234	96.69
448.455	97.69
448.675	88.69
448.896	112.69
449.117	88.69
449.338	78.69
449.559	114.69
449.779	126.69
450	100.69
450.221	79.69
450.442	93.69
450.662	89.69
450.883	104.69
451.104	97.69
451.324	93.69
451.545	91.69
451.766	89.69
451.986	100.69
452.207	81.69
452.428	92.69
452.648	90.69
452.869	89.69
453.089	99.69
453.31	99.69
453.53	95.69
453.751	100.69
453.971	91.69
454.192	96.69
454.412	80.69
454.633	92.69
454.853	93.69
455.073	98.69
455.294	83.69
455.514	101.69
455.734	99.69
455.955	84.69
456.175	76.69
456.395	87.69
456.616	92.69
456.836	79.69
457.056	66.69
457.276	84.69
457.497	82.69
457.717	81.69
457.937	84.69
458.157	80.69
458.377	76.69
458.598	99.69
458.818	153.69
459.038	135.69
459.258	112.69
459.478	85.69
459.698	95.69
459.918	93.69
460.138	96.69
460.358	86.69
460.578	80.69
460.798	74.69
461.018	96.69
461.238	83.69
461.458	98.69
461.678	90.69
461.898	76.69
462.118	82.69
462.338	75.69
462.558	91.69
462.777	77.69
462.997	83.69
463.217	70.69
463.437	71.69
463.657	79.69
463.876	84.69
464.096	93.69
464.316	94.69
464.536	100.69
464.755	89.69
464.975	105.69
465.195	165.69
465.414	163.69
465.634	100.69
465.854	88.69
466.073	94.69
466.293	71.69
466.512	96.69
466.732	84.69
466.951	97.69
467.171	87.69
467.391	97.69
467.61	98.69
467.829	100.69
468.049	107.69
468.268	113.69
468.488	78.69
468.707	72.69
468.927	85.69
469.146	80.69
469.365	76.69
469.585	80.69
469.804	75.69
470.023	104.69
470.243	93.69
470.462	97.69
470.681	89.69
470.901	85.69
471.12	84.69
471.339	112.69
471.558	96.69
471.777	95.69
471.997	83.69
472.216	130.69
472.435	215.69
472.654	102.69
472.873	92.69
473.092	86.69
473.311	98.69
473.53	81.69
473.749	80.69
473.968	97.69
474.187	101.69
474.406	91.69
474.625	94.69
474.844	78.69
475.063	88.69
475.282	94.69
475.501	91.69
475.72	73.69
475.939	88.69
476.158	80.69
476.377	67.69
476.596	90.69
476.814	98.69
477.033	101.69
477.252	101.69
477.471	92.69
477.69	88.69
477.908	81.69
478.127	97.69
478.346	87.69
478.564	89.69
478.783	96.69
479.002	96.69
479.22	83.69
479.439	113.69
479.658	100.69
479.876	88.69
480.095	67.69
480.313	84.69
480.532	85.69
480.751	97.69
480.969	139.69
481.188	295.69
481.406	214.69
481.624	100.69
481.843	93.69
482.061	90.69
482.28	72.69
482.498	88.69
482.717	94.69
482.935	85.69
483.153	81.69
483.372	87.69
483.59	80.69
483.808	76.69
484.027	100.69
484.245	96.69
484.463	90.69
484.681	88.69
484.9	82.69
485.118	82.69
485.336	104.69
485.554	103.69
485.772	99.69
485.99	113.69
486.209	98.69
486.427	109.69
486.645	128.69
486.863	109.69
487.081	102.69
487.299	88.69
487.517	87.69
487.735	96.69
487.953	83.69
488.171	92.69
488.389	83.69
488.607	93.69
488.825	82.69
489.043	92.69
489.261	90.69
489.479	83.69
489.696	79.69
489.914	80.69
490.132	86.69
490.35	88.69
490.568	95.69
490.786	90.69
491.003	84.69
491.221	74.69
491.439	96.69
491.657	88.69
491.874	85.69
492.092	82.69
492.31	93.69
492.527	89.69
492.745	92.69
492.963	96.69
493.18	77.69
493.398	81.69
493.615	98.69
493.833	92.69
494.05	88.69
494.268	87.69
494.485	94.69
494.703	83.69
494.92	93.69
495.138	90.69
495.355	81.69
495.573	99.69
495.79	84.69
496.008	90.69
496.225	88.69
496.442	82.69
496.66	79.69
496.877	87.69
497.094	86.69
497.312	84.69
497.529	80.69
497.746	90.69
497.963	77.69
498.181	84.69
498.398	99.69
498.615	98.69
498.832	89.69
499.049	97.69
499.267	105.69
499.484	91.69
499.701	93.69
499.918	87.69
500.135	107.69
500.352	88.69
500.569	85.69
500.786	82.69
501.003	85.69
501.22	95.69
501.437	98.69
501.654	95.69
501.871	111.69
502.088	90.69
502.305	83.69
502.522	105.69
502.739	86.69
502.956	73.69
503.172	80.69
503.389	101.69
503.606	99.69
503.823	76.69
504.04	87.69
504.256	77.69
504.473	79.69
504.69	86.69
504.907	91.69
505.123	92.69
505.34	96.69
505.557	90.69
505.773	97.69
505.99	71.69
506.207	97.69
506.423	77.69
506.64	97.69
506.856	96.69
507.073	91.69
507.289	89.69
507.506	89.69
507.722	109.69
507.939	107.69
508.155	102.69
508.372	95.69
508.588	90.69
508.805	79.69
509.021	86.69
509.238	92.69
509.454	106.69
509.67	94.69
509.887	106.69
510.103	127.69
510.319	207.69
510.536	795.69
510.752	2596.69
510.968	730.69
511.184	173.69
511.401	104.69
511.617	105.69
511.833	85.69
512.049	88.69
512.265	98.69
512.481	93.69
512.698	94.69
512.914	99.69
513.13	95.69
513.346	89.69
513.562	91.69
513.778	104.69
513.994	111.69
514.21	112.69
514.426	104.69
514.642	133.69
514.858	131.69
515.074	168.69
515.29	440.69
515.506	1503.69
515.721	537.69
515.937	153.69
