Data from Circ_2016_H10_HRD10591_00031.txt Node
Date: Wed Jan 03 09:58:46 EST 2024
User: Yrep
Spectrometer: HR+D1059
Trigger mode: 1
Integration Time (sec): 1.000000E-1
Scans to average: 1
Electric dark correction enabled: true
Nonlinearity correction enabled: false
Boxcar width: 0
XAxis mode: Wavelengths
Number of Pixels in Spectrum: 2048
>>>>>Begin Spectral Data<<<<<
223.165	-25
223.4	-25
223.635	-25
223.869	-18
224.104	-20
224.338	-30
224.573	-17
224.808	5
225.042	-19
225.277	3
225.511	10
225.746	20
225.98	1
226.215	4
226.449	19
226.683	21
226.918	24
227.152	22
227.387	54
227.621	57
227.856	59
228.09	41
228.324	58
228.559	74
228.793	65
229.027	68
229.262	55
229.496	74
229.73	93
229.964	84
230.199	70
230.433	82
230.667	55
230.901	72
231.136	74
231.37	78
231.604	79
231.838	74
232.072	92
232.306	89
232.541	82
232.775	77
233.009	84
233.243	81
233.477	77
233.711	75
233.945	80
234.179	68
234.413	96
234.647	78
234.881	75
235.115	80
235.349	83
235.583	69
235.817	70
236.051	59
236.285	72
236.519	84
236.753	69
236.987	77
237.221	88
237.455	95
237.689	92
237.922	61
238.156	92
238.39	74
238.624	84
238.858	78
239.091	90
239.325	92
239.559	87
239.793	76
240.027	66
240.26	70
240.494	68
240.728	83
240.961	87
241.195	81
241.429	89
241.662	70
241.896	87
242.13	66
242.363	72
242.597	75
242.83	84
243.064	78
243.298	79
243.531	67
243.765	72
243.998	86
244.232	80
244.465	83
244.699	75
244.932	75
245.166	74
245.399	88
245.633	87
245.866	83
246.099	78
246.333	81
246.566	73
246.8	82
247.033	74
247.266	71
247.5	78
247.733	88
247.966	89
248.2	76
248.433	85
248.666	82
248.899	81
249.133	95
249.366	95
249.599	95
249.832	86
250.066	82
250.299	73
250.532	88
250.765	65
250.998	69
251.231	74
251.465	74
251.698	94
251.931	81
252.164	86
252.397	60
252.63	93
252.863	86
253.096	67
253.329	85
253.562	78
253.795	85
254.028	89
254.261	73
254.494	91
254.727	93
254.96	90
255.193	79
255.426	73
255.659	102
255.892	85
256.124	83
256.357	87
256.59	71
256.823	90
257.056	90
257.289	83
257.521	94
257.754	75
257.987	88
258.22	90
258.452	90
258.685	72
258.918	81
259.151	89
259.383	90
259.616	85
259.849	85
260.081	74
260.314	77
260.547	74
260.779	86
261.012	93
261.244	81
261.477	76
261.71	97
261.942	108
262.175	128
262.407	94
262.64	68
262.872	92
263.105	87
263.337	90
263.57	84
263.802	75
264.035	85
264.267	91
264.499	92
264.732	87
264.964	85
265.197	70
265.429	90
265.661	83
265.894	78
266.126	78
266.358	82
266.591	75
266.823	83
267.055	92
267.287	92
267.52	83
267.752	78
267.984	83
268.216	70
268.448	74
268.681	83
268.913	85
269.145	75
269.377	83
269.609	84
269.841	90
270.073	88
270.306	89
270.538	79
270.77	79
271.002	86
271.234	87
271.466	85
271.698	85
271.93	57
272.162	88
272.394	86
272.626	84
272.858	65
273.09	85
273.322	104
273.553	83
273.785	75
274.017	82
274.249	85
274.481	86
274.713	90
274.945	95
275.176	91
275.408	85
275.64	82
275.872	88
276.104	84
276.335	99
276.567	105
276.799	115
277.031	108
277.262	87
277.494	73
277.726	79
277.957	87
278.189	86
278.421	78
278.652	84
278.884	83
279.115	76
279.347	84
279.579	81
279.81	84
280.042	85
280.273	89
280.505	93
280.736	87
280.968	77
281.199	88
281.431	98
281.662	95
281.894	82
282.125	85
282.356	134
282.588	142
282.819	119
283.051	89
283.282	79
283.513	77
283.745	87
283.976	94
284.207	79
284.439	95
284.67	83
284.901	78
285.132	91
285.364	92
285.595	88
285.826	80
286.057	88
286.288	82
286.52	79
286.751	79
286.982	92
287.213	84
287.444	79
287.675	90
287.906	93
288.138	80
288.369	88
288.6	101
288.831	79
289.062	80
289.293	87
289.524	94
289.755	78
289.986	86
290.217	68
290.448	92
290.679	87
290.91	95
291.141	101
291.371	85
291.602	88
291.833	84
292.064	79
292.295	90
292.526	91
292.757	83
292.987	90
293.218	92
293.449	83
293.68	89
293.91	90
294.141	78
294.372	97
294.603	101
294.833	98
295.064	87
295.295	97
295.525	91
295.756	100
295.987	102
296.217	133
296.448	136
296.679	90
296.909	92
297.14	88
297.37	90
297.601	79
297.831	73
298.062	85
298.292	96
298.523	101
298.753	91
298.984	85
299.214	83
299.445	101
299.675	108
299.905	111
300.136	107
300.366	94
300.597	85
300.827	90
301.057	115
301.288	106
301.518	102
301.748	82
301.979	94
302.209	99
302.439	92
302.669	92
302.9	82
303.13	88
303.36	102
303.59	98
303.82	111
304.051	96
304.281	104
304.511	102
304.741	98
304.971	73
305.201	81
305.431	91
305.661	96
305.891	77
306.121	80
306.352	102
306.582	110
306.812	101
307.042	91
307.272	97
307.502	102
307.731	82
307.961	85
308.191	91
308.421	88
308.651	98
308.881	90
309.111	95
309.341	89
309.571	96
309.8	103
310.03	100
310.26	94
310.49	120
310.72	103
310.949	104
311.179	98
311.409	96
311.639	101
311.868	87
312.098	100
312.328	106
312.557	97
312.787	109
313.017	98
313.246	80
313.476	91
313.706	92
313.935	94
314.165	123
314.394	110
314.624	81
314.853	98
315.083	97
315.312	97
315.542	89
315.771	90
316.001	77
316.23	86
316.46	100
316.689	90
316.919	98
317.148	102
317.377	104
317.607	98
317.836	106
318.065	88
318.295	70
318.524	102
318.753	86
318.983	107
319.212	114
319.441	110
319.67	109
319.9	94
320.129	101
320.358	84
320.587	85
320.816	95
321.046	104
321.275	99
321.504	94
321.733	102
321.962	118
322.191	113
322.42	110
322.649	117
322.878	126
323.108	134
323.337	127
323.566	152
323.795	165
324.024	246
324.253	477
324.482	1047
324.71	2147
324.939	2851
325.168	1001
325.397	285
325.626	170
325.855	131
326.084	140
326.313	130
326.542	181
326.77	277
326.999	564
327.228	1168
327.457	2159
327.686	1685
327.914	446
328.143	212
328.372	149
328.6	140
328.829	129
329.058	142
329.287	123
329.515	115
329.744	109
329.972	99
330.201	105
330.43	131
330.658	148
330.887	155
331.115	136
331.344	109
331.572	101
331.801	98
332.03	104
332.258	104
332.486	102
332.715	104
332.943	96
333.172	99
333.4	107
333.629	118
333.857	129
334.085	110
334.314	90
334.542	111
334.771	114
334.999	85
335.227	98
335.455	89
335.684	103
335.912	100
336.14	100
336.369	97
336.597	93
336.825	94
337.053	102
337.281	100
337.51	94
337.738	98
337.966	87
338.194	99
338.422	80
338.65	105
338.878	102
339.106	70
339.334	98
339.562	94
339.79	90
340.018	89
340.246	96
340.474	106
340.702	104
340.93	104
341.158	88
341.386	85
341.614	92
341.842	95
342.07	93
342.298	89
342.526	100
342.754	80
342.981	98
343.209	83
343.437	82
343.665	94
343.893	95
344.12	83
344.348	96
344.576	106
344.804	82
345.031	107
345.259	117
345.487	102
345.714	106
345.942	103
346.17	101
346.397	90
346.625	104
346.853	75
347.08	94
347.308	99
347.535	92
347.763	100
347.99	92
348.218	99
348.445	102
348.673	113
348.9	107
349.128	90
349.355	92
349.583	92
349.81	94
350.037	99
350.265	105
350.492	93
350.72	87
350.947	103
351.174	113
351.402	131
351.629	107
351.856	114
352.083	107
352.311	101
352.538	104
352.765	102
352.992	114
353.22	109
353.447	105
353.674	101
353.901	98
354.128	85
354.355	90
354.583	90
354.81	87
355.037	118
355.264	101
355.491	98
355.718	108
355.945	114
356.172	109
356.399	97
356.626	84
356.853	96
357.08	91
357.307	98
357.534	85
357.761	111
357.988	111
358.215	99
358.441	109
358.668	102
358.895	89
359.122	95
359.349	90
359.576	90
359.802	110
360.029	118
360.256	123
360.483	105
360.709	93
360.936	91
361.163	93
361.39	98
361.616	83
361.843	87
362.07	100
362.296	86
362.523	92
362.749	87
362.976	84
363.203	77
363.429	90
363.656	96
363.882	82
364.109	96
364.335	99
364.562	89
364.788	94
365.015	90
365.241	91
365.468	107
365.694	106
365.92	95
366.147	92
366.373	87
366.599	89
366.826	105
367.052	101
367.278	88
367.505	89
367.731	89
367.957	103
368.184	87
368.41	107
368.636	92
368.862	131
369.089	129
369.315	96
369.541	105
369.767	97
369.993	85
370.219	82
370.445	92
370.672	85
370.898	102
371.124	85
371.35	108
371.576	103
371.802	101
372.028	102
372.254	93
372.48	86
372.706	84
372.932	97
373.158	97
373.384	87
373.61	77
373.835	97
374.061	86
374.287	104
374.513	94
374.739	94
374.965	89
375.191	99
375.416	98
375.642	94
375.868	104
376.094	111
376.319	92
376.545	79
376.771	92
376.997	92
377.222	104
377.448	91
377.674	95
377.899	109
378.125	84
378.35	91
378.576	126
378.802	101
379.027	96
379.253	109
379.478	91
379.704	102
379.929	109
380.155	103
380.38	111
380.606	106
380.831	113
381.057	113
381.282	103
381.507	116
381.733	97
381.958	103
382.184	117
382.409	101
382.634	112
382.86	116
383.085	110
383.31	116
383.535	113
383.761	128
383.986	113
384.211	127
384.436	106
384.662	117
384.887	134
385.112	131
385.337	141
385.562	126
385.787	119
386.013	137
386.238	162
386.463	137
386.688	140
386.913	132
387.138	142
387.363	137
387.588	110
387.813	125
388.038	143
388.263	163
388.488	139
388.713	105
388.938	92
389.163	110
389.387	90
389.612	97
389.837	102
390.062	103
390.287	100
390.512	102
390.736	86
390.961	88
391.186	90
391.411	91
391.636	87
391.86	92
392.085	85
392.31	87
392.534	98
392.759	100
392.984	95
393.208	96
393.433	115
393.658	103
393.882	95
394.107	72
394.331	76
394.556	85
394.78	80
395.005	84
395.229	90
395.454	97
395.678	88
395.903	82
396.127	91
396.352	104
396.576	97
396.801	96
397.025	106
397.249	90
397.474	72
397.698	92
397.922	88
398.147	90
398.371	82
398.595	85
398.82	88
399.044	69
399.268	86
399.492	88
399.717	84
399.941	84
400.165	99
400.389	94
400.613	87
400.837	79
401.062	73
401.286	89
401.51	101
401.734	91
401.958	99
402.182	137
402.406	162
402.63	120
402.854	83
403.078	88
403.302	103
403.526	102
403.75	103
403.974	81
404.198	90
404.422	101
404.645	83
404.869	95
405.093	102
405.317	110
405.541	102
405.765	99
405.988	119
406.212	177
406.436	247
406.66	154
406.883	103
407.107	94
407.331	106
407.555	97
407.778	101
408.002	97
408.226	98
408.449	88
408.673	89
408.896	95
409.12	103
409.344	88
409.567	86
409.791	91
410.014	102
410.238	100
410.461	98
410.685	104
410.908	99
411.132	109
411.355	104
411.578	93
411.802	93
412.025	87
412.249	107
412.472	100
412.695	87
412.919	87
413.142	100
413.365	98
413.589	93
413.812	83
414.035	101
414.258	92
414.482	92
414.705	94
414.928	92
415.151	118
415.374	96
415.597	105
415.821	118
416.044	98
416.267	86
416.49	75
416.713	87
416.936	87
417.159	83
417.382	96
417.605	77
417.828	94
418.051	97
418.274	103
418.497	103
418.72	92
418.943	91
419.166	85
419.389	91
419.611	90
419.834	95
420.057	95
420.28	92
420.503	90
420.726	84
420.948	87
421.171	105
421.394	100
421.617	96
421.839	98
422.062	99
422.285	95
422.507	87
422.73	112
422.953	98
423.175	89
423.398	79
423.621	85
423.843	106
424.066	102
424.288	81
424.511	110
424.733	88
424.956	103
425.178	98
425.401	117
425.623	103
425.846	70
426.068	108
426.291	88
426.513	82
426.735	90
426.958	94
427.18	101
427.402	138
427.625	190
427.847	143
428.069	123
428.292	108
428.514	96
428.736	76
428.958	99
429.181	100
429.403	100
429.625	96
429.847	94
430.069	105
430.292	89
430.514	86
430.736	88
430.958	89
431.18	93
431.402	83
431.624	85
431.846	85
432.068	90
432.29	84
432.512	79
432.734	81
432.956	102
433.178	85
433.4	111
433.622	111
433.844	82
434.066	92
434.287	101
434.509	104
434.731	87
434.953	85
435.175	85
435.397	91
435.618	99
435.84	103
436.062	141
436.284	132
436.505	114
436.727	115
436.949	80
437.17	85
437.392	89
437.614	96
437.835	98
438.057	116
438.278	105
438.5	111
438.721	136
438.943	110
439.165	101
439.386	83
439.608	109
439.829	108
440.05	134
440.272	149
440.493	98
440.715	87
440.936	111
441.158	90
441.379	88
441.6	84
441.822	93
442.043	100
442.264	110
442.486	104
442.707	101
442.928	85
443.149	142
443.371	125
443.592	129
443.813	121
444.034	108
444.255	86
444.476	91
444.698	74
444.919	77
445.14	133
445.361	130
445.582	135
445.803	170
446.024	158
446.245	153
446.466	108
446.687	84
446.908	95
447.129	84
447.35	95
447.571	90
447.792	94
448.013	118
448.234	130
448.455	114
448.675	117
448.896	135
449.117	120
449.338	119
449.559	130
449.779	142
450	97
450.221	86
450.442	79
450.662	88
450.883	121
451.104	116
451.324	113
451.545	86
451.766	92
451.986	91
452.207	91
452.428	98
452.648	98
452.869	126
453.089	120
453.31	127
453.53	93
453.751	89
453.971	110
454.192	125
454.412	97
454.633	103
454.853	89
455.073	91
455.294	107
455.514	107
455.734	95
455.955	75
456.175	88
456.395	90
456.616	88
456.836	98
457.056	93
457.276	83
457.497	69
457.717	66
457.937	81
458.157	105
458.377	87
458.598	139
458.818	143
459.038	174
459.258	126
459.478	106
459.698	93
459.918	88
460.138	94
460.358	93
460.578	93
460.798	87
461.018	81
461.238	78
461.458	88
461.678	89
461.898	93
462.118	88
462.338	78
462.558	101
462.777	79
462.997	95
463.217	82
463.437	96
463.657	84
463.876	84
464.096	78
464.316	85
464.536	95
464.755	93
464.975	116
465.195	181
465.414	169
465.634	109
465.854	86
466.073	93
466.293	89
466.512	89
466.732	85
466.951	100
467.171	99
467.391	101
467.61	114
467.829	92
468.049	93
468.268	93
468.488	91
468.707	92
468.927	78
469.146	76
469.365	77
469.585	81
469.804	103
470.023	108
470.243	98
470.462	129
470.681	108
470.901	85
471.12	87
471.339	85
471.558	70
471.777	97
471.997	96
472.216	92
472.435	99
472.654	97
472.873	90
473.092	97
473.311	89
473.53	79
473.749	97
473.968	94
474.187	104
474.406	105
474.625	97
474.844	97
475.063	95
475.282	88
475.501	89
475.72	80
475.939	83
476.158	87
476.377	93
476.596	95
476.814	103
477.033	95
477.252	92
477.471	79
477.69	96
477.908	90
478.127	93
478.346	108
478.564	96
478.783	88
479.002	97
479.22	104
479.439	102
479.658	117
479.876	92
480.095	99
480.313	89
480.532	92
480.751	99
480.969	88
481.188	138
481.406	110
481.624	85
481.843	85
482.061	95
482.28	96
482.498	93
482.717	93
482.935	96
483.153	95
483.372	91
483.59	87
483.808	100
484.027	96
484.245	93
484.463	90
484.681	89
484.9	97
485.118	88
485.336	100
485.554	105
485.772	120
485.99	116
486.209	115
486.427	117
486.645	114
486.863	127
487.081	100
487.299	116
487.517	94
487.735	104
487.953	101
488.171	103
488.389	92
488.607	105
488.825	93
489.043	91
489.261	86
489.479	86
489.696	95
489.914	94
490.132	77
490.35	93
490.568	100
490.786	90
491.003	96
491.221	92
491.439	94
491.657	83
491.874	87
492.092	91
492.31	86
492.527	98
492.745	78
492.963	91
493.18	86
493.398	89
493.615	89
493.833	107
494.05	91
494.268	90
494.485	92
494.703	99
494.92	102
495.138	102
495.355	102
495.573	90
495.79	97
496.008	99
496.225	95
496.442	93
496.66	83
496.877	88
497.094	83
497.312	97
497.529	86
497.746	99
497.963	94
498.181	105
498.398	110
498.615	118
498.832	110
499.049	69
499.267	88
499.484	88
499.701	80
499.918	91
500.135	88
500.352	75
500.569	88
500.786	96
501.003	86
501.22	103
501.437	97
501.654	88
501.871	110
502.088	110
502.305	102
502.522	102
502.739	91
502.956	72
503.172	92
503.389	96
503.606	107
503.823	102
504.04	98
504.256	101
504.473	75
504.69	84
504.907	91
505.123	97
505.34	94
505.557	90
505.773	104
505.99	85
506.207	97
506.423	85
506.64	90
506.856	105
507.073	85
507.289	86
507.506	98
507.722	107
507.939	130
508.155	99
508.372	84
508.588	101
508.805	100
509.021	106
509.238	109
509.454	104
509.67	103
509.887	124
510.103	135
510.319	230
510.536	853
510.752	2852
510.968	814
511.184	164
511.401	114
511.617	96
511.833	99
512.049	82
512.265	101
512.481	98
512.698	88
512.914	96
513.13	97
513.346	103
513.562	114
513.778	101
513.994	104
514.21	115
514.426	100
514.642	135
514.858	135
515.074	193
515.29	525
515.506	1772
515.721	668
515.937	162
516.153	122
516.369	103
516.585	109
516.801	103
517.016	99
517.232	90
517.448	98
517.664	93
517.879	95
518.095	82
518.311	103
518.527	119
518.742	95
518.958	86
519.173	93
519.389	95
519.605	91
519.82	101
520.036	117
520.251	123
520.467	135
520.682	101
520.898	99
521.113	110
521.329	167
521.544	217
521.76	647
521.975	2930
522.19	1816
522.406	363
522.621	132
522.836	109
523.052	101
523.267	98
523.482	103
523.698	117
523.913	121
524.128	110
524.343	92
524.559	88
524.774	89
524.989	100
525.204	105
525.419	107
525.634	86
525.849	98
526.064	102
526.28	91
526.495	91
526.71	83
526.925	80
527.14	94
527.355	81
527.57	96
527.785	100
527.999	89
528.214	91
528.429	91
528.644	102
528.859	90
529.074	106
529.289	139
529.503	187
529.718	111
529.933	98
530.148	89
530.363	77
530.577	90
530.792	98
531.007	93
531.221	96
531.436	95
531.651	84
531.865	95
532.08	94
532.295	101
532.509	100
532.724	101
532.938	86
533.153	92
533.367	91
533.582	94
533.796	92
534.011	93
534.225	94
534.44	98
534.654	79
534.868	91
535.083	98
535.297	90
535.511	110
535.726	100
535.94	108
536.154	93
536.369	77
536.583	85
536.797	87
537.011	84
537.225	91
537.44	82
537.654	86
537.868	87
538.082	100
538.296	93
538.51	67
538.724	84
538.938	107
539.153	101
539.367	114
539.581	89
539.795	96
540.009	103
540.222	83
540.436	85
540.65	81
540.864	111
541.078	96
541.292	92
541.506	81
541.72	83
541.934	97
542.147	88
542.361	90
542.575	108
542.789	95
543.002	95
543.216	89
543.43	109
543.644	99
543.857	92
544.071	79
544.285	101
544.498	91
544.712	98
544.925	87
545.139	106
545.352	94
545.566	83
545.779	93
545.993	91
546.206	102
546.42	83
546.633	77
546.847	88
547.06	99
547.274	97
547.487	94
547.7	83
547.914	93
548.127	92
548.34	89
548.554	90
548.767	103
548.98	102
549.193	90
549.407	86
549.62	92
549.833	92
550.046	89
550.259	83
550.473	95
550.686	83
550.899	102
551.112	88
551.325	80
551.538	89
551.751	77
551.964	90
552.177	93
552.39	100
552.603	86
552.816	88
553.029	82
553.242	103
553.455	105
553.667	100
553.88	104
554.093	91
554.306	95
554.519	77
554.732	97
554.944	89
555.157	84
555.37	96
555.583	88
555.795	92
556.008	121
556.221	79
556.433	86
556.646	92
556.859	97
557.071	86
557.284	91
557.496	94
557.709	104
557.921	92
558.134	91
558.346	75
558.559	90
558.771	90
558.984	99
559.196	98
559.409	97
559.621	93
559.833	83
560.046	97
560.258	89
560.47	93
560.683	93
560.895	78
561.107	68
561.32	90
561.532	83
561.744	103
561.956	81
562.168	91
562.381	93
562.593	99
562.805	101
563.017	97
563.229	78
563.441	88
563.653	92
563.865	98
564.077	87
564.289	93
564.501	85
564.713	92
564.925	105
565.137	104
565.349	85
565.561	89
565.773	92
565.985	97
566.197	93
566.408	87
566.62	84
566.832	96
567.044	85
567.255	89
567.467	86
567.679	95
567.891	75
568.102	80
568.314	85
568.526	100
568.737	86
568.949	75
569.161	78
569.372	86
569.584	89
569.795	86
570.007	110
570.218	275
570.43	147
570.641	108
570.853	84
571.064	77
571.276	94
571.487	90
571.698	91
571.91	97
572.121	83
572.333	89
572.544	85
572.755	86
572.966	83
573.178	79
573.389	94
573.6	92
573.811	102
574.023	86
574.234	86
574.445	96
574.656	95
574.867	84
575.078	88
575.289	82
575.501	85
575.712	95
575.923	93
576.134	89
576.345	73
576.556	91
576.767	91
576.978	90
577.188	96
577.399	95
577.61	94
577.821	118
578.032	110
578.243	277
578.454	839
578.665	235
578.875	95
579.086	101
579.297	89
579.508	81
579.718	86
579.929	78
580.14	98
580.35	87
580.561	88
580.772	85
580.982	82
581.193	72
581.403	89
581.614	90
581.825	98
