Data from Circ_2016_H10_HRD10591_00005.txt Node
Date: Wed Jan 03 09:58:41 EST 2024
User: Yrep
Spectrometer: HR+D1059
Trigger mode: 1
Integration Time (sec): 1.000000E-1
Scans to average: 1
Electric dark correction enabled: true
Nonlinearity correction enabled: false
Boxcar width: 0
XAxis mode: Wavelengths
Number of Pixels in Spectrum: 2048
>>>>>Begin Spectral Data<<<<<
223.165	-15.12
223.4	-15.12
223.635	-15.12
223.869	-6.12
224.104	-26.12
224.338	-10.12
224.573	-19.12
224.808	-9.12
225.042	-10.12
225.277	-0.12
225.511	-8.12
225.746	2.88
225.98	5.88
226.215	8.88
226.449	19.88
226.683	23.88
226.918	15.88
227.152	26.88
227.387	37.88
227.621	48.88
227.856	41.88
228.09	35.88
228.324	56.88
228.559	58.88
228.793	61.88
229.027	56.88
229.262	71.88
229.496	61.88
229.73	63.88
229.964	78.88
230.199	73.88
230.433	72.88
230.667	77.88
230.901	70.88
231.136	74.88
231.37	77.88
231.604	71.88
231.838	69.88
232.072	77.88
232.306	83.88
232.541	83.88
232.775	81.88
233.009	75.88
233.243	77.88
233.477	81.88
233.711	83.88
233.945	79.88
234.179	80.88
234.413	81.88
234.647	90.88
234.881	71.88
235.115	84.88
235.349	84.88
235.583	98.88
235.817	80.88
236.051	67.88
236.285	78.88
236.519	83.88
236.753	76.88
236.987	93.88
237.221	88.88
237.455	75.88
237.689	88.88
237.922	67.88
238.156	91.88
238.39	64.88
238.624	68.88
238.858	69.88
239.091	70.88
239.325	98.88
239.559	71.88
239.793	81.88
240.027	76.88
240.26	72.88
240.494	65.88
240.728	60.88
240.961	75.88
241.195	81.88
241.429	67.88
241.662	75.88
241.896	74.88
242.13	64.88
242.363	72.88
242.597	73.88
242.83	79.88
243.064	73.88
243.298	86.88
243.531	81.88
243.765	79.88
243.998	84.88
244.232	82.88
244.465	78.88
244.699	82.88
244.932	95.88
245.166	78.88
245.399	83.88
245.633	79.88
245.866	61.88
246.099	83.88
246.333	80.88
246.566	88.88
246.8	83.88
247.033	68.88
247.266	69.88
247.5	76.88
247.733	87.88
247.966	79.88
248.2	85.88
248.433	74.88
248.666	83.88
248.899	77.88
249.133	88.88
249.366	84.88
249.599	93.88
249.832	75.88
250.066	77.88
250.299	71.88
250.532	71.88
250.765	78.88
250.998	69.88
251.231	81.88
251.465	72.88
251.698	77.88
251.931	71.88
252.164	76.88
252.397	59.88
252.63	88.88
252.863	84.88
253.096	77.88
253.329	85.88
253.562	75.88
253.795	79.88
254.028	84.88
254.261	83.88
254.494	73.88
254.727	73.88
254.96	82.88
255.193	74.88
255.426	97.88
255.659	84.88
255.892	77.88
256.124	74.88
256.357	79.88
256.59	91.88
256.823	93.88
257.056	80.88
257.289	69.88
257.521	80.88
257.754	76.88
257.987	65.88
258.22	85.88
258.452	95.88
258.685	60.88
258.918	71.88
259.151	69.88
259.383	82.88
259.616	84.88
259.849	79.88
260.081	89.88
260.314	70.88
260.547	76.88
260.779	82.88
261.012	76.88
261.244	80.88
261.477	86.88
261.71	81.88
261.942	102.88
262.175	100.88
262.407	91.88
262.64	84.88
262.872	78.88
263.105	77.88
263.337	101.88
263.57	80.88
263.802	91.88
264.035	75.88
264.267	83.88
264.499	84.88
264.732	89.88
264.964	70.88
265.197	78.88
265.429	83.88
265.661	85.88
265.894	71.88
266.126	89.88
266.358	79.88
266.591	84.88
266.823	70.88
267.055	82.88
267.287	72.88
267.52	83.88
267.752	78.88
267.984	61.88
268.216	80.88
268.448	94.88
268.681	74.88
268.913	91.88
269.145	82.88
269.377	74.88
269.609	77.88
269.841	82.88
270.073	72.88
270.306	75.88
270.538	79.88
270.77	86.88
271.002	95.88
271.234	84.88
271.466	86.88
271.698	73.88
271.93	84.88
272.162	98.88
272.394	91.88
272.626	80.88
272.858	81.88
273.09	92.88
273.322	96.88
273.553	77.88
273.785	75.88
274.017	77.88
274.249	92.88
274.481	92.88
274.713	75.88
274.945	105.88
275.176	84.88
275.408	78.88
275.64	72.88
275.872	68.88
276.104	85.88
276.335	70.88
276.567	103.88
276.799	85.88
277.031	100.88
277.262	83.88
277.494	78.88
277.726	70.88
277.957	91.88
278.189	88.88
278.421	70.88
278.652	90.88
278.884	85.88
279.115	100.88
279.347	99.88
279.579	94.88
279.81	82.88
280.042	76.88
280.273	81.88
280.505	71.88
280.736	90.88
280.968	92.88
281.199	88.88
281.431	77.88
281.662	96.88
281.894	74.88
282.125	80.88
282.356	93.88
282.588	102.88
282.819	91.88
283.051	81.88
283.282	89.88
283.513	100.88
283.745	90.88
283.976	80.88
284.207	87.88
284.439	76.88
284.67	71.88
284.901	75.88
285.132	87.88
285.364	106.88
285.595	88.88
285.826	72.88
286.057	89.88
286.288	81.88
286.52	83.88
286.751	102.88
286.982	80.88
287.213	80.88
287.444	87.88
287.675	84.88
287.906	71.88
288.138	92.88
288.369	83.88
288.6	89.88
288.831	88.88
289.062	83.88
289.293	83.88
289.524	73.88
289.755	79.88
289.986	88.88
290.217	89.88
290.448	96.88
290.679	85.88
290.91	90.88
291.141	90.88
291.371	81.88
291.602	96.88
291.833	70.88
292.064	76.88
292.295	85.88
292.526	85.88
292.757	96.88
292.987	77.88
293.218	92.88
293.449	88.88
293.68	90.88
293.91	75.88
294.141	89.88
294.372	77.88
294.603	84.88
294.833	97.88
295.064	84.88
295.295	91.88
295.525	74.88
295.756	96.88
295.987	89.88
296.217	113.88
296.448	110.88
296.679	79.88
296.909	91.88
297.14	87.88
297.37	87.88
297.601	85.88
297.831	84.88
298.062	77.88
298.292	71.88
298.523	88.88
298.753	85.88
298.984	102.88
299.214	84.88
299.445	81.88
299.675	77.88
299.905	86.88
300.136	87.88
300.366	97.88
300.597	84.88
300.827	90.88
301.057	93.88
301.288	89.88
301.518	89.88
301.748	88.88
301.979	105.88
302.209	81.88
302.439	89.88
302.669	94.88
302.9	88.88
303.13	85.88
303.36	91.88
303.59	97.88
303.82	95.88
304.051	98.88
304.281	84.88
304.511	97.88
304.741	85.88
304.971	87.88
305.201	81.88
305.431	90.88
305.661	88.88
305.891	86.88
306.121	85.88
306.352	107.88
306.582	91.88
306.812	98.88
307.042	103.88
307.272	98.88
307.502	90.88
307.731	98.88
307.961	102.88
308.191	74.88
308.421	93.88
308.651	90.88
308.881	88.88
309.111	101.88
309.341	91.88
309.571	106.88
309.8	96.88
310.03	88.88
310.26	96.88
310.49	96.88
310.72	90.88
310.949	95.88
311.179	95.88
311.409	75.88
311.639	102.88
311.868	94.88
312.098	97.88
312.328	88.88
312.557	91.88
312.787	99.88
313.017	93.88
313.246	83.88
313.476	97.88
313.706	73.88
313.935	85.88
314.165	99.88
314.394	89.88
314.624	99.88
314.853	92.88
315.083	98.88
315.312	90.88
315.542	103.88
315.771	80.88
316.001	93.88
316.23	94.88
316.46	102.88
316.689	97.88
316.919	79.88
317.148	90.88
317.377	96.88
317.607	93.88
317.836	105.88
318.065	90.88
318.295	88.88
318.524	100.88
318.753	93.88
318.983	88.88
319.212	95.88
319.441	106.88
319.67	118.88
319.9	87.88
320.129	94.88
320.358	91.88
320.587	105.88
320.816	85.88
321.046	92.88
321.275	76.88
321.504	94.88
321.733	93.88
321.962	92.88
322.191	98.88
322.42	97.88
322.649	100.88
322.878	100.88
323.108	104.88
323.337	111.88
323.566	117.88
323.795	136.88
324.024	185.88
324.253	330.88
324.482	683.88
324.71	1410.88
324.939	1809.88
325.168	717.88
325.397	223.88
325.626	133.88
325.855	116.88
326.084	117.88
326.313	114.88
326.542	141.88
326.77	223.88
326.999	413.88
327.228	820.88
327.457	1495.88
327.686	1150.88
327.914	332.88
328.143	164.88
328.372	124.88
328.6	115.88
328.829	114.88
329.058	110.88
329.287	108.88
329.515	106.88
329.744	96.88
329.972	100.88
330.201	107.88
330.43	84.88
330.658	116.88
330.887	132.88
331.115	104.88
331.344	83.88
331.572	96.88
331.801	81.88
332.03	96.88
332.258	99.88
332.486	96.88
332.715	88.88
332.943	92.88
333.172	90.88
333.4	85.88
333.629	103.88
333.857	105.88
334.085	95.88
334.314	87.88
334.542	97.88
334.771	95.88
334.999	104.88
335.227	91.88
335.455	89.88
335.684	98.88
335.912	87.88
336.14	97.88
336.369	122.88
336.597	98.88
336.825	91.88
337.053	99.88
337.281	84.88
337.51	80.88
337.738	108.88
337.966	93.88
338.194	93.88
338.422	98.88
338.65	86.88
338.878	88.88
339.106	92.88
339.334	96.88
339.562	77.88
339.79	82.88
340.018	83.88
340.246	92.88
340.474	80.88
340.702	81.88
340.93	93.88
341.158	84.88
341.386	103.88
341.614	90.88
341.842	92.88
342.07	91.88
342.298	82.88
342.526	90.88
342.754	106.88
342.981	81.88
343.209	82.88
343.437	94.88
343.665	95.88
343.893	84.88
344.12	91.88
344.348	88.88
344.576	91.88
344.804	90.88
345.031	88.88
345.259	96.88
345.487	100.88
345.714	93.88
345.942	89.88
346.17	92.88
346.397	80.88
346.625	92.88
346.853	84.88
347.08	89.88
347.308	91.88
347.535	88.88
347.763	94.88
347.99	101.88
348.218	92.88
348.445	96.88
348.673	89.88
348.9	110.88
349.128	98.88
349.355	86.88
349.583	93.88
349.81	94.88
350.037	85.88
350.265	91.88
350.492	90.88
350.72	89.88
350.947	84.88
351.174	98.88
351.402	96.88
351.629	97.88
351.856	102.88
352.083	111.88
352.311	115.88
352.538	117.88
352.765	105.88
352.992	117.88
353.22	123.88
353.447	96.88
353.674	97.88
353.901	93.88
354.128	100.88
354.355	103.88
354.583	93.88
354.81	93.88
355.037	101.88
355.264	113.88
355.491	98.88
355.718	113.88
355.945	118.88
356.172	99.88
356.399	104.88
356.626	107.88
356.853	95.88
357.08	102.88
357.307	109.88
357.534	105.88
357.761	104.88
357.988	112.88
358.215	132.88
358.441	135.88
358.668	127.88
358.895	115.88
359.122	102.88
359.349	93.88
359.576	93.88
359.802	97.88
360.029	106.88
360.256	94.88
360.483	101.88
360.709	97.88
360.936	87.88
361.163	101.88
361.39	92.88
361.616	86.88
361.843	85.88
362.07	90.88
362.296	96.88
362.523	84.88
362.749	90.88
362.976	78.88
363.203	96.88
363.429	93.88
363.656	98.88
363.882	71.88
364.109	94.88
364.335	97.88
364.562	102.88
364.788	80.88
365.015	102.88
365.241	92.88
365.468	106.88
365.694	97.88
365.92	98.88
366.147	82.88
366.373	91.88
366.599	82.88
366.826	77.88
367.052	85.88
367.278	99.88
367.505	74.88
367.731	99.88
367.957	97.88
368.184	97.88
368.41	92.88
368.636	99.88
368.862	96.88
369.089	90.88
369.315	86.88
369.541	93.88
369.767	91.88
369.993	89.88
370.219	88.88
370.445	64.88
370.672	93.88
370.898	89.88
371.124	94.88
371.35	97.88
371.576	89.88
371.802	95.88
372.028	92.88
372.254	85.88
372.48	86.88
372.706	81.88
372.932	91.88
373.158	81.88
373.384	96.88
373.61	84.88
373.835	81.88
374.061	94.88
374.287	96.88
374.513	105.88
374.739	98.88
374.965	87.88
375.191	113.88
375.416	103.88
375.642	90.88
375.868	95.88
376.094	96.88
376.319	99.88
376.545	104.88
376.771	91.88
376.997	109.88
377.222	108.88
377.448	95.88
377.674	107.88
377.899	104.88
378.125	117.88
378.35	107.88
378.576	90.88
378.802	107.88
379.027	104.88
379.253	111.88
379.478	99.88
379.704	114.88
379.929	114.88
380.155	142.88
380.38	131.88
380.606	125.88
380.831	128.88
381.057	145.88
381.282	134.88
381.507	120.88
381.733	141.88
381.958	129.88
382.184	133.88
382.409	143.88
382.634	151.88
382.86	139.88
383.085	167.88
383.31	159.88
383.535	140.88
383.761	161.88
383.986	145.88
384.211	151.88
384.436	153.88
384.662	158.88
384.887	191.88
385.112	202.88
385.337	181.88
385.562	195.88
385.787	196.88
386.013	194.88
386.238	215.88
386.463	180.88
386.688	194.88
386.913	186.88
387.138	229.88
387.363	188.88
387.588	153.88
387.813	164.88
388.038	213.88
388.263	228.88
388.488	214.88
388.713	117.88
388.938	102.88
389.163	91.88
389.387	100.88
389.612	85.88
389.837	99.88
390.062	105.88
390.287	96.88
390.512	97.88
390.736	77.88
390.961	102.88
391.186	85.88
391.411	76.88
391.636	83.88
391.86	87.88
392.085	85.88
392.31	79.88
392.534	84.88
392.759	87.88
392.984	96.88
393.208	119.88
393.433	164.88
393.658	154.88
393.882	107.88
394.107	83.88
394.331	82.88
394.556	99.88
394.78	86.88
395.005	97.88
395.229	78.88
395.454	83.88
395.678	85.88
395.903	96.88
396.127	82.88
396.352	98.88
396.576	94.88
396.801	112.88
397.025	139.88
397.249	106.88
397.474	100.88
397.698	93.88
397.922	97.88
398.147	71.88
398.371	96.88
398.595	86.88
398.82	79.88
399.044	90.88
399.268	89.88
399.492	75.88
399.717	91.88
399.941	88.88
400.165	90.88
400.389	83.88
400.613	93.88
400.837	73.88
401.062	94.88
401.286	104.88
401.51	77.88
401.734	80.88
401.958	97.88
402.182	116.88
402.406	131.88
402.63	100.88
402.854	84.88
403.078	86.88
403.302	82.88
403.526	89.88
403.75	90.88
403.974	81.88
404.198	103.88
404.422	84.88
404.645	99.88
404.869	91.88
405.093	90.88
405.317	91.88
405.541	99.88
405.765	105.88
405.988	101.88
406.212	145.88
406.436	166.88
406.66	125.88
406.883	88.88
407.107	86.88
407.331	98.88
407.555	97.88
407.778	83.88
408.002	102.88
408.226	90.88
408.449	87.88
408.673	96.88
408.896	84.88
409.12	97.88
409.344	101.88
409.567	107.88
409.791	99.88
410.014	90.88
410.238	92.88
410.461	90.88
410.685	96.88
410.908	99.88
411.132	98.88
411.355	94.88
411.578	91.88
411.802	80.88
412.025	83.88
412.249	94.88
412.472	93.88
412.695	100.88
412.919	91.88
413.142	86.88
413.365	80.88
413.589	91.88
413.812	102.88
414.035	98.88
414.258	109.88
414.482	101.88
414.705	100.88
414.928	99.88
415.151	106.88
415.374	117.88
415.597	107.88
415.821	89.88
416.044	105.88
416.267	92.88
416.49	83.88
416.713	104.88
416.936	111.88
417.159	93.88
417.382	96.88
417.605	89.88
417.828	113.88
418.051	103.88
418.274	100.88
418.497	95.88
418.72	85.88
418.943	91.88
419.166	104.88
419.389	98.88
419.611	84.88
419.834	104.88
420.057	76.88
420.28	101.88
420.503	103.88
420.726	86.88
420.948	86.88
421.171	105.88
421.394	87.88
421.617	84.88
421.839	88.88
422.062	89.88
422.285	96.88
422.507	99.88
422.73	151.88
422.953	138.88
423.175	92.88
423.398	101.88
423.621	84.88
423.843	92.88
424.066	83.88
424.288	94.88
424.511	100.88
424.733	104.88
424.956	89.88
425.178	97.88
425.401	89.88
425.623	93.88
425.846	95.88
426.068	84.88
426.291	88.88
426.513	100.88
426.735	88.88
426.958	86.88
427.18	89.88
427.402	130.88
427.625	143.88
427.847	113.88
428.069	87.88
428.292	85.88
428.514	82.88
428.736	103.88
428.958	79.88
429.181	93.88
429.403	92.88
429.625	103.88
429.847	103.88
430.069	94.88
430.292	90.88
430.514	84.88
430.736	74.88
430.958	78.88
431.18	91.88
431.402	81.88
431.624	63.88
431.846	83.88
432.068	82.88
432.29	86.88
432.512	86.88
432.734	92.88
432.956	86.88
433.178	91.88
433.4	91.88
433.622	86.88
433.844	98.88
434.066	94.88
434.287	90.88
434.509	92.88
434.731	80.88
434.953	87.88
435.175	73.88
435.397	91.88
435.618	101.88
435.84	99.88
436.062	112.88
436.284	104.88
436.505	95.88
436.727	94.88
436.949	83.88
437.17	85.88
437.392	85.88
437.614	88.88
437.835	101.88
438.057	112.88
438.278	105.88
438.5	81.88
438.721	106.88
438.943	89.88
439.165	67.88
439.386	76.88
439.608	84.88
439.829	91.88
440.05	122.88
440.272	136.88
440.493	83.88
440.715	90.88
440.936	85.88
441.158	97.88
441.379	96.88
441.6	93.88
441.822	86.88
442.043	95.88
442.264	97.88
442.486	99.88
442.707	83.88
442.928	95.88
443.149	125.88
443.371	113.88
443.592	125.88
443.813	99.88
444.034	100.88
444.255	90.88
444.476	74.88
444.698	84.88
444.919	93.88
445.14	123.88
445.361	107.88
445.582	120.88
445.803	131.88
446.024	118.88
446.245	121.88
446.466	100.88
446.687	78.88
446.908	97.88
447.129	82.88
447.35	90.88
447.571	88.88
447.792	106.88
448.013	98.88
448.234	97.88
448.455	91.88
448.675	98.88
448.896	107.88
449.117	100.88
449.338	117.88
449.559	114.88
449.779	117.88
450	96.88
450.221	88.88
450.442	91.88
450.662	70.88
450.883	88.88
451.104	103.88
451.324	72.88
451.545	92.88
451.766	65.88
451.986	69.88
452.207	86.88
452.428	93.88
452.648	102.88
452.869	102.88
453.089	111.88
453.31	106.88
453.53	81.88
453.751	85.88
453.971	94.88
454.192	95.88
454.412	71.88
454.633	78.88
454.853	82.88
455.073	85.88
455.294	78.88
455.514	86.88
455.734	84.88
455.955	88.88
456.175	78.88
456.395	79.88
456.616	87.88
456.836	90.88
457.056	83.88
457.276	79.88
457.497	95.88
457.717	76.88
457.937	77.88
458.157	80.88
458.377	83.88
458.598	93.88
458.818	129.88
459.038	144.88
459.258	108.88
459.478	81.88
459.698	88.88
459.918	81.88
460.138	76.88
460.358	93.88
460.578	91.88
460.798	90.88
461.018	76.88
461.238	76.88
461.458	94.88
461.678	73.88
461.898	86.88
462.118	82.88
462.338	87.88
462.558	89.88
462.777	95.88
462.997	82.88
463.217	88.88
463.437	83.88
463.657	87.88
463.876	96.88
464.096	85.88
464.316	89.88
464.536	95.88
464.755	104.88
464.975	99.88
465.195	135.88
465.414	139.88
465.634	101.88
465.854	85.88
466.073	75.88
466.293	83.88
466.512	85.88
466.732	80.88
466.951	84.88
467.171	85.88
467.391	82.88
467.61	77.88
467.829	90.88
468.049	87.88
468.268	81.88
468.488	86.88
468.707	92.88
468.927	77.88
469.146	73.88
469.365	86.88
469.585	85.88
469.804	92.88
470.023	99.88
470.243	88.88
470.462	94.88
470.681	102.88
470.901	82.88
471.12	77.88
471.339	90.88
471.558	93.88
471.777	81.88
471.997	82.88
472.216	86.88
472.435	91.88
472.654	100.88
472.873	93.88
473.092	78.88
473.311	92.88
473.53	91.88
473.749	100.88
473.968	88.88
474.187	88.88
474.406	87.88
474.625	89.88
474.844	78.88
475.063	74.88
475.282	75.88
475.501	76.88
475.72	85.88
475.939	88.88
476.158	71.88
476.377	93.88
476.596	91.88
476.814	96.88
477.033	85.88
477.252	85.88
477.471	75.88
477.69	101.88
477.908	90.88
478.127	107.88
478.346	81.88
478.564	73.88
478.783	90.88
479.002	86.88
479.22	81.88
479.439	99.88
479.658	96.88
479.876	92.88
480.095	81.88
480.313	85.88
480.532	89.88
480.751	95.88
480.969	82.88
481.188	96.88
481.406	95.88
481.624	105.88
481.843	91.88
482.061	88.88
482.28	100.88
482.498	93.88
482.717	89.88
482.935	83.88
483.153	93.88
483.372	95.88
483.59	106.88
483.808	93.88
484.027	82.88
484.245	86.88
484.463	89.88
484.681	105.88
484.9	101.88
485.118	101.88
485.336	97.88
485.554	110.88
485.772	98.88
485.99	107.88
486.209	106.88
486.427	118.88
486.645	98.88
486.863	112.88
487.081	98.88
487.299	87.88
487.517	111.88
487.735	104.88
487.953	88.88
488.171	98.88
488.389	108.88
488.607	93.88
488.825	86.88
489.043	96.88
489.261	83.88
489.479	79.88
489.696	105.88
489.914	73.88
490.132	80.88
490.35	100.88
490.568	92.88
490.786	92.88
491.003	99.88
491.221	95.88
491.439	93.88
491.657	92.88
491.874	82.88
492.092	99.88
492.31	103.88
492.527	86.88
492.745	86.88
492.963	92.88
493.18	96.88
493.398	95.88
493.615	98.88
493.833	96.88
494.05	92.88
494.268	86.88
494.485	87.88
494.703	100.88
494.92	94.88
495.138	100.88
495.355	85.88
495.573	104.88
495.79	80.88
496.008	94.88
496.225	98.88
496.442	105.88
496.66	93.88
496.877	83.88
497.094	95.88
497.312	79.88
497.529	80.88
497.746	91.88
497.963	105.88
498.181	92.88
498.398	76.88
498.615	107.88
498.832	104.88
499.049	97.88
499.267	102.88
499.484	92.88
499.701	92.88
499.918	85.88
500.135	73.88
500.352	101.88
500.569	90.88
500.786	105.88
501.003	96.88
501.22	83.88
501.437	86.88
501.654	106.88
501.871	96.88
502.088	103.88
502.305	89.88
502.522	91.88
502.739	83.88
502.956	79.88
503.172	86.88
503.389	108.88
503.606	98.88
503.823	88.88
504.04	93.88
504.256	80.88
504.473	77.88
504.69	92.88
504.907	90.88
505.123	107.88
505.34	87.88
505.557	79.88
505.773	89.88
505.99	94.88
506.207	98.88
506.423	85.88
506.64	71.88
506.856	93.88
507.073	92.88
507.289	96.88
507.506	98.88
507.722	92.88
507.939	96.88
508.155	96.88
508.372	81.88
508.588	84.88
508.805	80.88
509.021	84.88
509.238	90.88
509.454	97.88
509.67	91.88
509.887	91.88
510.103	122.88
510.319	177.88
510.536	578.88
510.752	1829.88
510.968	555.88
511.184	152.88
511.401	99.88
511.617	94.88
511.833	96.88
512.049	90.88
512.265	93.88
512.481	90.88
512.698	91.88
512.914	94.88
513.13	97.88
513.346	91.88
513.562	91.88
513.778	98.88
513.994	91.88
514.21	95.88
514.426	103.88
514.642	109.88
514.858	128.88
515.074	130.88
515.29	304.88
515.506	1032.88
515.721	418.88
