Data from Circ_2016_H10_HRD10591_00079.txt Node
Date: Wed Jan 03 09:58:56 EST 2024
User: Yrep
Spectrometer: HR+D1059
Trigger mode: 1
Integration Time (sec): 1.000000E-1
Scans to average: 1
Electric dark correction enabled: true
Nonlinearity correction enabled: false
Boxcar width: 0
XAxis mode: Wavelengths
Number of Pixels in Spectrum: 2048
>>>>>Begin Spectral Data<<<<<
223.165	-16.81
223.4	-16.81
223.635	-16.81
223.869	-43.81
224.104	-32.81
224.338	-10.81
224.573	-4.81
224.808	-5.81
225.042	-8.81
225.277	-14.81
225.511	-2.81
225.746	8.19
225.98	6.19
226.215	18.19
226.449	9.19
226.683	26.19
226.918	32.19
227.152	41.19
227.387	35.19
227.621	38.19
227.856	61.19
228.09	35.19
228.324	47.19
228.559	47.19
228.793	157.19
229.027	435.19
229.262	498.19
229.496	599.19
229.73	770.19
229.964	742.19
230.199	533.19
230.433	479.19
230.667	477.19
230.901	435.19
231.136	430.19
231.37	464.19
231.604	441.19
231.838	433.19
232.072	462.19
232.306	462.19
232.541	444.19
232.775	451.19
233.009	471.19
233.243	459.19
233.477	457.19
233.711	478.19
233.945	522.19
234.179	497.19
234.413	495.19
234.647	521.19
234.881	507.19
235.115	517.19
235.349	543.19
235.583	553.19
235.817	569.19
236.051	601.19
236.285	610.19
236.519	597.19
236.753	681.19
236.987	874.19
237.221	1309.19
237.455	1373.19
237.689	871.19
237.922	742.19
238.156	711.19
238.39	677.19
238.624	642.19
238.858	621.19
239.091	626.19
239.325	644.19
239.559	672.19
239.793	730.19
240.027	768.19
240.26	905.19
240.494	918.19
240.728	916.19
240.961	856.19
241.195	789.19
241.429	781.19
241.662	777.19
241.896	739.19
242.13	750.19
242.363	784.19
242.597	797.19
242.83	821.19
243.064	826.19
243.298	806.19
243.531	824.19
243.765	827.19
243.998	852.19
244.232	847.19
244.465	862.19
244.699	880.19
244.932	905.19
245.166	884.19
245.399	887.19
245.633	921.19
245.866	953.19
246.099	924.19
246.333	919.19
246.566	932.19
246.8	954.19
247.033	1018.19
247.266	1050.19
247.5	1069.19
247.733	1099.19
247.966	1158.19
248.2	1140.19
248.433	1165.19
248.666	1214.19
248.899	1320.19
249.133	1398.19
249.366	1396.19
249.599	1303.19
249.832	1204.19
250.066	1285.19
250.299	1331.19
250.532	1520.19
250.765	1665.19
250.998	1702.19
251.231	1633.19
251.465	1489.19
251.698	1421.19
251.931	1415.19
252.164	1385.19
252.397	1427.19
252.63	1423.19
252.863	1498.19
253.096	1654.19
253.329	1679.19
253.562	1584.19
253.795	1546.19
254.028	1552.19
254.261	1592.19
254.494	1735.19
254.727	2100.19
254.96	2147.19
255.193	1914.19
255.426	1754.19
255.659	1708.19
255.892	1889.19
256.124	2085.19
256.357	1976.19
256.59	1744.19
256.823	1627.19
257.056	1594.19
257.289	1579.19
257.521	1566.19
257.754	1549.19
257.987	1539.19
258.22	1535.19
258.452	1521.19
258.685	1532.19
258.918	1591.19
259.151	1621.19
259.383	1656.19
259.616	1706.19
259.849	1742.19
260.081	1859.19
260.314	1992.19
260.547	1963.19
260.779	1869.19
261.012	1723.19
261.244	1708.19
261.477	1680.19
261.71	1686.19
261.942	1745.19
262.175	1766.19
262.407	1703.19
262.64	1644.19
262.872	1642.19
263.105	1629.19
263.337	1636.19
263.57	1674.19
263.802	1677.19
264.035	1670.19
264.267	1690.19
264.499	1672.19
264.732	1690.19
264.964	1717.19
265.197	1684.19
265.429	1705.19
265.661	1707.19
265.894	1737.19
266.126	1759.19
266.358	1769.19
266.591	1786.19
266.823	1851.19
267.055	1817.19
267.287	1866.19
267.52	1815.19
267.752	1839.19
267.984	1850.19
268.216	1888.19
268.448	1921.19
268.681	1961.19
268.913	2117.19
269.145	2286.19
269.377	2311.19
269.609	2282.19
269.841	2250.19
270.073	2355.19
270.306	2589.19
270.538	2674.19
270.77	2573.19
271.002	2451.19
271.234	2427.19
271.466	2539.19
271.698	2691.19
271.93	2625.19
272.162	2654.19
272.394	2587.19
272.626	2445.19
272.858	2331.19
273.09	2305.19
273.322	2258.19
273.553	2242.19
273.785	2214.19
274.017	2185.19
274.249	2298.19
274.481	2228.19
274.713	2276.19
274.945	2289.19
275.176	2245.19
275.408	2188.19
275.64	2266.19
275.872	2235.19
276.104	2328.19
276.335	2297.19
276.567	2433.19
276.799	2572.19
277.031	2741.19
277.262	2830.19
277.494	2752.19
277.726	2560.19
277.957	2417.19
278.189	2446.19
278.421	2401.19
278.652	2395.19
278.884	2353.19
279.115	2350.19
279.347	2383.19
279.579	2395.19
279.81	2373.19
280.042	2413.19
280.273	2451.19
280.505	2421.19
280.736	2426.19
280.968	2417.19
281.199	2424.19
281.431	2455.19
281.662	2489.19
281.894	2475.19
282.125	2486.19
282.356	2640.19
282.588	2829.19
282.819	2691.19
283.051	2548.19
283.282	2509.19
283.513	2538.19
283.745	2596.19
283.976	2645.19
284.207	2644.19
284.439	2594.19
284.67	2620.19
284.901	2620.19
285.132	2633.19
285.364	2637.19
285.595	2579.19
285.826	2612.19
286.057	2674.19
286.288	2683.19
286.52	2697.19
286.751	2707.19
286.982	2708.19
287.213	2730.19
287.444	2756.19
287.675	2761.19
287.906	2799.19
288.138	2920.19
288.369	2826.19
288.6	2911.19
288.831	2803.19
289.062	2793.19
289.293	2766.19
289.524	2778.19
289.755	2810.19
289.986	2782.19
290.217	2816.19
290.448	2775.19
290.679	2811.19
290.91	2808.19
291.141	2819.19
291.371	2831.19
291.602	2797.19
291.833	2824.19
292.064	2839.19
292.295	2829.19
292.526	2848.19
292.757	2841.19
292.987	2775.19
293.218	2821.19
293.449	2890.19
293.68	2829.19
293.91	2876.19
294.141	2814.19
294.372	2843.19
294.603	2883.19
294.833	2907.19
295.064	2862.19
295.295	2890.19
295.525	2924.19
295.756	2949.19
295.987	3008.19
296.217	3145.19
296.448	3130.19
296.679	2939.19
296.909	2953.19
297.14	2984.19
297.37	3041.19
297.601	3068.19
297.831	3055.19
298.062	3075.19
298.292	3067.19
298.523	3075.19
298.753	3121.19
298.984	3114.19
299.214	3069.19
299.445	3057.19
299.675	3124.19
299.905	3149.19
300.136	3160.19
300.366	3190.19
300.597	3144.19
300.827	3247.19
301.057	3347.19
301.288	3358.19
301.518	3292.19
301.748	3301.19
301.979	3335.19
302.209	3346.19
302.439	3361.19
302.669	3328.19
302.9	3302.19
303.13	3294.19
303.36	3343.19
303.59	3309.19
303.82	3359.19
304.051	3381.19
304.281	3334.19
304.511	3277.19
304.741	3307.19
304.971	3280.19
305.201	3263.19
305.431	3260.19
305.661	3317.19
305.891	3260.19
306.121	3269.19
306.352	3351.19
306.582	3306.19
306.812	3231.19
307.042	3255.19
307.272	3339.19
307.502	3304.19
307.731	3271.19
307.961	3288.19
308.191	3258.19
308.421	3224.19
308.651	3304.19
308.881	3265.19
309.111	3330.19
309.341	3299.19
309.571	3442.19
309.8	3465.19
310.03	3561.19
310.26	3552.19
310.49	3535.19
310.72	3654.19
310.949	3768.19
311.179	3793.19
311.409	3610.19
311.639	3633.19
311.868	3685.19
312.098	3651.19
312.328	3771.19
312.557	3893.19
312.787	3930.19
313.017	3886.19
313.246	3785.19
313.476	3717.19
313.706	3761.19
313.935	3870.19
314.165	3927.19
314.394	3977.19
314.624	3882.19
314.853	3837.19
315.083	3770.19
315.312	3790.19
315.542	3693.19
315.771	3670.19
316.001	3690.19
316.23	3681.19
316.46	3734.19
316.689	3735.19
316.919	3774.19
317.148	3779.19
317.377	3854.19
317.607	3753.19
317.836	3718.19
318.065	3678.19
318.295	3671.19
318.524	3730.19
318.753	3661.19
318.983	3666.19
319.212	3617.19
319.441	3783.19
319.67	3774.19
319.9	3698.19
320.129	3697.19
320.358	3748.19
320.587	3749.19
320.816	3822.19
321.046	3868.19
321.275	3854.19
321.504	3802.19
321.733	3965.19
321.962	3948.19
322.191	4033.19
322.42	4123.19
322.649	4197.19
322.878	4191.19
323.108	4359.19
323.337	4563.19
323.566	4711.19
323.795	4997.19
324.024	5571.19
324.253	7281.19
324.482	10966.19
324.71	15205.19
324.939	15599.19
325.168	12617.19
325.397	6589.19
325.626	5314.19
325.855	4924.19
326.084	4769.19
326.313	4864.19
326.542	4983.19
326.77	5579.19
326.999	7108.19
327.228	10275.19
327.457	14292.19
327.686	13410.19
327.914	7485.19
328.143	6084.19
328.372	5753.19
328.6	5347.19
328.829	5313.19
329.058	5422.19
329.287	5429.19
329.515	5161.19
329.744	5109.19
329.972	5284.19
330.201	5690.19
330.43	6065.19
330.658	5829.19
330.887	5866.19
331.115	5503.19
331.344	5075.19
331.572	4955.19
331.801	5063.19
332.03	5076.19
332.258	5005.19
332.486	5014.19
332.715	5105.19
332.943	5241.19
333.172	5471.19
333.4	5574.19
333.629	5835.19
333.857	5978.19
334.085	6123.19
334.314	6577.19
334.542	6915.19
334.771	6665.19
334.999	5787.19
335.227	5522.19
335.455	5273.19
335.684	5147.19
335.912	5111.19
336.14	5011.19
336.369	5060.19
336.597	5080.19
336.825	5027.19
337.053	4927.19
337.281	4846.19
337.51	4757.19
337.738	4748.19
337.966	4737.19
338.194	4712.19
338.422	4676.19
338.65	4588.19
338.878	4555.19
339.106	4518.19
339.334	4485.19
339.562	4390.19
339.79	4396.19
340.018	4414.19
340.246	4437.19
340.474	4475.19
340.702	4406.19
340.93	4352.19
341.158	4394.19
341.386	4395.19
341.614	4380.19
341.842	4348.19
342.07	4327.19
342.298	4302.19
342.526	4302.19
342.754	4317.19
342.981	4344.19
343.209	4417.19
343.437	4608.19
343.665	4896.19
343.893	5155.19
344.12	5135.19
344.348	4974.19
344.576	4769.19
344.804	4767.19
345.031	4651.19
345.259	4602.19
345.487	4486.19
345.714	4361.19
345.942	4245.19
346.17	4234.19
346.397	4197.19
346.625	4178.19
346.853	4163.19
347.08	4184.19
347.308	4310.19
347.535	4283.19
347.763	4396.19
347.99	4300.19
348.218	4249.19
348.445	4280.19
348.673	4239.19
348.9	4157.19
349.128	4143.19
349.355	4085.19
349.583	4053.19
349.81	4057.19
350.037	4085.19
350.265	4035.19
350.492	4064.19
350.72	4059.19
350.947	4085.19
351.174	4169.19
351.402	4234.19
351.629	4121.19
351.856	4180.19
352.083	4205.19
352.311	4230.19
352.538	4236.19
352.765	4209.19
352.992	4161.19
353.22	4146.19
353.447	4041.19
353.674	4049.19
353.901	3995.19
354.128	4057.19
354.355	4046.19
354.583	4020.19
354.81	3997.19
355.037	4002.19
355.264	3962.19
355.491	3981.19
355.718	3966.19
355.945	3934.19
356.172	3976.19
356.399	3989.19
356.626	3968.19
356.853	3999.19
357.08	3901.19
357.307	3955.19
357.534	3977.19
357.761	4013.19
357.988	3965.19
358.215	3954.19
358.441	4028.19
358.668	4019.19
358.895	4055.19
359.122	4038.19
359.349	4151.19
359.576	4296.19
359.802	4434.19
360.029	4570.19
360.256	4558.19
360.483	4410.19
360.709	4203.19
360.936	4248.19
361.163	4229.19
361.39	4211.19
361.616	4284.19
361.843	4169.19
362.07	4215.19
362.296	4195.19
362.523	4198.19
362.749	4178.19
362.976	4148.19
363.203	4148.19
363.429	3983.19
363.656	4068.19
363.882	4047.19
364.109	4010.19
364.335	4046.19
364.562	4057.19
364.788	4062.19
365.015	4062.19
365.241	4045.19
365.468	4070.19
365.694	4196.19
365.92	4145.19
366.147	4037.19
366.373	4012.19
366.599	4039.19
366.826	4075.19
367.052	4049.19
367.278	4081.19
367.505	4034.19
367.731	4070.19
367.957	4104.19
368.184	4161.19
368.41	4240.19
368.636	4260.19
368.862	4299.19
369.089	4158.19
369.315	4127.19
369.541	4149.19
369.767	4155.19
369.993	4151.19
370.219	4157.19
370.445	4191.19
370.672	4208.19
370.898	4249.19
371.124	4343.19
371.35	4328.19
371.576	4324.19
371.802	4276.19
372.028	4258.19
372.254	4301.19
372.48	4353.19
372.706	4480.19
372.932	4526.19
373.158	4419.19
373.384	4335.19
373.61	4334.19
373.835	4402.19
374.061	4361.19
374.287	4401.19
374.513	4478.19
374.739	4606.19
374.965	4731.19
375.191	4739.19
375.416	4649.19
375.642	4442.19
375.868	4495.19
376.094	4466.19
376.319	4419.19
376.545	4345.19
376.771	4376.19
376.997	4290.19
377.222	4297.19
377.448	4268.19
377.674	4287.19
377.899	4240.19
378.125	4261.19
378.35	4257.19
378.576	4233.19
378.802	4281.19
379.027	4316.19
379.253	4275.19
379.478	4247.19
379.704	4280.19
379.929	4261.19
380.155	4369.19
380.38	4345.19
380.606	4346.19
380.831	4294.19
381.057	4383.19
381.282	4342.19
381.507	4311.19
381.733	4433.19
381.958	4374.19
382.184	4467.19
382.409	4560.19
382.634	4522.19
382.86	4631.19
383.085	4545.19
383.31	4686.19
383.535	4770.19
383.761	4813.19
383.986	4826.19
384.211	4934.19
384.436	5032.19
384.662	5098.19
384.887	5210.19
385.112	5176.19
385.337	5339.19
385.562	5243.19
385.787	5240.19
386.013	5210.19
386.238	5294.19
386.463	5251.19
386.688	5253.19
386.913	5167.19
387.138	5165.19
387.363	5132.19
387.588	5133.19
387.813	5044.19
388.038	5096.19
388.263	5199.19
388.488	5194.19
388.713	5161.19
388.938	5109.19
389.163	5169.19
389.387	5079.19
389.612	5068.19
389.837	5068.19
390.062	5025.19
390.287	5107.19
390.512	5092.19
390.736	5109.19
390.961	5288.19
391.186	5265.19
391.411	5417.19
391.636	5637.19
391.86	5709.19
392.085	5779.19
392.31	5726.19
392.534	5583.19
392.759	5439.19
392.984	5330.19
393.208	5379.19
393.433	5307.19
393.658	5366.19
393.882	5344.19
394.107	5379.19
394.331	5366.19
394.556	5373.19
394.78	5483.19
395.005	5508.19
395.229	5489.19
395.454	5750.19
395.678	5800.19
395.903	5834.19
396.127	5903.19
396.352	5596.19
396.576	5484.19
396.801	5440.19
397.025	5556.19
397.249	5632.19
397.474	5793.19
397.698	5807.19
397.922	5894.19
398.147	6013.19
398.371	6163.19
398.595	6304.19
398.82	6469.19
399.044	7193.19
399.268	7875.19
399.492	8947.19
399.717	9538.19
399.941	9188.19
400.165	8627.19
400.389	7968.19
400.613	7235.19
400.837	6814.19
401.062	6643.19
401.286	6556.19
401.51	6454.19
401.734	6420.19
401.958	6508.19
402.182	6677.19
402.406	6789.19
402.63	6869.19
402.854	6938.19
403.078	7053.19
403.302	7246.19
403.526	7249.19
403.75	7303.19
403.974	7422.19
404.198	7386.19
404.422	7483.19
404.645	7492.19
404.869	7484.19
405.093	7831.19
405.317	8185.19
405.541	8086.19
405.765	7499.19
405.988	7278.19
406.212	7486.19
406.436	7629.19
406.66	7752.19
406.883	7764.19
407.107	8215.19
407.331	8813.19
407.555	9204.19
407.778	8865.19
408.002	8230.19
408.226	7887.19
408.449	7833.19
408.673	7619.19
408.896	7735.19
409.12	7930.19
409.344	7489.19
409.567	7209.19
409.791	7137.19
410.014	7019.19
410.238	6954.19
410.461	7000.19
410.685	7050.19
410.908	7205.19
411.132	7287.19
411.355	7390.19
411.578	6934.19
411.802	6875.19
412.025	6894.19
412.249	7081.19
412.472	7395.19
412.695	7668.19
412.919	7187.19
413.142	6861.19
413.365	6678.19
413.589	6548.19
413.812	6437.19
414.035	6370.19
414.258	6429.19
414.482	6423.19
414.705	6490.19
414.928	6466.19
415.151	6484.19
415.374	6368.19
415.597	6344.19
415.821	6276.19
416.044	6243.19
416.267	6197.19
416.49	6187.19
416.713	6213.19
416.936	6308.19
417.159	6284.19
417.382	6342.19
417.605	6364.19
417.828	6453.19
418.051	6613.19
418.274	6479.19
418.497	6359.19
418.72	6466.19
418.943	6495.19
419.166	6871.19
419.389	7258.19
419.611	7134.19
419.834	6963.19
420.057	6950.19
420.28	6851.19
420.503	6748.19
420.726	6675.19
420.948	6772.19
421.171	7140.19
421.394	6986.19
421.617	6575.19
421.839	6513.19
422.062	6620.19
422.285	6829.19
422.507	7371.19
422.73	7937.19
422.953	7289.19
423.175	7014.19
423.398	7043.19
423.621	6956.19
423.843	7211.19
424.066	7157.19
424.288	7015.19
424.511	7315.19
424.733	7830.19
424.956	8190.19
425.178	7636.19
425.401	7781.19
425.623	7692.19
425.846	6748.19
426.068	6559.19
426.291	6472.19
426.513	6486.19
426.735	6621.19
426.958	7140.19
427.18	7766.19
427.402	8791.19
427.625	8998.19
427.847	7857.19
428.069	7236.19
428.292	6613.19
428.514	6140.19
428.736	5914.19
428.958	6030.19
429.181	5835.19
429.403	5857.19
429.625	5988.19
429.847	6368.19
430.069	6745.19
430.292	6370.19
430.514	5841.19
430.736	5815.19
430.958	5732.19
431.18	5737.19
431.402	5685.19
431.624	5614.19
431.846	5726.19
432.068	5806.19
432.29	5922.19
432.512	5659.19
432.734	5799.19
432.956	5734.19
433.178	5826.19
433.4	5774.19
433.622	5731.19
433.844	5742.19
434.066	5787.19
434.287	5961.19
434.509	6060.19
434.731	6349.19
434.953	6430.19
435.175	6589.19
435.397	6614.19
435.618	6519.19
435.84	6858.19
436.062	7733.19
436.284	7653.19
436.505	6422.19
436.727	6177.19
436.949	5951.19
437.17	5887.19
437.392	5785.19
437.614	5885.19
437.835	6333.19
438.057	7239.19
438.278	7855.19
438.5	7799.19
438.721	8625.19
438.943	7558.19
439.165	6407.19
439.386	6180.19
439.608	6246.19
439.829	6316.19
440.05	6579.19
440.272	6961.19
440.493	6410.19
440.715	6115.19
440.936	6090.19
441.158	6146.19
441.379	6233.19
441.6	6570.19
441.822	6837.19
442.043	7178.19
442.264	7948.19
442.486	7659.19
442.707	6859.19
442.928	6734.19
443.149	6874.19
443.371	7074.19
443.592	7593.19
443.813	8504.19
444.034	8494.19
444.255	7479.19
444.476	7346.19
444.698	7513.19
444.919	7620.19
445.14	7308.19
445.361	7201.19
445.582	7383.19
445.803	7786.19
446.024	8457.19
446.245	8171.19
446.466	7317.19
446.687	6467.19
446.908	6021.19
447.129	5773.19
447.35	5635.19
447.571	5570.19
447.792	5578.19
448.013	5674.19
448.234	5882.19
448.455	6494.19
448.675	7668.19
448.896	8012.19
449.117	6656.19
449.338	6861.19
449.559	8183.19
449.779	8245.19
450	6414.19
450.221	5633.19
450.442	5452.19
450.662	5452.19
450.883	5566.19
451.104	5684.19
451.324	5406.19
451.545	5355.19
451.766	5265.19
451.986	5048.19
452.207	5051.19
452.428	5114.19
452.648	5077.19
452.869	5047.19
453.089	5158.19
453.31	5242.19
453.53	5044.19
453.751	5030.19
453.971	4985.19
454.192	5198.19
454.412	4967.19
454.633	4927.19
454.853	4857.19
455.073	4965.19
455.294	5340.19
455.514	5779.19
455.734	5334.19
455.955	4788.19
456.175	4781.19
456.395	4667.19
456.616	4636.19
456.836	4702.19
457.056	4693.19
457.276	4565.19
457.497	4780.19
457.717	4746.19
457.937	4780.19
458.157	4901.19
458.377	4968.19
458.598	5297.19
458.818	5915.19
459.038	6621.19
459.258	6586.19
459.478	5949.19
459.698	5811.19
459.918	5987.19
460.138	6052.19
460.358	6291.19
460.578	6213.19
460.798	6354.19
461.018	6417.19
461.238	6281.19
461.458	6185.19
461.678	6171.19
461.898	6302.19
462.118	6393.19
462.338	6741.19
462.558	6841.19
462.777	7114.19
462.997	7725.19
463.217	8093.19
463.437	7864.19
463.657	7340.19
463.876	7089.19
464.096	7233.19
464.316	7184.19
464.536	7219.19
464.755	6940.19
464.975	6844.19
465.195	6973.19
465.414	6954.19
465.634	6170.19
465.854	5842.19
466.073	5639.19
466.293	5532.19
466.512	5281.19
466.732	5171.19
466.951	5283.19
467.171	5241.19
467.391	5354.19
467.61	5461.19
467.829	5380.19
468.049	5327.19
468.268	5369.19
468.488	5188.19
468.707	5110.19
468.927	5061.19
469.146	5064.19
469.365	5117.19
469.585	5113.19
469.804	5274.19
470.023	5470.19
470.243	5427.19
470.462	5563.19
470.681	5644.19
470.901	5563.19
471.12	5383.19
471.339	5365.19
471.558	5321.19
471.777	5253.19
471.997	5174.19
472.216	5486.19
472.435	5933.19
472.654	5450.19
472.873	5190.19
473.092	5074.19
473.311	5050.19
473.53	5130.19
473.749	5149.19
473.968	5666.19
474.187	6677.19
474.406	6283.19
474.625	5325.19
474.844	5187.19
475.063	5120.19
475.282	5051.19
475.501	5118.19
475.72	5197.19
475.939	5156.19
476.158	5237.19
476.377	5233.19
476.596	5203.19
476.814	5385.19
477.033	5501.19
477.252	5490.19
477.471	5615.19
477.69	5704.19
477.908	5780.19
478.127	5915.19
478.346	5998.19
478.564	6145.19
478.783	6238.19
479.002	6329.19
479.22	6397.19
479.439	6453.19
479.658	6534.19
479.876	6602.19
480.095	6801.19
480.313	7201.19
480.532	7148.19
480.751	7018.19
480.969	7186.19
481.188	8123.19
481.406	7982.19
481.624	6933.19
481.843	6492.19
482.061	6267.19
482.28	6286.19
482.498	6098.19
482.717	6043.19
482.935	5937.19
483.153	5986.19
483.372	5935.19
483.59	5956.19
483.808	5914.19
484.027	5925.19
484.245	6045.19
484.463	6069.19
484.681	6096.19
484.9	6230.19
485.118	6219.19
485.336	6239.19
485.554	6344.19
485.772	6443.19
485.99	6357.19
486.209	6436.19
486.427	6403.19
486.645	6457.19
486.863	6572.19
487.081	6509.19
487.299	6497.19
487.517	6463.19
487.735	6329.19
487.953	6380.19
