Data from Circ_2016_H10_HRD10591_00084.txt Node
Date: Wed Jan 03 09:58:57 EST 2024
User: Yrep
Spectrometer: HR+D1059
Trigger mode: 1
Integration Time (sec): 1.000000E-1
Scans to average: 1
Electric dark correction enabled: true
Nonlinearity correction enabled: false
Boxcar width: 0
XAxis mode: Wavelengths
Number of Pixels in Spectrum: 2048
>>>>>Begin Spectral Data<<<<<
223.165	-13.31
223.4	-13.31
223.635	-13.31
223.869	-7.31
224.104	-5.31
224.338	-21.31
224.573	-12.31
224.808	-15.31
225.042	-7.31
225.277	-16.31
225.511	-6.31
225.746	3.69
225.98	-0.31
226.215	-0.31
226.449	18.69
226.683	30.69
226.918	23.69
227.152	28.69
227.387	39.69
227.621	39.69
227.856	46.69
228.09	56.69
228.324	37.69
228.559	52.69
228.793	59.69
229.027	66.69
229.262	68.69
229.496	68.69
229.73	94.69
229.964	90.69
230.199	78.69
230.433	55.69
230.667	76.69
230.901	84.69
231.136	84.69
231.37	89.69
231.604	74.69
231.838	78.69
232.072	79.69
232.306	88.69
232.541	75.69
232.775	75.69
233.009	72.69
233.243	84.69
233.477	84.69
233.711	94.69
233.945	90.69
234.179	76.69
234.413	71.69
234.647	78.69
234.881	70.69
235.115	86.69
235.349	84.69
235.583	92.69
235.817	92.69
236.051	95.69
236.285	79.69
236.519	70.69
236.753	84.69
236.987	83.69
237.221	82.69
237.455	79.69
237.689	81.69
237.922	68.69
238.156	67.69
238.39	75.69
238.624	75.69
238.858	65.69
239.091	86.69
239.325	83.69
239.559	84.69
239.793	85.69
240.027	84.69
240.26	76.69
240.494	71.69
240.728	73.69
240.961	82.69
241.195	86.69
241.429	88.69
241.662	76.69
241.896	67.69
242.13	64.69
242.363	66.69
242.597	82.69
242.83	83.69
243.064	70.69
243.298	74.69
243.531	68.69
243.765	90.69
243.998	72.69
244.232	68.69
244.465	92.69
244.699	78.69
244.932	83.69
245.166	84.69
245.399	75.69
245.633	66.69
245.866	84.69
246.099	83.69
246.333	73.69
246.566	76.69
246.8	73.69
247.033	79.69
247.266	74.69
247.5	69.69
247.733	65.69
247.966	86.69
248.2	77.69
248.433	80.69
248.666	86.69
248.899	94.69
249.133	100.69
249.366	89.69
249.599	94.69
249.832	84.69
250.066	71.69
250.299	89.69
250.532	77.69
250.765	89.69
250.998	82.69
251.231	76.69
251.465	70.69
251.698	80.69
251.931	75.69
252.164	76.69
252.397	89.69
252.63	79.69
252.863	68.69
253.096	71.69
253.329	81.69
253.562	81.69
253.795	80.69
254.028	88.69
254.261	60.69
254.494	76.69
254.727	81.69
254.96	75.69
255.193	66.69
255.426	82.69
255.659	68.69
255.892	78.69
256.124	75.69
256.357	63.69
256.59	82.69
256.823	74.69
257.056	65.69
257.289	82.69
257.521	88.69
257.754	72.69
257.987	85.69
258.22	86.69
258.452	75.69
258.685	92.69
258.918	78.69
259.151	74.69
259.383	103.69
259.616	78.69
259.849	84.69
260.081	71.69
260.314	81.69
260.547	80.69
260.779	91.69
261.012	65.69
261.244	85.69
261.477	97.69
261.71	88.69
261.942	99.69
262.175	122.69
262.407	96.69
262.64	78.69
262.872	75.69
263.105	97.69
263.337	81.69
263.57	81.69
263.802	90.69
264.035	84.69
264.267	69.69
264.499	80.69
264.732	83.69
264.964	83.69
265.197	86.69
265.429	85.69
265.661	85.69
265.894	85.69
266.126	85.69
266.358	89.69
266.591	87.69
266.823	77.69
267.055	79.69
267.287	73.69
267.52	73.69
267.752	74.69
267.984	70.69
268.216	79.69
268.448	79.69
268.681	88.69
268.913	80.69
269.145	84.69
269.377	77.69
269.609	96.69
269.841	77.69
270.073	91.69
270.306	74.69
270.538	84.69
270.77	89.69
271.002	82.69
271.234	86.69
271.466	86.69
271.698	81.69
271.93	80.69
272.162	82.69
272.394	81.69
272.626	93.69
272.858	86.69
273.09	84.69
273.322	78.69
273.553	78.69
273.785	83.69
274.017	83.69
274.249	86.69
274.481	89.69
274.713	83.69
274.945	90.69
275.176	99.69
275.408	83.69
275.64	84.69
275.872	73.69
276.104	72.69
276.335	94.69
276.567	102.69
276.799	108.69
277.031	98.69
277.262	80.69
277.494	84.69
277.726	92.69
277.957	86.69
278.189	78.69
278.421	87.69
278.652	77.69
278.884	90.69
279.115	88.69
279.347	81.69
279.579	92.69
279.81	83.69
280.042	93.69
280.273	107.69
280.505	85.69
280.736	83.69
280.968	83.69
281.199	87.69
281.431	78.69
281.662	84.69
281.894	88.69
282.125	88.69
282.356	105.69
282.588	125.69
282.819	119.69
283.051	103.69
283.282	90.69
283.513	91.69
283.745	88.69
283.976	98.69
284.207	86.69
284.439	78.69
284.67	70.69
284.901	87.69
285.132	86.69
285.364	84.69
285.595	96.69
285.826	92.69
286.057	104.69
286.288	75.69
286.52	87.69
286.751	82.69
286.982	87.69
287.213	65.69
287.444	88.69
287.675	95.69
287.906	78.69
288.138	83.69
288.369	86.69
288.6	99.69
288.831	104.69
289.062	99.69
289.293	93.69
289.524	85.69
289.755	92.69
289.986	83.69
290.217	86.69
290.448	86.69
290.679	91.69
290.91	90.69
291.141	91.69
291.371	84.69
291.602	88.69
291.833	84.69
292.064	91.69
292.295	86.69
292.526	91.69
292.757	102.69
292.987	92.69
293.218	75.69
293.449	81.69
293.68	78.69
293.91	70.69
294.141	104.69
294.372	78.69
294.603	95.69
294.833	76.69
295.064	99.69
295.295	90.69
295.525	79.69
295.756	105.69
295.987	112.69
296.217	110.69
296.448	128.69
296.679	99.69
296.909	80.69
297.14	89.69
297.37	78.69
297.601	92.69
297.831	90.69
298.062	72.69
298.292	77.69
298.523	88.69
298.753	88.69
298.984	67.69
299.214	90.69
299.445	92.69
299.675	95.69
299.905	94.69
300.136	97.69
300.366	95.69
300.597	76.69
300.827	84.69
301.057	89.69
301.288	98.69
301.518	90.69
301.748	94.69
301.979	99.69
302.209	98.69
302.439	92.69
302.669	76.69
302.9	72.69
303.13	89.69
303.36	91.69
303.59	90.69
303.82	104.69
304.051	91.69
304.281	93.69
304.511	88.69
304.741	90.69
304.971	76.69
305.201	92.69
305.431	93.69
305.661	91.69
305.891	91.69
306.121	70.69
306.352	90.69
306.582	102.69
306.812	105.69
307.042	94.69
307.272	92.69
307.502	93.69
307.731	91.69
307.961	82.69
308.191	82.69
308.421	94.69
308.651	85.69
308.881	101.69
309.111	88.69
309.341	92.69
309.571	105.69
309.8	95.69
310.03	109.69
310.26	92.69
310.49	85.69
310.72	95.69
310.949	95.69
311.179	95.69
311.409	101.69
311.639	105.69
311.868	74.69
312.098	86.69
312.328	97.69
312.557	111.69
312.787	123.69
313.017	104.69
313.246	105.69
313.476	91.69
313.706	93.69
313.935	86.69
314.165	101.69
314.394	95.69
314.624	93.69
314.853	94.69
315.083	82.69
315.312	106.69
315.542	99.69
315.771	100.69
316.001	96.69
316.23	91.69
316.46	77.69
316.689	76.69
316.919	105.69
317.148	79.69
317.377	93.69
317.607	94.69
317.836	97.69
318.065	88.69
318.295	90.69
318.524	83.69
318.753	100.69
318.983	99.69
319.212	101.69
319.441	123.69
319.67	92.69
319.9	102.69
320.129	90.69
320.358	85.69
320.587	110.69
320.816	100.69
321.046	102.69
321.275	102.69
321.504	97.69
321.733	86.69
321.962	88.69
322.191	82.69
322.42	108.69
322.649	117.69
322.878	119.69
323.108	113.69
323.337	136.69
323.566	140.69
323.795	144.69
324.024	200.69
324.253	387.69
324.482	828.69
324.71	1694.69
324.939	2230.69
325.168	830.69
325.397	243.69
325.626	151.69
325.855	116.69
326.084	108.69
326.313	120.69
326.542	147.69
326.77	229.69
326.999	460.69
327.228	964.69
327.457	1716.69
327.686	1356.69
327.914	351.69
328.143	192.69
328.372	163.69
328.6	141.69
328.829	125.69
329.058	122.69
329.287	123.69
329.515	110.69
329.744	119.69
329.972	125.69
330.201	123.69
330.43	171.69
330.658	139.69
330.887	136.69
331.115	124.69
331.344	113.69
331.572	89.69
331.801	94.69
332.03	112.69
332.258	89.69
332.486	87.69
332.715	86.69
332.943	89.69
333.172	100.69
333.4	85.69
333.629	104.69
333.857	119.69
334.085	124.69
334.314	140.69
334.542	193.69
334.771	171.69
334.999	122.69
335.227	93.69
335.455	114.69
335.684	99.69
335.912	103.69
336.14	101.69
336.369	102.69
336.597	104.69
336.825	99.69
337.053	75.69
337.281	82.69
337.51	91.69
337.738	89.69
337.966	83.69
338.194	87.69
338.422	105.69
338.65	106.69
338.878	103.69
339.106	81.69
339.334	89.69
339.562	84.69
339.79	82.69
340.018	94.69
340.246	92.69
340.474	88.69
340.702	111.69
340.93	93.69
341.158	87.69
341.386	69.69
341.614	90.69
341.842	107.69
342.07	91.69
342.298	76.69
342.526	88.69
342.754	86.69
342.981	92.69
343.209	106.69
343.437	87.69
343.665	92.69
343.893	98.69
344.12	84.69
344.348	75.69
344.576	92.69
344.804	92.69
345.031	92.69
345.259	85.69
345.487	96.69
345.714	90.69
345.942	98.69
346.17	101.69
346.397	96.69
346.625	106.69
346.853	100.69
347.08	76.69
347.308	94.69
347.535	104.69
347.763	88.69
347.99	95.69
348.218	89.69
348.445	97.69
348.673	97.69
348.9	99.69
349.128	90.69
349.355	99.69
349.583	105.69
349.81	102.69
350.037	94.69
350.265	101.69
350.492	93.69
350.72	99.69
350.947	108.69
351.174	105.69
351.402	111.69
351.629	108.69
351.856	106.69
352.083	104.69
352.311	93.69
352.538	106.69
352.765	104.69
352.992	106.69
353.22	105.69
353.447	98.69
353.674	104.69
353.901	85.69
354.128	92.69
354.355	91.69
354.583	113.69
354.81	101.69
355.037	105.69
355.264	85.69
355.491	91.69
355.718	93.69
355.945	100.69
356.172	85.69
356.399	92.69
356.626	90.69
356.853	84.69
357.08	99.69
357.307	93.69
357.534	98.69
357.761	106.69
357.988	91.69
358.215	108.69
358.441	84.69
358.668	84.69
358.895	98.69
359.122	96.69
359.349	90.69
359.576	87.69
359.802	103.69
360.029	112.69
360.256	125.69
360.483	86.69
360.709	86.69
360.936	88.69
361.163	88.69
361.39	91.69
361.616	93.69
361.843	86.69
362.07	105.69
362.296	83.69
362.523	92.69
362.749	94.69
362.976	89.69
363.203	84.69
363.429	93.69
363.656	91.69
363.882	96.69
364.109	92.69
364.335	84.69
364.562	75.69
364.788	93.69
365.015	96.69
365.241	101.69
365.468	103.69
365.694	78.69
365.92	96.69
366.147	96.69
366.373	76.69
366.599	90.69
366.826	88.69
367.052	88.69
367.278	87.69
367.505	93.69
367.731	96.69
367.957	84.69
368.184	102.69
368.41	99.69
368.636	90.69
368.862	114.69
369.089	107.69
369.315	97.69
369.541	94.69
369.767	92.69
369.993	94.69
370.219	92.69
370.445	87.69
370.672	99.69
370.898	84.69
371.124	80.69
371.35	91.69
371.576	80.69
371.802	75.69
372.028	90.69
372.254	88.69
372.48	93.69
372.706	81.69
372.932	94.69
373.158	86.69
373.384	78.69
373.61	80.69
373.835	89.69
374.061	91.69
374.287	89.69
374.513	70.69
374.739	93.69
374.965	80.69
375.191	85.69
375.416	91.69
375.642	96.69
375.868	100.69
376.094	93.69
376.319	62.69
376.545	86.69
376.771	91.69
376.997	82.69
377.222	95.69
377.448	93.69
377.674	93.69
377.899	96.69
378.125	98.69
378.35	85.69
378.576	106.69
378.802	96.69
379.027	81.69
379.253	88.69
379.478	103.69
379.704	92.69
379.929	103.69
380.155	88.69
380.38	108.69
380.606	99.69
380.831	103.69
381.057	103.69
381.282	102.69
381.507	91.69
381.733	89.69
381.958	97.69
382.184	89.69
382.409	112.69
382.634	116.69
382.86	105.69
383.085	107.69
383.31	96.69
383.535	95.69
383.761	93.69
383.986	94.69
384.211	102.69
384.436	86.69
384.662	97.69
384.887	91.69
385.112	97.69
385.337	98.69
385.562	96.69
385.787	93.69
386.013	105.69
386.238	112.69
386.463	108.69
386.688	100.69
386.913	117.69
387.138	111.69
387.363	105.69
387.588	108.69
387.813	99.69
388.038	99.69
388.263	106.69
388.488	130.69
388.713	90.69
388.938	92.69
389.163	106.69
389.387	95.69
389.612	91.69
389.837	89.69
390.062	89.69
390.287	92.69
390.512	108.69
390.736	93.69
390.961	75.69
391.186	82.69
391.411	83.69
391.636	90.69
391.86	101.69
392.085	93.69
392.31	90.69
392.534	82.69
392.759	95.69
392.984	82.69
393.208	89.69
393.433	81.69
393.658	84.69
393.882	77.69
394.107	78.69
394.331	91.69
394.556	92.69
394.78	107.69
395.005	91.69
395.229	87.69
395.454	102.69
395.678	77.69
395.903	65.69
396.127	85.69
396.352	93.69
396.576	85.69
396.801	80.69
397.025	85.69
397.249	92.69
397.474	85.69
397.698	80.69
397.922	85.69
398.147	91.69
398.371	76.69
398.595	65.69
398.82	91.69
399.044	96.69
399.268	87.69
399.492	96.69
399.717	82.69
399.941	89.69
400.165	115.69
400.389	98.69
400.613	85.69
400.837	87.69
401.062	90.69
401.286	90.69
401.51	86.69
401.734	78.69
401.958	97.69
402.182	121.69
402.406	143.69
402.63	125.69
402.854	85.69
403.078	80.69
403.302	67.69
403.526	75.69
403.75	81.69
403.974	82.69
404.198	85.69
404.422	94.69
404.645	85.69
404.869	96.69
405.093	79.69
405.317	104.69
405.541	107.69
405.765	98.69
405.988	119.69
406.212	152.69
406.436	218.69
406.66	137.69
406.883	85.69
407.107	99.69
407.331	82.69
407.555	107.69
407.778	85.69
408.002	98.69
408.226	102.69
408.449	92.69
408.673	87.69
408.896	81.69
409.12	91.69
409.344	94.69
409.567	81.69
409.791	90.69
410.014	107.69
410.238	87.69
410.461	93.69
410.685	94.69
410.908	82.69
411.132	106.69
411.355	92.69
411.578	81.69
411.802	84.69
412.025	97.69
412.249	77.69
412.472	94.69
412.695	89.69
412.919	95.69
413.142	88.69
413.365	87.69
413.589	92.69
413.812	85.69
414.035	82.69
414.258	91.69
414.482	85.69
414.705	88.69
414.928	75.69
415.151	70.69
415.374	74.69
415.597	91.69
415.821	86.69
416.044	85.69
416.267	84.69
416.49	96.69
416.713	83.69
416.936	78.69
417.159	71.69
417.382	70.69
417.605	98.69
417.828	98.69
418.051	98.69
418.274	99.69
418.497	90.69
418.72	97.69
418.943	84.69
419.166	95.69
419.389	93.69
419.611	84.69
419.834	88.69
420.057	89.69
420.28	83.69
420.503	88.69
420.726	92.69
420.948	86.69
421.171	87.69
421.394	88.69
421.617	95.69
421.839	96.69
422.062	90.69
422.285	92.69
422.507	91.69
422.73	86.69
422.953	96.69
423.175	86.69
423.398	79.69
423.621	104.69
423.843	83.69
424.066	91.69
424.288	82.69
424.511	82.69
424.733	99.69
424.956	83.69
425.178	99.69
425.401	104.69
425.623	111.69
425.846	88.69
426.068	78.69
426.291	91.69
426.513	94.69
426.735	80.69
426.958	108.69
427.18	98.69
427.402	134.69
427.625	158.69
427.847	124.69
428.069	108.69
428.292	91.69
428.514	84.69
428.736	78.69
428.958	83.69
429.181	103.69
429.403	88.69
429.625	90.69
429.847	86.69
430.069	99.69
430.292	82.69
430.514	85.69
430.736	73.69
430.958	84.69
431.18	96.69
431.402	85.69
431.624	86.69
431.846	92.69
432.068	79.69
432.29	88.69
432.512	78.69
432.734	81.69
432.956	85.69
433.178	103.69
433.4	108.69
433.622	102.69
433.844	94.69
434.066	78.69
434.287	84.69
434.509	92.69
434.731	73.69
434.953	86.69
435.175	86.69
435.397	96.69
435.618	103.69
435.84	103.69
436.062	119.69
436.284	108.69
436.505	92.69
436.727	97.69
436.949	82.69
437.17	74.69
437.392	88.69
437.614	95.69
437.835	108.69
438.057	118.69
438.278	107.69
438.5	102.69
438.721	127.69
438.943	103.69
439.165	99.69
439.386	86.69
439.608	77.69
439.829	90.69
440.05	119.69
440.272	144.69
440.493	105.69
440.715	81.69
440.936	96.69
441.158	92.69
441.379	98.69
441.6	79.69
441.822	107.69
442.043	98.69
442.264	91.69
442.486	86.69
442.707	98.69
442.928	107.69
443.149	126.69
443.371	130.69
443.592	115.69
443.813	111.69
444.034	107.69
444.255	86.69
444.476	83.69
444.698	79.69
444.919	92.69
445.14	128.69
445.361	128.69
445.582	121.69
445.803	129.69
446.024	132.69
446.245	127.69
446.466	101.69
446.687	104.69
446.908	82.69
447.129	90.69
447.35	73.69
447.571	86.69
447.792	85.69
448.013	118.69
448.234	109.69
448.455	97.69
448.675	113.69
448.896	124.69
449.117	109.69
449.338	101.69
449.559	115.69
449.779	136.69
450	106.69
450.221	112.69
450.442	87.69
450.662	98.69
450.883	102.69
451.104	92.69
451.324	88.69
451.545	91.69
451.766	98.69
451.986	88.69
452.207	90.69
452.428	85.69
452.648	88.69
452.869	96.69
453.089	102.69
453.31	108.69
453.53	88.69
453.751	91.69
453.971	98.69
454.192	100.69
454.412	97.69
454.633	91.69
454.853	90.69
455.073	87.69
455.294	90.69
455.514	98.69
455.734	88.69
455.955	78.69
456.175	79.69
456.395	76.69
456.616	88.69
456.836	85.69
457.056	95.69
457.276	85.69
457.497	95.69
457.717	89.69
457.937	90.69
458.157	85.69
458.377	85.69
458.598	102.69
458.818	144.69
459.038	148.69
459.258	114.69
459.478	84.69
459.698	100.69
459.918	82.69
460.138	84.69
460.358	79.69
460.578	88.69
460.798	97.69
461.018	78.69
461.238	83.69
461.458	76.69
461.678	89.69
461.898	93.69
462.118	88.69
462.338	90.69
462.558	95.69
462.777	97.69
462.997	96.69
463.217	86.69
463.437	78.69
463.657	87.69
463.876	83.69
464.096	90.69
464.316	98.69
464.536	95.69
464.755	95.69
464.975	99.69
465.195	167.69
465.414	161.69
465.634	98.69
465.854	92.69
466.073	92.69
466.293	81.69
466.512	97.69
466.732	101.69
466.951	80.69
467.171	92.69
467.391	91.69
467.61	82.69
467.829	88.69
468.049	106.69
468.268	118.69
468.488	84.69
468.707	83.69
468.927	93.69
469.146	90.69
469.365	79.69
469.585	71.69
469.804	81.69
470.023	95.69
470.243	93.69
470.462	90.69
470.681	100.69
470.901	98.69
471.12	92.69
471.339	100.69
471.558	74.69
471.777	81.69
471.997	90.69
472.216	149.69
472.435	231.69
472.654	107.69
472.873	79.69
473.092	89.69
473.311	81.69
473.53	69.69
473.749	82.69
473.968	92.69
474.187	102.69
474.406	88.69
474.625	95.69
474.844	82.69
475.063	83.69
475.282	81.69
475.501	86.69
475.72	92.69
475.939	85.69
476.158	84.69
476.377	107.69
476.596	97.69
476.814	90.69
477.033	87.69
477.252	88.69
477.471	85.69
477.69	87.69
477.908	84.69
478.127	75.69
478.346	90.69
478.564	105.69
478.783	95.69
479.002	87.69
479.22	91.69
479.439	93.69
479.658	104.69
479.876	98.69
480.095	102.69
480.313	92.69
480.532	90.69
480.751	98.69
480.969	148.69
481.188	323.69
481.406	207.69
481.624	109.69
481.843	84.69
482.061	80.69
482.28	80.69
482.498	91.69
482.717	100.69
482.935	84.69
483.153	99.69
483.372	107.69
483.59	91.69
483.808	92.69
484.027	93.69
484.245	85.69
484.463	89.69
484.681	102.69
484.9	83.69
485.118	102.69
485.336	88.69
485.554	100.69
485.772	101.69
485.99	107.69
486.209	101.69
486.427	111.69
486.645	117.69
486.863	104.69
487.081	102.69
487.299	97.69
487.517	105.69
487.735	106.69
487.953	102.69
488.171	101.69
488.389	84.69
488.607	93.69
488.825	98.69
489.043	83.69
489.261	94.69
489.479	84.69
489.696	83.69
489.914	76.69
490.132	102.69
490.35	69.69
490.568	86.69
490.786	90.69
491.003	97.69
491.221	85.69
491.439	96.69
491.657	104.69
491.874	90.69
492.092	84.69
492.31	84.69
492.527	88.69
492.745	83.69
492.963	82.69
493.18	97.69
493.398	82.69
493.615	98.69
493.833	85.69
494.05	77.69
494.268	96.69
494.485	89.69
494.703	90.69
494.92	92.69
495.138	89.69
495.355	99.69
495.573	93.69
495.79	89.69
496.008	103.69
496.225	97.69
496.442	84.69
496.66	89.69
496.877	101.69
497.094	93.69
497.312	91.69
497.529	89.69
497.746	76.69
497.963	91.69
498.181	83.69
498.398	89.69
498.615	116.69
498.832	90.69
499.049	97.69
499.267	102.69
499.484	91.69
499.701	85.69
499.918	103.69
500.135	86.69
500.352	83.69
500.569	78.69
500.786	99.69
501.003	100.69
501.22	88.69
501.437	101.69
501.654	92.69
501.871	106.69
502.088	95.69
502.305	83.69
502.522	94.69
502.739	93.69
502.956	114.69
503.172	100.69
503.389	105.69
503.606	100.69
503.823	94.69
504.04	91.69
504.256	97.69
504.473	80.69
504.69	90.69
504.907	80.69
505.123	84.69
505.34	74.69
505.557	85.69
505.773	84.69
505.99	89.69
506.207	87.69
506.423	84.69
506.64	95.69
506.856	92.69
507.073	80.69
507.289	91.69
507.506	84.69
507.722	106.69
507.939	105.69
508.155	97.69
508.372	94.69
508.588	79.69
508.805	91.69
509.021	110.69
509.238	103.69
509.454	99.69
509.67	96.69
509.887	100.69
510.103	125.69
510.319	208.69
510.536	694.69
510.752	2313.69
510.968	657.69
511.184	150.69
511.401	107.69
511.617	97.69
511.833	80.69
512.049	87.69
512.265	82.69
512.481	95.69
512.698	93.69
512.914	88.69
513.13	92.69
513.346	98.69
513.562	74.69
513.778	89.69
513.994	84.69
514.21	105.69
514.426	130.69
514.642	134.69
514.858	121.69
515.074	159.69
515.29	429.69
515.506	1304.69
515.721	523.69
