Data from Circ_2016_H10_HRD10591_00091.txt Node
Date: Wed Jan 03 09:58:58 EST 2024
User: Yrep
Spectrometer: HR+D1059
Trigger mode: 1
Integration Time (sec): 1.000000E-1
Scans to average: 1
Electric dark correction enabled: true
Nonlinearity correction enabled: false
Boxcar width: 0
XAxis mode: Wavelengths
Number of Pixels in Spectrum: 2048
>>>>>Begin Spectral Data<<<<<
223.165	-8.25
223.4	-8.25
223.635	-8.25
223.869	-27.25
224.104	-23.25
224.338	-3.25
224.573	-22.25
224.808	-5.25
225.042	-10.25
225.277	2.75
225.511	-3.25
225.746	6.75
225.98	6.75
226.215	16.75
226.449	6.75
226.683	15.75
226.918	12.75
227.152	34.75
227.387	33.75
227.621	16.75
227.856	25.75
228.09	34.75
228.324	30.75
228.559	50.75
228.793	63.75
229.027	59.75
229.262	56.75
229.496	68.75
229.73	75.75
229.964	62.75
230.199	70.75
230.433	66.75
230.667	76.75
230.901	71.75
231.136	74.75
231.37	86.75
231.604	82.75
231.838	75.75
232.072	82.75
232.306	81.75
232.541	71.75
232.775	82.75
233.009	68.75
233.243	78.75
233.477	70.75
233.711	91.75
233.945	57.75
234.179	79.75
234.413	62.75
234.647	74.75
234.881	86.75
235.115	83.75
235.349	62.75
235.583	74.75
235.817	74.75
236.051	73.75
236.285	66.75
236.519	89.75
236.753	78.75
236.987	93.75
237.221	83.75
237.455	81.75
237.689	71.75
237.922	55.75
238.156	62.75
238.39	81.75
238.624	76.75
238.858	87.75
239.091	76.75
239.325	68.75
239.559	95.75
239.793	80.75
240.027	90.75
240.26	75.75
240.494	67.75
240.728	67.75
240.961	70.75
241.195	84.75
241.429	70.75
241.662	73.75
241.896	72.75
242.13	83.75
242.363	88.75
242.597	78.75
242.83	85.75
243.064	73.75
243.298	88.75
243.531	80.75
243.765	69.75
243.998	78.75
244.232	76.75
244.465	76.75
244.699	77.75
244.932	82.75
245.166	76.75
245.399	80.75
245.633	80.75
245.866	64.75
246.099	67.75
246.333	62.75
246.566	62.75
246.8	68.75
247.033	86.75
247.266	73.75
247.5	76.75
247.733	78.75
247.966	74.75
248.2	89.75
248.433	69.75
248.666	71.75
248.899	78.75
249.133	63.75
249.366	93.75
249.599	104.75
249.832	97.75
250.066	87.75
250.299	60.75
250.532	76.75
250.765	83.75
250.998	68.75
251.231	80.75
251.465	82.75
251.698	78.75
251.931	72.75
252.164	64.75
252.397	83.75
252.63	71.75
252.863	85.75
253.096	67.75
253.329	74.75
253.562	85.75
253.795	80.75
254.028	83.75
254.261	81.75
254.494	87.75
254.727	97.75
254.96	73.75
255.193	67.75
255.426	83.75
255.659	86.75
255.892	76.75
256.124	81.75
256.357	97.75
256.59	75.75
256.823	75.75
257.056	86.75
257.289	87.75
257.521	82.75
257.754	78.75
257.987	79.75
258.22	73.75
258.452	82.75
258.685	82.75
258.918	69.75
259.151	85.75
259.383	80.75
259.616	74.75
259.849	81.75
260.081	69.75
260.314	81.75
260.547	73.75
260.779	84.75
261.012	90.75
261.244	82.75
261.477	69.75
261.71	103.75
261.942	107.75
262.175	114.75
262.407	88.75
262.64	80.75
262.872	80.75
263.105	86.75
263.337	94.75
263.57	69.75
263.802	71.75
264.035	83.75
264.267	90.75
264.499	65.75
264.732	86.75
264.964	81.75
265.197	74.75
265.429	81.75
265.661	73.75
265.894	84.75
266.126	81.75
266.358	69.75
266.591	75.75
266.823	80.75
267.055	75.75
267.287	76.75
267.52	81.75
267.752	82.75
267.984	76.75
268.216	73.75
268.448	79.75
268.681	81.75
268.913	82.75
269.145	81.75
269.377	86.75
269.609	64.75
269.841	92.75
270.073	70.75
270.306	96.75
270.538	96.75
270.77	78.75
271.002	75.75
271.234	89.75
271.466	79.75
271.698	79.75
271.93	92.75
272.162	85.75
272.394	82.75
272.626	79.75
272.858	83.75
273.09	82.75
273.322	76.75
273.553	89.75
273.785	78.75
274.017	75.75
274.249	99.75
274.481	90.75
274.713	89.75
274.945	89.75
275.176	86.75
275.408	91.75
275.64	88.75
275.872	97.75
276.104	76.75
276.335	99.75
276.567	90.75
276.799	108.75
277.031	106.75
277.262	106.75
277.494	86.75
277.726	88.75
277.957	86.75
278.189	76.75
278.421	90.75
278.652	87.75
278.884	90.75
279.115	73.75
279.347	84.75
279.579	87.75
279.81	75.75
280.042	95.75
280.273	99.75
280.505	95.75
280.736	81.75
280.968	88.75
281.199	90.75
281.431	82.75
281.662	77.75
281.894	99.75
282.125	115.75
282.356	114.75
282.588	142.75
282.819	129.75
283.051	85.75
283.282	73.75
283.513	73.75
283.745	72.75
283.976	84.75
284.207	70.75
284.439	91.75
284.67	90.75
284.901	83.75
285.132	88.75
285.364	78.75
285.595	86.75
285.826	81.75
286.057	86.75
286.288	85.75
286.52	81.75
286.751	80.75
286.982	87.75
287.213	78.75
287.444	82.75
287.675	78.75
287.906	95.75
288.138	81.75
288.369	84.75
288.6	99.75
288.831	76.75
289.062	92.75
289.293	90.75
289.524	89.75
289.755	89.75
289.986	85.75
290.217	76.75
290.448	82.75
290.679	92.75
290.91	79.75
291.141	87.75
291.371	63.75
291.602	82.75
291.833	81.75
292.064	77.75
292.295	87.75
292.526	87.75
292.757	80.75
292.987	95.75
293.218	89.75
293.449	70.75
293.68	81.75
293.91	95.75
294.141	87.75
294.372	92.75
294.603	86.75
294.833	89.75
295.064	95.75
295.295	92.75
295.525	113.75
295.756	96.75
295.987	114.75
296.217	152.75
296.448	140.75
296.679	92.75
296.909	102.75
297.14	90.75
297.37	87.75
297.601	84.75
297.831	89.75
298.062	87.75
298.292	94.75
298.523	84.75
298.753	78.75
298.984	82.75
299.214	75.75
299.445	68.75
299.675	98.75
299.905	106.75
300.136	90.75
300.366	74.75
300.597	71.75
300.827	87.75
301.057	92.75
301.288	105.75
301.518	85.75
301.748	90.75
301.979	95.75
302.209	86.75
302.439	67.75
302.669	99.75
302.9	86.75
303.13	76.75
303.36	94.75
303.59	96.75
303.82	93.75
304.051	84.75
304.281	92.75
304.511	83.75
304.741	94.75
304.971	81.75
305.201	72.75
305.431	76.75
305.661	81.75
305.891	95.75
306.121	84.75
306.352	99.75
306.582	83.75
306.812	98.75
307.042	95.75
307.272	96.75
307.502	100.75
307.731	100.75
307.961	109.75
308.191	95.75
308.421	87.75
308.651	97.75
308.881	88.75
309.111	95.75
309.341	76.75
309.571	110.75
309.8	99.75
310.03	105.75
310.26	102.75
310.49	95.75
310.72	116.75
310.949	108.75
311.179	97.75
311.409	87.75
311.639	80.75
311.868	84.75
312.098	79.75
312.328	103.75
312.557	99.75
312.787	111.75
313.017	104.75
313.246	113.75
313.476	89.75
313.706	81.75
313.935	80.75
314.165	104.75
314.394	104.75
314.624	91.75
314.853	92.75
315.083	101.75
315.312	102.75
315.542	91.75
315.771	100.75
316.001	97.75
316.23	89.75
316.46	90.75
316.689	87.75
316.919	86.75
317.148	98.75
317.377	115.75
317.607	101.75
317.836	102.75
318.065	83.75
318.295	91.75
318.524	88.75
318.753	93.75
318.983	80.75
319.212	87.75
319.441	97.75
319.67	96.75
319.9	75.75
320.129	90.75
320.358	73.75
320.587	90.75
320.816	123.75
321.046	103.75
321.275	84.75
321.504	98.75
321.733	90.75
321.962	101.75
322.191	92.75
322.42	103.75
322.649	107.75
322.878	105.75
323.108	117.75
323.337	115.75
323.566	136.75
323.795	160.75
324.024	219.75
324.253	495.75
324.482	1076.75
324.71	2231.75
324.939	2979.75
325.168	1036.75
325.397	286.75
325.626	166.75
325.855	138.75
326.084	136.75
326.313	155.75
326.542	167.75
326.77	274.75
326.999	576.75
327.228	1193.75
327.457	2229.75
327.686	1685.75
327.914	465.75
328.143	235.75
328.372	190.75
328.6	140.75
328.829	113.75
329.058	124.75
329.287	148.75
329.515	127.75
329.744	116.75
329.972	116.75
330.201	152.75
330.43	185.75
330.658	135.75
330.887	154.75
331.115	150.75
331.344	113.75
331.572	108.75
331.801	96.75
332.03	110.75
332.258	95.75
332.486	86.75
332.715	106.75
332.943	81.75
333.172	93.75
333.4	88.75
333.629	116.75
333.857	136.75
334.085	132.75
334.314	175.75
334.542	203.75
334.771	202.75
334.999	116.75
335.227	93.75
335.455	95.75
335.684	102.75
335.912	92.75
336.14	93.75
336.369	98.75
336.597	99.75
336.825	89.75
337.053	103.75
337.281	106.75
337.51	83.75
337.738	103.75
337.966	92.75
338.194	101.75
338.422	92.75
338.65	78.75
338.878	82.75
339.106	91.75
339.334	100.75
339.562	87.75
339.79	94.75
340.018	91.75
340.246	87.75
340.474	98.75
340.702	87.75
340.93	73.75
341.158	102.75
341.386	85.75
341.614	101.75
341.842	85.75
342.07	94.75
342.298	84.75
342.526	91.75
342.754	91.75
342.981	102.75
343.209	81.75
343.437	97.75
343.665	92.75
343.893	85.75
344.12	91.75
344.348	89.75
344.576	69.75
344.804	84.75
345.031	75.75
345.259	108.75
345.487	98.75
345.714	110.75
345.942	105.75
346.17	95.75
346.397	90.75
346.625	89.75
346.853	95.75
347.08	94.75
347.308	99.75
347.535	98.75
347.763	120.75
347.99	113.75
348.218	89.75
348.445	112.75
348.673	86.75
348.9	91.75
349.128	89.75
349.355	90.75
349.583	90.75
349.81	97.75
350.037	94.75
350.265	96.75
350.492	92.75
350.72	102.75
350.947	110.75
351.174	118.75
351.402	108.75
351.629	96.75
351.856	108.75
352.083	110.75
352.311	101.75
352.538	104.75
352.765	110.75
352.992	124.75
353.22	122.75
353.447	113.75
353.674	90.75
353.901	89.75
354.128	89.75
354.355	86.75
354.583	87.75
354.81	99.75
355.037	92.75
355.264	88.75
355.491	100.75
355.718	98.75
355.945	86.75
356.172	75.75
356.399	90.75
356.626	103.75
356.853	83.75
357.08	95.75
357.307	100.75
357.534	94.75
357.761	89.75
357.988	88.75
358.215	105.75
358.441	85.75
358.668	95.75
358.895	86.75
359.122	94.75
359.349	85.75
359.576	92.75
359.802	103.75
360.029	126.75
360.256	119.75
360.483	101.75
360.709	107.75
360.936	107.75
361.163	95.75
361.39	85.75
361.616	90.75
361.843	87.75
362.07	91.75
362.296	99.75
362.523	82.75
362.749	92.75
362.976	75.75
363.203	96.75
363.429	92.75
363.656	88.75
363.882	72.75
364.109	81.75
364.335	83.75
364.562	101.75
364.788	97.75
365.015	95.75
365.241	110.75
365.468	98.75
365.694	97.75
365.92	89.75
366.147	97.75
366.373	79.75
366.599	90.75
366.826	83.75
367.052	100.75
367.278	97.75
367.505	91.75
367.731	83.75
367.957	89.75
368.184	90.75
368.41	105.75
368.636	121.75
368.862	118.75
369.089	116.75
369.315	93.75
369.541	98.75
369.767	75.75
369.993	95.75
370.219	97.75
370.445	76.75
370.672	78.75
370.898	91.75
371.124	94.75
371.35	84.75
371.576	96.75
371.802	69.75
372.028	83.75
372.254	80.75
372.48	104.75
372.706	87.75
372.932	85.75
373.158	89.75
373.384	98.75
373.61	94.75
373.835	86.75
374.061	76.75
374.287	92.75
374.513	83.75
374.739	84.75
374.965	88.75
375.191	82.75
375.416	76.75
375.642	82.75
375.868	77.75
376.094	87.75
376.319	86.75
376.545	93.75
376.771	74.75
376.997	76.75
377.222	95.75
377.448	91.75
377.674	73.75
377.899	76.75
378.125	94.75
378.35	90.75
378.576	89.75
378.802	82.75
379.027	101.75
379.253	90.75
379.478	95.75
379.704	94.75
379.929	88.75
380.155	85.75
380.38	98.75
380.606	105.75
380.831	94.75
381.057	108.75
381.282	98.75
381.507	91.75
381.733	90.75
381.958	105.75
382.184	88.75
382.409	107.75
382.634	99.75
382.86	96.75
383.085	94.75
383.31	96.75
383.535	106.75
383.761	103.75
383.986	97.75
384.211	111.75
384.436	94.75
384.662	76.75
384.887	95.75
385.112	90.75
385.337	110.75
385.562	95.75
385.787	117.75
386.013	115.75
386.238	128.75
386.463	103.75
386.688	102.75
386.913	99.75
387.138	119.75
387.363	106.75
387.588	102.75
387.813	107.75
388.038	109.75
388.263	115.75
388.488	112.75
388.713	102.75
388.938	95.75
389.163	88.75
389.387	89.75
389.612	83.75
389.837	87.75
390.062	93.75
390.287	84.75
390.512	91.75
390.736	97.75
390.961	95.75
391.186	83.75
391.411	83.75
391.636	89.75
391.86	86.75
392.085	78.75
392.31	88.75
392.534	83.75
392.759	79.75
392.984	82.75
393.208	83.75
393.433	91.75
393.658	79.75
393.882	87.75
394.107	77.75
394.331	70.75
394.556	76.75
394.78	71.75
395.005	88.75
395.229	84.75
395.454	97.75
395.678	85.75
395.903	90.75
396.127	88.75
396.352	86.75
396.576	79.75
396.801	81.75
397.025	90.75
397.249	85.75
397.474	71.75
397.698	90.75
397.922	80.75
398.147	89.75
398.371	74.75
398.595	93.75
398.82	71.75
399.044	91.75
399.268	88.75
399.492	77.75
399.717	84.75
399.941	88.75
400.165	98.75
400.389	78.75
400.613	84.75
400.837	85.75
401.062	78.75
401.286	88.75
401.51	91.75
401.734	78.75
401.958	89.75
402.182	138.75
402.406	175.75
402.63	130.75
402.854	91.75
403.078	97.75
403.302	89.75
403.526	87.75
403.75	92.75
403.974	84.75
404.198	81.75
404.422	67.75
404.645	95.75
404.869	87.75
405.093	78.75
405.317	102.75
405.541	98.75
405.765	101.75
405.988	124.75
406.212	200.75
406.436	264.75
406.66	177.75
406.883	107.75
407.107	83.75
407.331	82.75
407.555	91.75
407.778	92.75
408.002	79.75
408.226	88.75
408.449	77.75
408.673	82.75
408.896	94.75
409.12	80.75
409.344	91.75
409.567	82.75
409.791	69.75
410.014	90.75
410.238	84.75
410.461	85.75
410.685	86.75
410.908	79.75
411.132	95.75
411.355	104.75
411.578	82.75
411.802	85.75
412.025	87.75
412.249	82.75
412.472	78.75
412.695	98.75
412.919	102.75
413.142	82.75
413.365	92.75
413.589	103.75
413.812	83.75
414.035	91.75
414.258	88.75
414.482	89.75
414.705	88.75
414.928	100.75
415.151	96.75
415.374	87.75
415.597	92.75
415.821	99.75
416.044	92.75
416.267	86.75
416.49	76.75
416.713	84.75
416.936	91.75
417.159	99.75
417.382	87.75
417.605	84.75
417.828	90.75
418.051	88.75
418.274	93.75
418.497	94.75
418.72	76.75
418.943	75.75
419.166	85.75
419.389	95.75
419.611	86.75
419.834	88.75
420.057	84.75
420.28	81.75
420.503	75.75
420.726	87.75
420.948	70.75
421.171	77.75
421.394	91.75
421.617	90.75
421.839	87.75
422.062	86.75
422.285	91.75
422.507	106.75
422.73	98.75
422.953	99.75
423.175	94.75
423.398	73.75
423.621	74.75
423.843	87.75
424.066	87.75
424.288	86.75
424.511	89.75
424.733	93.75
424.956	98.75
425.178	89.75
425.401	113.75
425.623	96.75
425.846	78.75
426.068	99.75
426.291	92.75
426.513	88.75
426.735	91.75
426.958	98.75
427.18	110.75
427.402	148.75
427.625	190.75
427.847	161.75
428.069	113.75
428.292	86.75
428.514	91.75
428.736	81.75
428.958	85.75
429.181	90.75
429.403	82.75
429.625	99.75
429.847	96.75
430.069	87.75
430.292	86.75
430.514	76.75
430.736	75.75
430.958	84.75
431.18	84.75
431.402	84.75
431.624	83.75
431.846	85.75
432.068	82.75
432.29	89.75
432.512	84.75
432.734	89.75
432.956	89.75
433.178	81.75
433.4	89.75
433.622	89.75
433.844	90.75
434.066	91.75
434.287	97.75
434.509	92.75
434.731	89.75
434.953	75.75
435.175	83.75
435.397	82.75
435.618	92.75
435.84	98.75
436.062	133.75
436.284	117.75
436.505	101.75
436.727	97.75
436.949	89.75
437.17	91.75
437.392	78.75
437.614	98.75
437.835	111.75
438.057	131.75
438.278	112.75
438.5	90.75
438.721	122.75
438.943	100.75
439.165	79.75
439.386	99.75
439.608	93.75
439.829	112.75
440.05	133.75
440.272	143.75
440.493	103.75
440.715	83.75
440.936	94.75
441.158	84.75
441.379	72.75
441.6	89.75
441.822	83.75
442.043	95.75
442.264	106.75
442.486	95.75
442.707	89.75
442.928	107.75
443.149	135.75
443.371	142.75
443.592	126.75
443.813	111.75
444.034	110.75
444.255	85.75
444.476	101.75
444.698	93.75
444.919	87.75
445.14	137.75
445.361	127.75
445.582	103.75
445.803	160.75
446.024	134.75
446.245	138.75
446.466	81.75
446.687	80.75
446.908	91.75
447.129	87.75
447.35	82.75
447.571	82.75
447.792	97.75
448.013	93.75
448.234	99.75
448.455	97.75
448.675	116.75
448.896	101.75
449.117	97.75
449.338	92.75
449.559	130.75
449.779	132.75
450	95.75
450.221	82.75
450.442	86.75
450.662	87.75
450.883	107.75
451.104	106.75
451.324	99.75
451.545	89.75
451.766	85.75
451.986	79.75
452.207	86.75
452.428	83.75
452.648	105.75
452.869	130.75
453.089	116.75
453.31	130.75
453.53	88.75
453.751	83.75
453.971	94.75
454.192	110.75
454.412	92.75
454.633	82.75
454.853	66.75
455.073	84.75
455.294	75.75
455.514	87.75
455.734	101.75
455.955	85.75
456.175	78.75
456.395	81.75
456.616	82.75
456.836	76.75
457.056	84.75
457.276	82.75
457.497	93.75
457.717	86.75
457.937	84.75
458.157	102.75
458.377	94.75
458.598	113.75
458.818	165.75
459.038	194.75
459.258	120.75
459.478	82.75
459.698	80.75
459.918	92.75
460.138	91.75
460.358	87.75
460.578	79.75
460.798	96.75
461.018	80.75
461.238	83.75
461.458	87.75
461.678	65.75
461.898	82.75
462.118	85.75
462.338	80.75
462.558	79.75
462.777	86.75
462.997	79.75
463.217	75.75
463.437	88.75
463.657	85.75
463.876	68.75
464.096	92.75
464.316	74.75
464.536	90.75
464.755	99.75
464.975	106.75
465.195	171.75
465.414	176.75
465.634	104.75
465.854	71.75
466.073	83.75
466.293	103.75
466.512	85.75
466.732	81.75
466.951	105.75
467.171	85.75
467.391	82.75
467.61	102.75
467.829	97.75
468.049	115.75
468.268	134.75
468.488	95.75
468.707	91.75
468.927	90.75
469.146	82.75
469.365	92.75
469.585	89.75
469.804	101.75
470.023	100.75
470.243	88.75
470.462	91.75
470.681	125.75
470.901	88.75
471.12	86.75
471.339	85.75
471.558	73.75
471.777	77.75
471.997	115.75
472.216	168.75
472.435	250.75
472.654	120.75
472.873	82.75
473.092	94.75
473.311	88.75
473.53	92.75
473.749	84.75
473.968	99.75
474.187	97.75
474.406	92.75
474.625	86.75
474.844	83.75
475.063	87.75
475.282	83.75
475.501	86.75
475.72	102.75
475.939	91.75
476.158	83.75
476.377	89.75
476.596	90.75
476.814	89.75
477.033	85.75
477.252	76.75
477.471	85.75
477.69	101.75
477.908	96.75
478.127	92.75
478.346	78.75
478.564	97.75
478.783	98.75
479.002	87.75
479.22	102.75
479.439	99.75
479.658	99.75
479.876	92.75
480.095	88.75
480.313	88.75
480.532	101.75
480.751	89.75
480.969	172.75
481.188	411.75
481.406	271.75
481.624	107.75
481.843	75.75
482.061	62.75
482.28	82.75
482.498	77.75
482.717	87.75
482.935	98.75
483.153	92.75
483.372	83.75
483.59	81.75
483.808	81.75
484.027	85.75
484.245	94.75
484.463	98.75
484.681	92.75
484.9	100.75
485.118	98.75
485.336	94.75
485.554	88.75
485.772	90.75
485.99	95.75
486.209	122.75
486.427	104.75
486.645	107.75
486.863	128.75
487.081	105.75
487.299	90.75
487.517	77.75
487.735	95.75
487.953	99.75
488.171	98.75
488.389	91.75
488.607	104.75
488.825	87.75
489.043	85.75
489.261	104.75
489.479	92.75
489.696	95.75
489.914	89.75
490.132	83.75
490.35	97.75
490.568	92.75
490.786	80.75
491.003	82.75
491.221	89.75
491.439	91.75
491.657	94.75
491.874	65.75
492.092	84.75
492.31	90.75
492.527	88.75
492.745	77.75
492.963	73.75
493.18	82.75
493.398	88.75
493.615	100.75
493.833	91.75
494.05	76.75
494.268	88.75
494.485	100.75
494.703	90.75
494.92	72.75
495.138	91.75
495.355	93.75
495.573	87.75
495.79	82.75
496.008	76.75
496.225	82.75
496.442	95.75
496.66	94.75
496.877	78.75
497.094	94.75
497.312	89.75
497.529	87.75
497.746	87.75
497.963	79.75
498.181	91.75
498.398	83.75
498.615	95.75
498.832	98.75
499.049	94.75
499.267	102.75
499.484	78.75
499.701	89.75
499.918	92.75
500.135	88.75
500.352	82.75
500.569	94.75
500.786	88.75
501.003	88.75
501.22	92.75
501.437	92.75
501.654	87.75
501.871	107.75
502.088	85.75
502.305	80.75
502.522	87.75
502.739	95.75
502.956	83.75
503.172	91.75
503.389	89.75
503.606	100.75
503.823	101.75
504.04	96.75
504.256	94.75
504.473	104.75
504.69	84.75
504.907	89.75
505.123	85.75
505.34	77.75
505.557	84.75
505.773	93.75
505.99	82.75
506.207	91.75
506.423	80.75
506.64	89.75
506.856	103.75
507.073	86.75
507.289	112.75
507.506	104.75
507.722	116.75
507.939	119.75
508.155	91.75
508.372	85.75
508.588	93.75
508.805	104.75
509.021	99.75
509.238	110.75
509.454	97.75
509.67	102.75
509.887	104.75
510.103	133.75
510.319	226.75
510.536	929.75
510.752	3237.75
510.968	898.75
511.184	188.75
511.401	99.75
511.617	97.75
511.833	100.75
512.049	92.75
512.265	92.75
512.481	73.75
512.698	94.75
512.914	96.75
513.13	90.75
513.346	84.75
513.562	95.75
513.778	100.75
513.994	101.75
514.21	103.75
514.426	128.75
514.642	138.75
514.858	132.75
515.074	200.75
515.29	617.75
515.506	2102.75
515.721	758.75
515.937	181.75
