Data from Circ_2016_H10_HRD10591_00014.txt Node
Date: Wed Jan 03 09:58:43 EST 2024
User: Yrep
Spectrometer: HR+D1059
Trigger mode: 1
Integration Time (sec): 1.000000E-1
Scans to average: 1
Electric dark correction enabled: true
Nonlinearity correction enabled: false
Boxcar width: 0
XAxis mode: Wavelengths
Number of Pixels in Spectrum: 2048
>>>>>Begin Spectral Data<<<<<
223.165	-16.25
223.4	-16.25
223.635	-16.25
223.869	-24.25
224.104	-19.25
224.338	-18.25
224.573	-3.25
224.808	-5.25
225.042	-3.25
225.277	-2.25
225.511	-4.25
225.746	14.75
225.98	0.75
226.215	-0.25
226.449	14.75
226.683	9.75
226.918	31.75
227.152	24.75
227.387	39.75
227.621	35.75
227.856	52.75
228.09	33.75
228.324	38.75
228.559	55.75
228.793	73.75
229.027	66.75
229.262	71.75
229.496	65.75
229.73	77.75
229.964	77.75
230.199	82.75
230.433	68.75
230.667	87.75
230.901	88.75
231.136	77.75
231.37	73.75
231.604	72.75
231.838	76.75
232.072	74.75
232.306	85.75
232.541	82.75
232.775	91.75
233.009	74.75
233.243	82.75
233.477	83.75
233.711	80.75
233.945	84.75
234.179	95.75
234.413	74.75
234.647	68.75
234.881	77.75
235.115	68.75
235.349	66.75
235.583	80.75
235.817	55.75
236.051	72.75
236.285	79.75
236.519	69.75
236.753	66.75
236.987	84.75
237.221	87.75
237.455	74.75
237.689	77.75
237.922	68.75
238.156	83.75
238.39	72.75
238.624	77.75
238.858	72.75
239.091	90.75
239.325	70.75
239.559	78.75
239.793	75.75
240.027	77.75
240.26	90.75
240.494	79.75
240.728	83.75
240.961	80.75
241.195	74.75
241.429	82.75
241.662	87.75
241.896	90.75
242.13	64.75
242.363	75.75
242.597	83.75
242.83	79.75
243.064	75.75
243.298	72.75
243.531	75.75
243.765	77.75
243.998	72.75
244.232	84.75
244.465	90.75
244.699	71.75
244.932	66.75
245.166	51.75
245.399	76.75
245.633	77.75
245.866	76.75
246.099	74.75
246.333	84.75
246.566	71.75
246.8	92.75
247.033	79.75
247.266	79.75
247.5	85.75
247.733	73.75
247.966	67.75
248.2	83.75
248.433	85.75
248.666	77.75
248.899	90.75
249.133	75.75
249.366	80.75
249.599	94.75
249.832	76.75
250.066	77.75
250.299	87.75
250.532	75.75
250.765	76.75
250.998	67.75
251.231	69.75
251.465	79.75
251.698	77.75
251.931	73.75
252.164	71.75
252.397	78.75
252.63	83.75
252.863	80.75
253.096	73.75
253.329	82.75
253.562	87.75
253.795	83.75
254.028	75.75
254.261	76.75
254.494	73.75
254.727	87.75
254.96	74.75
255.193	76.75
255.426	70.75
255.659	87.75
255.892	82.75
256.124	80.75
256.357	85.75
256.59	81.75
256.823	88.75
257.056	89.75
257.289	83.75
257.521	86.75
257.754	74.75
257.987	77.75
258.22	71.75
258.452	81.75
258.685	85.75
258.918	88.75
259.151	69.75
259.383	90.75
259.616	80.75
259.849	81.75
260.081	71.75
260.314	80.75
260.547	80.75
260.779	82.75
261.012	81.75
261.244	89.75
261.477	83.75
261.71	89.75
261.942	100.75
262.175	95.75
262.407	88.75
262.64	89.75
262.872	79.75
263.105	90.75
263.337	81.75
263.57	75.75
263.802	87.75
264.035	80.75
264.267	81.75
264.499	78.75
264.732	88.75
264.964	87.75
265.197	78.75
265.429	94.75
265.661	79.75
265.894	87.75
266.126	96.75
266.358	79.75
266.591	85.75
266.823	96.75
267.055	91.75
267.287	94.75
267.52	81.75
267.752	82.75
267.984	79.75
268.216	82.75
268.448	84.75
268.681	92.75
268.913	81.75
269.145	113.75
269.377	80.75
269.609	77.75
269.841	73.75
270.073	74.75
270.306	86.75
270.538	78.75
270.77	98.75
271.002	90.75
271.234	85.75
271.466	85.75
271.698	73.75
271.93	87.75
272.162	85.75
272.394	77.75
272.626	80.75
272.858	80.75
273.09	89.75
273.322	101.75
273.553	87.75
273.785	85.75
274.017	71.75
274.249	69.75
274.481	91.75
274.713	80.75
274.945	81.75
275.176	83.75
275.408	89.75
275.64	90.75
275.872	83.75
276.104	102.75
276.335	87.75
276.567	92.75
276.799	99.75
277.031	84.75
277.262	89.75
277.494	89.75
277.726	89.75
277.957	73.75
278.189	79.75
278.421	83.75
278.652	92.75
278.884	92.75
279.115	76.75
279.347	92.75
279.579	92.75
279.81	81.75
280.042	68.75
280.273	91.75
280.505	92.75
280.736	87.75
280.968	83.75
281.199	85.75
281.431	103.75
281.662	78.75
281.894	91.75
282.125	103.75
282.356	111.75
282.588	120.75
282.819	117.75
283.051	89.75
283.282	84.75
283.513	89.75
283.745	85.75
283.976	81.75
284.207	76.75
284.439	83.75
284.67	84.75
284.901	100.75
285.132	82.75
285.364	80.75
285.595	90.75
285.826	85.75
286.057	68.75
286.288	77.75
286.52	96.75
286.751	89.75
286.982	107.75
287.213	96.75
287.444	97.75
287.675	75.75
287.906	81.75
288.138	92.75
288.369	82.75
288.6	98.75
288.831	95.75
289.062	92.75
289.293	91.75
289.524	71.75
289.755	95.75
289.986	79.75
290.217	89.75
290.448	90.75
290.679	86.75
290.91	89.75
291.141	86.75
291.371	91.75
291.602	80.75
291.833	80.75
292.064	94.75
292.295	96.75
292.526	70.75
292.757	83.75
292.987	106.75
293.218	88.75
293.449	87.75
293.68	76.75
293.91	92.75
294.141	84.75
294.372	94.75
294.603	85.75
294.833	96.75
295.064	95.75
295.295	88.75
295.525	91.75
295.756	100.75
295.987	136.75
296.217	145.75
296.448	117.75
296.679	94.75
296.909	79.75
297.14	84.75
297.37	78.75
297.601	90.75
297.831	69.75
298.062	87.75
298.292	90.75
298.523	85.75
298.753	82.75
298.984	99.75
299.214	67.75
299.445	86.75
299.675	92.75
299.905	87.75
300.136	96.75
300.366	93.75
300.597	81.75
300.827	94.75
301.057	100.75
301.288	97.75
301.518	80.75
301.748	83.75
301.979	102.75
302.209	97.75
302.439	71.75
302.669	99.75
302.9	84.75
303.13	88.75
303.36	94.75
303.59	89.75
303.82	105.75
304.051	94.75
304.281	96.75
304.511	95.75
304.741	92.75
304.971	86.75
305.201	97.75
305.431	88.75
305.661	87.75
305.891	84.75
306.121	105.75
306.352	100.75
306.582	106.75
306.812	91.75
307.042	88.75
307.272	76.75
307.502	90.75
307.731	87.75
307.961	84.75
308.191	89.75
308.421	97.75
308.651	87.75
308.881	93.75
309.111	92.75
309.341	105.75
309.571	100.75
309.8	96.75
310.03	88.75
310.26	98.75
310.49	81.75
310.72	101.75
310.949	100.75
311.179	100.75
311.409	89.75
311.639	87.75
311.868	98.75
312.098	86.75
312.328	92.75
312.557	105.75
312.787	114.75
313.017	106.75
313.246	99.75
313.476	98.75
313.706	89.75
313.935	92.75
314.165	96.75
314.394	92.75
314.624	93.75
314.853	105.75
315.083	86.75
315.312	80.75
315.542	76.75
315.771	100.75
316.001	89.75
316.23	81.75
316.46	82.75
316.689	87.75
316.919	96.75
317.148	93.75
317.377	92.75
317.607	84.75
317.836	88.75
318.065	88.75
318.295	90.75
318.524	95.75
318.753	107.75
318.983	90.75
319.212	91.75
319.441	112.75
319.67	98.75
319.9	103.75
320.129	81.75
320.358	95.75
320.587	90.75
320.816	92.75
321.046	112.75
321.275	98.75
321.504	78.75
321.733	87.75
321.962	91.75
322.191	97.75
322.42	103.75
322.649	111.75
322.878	105.75
323.108	115.75
323.337	119.75
323.566	122.75
323.795	157.75
324.024	198.75
324.253	397.75
324.482	857.75
324.71	1731.75
324.939	2284.75
325.168	863.75
325.397	246.75
325.626	152.75
325.855	119.75
326.084	135.75
326.313	144.75
326.542	152.75
326.77	234.75
326.999	493.75
327.228	999.75
327.457	1787.75
327.686	1451.75
327.914	362.75
328.143	189.75
328.372	145.75
328.6	133.75
328.829	103.75
329.058	120.75
329.287	114.75
329.515	108.75
329.744	105.75
329.972	93.75
330.201	97.75
330.43	98.75
330.658	124.75
330.887	140.75
331.115	122.75
331.344	97.75
331.572	106.75
331.801	92.75
332.03	107.75
332.258	98.75
332.486	84.75
332.715	93.75
332.943	83.75
333.172	81.75
333.4	95.75
333.629	92.75
333.857	92.75
334.085	102.75
334.314	89.75
334.542	106.75
334.771	104.75
334.999	104.75
335.227	107.75
335.455	98.75
335.684	92.75
335.912	97.75
336.14	101.75
336.369	106.75
336.597	95.75
336.825	105.75
337.053	109.75
337.281	93.75
337.51	92.75
337.738	104.75
337.966	84.75
338.194	91.75
338.422	100.75
338.65	88.75
338.878	89.75
339.106	91.75
339.334	98.75
339.562	101.75
339.79	91.75
340.018	89.75
340.246	97.75
340.474	102.75
340.702	94.75
340.93	94.75
341.158	86.75
341.386	94.75
341.614	84.75
341.842	105.75
342.07	97.75
342.298	98.75
342.526	87.75
342.754	95.75
342.981	88.75
343.209	87.75
343.437	100.75
343.665	82.75
343.893	109.75
344.12	96.75
344.348	93.75
344.576	105.75
344.804	104.75
345.031	93.75
345.259	99.75
345.487	95.75
345.714	101.75
345.942	89.75
346.17	102.75
346.397	83.75
346.625	100.75
346.853	91.75
347.08	87.75
347.308	97.75
347.535	91.75
347.763	92.75
347.99	87.75
348.218	107.75
348.445	105.75
348.673	98.75
348.9	91.75
349.128	84.75
349.355	93.75
349.583	76.75
349.81	85.75
350.037	84.75
350.265	88.75
350.492	91.75
350.72	99.75
350.947	93.75
351.174	116.75
351.402	92.75
351.629	83.75
351.856	115.75
352.083	104.75
352.311	100.75
352.538	109.75
352.765	95.75
352.992	114.75
353.22	109.75
353.447	99.75
353.674	120.75
353.901	89.75
354.128	102.75
354.355	116.75
354.583	100.75
354.81	105.75
355.037	110.75
355.264	95.75
355.491	96.75
355.718	92.75
355.945	112.75
356.172	117.75
356.399	103.75
356.626	102.75
356.853	105.75
357.08	106.75
357.307	94.75
357.534	102.75
357.761	86.75
357.988	107.75
358.215	104.75
358.441	128.75
358.668	118.75
358.895	100.75
359.122	108.75
359.349	92.75
359.576	82.75
359.802	98.75
360.029	120.75
360.256	105.75
360.483	89.75
360.709	91.75
360.936	99.75
361.163	103.75
361.39	88.75
361.616	92.75
361.843	79.75
362.07	82.75
362.296	89.75
362.523	81.75
362.749	84.75
362.976	92.75
363.203	97.75
363.429	96.75
363.656	88.75
363.882	92.75
364.109	95.75
364.335	97.75
364.562	90.75
364.788	94.75
365.015	88.75
365.241	80.75
365.468	91.75
365.694	96.75
365.92	86.75
366.147	87.75
366.373	87.75
366.599	94.75
366.826	93.75
367.052	78.75
367.278	87.75
367.505	103.75
367.731	96.75
367.957	90.75
368.184	93.75
368.41	97.75
368.636	104.75
368.862	106.75
369.089	101.75
369.315	103.75
369.541	96.75
369.767	100.75
369.993	87.75
370.219	89.75
370.445	91.75
370.672	97.75
370.898	84.75
371.124	95.75
371.35	81.75
371.576	100.75
371.802	84.75
372.028	93.75
372.254	83.75
372.48	73.75
372.706	93.75
372.932	89.75
373.158	87.75
373.384	99.75
373.61	104.75
373.835	100.75
374.061	101.75
374.287	85.75
374.513	89.75
374.739	93.75
374.965	98.75
375.191	88.75
375.416	104.75
375.642	100.75
375.868	96.75
376.094	93.75
376.319	101.75
376.545	93.75
376.771	102.75
376.997	101.75
377.222	105.75
377.448	102.75
377.674	100.75
377.899	84.75
378.125	98.75
378.35	104.75
378.576	93.75
378.802	107.75
379.027	104.75
379.253	97.75
379.478	111.75
379.704	105.75
379.929	102.75
380.155	103.75
380.38	112.75
380.606	111.75
380.831	111.75
381.057	120.75
381.282	115.75
381.507	116.75
381.733	114.75
381.958	113.75
382.184	119.75
382.409	128.75
382.634	116.75
382.86	134.75
383.085	132.75
383.31	140.75
383.535	131.75
383.761	120.75
383.986	117.75
384.211	122.75
384.436	133.75
384.662	141.75
384.887	163.75
385.112	152.75
385.337	157.75
385.562	156.75
385.787	150.75
386.013	178.75
386.238	155.75
386.463	153.75
386.688	169.75
386.913	153.75
387.138	156.75
387.363	156.75
387.588	117.75
387.813	138.75
388.038	154.75
388.263	195.75
388.488	170.75
388.713	129.75
388.938	96.75
389.163	104.75
389.387	104.75
389.612	104.75
389.837	104.75
390.062	99.75
390.287	99.75
390.512	95.75
390.736	95.75
390.961	92.75
391.186	88.75
391.411	90.75
391.636	84.75
391.86	96.75
392.085	84.75
392.31	91.75
392.534	89.75
392.759	86.75
392.984	105.75
393.208	103.75
393.433	155.75
393.658	117.75
393.882	87.75
394.107	94.75
394.331	80.75
394.556	95.75
394.78	104.75
395.005	92.75
395.229	86.75
395.454	85.75
395.678	83.75
395.903	89.75
396.127	83.75
396.352	95.75
396.576	84.75
396.801	104.75
397.025	109.75
397.249	77.75
397.474	91.75
397.698	89.75
397.922	88.75
398.147	92.75
398.371	89.75
398.595	77.75
398.82	92.75
399.044	68.75
399.268	90.75
399.492	94.75
399.717	81.75
399.941	88.75
400.165	104.75
400.389	93.75
400.613	97.75
400.837	81.75
401.062	82.75
401.286	88.75
401.51	93.75
401.734	96.75
401.958	95.75
402.182	120.75
402.406	152.75
402.63	127.75
402.854	92.75
403.078	91.75
403.302	94.75
403.526	83.75
403.75	92.75
403.974	84.75
404.198	95.75
404.422	83.75
404.645	85.75
404.869	89.75
405.093	85.75
405.317	78.75
405.541	94.75
405.765	88.75
405.988	120.75
406.212	154.75
406.436	220.75
406.66	131.75
406.883	96.75
407.107	80.75
407.331	93.75
407.555	110.75
407.778	100.75
408.002	114.75
408.226	99.75
408.449	94.75
408.673	99.75
408.896	88.75
409.12	103.75
409.344	90.75
409.567	90.75
409.791	101.75
410.014	100.75
410.238	90.75
410.461	92.75
410.685	100.75
410.908	99.75
411.132	105.75
411.355	102.75
411.578	101.75
411.802	94.75
412.025	97.75
412.249	74.75
412.472	102.75
412.695	111.75
412.919	83.75
413.142	87.75
413.365	98.75
413.589	97.75
413.812	87.75
414.035	87.75
414.258	90.75
414.482	92.75
414.705	92.75
414.928	95.75
415.151	112.75
415.374	101.75
415.597	89.75
415.821	100.75
416.044	84.75
416.267	88.75
416.49	103.75
416.713	105.75
416.936	101.75
417.159	87.75
417.382	75.75
417.605	106.75
417.828	97.75
418.051	92.75
418.274	102.75
418.497	75.75
418.72	86.75
418.943	97.75
419.166	88.75
419.389	87.75
419.611	115.75
419.834	88.75
420.057	87.75
420.28	96.75
420.503	95.75
420.726	80.75
420.948	99.75
421.171	96.75
421.394	95.75
421.617	89.75
421.839	98.75
422.062	84.75
422.285	98.75
422.507	101.75
422.73	124.75
422.953	111.75
423.175	95.75
423.398	104.75
423.621	81.75
423.843	93.75
424.066	87.75
424.288	85.75
424.511	75.75
424.733	100.75
424.956	95.75
425.178	108.75
425.401	100.75
425.623	100.75
425.846	85.75
426.068	97.75
426.291	77.75
426.513	108.75
426.735	84.75
426.958	97.75
427.18	115.75
427.402	131.75
427.625	137.75
427.847	127.75
428.069	112.75
428.292	89.75
428.514	99.75
428.736	79.75
428.958	104.75
429.181	95.75
429.403	72.75
429.625	87.75
429.847	79.75
430.069	87.75
430.292	101.75
430.514	82.75
430.736	74.75
430.958	75.75
431.18	77.75
431.402	94.75
431.624	76.75
431.846	86.75
432.068	87.75
432.29	95.75
432.512	96.75
432.734	98.75
432.956	85.75
433.178	106.75
433.4	106.75
433.622	81.75
433.844	98.75
434.066	101.75
434.287	113.75
434.509	100.75
434.731	79.75
434.953	75.75
435.175	91.75
435.397	76.75
435.618	102.75
435.84	98.75
436.062	131.75
436.284	124.75
436.505	103.75
436.727	101.75
436.949	90.75
437.17	81.75
437.392	98.75
437.614	81.75
437.835	94.75
438.057	108.75
438.278	110.75
438.5	104.75
438.721	121.75
438.943	107.75
439.165	89.75
439.386	100.75
439.608	84.75
439.829	89.75
440.05	120.75
440.272	131.75
440.493	100.75
440.715	91.75
440.936	84.75
441.158	75.75
441.379	79.75
441.6	87.75
441.822	80.75
442.043	90.75
442.264	95.75
442.486	97.75
442.707	98.75
442.928	96.75
443.149	129.75
443.371	137.75
443.592	109.75
443.813	102.75
444.034	91.75
444.255	89.75
444.476	81.75
444.698	83.75
444.919	94.75
445.14	121.75
445.361	138.75
445.582	123.75
445.803	132.75
446.024	129.75
446.245	133.75
446.466	111.75
446.687	89.75
446.908	81.75
447.129	83.75
447.35	72.75
447.571	92.75
447.792	81.75
448.013	104.75
448.234	100.75
448.455	109.75
448.675	117.75
448.896	104.75
449.117	80.75
449.338	82.75
449.559	116.75
449.779	128.75
450	107.75
450.221	96.75
450.442	95.75
450.662	93.75
450.883	92.75
451.104	100.75
451.324	94.75
451.545	79.75
451.766	90.75
451.986	89.75
452.207	89.75
452.428	100.75
452.648	97.75
452.869	95.75
453.089	109.75
453.31	119.75
453.53	79.75
453.751	92.75
453.971	100.75
454.192	97.75
454.412	93.75
454.633	75.75
454.853	91.75
455.073	100.75
455.294	92.75
455.514	88.75
455.734	88.75
455.955	83.75
456.175	83.75
456.395	87.75
456.616	83.75
456.836	97.75
457.056	77.75
457.276	74.75
457.497	96.75
457.717	85.75
457.937	99.75
458.157	82.75
458.377	76.75
458.598	115.75
458.818	131.75
459.038	147.75
459.258	125.75
459.478	92.75
459.698	89.75
459.918	89.75
460.138	66.75
460.358	73.75
460.578	71.75
460.798	82.75
461.018	86.75
461.238	82.75
461.458	95.75
461.678	78.75
461.898	87.75
462.118	74.75
462.338	92.75
462.558	95.75
462.777	97.75
462.997	83.75
463.217	84.75
463.437	89.75
463.657	82.75
463.876	99.75
464.096	82.75
464.316	98.75
464.536	116.75
464.755	80.75
464.975	104.75
465.195	166.75
465.414	151.75
465.634	84.75
465.854	89.75
466.073	76.75
466.293	83.75
466.512	84.75
466.732	91.75
466.951	83.75
467.171	86.75
467.391	87.75
467.61	97.75
467.829	97.75
468.049	95.75
468.268	87.75
468.488	81.75
468.707	74.75
468.927	85.75
469.146	76.75
469.365	76.75
469.585	82.75
469.804	80.75
470.023	84.75
470.243	81.75
470.462	95.75
470.681	105.75
470.901	89.75
471.12	84.75
471.339	92.75
471.558	87.75
471.777	94.75
471.997	88.75
472.216	103.75
472.435	90.75
472.654	81.75
472.873	96.75
473.092	82.75
473.311	88.75
473.53	88.75
473.749	78.75
473.968	102.75
474.187	111.75
474.406	98.75
474.625	79.75
474.844	89.75
475.063	71.75
475.282	82.75
475.501	92.75
475.72	100.75
475.939	86.75
476.158	94.75
476.377	90.75
476.596	88.75
476.814	104.75
477.033	89.75
477.252	82.75
477.471	82.75
477.69	90.75
477.908	80.75
478.127	94.75
478.346	92.75
478.564	92.75
478.783	80.75
479.002	87.75
479.22	78.75
479.439	93.75
479.658	97.75
479.876	84.75
480.095	90.75
480.313	80.75
480.532	68.75
480.751	79.75
480.969	87.75
481.188	98.75
481.406	96.75
481.624	88.75
481.843	82.75
482.061	107.75
482.28	95.75
482.498	104.75
482.717	81.75
482.935	79.75
483.153	95.75
483.372	97.75
483.59	92.75
483.808	104.75
484.027	80.75
484.245	95.75
484.463	84.75
484.681	86.75
484.9	92.75
485.118	92.75
485.336	107.75
485.554	114.75
485.772	113.75
485.99	106.75
486.209	108.75
486.427	115.75
486.645	121.75
486.863	101.75
487.081	115.75
487.299	101.75
487.517	82.75
487.735	94.75
487.953	104.75
488.171	104.75
488.389	104.75
488.607	104.75
488.825	86.75
489.043	92.75
489.261	83.75
489.479	106.75
489.696	97.75
489.914	105.75
490.132	89.75
490.35	95.75
490.568	81.75
490.786	92.75
491.003	88.75
491.221	99.75
491.439	75.75
491.657	93.75
491.874	87.75
492.092	85.75
492.31	101.75
492.527	82.75
492.745	84.75
492.963	95.75
493.18	85.75
493.398	85.75
493.615	96.75
493.833	76.75
494.05	94.75
494.268	95.75
494.485	98.75
494.703	115.75
494.92	92.75
495.138	92.75
495.355	94.75
495.573	91.75
495.79	83.75
496.008	95.75
496.225	97.75
496.442	95.75
496.66	96.75
496.877	90.75
497.094	103.75
497.312	83.75
497.529	93.75
497.746	81.75
497.963	99.75
498.181	90.75
498.398	90.75
498.615	111.75
498.832	95.75
499.049	90.75
499.267	77.75
499.484	77.75
499.701	97.75
499.918	102.75
500.135	83.75
500.352	85.75
500.569	101.75
500.786	90.75
501.003	85.75
501.22	88.75
501.437	107.75
501.654	85.75
501.871	97.75
502.088	106.75
502.305	97.75
502.522	92.75
502.739	90.75
502.956	93.75
503.172	84.75
503.389	95.75
503.606	116.75
503.823	99.75
504.04	99.75
504.256	89.75
504.473	90.75
504.69	96.75
504.907	100.75
505.123	92.75
505.34	89.75
505.557	80.75
505.773	90.75
505.99	78.75
506.207	100.75
506.423	93.75
506.64	86.75
506.856	84.75
507.073	93.75
507.289	90.75
507.506	104.75
507.722	95.75
507.939	102.75
508.155	95.75
508.372	90.75
508.588	103.75
508.805	86.75
509.021	97.75
509.238	99.75
509.454	99.75
509.67	94.75
509.887	105.75
510.103	143.75
510.319	208.75
510.536	708.75
510.752	2421.75
510.968	711.75
511.184	159.75
511.401	127.75
511.617	104.75
511.833	88.75
512.049	103.75
512.265	83.75
512.481	81.75
512.698	90.75
512.914	100.75
513.13	93.75
513.346	97.75
513.562	85.75
513.778	93.75
513.994	96.75
514.21	85.75
514.426	102.75
514.642	113.75
514.858	108.75
515.074	168.75
