Data from Circ_2016_H10_HRD10591_00096.txt Node
Date: Wed Jan 03 09:58:59 EST 2024
User: Yrep
Spectrometer: HR+D1059
Trigger mode: 1
Integration Time (sec): 1.000000E-1
Scans to average: 1
Electric dark correction enabled: true
Nonlinearity correction enabled: false
Boxcar width: 0
XAxis mode: Wavelengths
Number of Pixels in Spectrum: 2048
>>>>>Begin Spectral Data<<<<<
223.165	-22.38
223.4	-22.38
223.635	-22.38
223.869	-16.38
224.104	-19.38
224.338	-10.38
224.573	-18.38
224.808	-24.38
225.042	-18.38
225.277	-6.38
225.511	-3.38
225.746	-1.38
225.98	23.62
226.215	16.62
226.449	20.62
226.683	23.62
226.918	31.62
227.152	24.62
227.387	43.62
227.621	47.62
227.856	41.62
228.09	64.62
228.324	50.62
228.559	41.62
228.793	59.62
229.027	52.62
229.262	66.62
229.496	69.62
229.73	78.62
229.964	88.62
230.199	72.62
230.433	68.62
230.667	78.62
230.901	58.62
231.136	82.62
231.37	76.62
231.604	85.62
231.838	84.62
232.072	73.62
232.306	76.62
232.541	75.62
232.775	73.62
233.009	75.62
233.243	84.62
233.477	88.62
233.711	92.62
233.945	81.62
234.179	81.62
234.413	89.62
234.647	76.62
234.881	67.62
235.115	89.62
235.349	82.62
235.583	74.62
235.817	96.62
236.051	80.62
236.285	72.62
236.519	83.62
236.753	72.62
236.987	81.62
237.221	78.62
237.455	76.62
237.689	71.62
237.922	76.62
238.156	74.62
238.39	75.62
238.624	75.62
238.858	69.62
239.091	84.62
239.325	71.62
239.559	86.62
239.793	67.62
240.027	92.62
240.26	89.62
240.494	77.62
240.728	73.62
240.961	82.62
241.195	83.62
241.429	73.62
241.662	78.62
241.896	76.62
242.13	74.62
242.363	85.62
242.597	82.62
242.83	81.62
243.064	90.62
243.298	80.62
243.531	67.62
243.765	71.62
243.998	65.62
244.232	80.62
244.465	83.62
244.699	94.62
244.932	68.62
245.166	80.62
245.399	71.62
245.633	82.62
245.866	76.62
246.099	72.62
246.333	66.62
246.566	77.62
246.8	90.62
247.033	62.62
247.266	74.62
247.5	81.62
247.733	80.62
247.966	88.62
248.2	72.62
248.433	80.62
248.666	92.62
248.899	72.62
249.133	80.62
249.366	89.62
249.599	102.62
249.832	74.62
250.066	78.62
250.299	72.62
250.532	72.62
250.765	64.62
250.998	77.62
251.231	81.62
251.465	63.62
251.698	80.62
251.931	80.62
252.164	81.62
252.397	76.62
252.63	91.62
252.863	88.62
253.096	71.62
253.329	95.62
253.562	71.62
253.795	76.62
254.028	89.62
254.261	83.62
254.494	83.62
254.727	82.62
254.96	80.62
255.193	83.62
255.426	77.62
255.659	68.62
255.892	79.62
256.124	80.62
256.357	76.62
256.59	86.62
256.823	84.62
257.056	81.62
257.289	67.62
257.521	79.62
257.754	75.62
257.987	71.62
258.22	66.62
258.452	75.62
258.685	75.62
258.918	81.62
259.151	92.62
259.383	75.62
259.616	90.62
259.849	79.62
260.081	71.62
260.314	78.62
260.547	86.62
260.779	91.62
261.012	93.62
261.244	84.62
261.477	89.62
261.71	83.62
261.942	112.62
262.175	99.62
262.407	100.62
262.64	77.62
262.872	91.62
263.105	81.62
263.337	82.62
263.57	77.62
263.802	88.62
264.035	75.62
264.267	88.62
264.499	93.62
264.732	84.62
264.964	75.62
265.197	84.62
265.429	76.62
265.661	89.62
265.894	78.62
266.126	77.62
266.358	88.62
266.591	81.62
266.823	75.62
267.055	95.62
267.287	68.62
267.52	94.62
267.752	75.62
267.984	83.62
268.216	73.62
268.448	79.62
268.681	85.62
268.913	85.62
269.145	73.62
269.377	84.62
269.609	79.62
269.841	78.62
270.073	73.62
270.306	85.62
270.538	89.62
270.77	91.62
271.002	85.62
271.234	95.62
271.466	89.62
271.698	80.62
271.93	73.62
272.162	88.62
272.394	81.62
272.626	83.62
272.858	101.62
273.09	72.62
273.322	84.62
273.553	82.62
273.785	88.62
274.017	73.62
274.249	75.62
274.481	79.62
274.713	90.62
274.945	93.62
275.176	81.62
275.408	96.62
275.64	74.62
275.872	83.62
276.104	83.62
276.335	87.62
276.567	87.62
276.799	93.62
277.031	107.62
277.262	89.62
277.494	95.62
277.726	81.62
277.957	89.62
278.189	68.62
278.421	74.62
278.652	86.62
278.884	73.62
279.115	75.62
279.347	71.62
279.579	91.62
279.81	81.62
280.042	75.62
280.273	90.62
280.505	97.62
280.736	77.62
280.968	85.62
281.199	93.62
281.431	104.62
281.662	75.62
281.894	99.62
282.125	91.62
282.356	112.62
282.588	131.62
282.819	106.62
283.051	90.62
283.282	75.62
283.513	83.62
283.745	85.62
283.976	78.62
284.207	92.62
284.439	91.62
284.67	97.62
284.901	80.62
285.132	85.62
285.364	84.62
285.595	91.62
285.826	81.62
286.057	79.62
286.288	71.62
286.52	89.62
286.751	93.62
286.982	94.62
287.213	93.62
287.444	82.62
287.675	100.62
287.906	92.62
288.138	76.62
288.369	93.62
288.6	101.62
288.831	66.62
289.062	90.62
289.293	79.62
289.524	89.62
289.755	89.62
289.986	86.62
290.217	98.62
290.448	86.62
290.679	85.62
290.91	79.62
291.141	74.62
291.371	76.62
291.602	80.62
291.833	82.62
292.064	77.62
292.295	79.62
292.526	93.62
292.757	85.62
292.987	84.62
293.218	79.62
293.449	81.62
293.68	94.62
293.91	77.62
294.141	90.62
294.372	93.62
294.603	96.62
294.833	77.62
295.064	87.62
295.295	93.62
295.525	101.62
295.756	96.62
295.987	111.62
296.217	133.62
296.448	117.62
296.679	83.62
296.909	92.62
297.14	76.62
297.37	85.62
297.601	81.62
297.831	92.62
298.062	85.62
298.292	92.62
298.523	94.62
298.753	79.62
298.984	83.62
299.214	91.62
299.445	85.62
299.675	88.62
299.905	93.62
300.136	79.62
300.366	81.62
300.597	89.62
300.827	98.62
301.057	96.62
301.288	117.62
301.518	99.62
301.748	83.62
301.979	98.62
302.209	87.62
302.439	94.62
302.669	104.62
302.9	84.62
303.13	84.62
303.36	90.62
303.59	99.62
303.82	96.62
304.051	88.62
304.281	87.62
304.511	97.62
304.741	98.62
304.971	96.62
305.201	80.62
305.431	89.62
305.661	73.62
305.891	89.62
306.121	81.62
306.352	100.62
306.582	96.62
306.812	95.62
307.042	79.62
307.272	80.62
307.502	111.62
307.731	93.62
307.961	94.62
308.191	90.62
308.421	111.62
308.651	94.62
308.881	91.62
309.111	83.62
309.341	92.62
309.571	111.62
309.8	104.62
310.03	102.62
310.26	82.62
310.49	102.62
310.72	93.62
310.949	102.62
311.179	92.62
311.409	88.62
311.639	84.62
311.868	85.62
312.098	78.62
312.328	86.62
312.557	106.62
312.787	106.62
313.017	97.62
313.246	102.62
313.476	86.62
313.706	88.62
313.935	97.62
314.165	113.62
314.394	97.62
314.624	98.62
314.853	96.62
315.083	88.62
315.312	87.62
315.542	97.62
315.771	87.62
316.001	95.62
316.23	90.62
316.46	90.62
316.689	90.62
316.919	84.62
317.148	96.62
317.377	100.62
317.607	87.62
317.836	72.62
318.065	85.62
318.295	92.62
318.524	93.62
318.753	76.62
318.983	105.62
319.212	100.62
319.441	89.62
319.67	105.62
319.9	92.62
320.129	82.62
320.358	89.62
320.587	83.62
320.816	101.62
321.046	98.62
321.275	95.62
321.504	92.62
321.733	111.62
321.962	96.62
322.191	106.62
322.42	104.62
322.649	106.62
322.878	96.62
323.108	111.62
323.337	123.62
323.566	125.62
323.795	169.62
324.024	206.62
324.253	402.62
324.482	900.62
324.71	1871.62
324.939	2390.62
325.168	886.62
325.397	253.62
325.626	153.62
325.855	131.62
326.084	122.62
326.313	146.62
326.542	160.62
326.77	248.62
326.999	498.62
327.228	1008.62
327.457	1879.62
327.686	1441.62
327.914	409.62
328.143	196.62
328.372	176.62
328.6	157.62
328.829	113.62
329.058	116.62
329.287	131.62
329.515	119.62
329.744	114.62
329.972	116.62
330.201	161.62
330.43	160.62
330.658	148.62
330.887	140.62
331.115	100.62
331.344	102.62
331.572	97.62
331.801	97.62
332.03	98.62
332.258	105.62
332.486	89.62
332.715	102.62
332.943	84.62
333.172	86.62
333.4	104.62
333.629	124.62
333.857	98.62
334.085	124.62
334.314	148.62
334.542	213.62
334.771	207.62
334.999	113.62
335.227	74.62
335.455	88.62
335.684	93.62
335.912	112.62
336.14	87.62
336.369	94.62
336.597	87.62
336.825	98.62
337.053	87.62
337.281	90.62
337.51	89.62
337.738	91.62
337.966	93.62
338.194	98.62
338.422	87.62
338.65	90.62
338.878	104.62
339.106	92.62
339.334	89.62
339.562	79.62
339.79	113.62
340.018	92.62
340.246	94.62
340.474	84.62
340.702	79.62
340.93	83.62
341.158	99.62
341.386	102.62
341.614	111.62
341.842	84.62
342.07	86.62
342.298	80.62
342.526	88.62
342.754	90.62
342.981	93.62
343.209	92.62
343.437	102.62
343.665	95.62
343.893	85.62
344.12	82.62
344.348	79.62
344.576	98.62
344.804	98.62
345.031	90.62
345.259	102.62
345.487	100.62
345.714	97.62
345.942	83.62
346.17	98.62
346.397	107.62
346.625	97.62
346.853	101.62
347.08	82.62
347.308	87.62
347.535	115.62
347.763	111.62
347.99	102.62
348.218	89.62
348.445	114.62
348.673	102.62
348.9	96.62
349.128	96.62
349.355	104.62
349.583	97.62
349.81	99.62
350.037	96.62
350.265	90.62
350.492	96.62
350.72	103.62
350.947	81.62
351.174	99.62
351.402	103.62
351.629	96.62
351.856	91.62
352.083	96.62
352.311	92.62
352.538	103.62
352.765	105.62
352.992	113.62
353.22	106.62
353.447	99.62
353.674	102.62
353.901	90.62
354.128	92.62
354.355	94.62
354.583	98.62
354.81	100.62
355.037	105.62
355.264	96.62
355.491	86.62
355.718	95.62
355.945	105.62
356.172	91.62
356.399	92.62
356.626	91.62
356.853	106.62
357.08	90.62
357.307	98.62
357.534	80.62
357.761	75.62
357.988	90.62
358.215	91.62
358.441	93.62
358.668	95.62
358.895	84.62
359.122	82.62
359.349	89.62
359.576	84.62
359.802	90.62
360.029	108.62
360.256	96.62
360.483	100.62
360.709	84.62
360.936	96.62
361.163	87.62
361.39	91.62
361.616	90.62
361.843	79.62
362.07	81.62
362.296	90.62
362.523	94.62
362.749	103.62
362.976	107.62
363.203	93.62
363.429	75.62
363.656	84.62
363.882	90.62
364.109	99.62
364.335	93.62
364.562	96.62
364.788	90.62
365.015	85.62
365.241	89.62
365.468	104.62
365.694	109.62
365.92	110.62
366.147	104.62
366.373	85.62
366.599	100.62
366.826	85.62
367.052	75.62
367.278	82.62
367.505	80.62
367.731	78.62
367.957	94.62
368.184	95.62
368.41	103.62
368.636	98.62
368.862	115.62
369.089	108.62
369.315	96.62
369.541	88.62
369.767	73.62
369.993	77.62
370.219	80.62
370.445	92.62
370.672	74.62
370.898	93.62
371.124	96.62
371.35	99.62
371.576	82.62
371.802	72.62
372.028	100.62
372.254	95.62
372.48	94.62
372.706	90.62
372.932	110.62
373.158	92.62
373.384	91.62
373.61	91.62
373.835	76.62
374.061	77.62
374.287	91.62
374.513	87.62
374.739	93.62
374.965	105.62
375.191	76.62
375.416	97.62
375.642	87.62
375.868	91.62
376.094	102.62
376.319	97.62
376.545	92.62
376.771	90.62
376.997	79.62
377.222	84.62
377.448	92.62
377.674	87.62
377.899	84.62
378.125	87.62
378.35	108.62
378.576	101.62
378.802	89.62
379.027	82.62
379.253	82.62
379.478	79.62
379.704	75.62
379.929	79.62
380.155	100.62
380.38	91.62
380.606	95.62
380.831	76.62
381.057	102.62
381.282	84.62
381.507	88.62
381.733	88.62
381.958	98.62
382.184	92.62
382.409	88.62
382.634	121.62
382.86	90.62
383.085	107.62
383.31	116.62
383.535	100.62
383.761	102.62
383.986	98.62
384.211	89.62
384.436	98.62
384.662	105.62
384.887	115.62
385.112	113.62
385.337	121.62
385.562	101.62
385.787	96.62
386.013	115.62
386.238	116.62
386.463	99.62
386.688	98.62
386.913	111.62
387.138	109.62
387.363	106.62
387.588	100.62
387.813	99.62
388.038	83.62
388.263	124.62
388.488	119.62
388.713	93.62
388.938	106.62
389.163	96.62
389.387	99.62
389.612	101.62
389.837	101.62
390.062	79.62
390.287	98.62
390.512	100.62
390.736	86.62
390.961	101.62
391.186	99.62
391.411	89.62
391.636	87.62
391.86	79.62
392.085	81.62
392.31	77.62
392.534	86.62
392.759	96.62
392.984	91.62
393.208	81.62
393.433	89.62
393.658	99.62
393.882	82.62
394.107	77.62
394.331	81.62
394.556	64.62
394.78	86.62
395.005	89.62
395.229	98.62
395.454	90.62
395.678	84.62
395.903	80.62
396.127	92.62
396.352	93.62
396.576	91.62
396.801	79.62
397.025	88.62
397.249	83.62
397.474	90.62
397.698	91.62
397.922	87.62
398.147	76.62
398.371	89.62
398.595	92.62
398.82	88.62
399.044	83.62
399.268	87.62
399.492	87.62
399.717	82.62
399.941	98.62
400.165	93.62
400.389	113.62
400.613	84.62
400.837	77.62
401.062	86.62
401.286	100.62
401.51	99.62
401.734	92.62
401.958	100.62
402.182	112.62
402.406	154.62
402.63	116.62
402.854	77.62
403.078	95.62
403.302	90.62
403.526	93.62
403.75	87.62
403.974	77.62
404.198	90.62
404.422	93.62
404.645	93.62
404.869	90.62
405.093	96.62
405.317	105.62
405.541	97.62
405.765	95.62
405.988	120.62
406.212	170.62
406.436	213.62
406.66	147.62
406.883	96.62
407.107	96.62
407.331	77.62
407.555	83.62
407.778	85.62
408.002	98.62
408.226	97.62
408.449	73.62
408.673	88.62
408.896	92.62
409.12	90.62
409.344	88.62
409.567	84.62
409.791	75.62
410.014	90.62
410.238	92.62
410.461	84.62
410.685	111.62
410.908	102.62
411.132	101.62
411.355	90.62
411.578	97.62
411.802	83.62
412.025	86.62
412.249	79.62
412.472	102.62
412.695	106.62
412.919	91.62
413.142	103.62
413.365	91.62
413.589	87.62
413.812	92.62
414.035	95.62
414.258	81.62
414.482	93.62
414.705	94.62
414.928	96.62
415.151	101.62
415.374	90.62
415.597	82.62
415.821	83.62
416.044	77.62
416.267	92.62
416.49	92.62
416.713	93.62
416.936	91.62
417.159	89.62
417.382	83.62
417.605	95.62
417.828	95.62
418.051	82.62
418.274	80.62
418.497	92.62
418.72	84.62
418.943	92.62
419.166	84.62
419.389	74.62
419.611	83.62
419.834	90.62
420.057	81.62
420.28	94.62
420.503	91.62
420.726	84.62
420.948	99.62
421.171	83.62
421.394	91.62
421.617	97.62
421.839	94.62
422.062	99.62
422.285	90.62
422.507	87.62
422.73	100.62
422.953	98.62
423.175	93.62
423.398	87.62
423.621	82.62
423.843	78.62
424.066	96.62
424.288	88.62
424.511	90.62
424.733	103.62
424.956	84.62
425.178	98.62
425.401	96.62
425.623	93.62
425.846	95.62
426.068	100.62
426.291	75.62
426.513	89.62
426.735	83.62
426.958	90.62
427.18	98.62
427.402	125.62
427.625	180.62
427.847	141.62
428.069	141.62
428.292	86.62
428.514	82.62
428.736	93.62
428.958	89.62
429.181	84.62
429.403	82.62
429.625	106.62
429.847	86.62
430.069	84.62
430.292	80.62
430.514	81.62
430.736	72.62
430.958	82.62
431.18	90.62
431.402	85.62
431.624	83.62
431.846	79.62
432.068	96.62
432.29	93.62
432.512	73.62
432.734	83.62
432.956	95.62
433.178	102.62
433.4	98.62
433.622	88.62
433.844	79.62
434.066	87.62
434.287	88.62
434.509	79.62
434.731	76.62
434.953	87.62
435.175	86.62
435.397	95.62
435.618	81.62
435.84	112.62
436.062	119.62
436.284	116.62
436.505	81.62
436.727	97.62
436.949	99.62
437.17	83.62
437.392	95.62
437.614	96.62
437.835	108.62
438.057	113.62
438.278	107.62
438.5	98.62
438.721	128.62
438.943	89.62
439.165	83.62
439.386	92.62
439.608	104.62
439.829	103.62
440.05	120.62
440.272	146.62
440.493	92.62
440.715	90.62
440.936	101.62
441.158	93.62
441.379	91.62
441.6	89.62
441.822	85.62
442.043	98.62
442.264	102.62
442.486	106.62
442.707	92.62
442.928	92.62
443.149	135.62
443.371	126.62
443.592	108.62
443.813	108.62
444.034	89.62
444.255	74.62
444.476	84.62
444.698	93.62
444.919	98.62
445.14	131.62
445.361	130.62
445.582	124.62
445.803	138.62
446.024	140.62
446.245	132.62
446.466	103.62
446.687	86.62
446.908	81.62
447.129	88.62
447.35	91.62
447.571	95.62
447.792	92.62
448.013	111.62
448.234	112.62
448.455	86.62
448.675	99.62
448.896	115.62
449.117	97.62
449.338	101.62
449.559	134.62
449.779	124.62
450	99.62
450.221	84.62
450.442	88.62
450.662	97.62
450.883	78.62
451.104	122.62
451.324	102.62
451.545	92.62
451.766	84.62
451.986	83.62
452.207	73.62
452.428	89.62
452.648	91.62
452.869	96.62
453.089	114.62
453.31	114.62
453.53	80.62
453.751	95.62
453.971	94.62
454.192	104.62
454.412	84.62
454.633	88.62
454.853	85.62
455.073	72.62
455.294	86.62
455.514	90.62
455.734	89.62
455.955	97.62
456.175	94.62
456.395	82.62
456.616	91.62
456.836	83.62
457.056	82.62
457.276	92.62
457.497	92.62
457.717	96.62
457.937	108.62
458.157	95.62
458.377	82.62
458.598	120.62
458.818	137.62
459.038	139.62
459.258	109.62
459.478	95.62
459.698	80.62
459.918	89.62
460.138	88.62
460.358	91.62
460.578	89.62
460.798	80.62
461.018	84.62
461.238	82.62
461.458	86.62
461.678	77.62
461.898	87.62
462.118	85.62
462.338	83.62
462.558	88.62
462.777	91.62
462.997	101.62
463.217	77.62
463.437	71.62
463.657	92.62
463.876	81.62
464.096	88.62
464.316	89.62
464.536	93.62
464.755	98.62
464.975	104.62
465.195	166.62
465.414	149.62
465.634	96.62
465.854	87.62
466.073	86.62
466.293	80.62
466.512	78.62
466.732	77.62
466.951	74.62
467.171	96.62
467.391	98.62
467.61	106.62
467.829	98.62
468.049	124.62
468.268	123.62
468.488	102.62
468.707	82.62
468.927	82.62
469.146	74.62
469.365	106.62
469.585	92.62
469.804	96.62
470.023	92.62
470.243	103.62
470.462	104.62
470.681	115.62
470.901	96.62
471.12	89.62
471.339	78.62
471.558	81.62
471.777	90.62
471.997	92.62
472.216	165.62
472.435	239.62
472.654	108.62
472.873	106.62
473.092	83.62
473.311	95.62
473.53	89.62
473.749	89.62
473.968	95.62
474.187	109.62
474.406	91.62
474.625	103.62
474.844	104.62
475.063	95.62
475.282	80.62
475.501	99.62
475.72	96.62
475.939	73.62
476.158	87.62
476.377	75.62
476.596	87.62
476.814	99.62
477.033	100.62
477.252	94.62
477.471	97.62
477.69	86.62
477.908	88.62
478.127	89.62
478.346	89.62
478.564	86.62
478.783	96.62
479.002	86.62
479.22	81.62
479.439	87.62
479.658	86.62
479.876	90.62
480.095	101.62
480.313	89.62
480.532	92.62
480.751	109.62
480.969	179.62
481.188	404.62
481.406	257.62
481.624	103.62
481.843	90.62
482.061	102.62
482.28	89.62
482.498	87.62
482.717	92.62
482.935	105.62
483.153	92.62
483.372	97.62
483.59	97.62
483.808	75.62
484.027	80.62
484.245	79.62
484.463	92.62
484.681	89.62
484.9	98.62
485.118	100.62
485.336	99.62
485.554	108.62
485.772	107.62
485.99	112.62
486.209	103.62
486.427	119.62
486.645	117.62
486.863	114.62
487.081	112.62
487.299	97.62
487.517	87.62
487.735	95.62
487.953	103.62
488.171	87.62
488.389	89.62
488.607	104.62
488.825	88.62
489.043	82.62
489.261	85.62
489.479	89.62
489.696	79.62
489.914	86.62
490.132	77.62
490.35	91.62
490.568	88.62
490.786	96.62
491.003	90.62
491.221	88.62
491.439	85.62
491.657	96.62
491.874	100.62
492.092	99.62
492.31	96.62
492.527	79.62
492.745	89.62
492.963	80.62
493.18	72.62
493.398	104.62
493.615	96.62
493.833	94.62
494.05	79.62
494.268	96.62
494.485	91.62
494.703	92.62
494.92	85.62
495.138	100.62
495.355	81.62
495.573	74.62
495.79	87.62
496.008	94.62
496.225	84.62
496.442	96.62
496.66	97.62
496.877	88.62
497.094	96.62
497.312	81.62
497.529	83.62
497.746	83.62
497.963	86.62
498.181	92.62
498.398	90.62
498.615	105.62
498.832	105.62
499.049	98.62
499.267	90.62
499.484	85.62
499.701	83.62
499.918	86.62
500.135	81.62
500.352	91.62
500.569	89.62
500.786	99.62
501.003	87.62
501.22	104.62
501.437	88.62
501.654	102.62
501.871	95.62
502.088	89.62
502.305	88.62
502.522	80.62
502.739	92.62
502.956	91.62
503.172	89.62
503.389	93.62
503.606	103.62
503.823	91.62
504.04	85.62
504.256	103.62
504.473	99.62
504.69	84.62
504.907	96.62
505.123	90.62
505.34	87.62
505.557	90.62
505.773	92.62
505.99	90.62
506.207	89.62
506.423	82.62
506.64	114.62
506.856	87.62
507.073	93.62
507.289	84.62
507.506	92.62
507.722	113.62
507.939	100.62
508.155	96.62
508.372	86.62
508.588	101.62
508.805	101.62
509.021	90.62
509.238	98.62
509.454	103.62
509.67	106.62
509.887	125.62
510.103	122.62
510.319	194.62
510.536	746.62
510.752	2495.62
510.968	742.62
511.184	151.62
511.401	113.62
511.617	85.62
511.833	87.62
512.049	95.62
512.265	100.62
512.481	103.62
512.698	100.62
512.914	95.62
513.13	102.62
513.346	92.62
513.562	85.62
513.778	96.62
513.994	84.62
514.21	103.62
514.426	125.62
514.642	132.62
514.858	119.62
515.074	170.62
515.29	445.62
515.506	1439.62
515.721	567.62
