Data from Circ_2016_H10_HRD10591_00023.txt Node
Date: Wed Jan 03 09:58:45 EST 2024
User: Yrep
Spectrometer: HR+D1059
Trigger mode: 1
Integration Time (sec): 1.000000E-1
Scans to average: 1
Electric dark correction enabled: true
Nonlinearity correction enabled: false
Boxcar width: 0
XAxis mode: Wavelengths
Number of Pixels in Spectrum: 2048
>>>>>Begin Spectral Data<<<<<
223.165	-13.12
223.4	-13.12
223.635	-13.12
223.869	-21.12
224.104	-26.12
224.338	-10.12
224.573	-8.12
224.808	-12.12
225.042	-8.12
225.277	-11.12
225.511	-1.12
225.746	10.88
225.98	8.88
226.215	20.88
226.449	14.88
226.683	16.88
226.918	14.88
227.152	23.88
227.387	46.88
227.621	39.88
227.856	46.88
228.09	44.88
228.324	57.88
228.559	75.88
228.793	58.88
229.027	65.88
229.262	78.88
229.496	72.88
229.73	92.88
229.964	93.88
230.199	90.88
230.433	69.88
230.667	86.88
230.901	103.88
231.136	76.88
231.37	65.88
231.604	81.88
231.838	97.88
232.072	79.88
232.306	73.88
232.541	89.88
232.775	67.88
233.009	84.88
233.243	91.88
233.477	85.88
233.711	82.88
233.945	95.88
234.179	89.88
234.413	92.88
234.647	97.88
234.881	75.88
235.115	86.88
235.349	78.88
235.583	87.88
235.817	89.88
236.051	73.88
236.285	62.88
236.519	58.88
236.753	89.88
236.987	96.88
237.221	87.88
237.455	86.88
237.689	76.88
237.922	76.88
238.156	79.88
238.39	81.88
238.624	78.88
238.858	85.88
239.091	79.88
239.325	89.88
239.559	82.88
239.793	80.88
240.027	79.88
240.26	81.88
240.494	78.88
240.728	84.88
240.961	89.88
241.195	81.88
241.429	70.88
241.662	69.88
241.896	86.88
242.13	80.88
242.363	77.88
242.597	74.88
242.83	81.88
243.064	97.88
243.298	87.88
243.531	68.88
243.765	77.88
243.998	71.88
244.232	87.88
244.465	87.88
244.699	86.88
244.932	80.88
245.166	88.88
245.399	68.88
245.633	101.88
245.866	73.88
246.099	56.88
246.333	71.88
246.566	85.88
246.8	73.88
247.033	84.88
247.266	96.88
247.5	89.88
247.733	85.88
247.966	90.88
248.2	84.88
248.433	75.88
248.666	79.88
248.899	86.88
249.133	77.88
249.366	84.88
249.599	88.88
249.832	77.88
250.066	81.88
250.299	68.88
250.532	82.88
250.765	82.88
250.998	91.88
251.231	89.88
251.465	81.88
251.698	74.88
251.931	88.88
252.164	64.88
252.397	79.88
252.63	79.88
252.863	71.88
253.096	82.88
253.329	81.88
253.562	85.88
253.795	94.88
254.028	93.88
254.261	87.88
254.494	80.88
254.727	89.88
254.96	92.88
255.193	82.88
255.426	81.88
255.659	94.88
255.892	93.88
256.124	78.88
256.357	82.88
256.59	72.88
256.823	94.88
257.056	85.88
257.289	87.88
257.521	81.88
257.754	78.88
257.987	84.88
258.22	103.88
258.452	101.88
258.685	81.88
258.918	89.88
259.151	74.88
259.383	86.88
259.616	75.88
259.849	81.88
260.081	101.88
260.314	91.88
260.547	73.88
260.779	74.88
261.012	87.88
261.244	97.88
261.477	96.88
261.71	110.88
261.942	135.88
262.175	129.88
262.407	89.88
262.64	93.88
262.872	83.88
263.105	97.88
263.337	97.88
263.57	91.88
263.802	89.88
264.035	87.88
264.267	86.88
264.499	90.88
264.732	90.88
264.964	72.88
265.197	81.88
265.429	78.88
265.661	90.88
265.894	84.88
266.126	82.88
266.358	90.88
266.591	77.88
266.823	76.88
267.055	80.88
267.287	92.88
267.52	83.88
267.752	89.88
267.984	75.88
268.216	88.88
268.448	91.88
268.681	69.88
268.913	99.88
269.145	86.88
269.377	80.88
269.609	85.88
269.841	81.88
270.073	82.88
270.306	85.88
270.538	97.88
270.77	86.88
271.002	91.88
271.234	77.88
271.466	73.88
271.698	82.88
271.93	93.88
272.162	81.88
272.394	101.88
272.626	90.88
272.858	91.88
273.09	68.88
273.322	89.88
273.553	86.88
273.785	88.88
274.017	81.88
274.249	84.88
274.481	94.88
274.713	95.88
274.945	93.88
275.176	99.88
275.408	87.88
275.64	106.88
275.872	87.88
276.104	83.88
276.335	108.88
276.567	113.88
276.799	143.88
277.031	108.88
277.262	110.88
277.494	96.88
277.726	99.88
277.957	88.88
278.189	95.88
278.421	90.88
278.652	87.88
278.884	86.88
279.115	93.88
279.347	88.88
279.579	92.88
279.81	95.88
280.042	88.88
280.273	91.88
280.505	90.88
280.736	95.88
280.968	95.88
281.199	96.88
281.431	87.88
281.662	90.88
281.894	103.88
282.125	93.88
282.356	136.88
282.588	177.88
282.819	144.88
283.051	99.88
283.282	101.88
283.513	98.88
283.745	94.88
283.976	81.88
284.207	85.88
284.439	88.88
284.67	92.88
284.901	87.88
285.132	78.88
285.364	97.88
285.595	95.88
285.826	99.88
286.057	98.88
286.288	94.88
286.52	78.88
286.751	92.88
286.982	89.88
287.213	92.88
287.444	93.88
287.675	84.88
287.906	89.88
288.138	84.88
288.369	85.88
288.6	85.88
288.831	94.88
289.062	101.88
289.293	87.88
289.524	93.88
289.755	110.88
289.986	81.88
290.217	102.88
290.448	94.88
290.679	98.88
290.91	82.88
291.141	93.88
291.371	89.88
291.602	83.88
291.833	97.88
292.064	84.88
292.295	80.88
292.526	109.88
292.757	86.88
292.987	84.88
293.218	85.88
293.449	95.88
293.68	107.88
293.91	85.88
294.141	81.88
294.372	94.88
294.603	89.88
294.833	90.88
295.064	95.88
295.295	97.88
295.525	100.88
295.756	104.88
295.987	139.88
296.217	166.88
296.448	154.88
296.679	109.88
296.909	93.88
297.14	88.88
297.37	79.88
297.601	96.88
297.831	92.88
298.062	89.88
298.292	91.88
298.523	95.88
298.753	89.88
298.984	100.88
299.214	82.88
299.445	96.88
299.675	95.88
299.905	105.88
300.136	94.88
300.366	96.88
300.597	93.88
300.827	97.88
301.057	107.88
301.288	117.88
301.518	109.88
301.748	89.88
301.979	95.88
302.209	90.88
302.439	93.88
302.669	95.88
302.9	107.88
303.13	93.88
303.36	82.88
303.59	119.88
303.82	120.88
304.051	96.88
304.281	98.88
304.511	100.88
304.741	78.88
304.971	80.88
305.201	93.88
305.431	100.88
305.661	94.88
305.891	97.88
306.121	102.88
306.352	118.88
306.582	132.88
306.812	114.88
307.042	96.88
307.272	89.88
307.502	90.88
307.731	91.88
307.961	93.88
308.191	103.88
308.421	95.88
308.651	85.88
308.881	98.88
309.111	100.88
309.341	120.88
309.571	105.88
309.8	97.88
310.03	100.88
310.26	88.88
310.49	98.88
310.72	127.88
310.949	133.88
311.179	99.88
311.409	101.88
311.639	88.88
311.868	104.88
312.098	103.88
312.328	105.88
312.557	114.88
312.787	121.88
313.017	116.88
313.246	101.88
313.476	100.88
313.706	88.88
313.935	95.88
314.165	103.88
314.394	112.88
314.624	121.88
314.853	109.88
315.083	100.88
315.312	94.88
315.542	101.88
315.771	96.88
316.001	106.88
316.23	93.88
316.46	92.88
316.689	99.88
316.919	105.88
317.148	105.88
317.377	98.88
317.607	102.88
317.836	95.88
318.065	84.88
318.295	101.88
318.524	102.88
318.753	93.88
318.983	95.88
319.212	97.88
319.441	136.88
319.67	120.88
319.9	113.88
320.129	105.88
320.358	93.88
320.587	93.88
320.816	117.88
321.046	119.88
321.275	107.88
321.504	112.88
321.733	90.88
321.962	113.88
322.191	111.88
322.42	116.88
322.649	134.88
322.878	134.88
323.108	141.88
323.337	136.88
323.566	168.88
323.795	200.88
324.024	267.88
324.253	597.88
324.482	1300.88
324.71	2683.88
324.939	3488.88
325.168	1244.88
325.397	342.88
325.626	187.88
325.855	167.88
326.084	149.88
326.313	159.88
326.542	197.88
326.77	301.88
326.999	649.88
327.228	1404.88
327.457	2646.88
327.686	2027.88
327.914	538.88
328.143	252.88
328.372	194.88
328.6	152.88
328.829	142.88
329.058	150.88
329.287	159.88
329.515	126.88
329.744	124.88
329.972	117.88
330.201	121.88
330.43	149.88
330.658	164.88
330.887	192.88
331.115	158.88
331.344	123.88
331.572	119.88
331.801	123.88
332.03	123.88
332.258	98.88
332.486	97.88
332.715	103.88
332.943	104.88
333.172	95.88
333.4	103.88
333.629	114.88
333.857	127.88
334.085	106.88
334.314	108.88
334.542	117.88
334.771	128.88
334.999	98.88
335.227	98.88
335.455	100.88
335.684	103.88
335.912	103.88
336.14	102.88
336.369	115.88
336.597	112.88
336.825	103.88
337.053	77.88
337.281	86.88
337.51	95.88
337.738	107.88
337.966	101.88
338.194	104.88
338.422	109.88
338.65	102.88
338.878	96.88
339.106	107.88
339.334	101.88
339.562	87.88
339.79	100.88
340.018	103.88
340.246	107.88
340.474	119.88
340.702	95.88
340.93	93.88
341.158	104.88
341.386	112.88
341.614	100.88
341.842	91.88
342.07	116.88
342.298	101.88
342.526	98.88
342.754	101.88
342.981	89.88
343.209	98.88
343.437	94.88
343.665	93.88
343.893	97.88
344.12	95.88
344.348	86.88
344.576	95.88
344.804	110.88
345.031	120.88
345.259	112.88
345.487	100.88
345.714	105.88
345.942	95.88
346.17	97.88
346.397	107.88
346.625	90.88
346.853	99.88
347.08	97.88
347.308	122.88
347.535	109.88
347.763	121.88
347.99	119.88
348.218	113.88
348.445	120.88
348.673	111.88
348.9	112.88
349.128	104.88
349.355	96.88
349.583	103.88
349.81	87.88
350.037	103.88
350.265	109.88
350.492	97.88
350.72	105.88
350.947	110.88
351.174	105.88
351.402	128.88
351.629	109.88
351.856	122.88
352.083	108.88
352.311	130.88
352.538	117.88
352.765	120.88
352.992	109.88
353.22	124.88
353.447	119.88
353.674	107.88
353.901	103.88
354.128	101.88
354.355	95.88
354.583	103.88
354.81	114.88
355.037	105.88
355.264	104.88
355.491	104.88
355.718	96.88
355.945	104.88
356.172	99.88
356.399	101.88
356.626	94.88
356.853	89.88
357.08	103.88
357.307	93.88
357.534	90.88
357.761	105.88
357.988	101.88
358.215	93.88
358.441	110.88
358.668	104.88
358.895	105.88
359.122	88.88
359.349	95.88
359.576	94.88
359.802	121.88
360.029	153.88
360.256	139.88
360.483	117.88
360.709	105.88
360.936	114.88
361.163	94.88
361.39	112.88
361.616	111.88
361.843	106.88
362.07	120.88
362.296	119.88
362.523	102.88
362.749	116.88
362.976	96.88
363.203	90.88
363.429	100.88
363.656	97.88
363.882	103.88
364.109	96.88
364.335	90.88
364.562	84.88
364.788	90.88
365.015	101.88
365.241	98.88
365.468	115.88
365.694	123.88
365.92	105.88
366.147	98.88
366.373	96.88
366.599	100.88
366.826	91.88
367.052	105.88
367.278	95.88
367.505	106.88
367.731	105.88
367.957	108.88
368.184	97.88
368.41	105.88
368.636	113.88
368.862	128.88
369.089	129.88
369.315	119.88
369.541	110.88
369.767	97.88
369.993	111.88
370.219	109.88
370.445	103.88
370.672	101.88
370.898	94.88
371.124	96.88
371.35	81.88
371.576	94.88
371.802	106.88
372.028	95.88
372.254	87.88
372.48	106.88
372.706	106.88
372.932	97.88
373.158	93.88
373.384	92.88
373.61	95.88
373.835	94.88
374.061	104.88
374.287	103.88
374.513	109.88
374.739	89.88
374.965	89.88
375.191	95.88
375.416	103.88
375.642	106.88
375.868	108.88
376.094	100.88
376.319	91.88
376.545	96.88
376.771	101.88
376.997	109.88
377.222	105.88
377.448	112.88
377.674	95.88
377.899	79.88
378.125	105.88
378.35	111.88
378.576	102.88
378.802	111.88
379.027	100.88
379.253	110.88
379.478	102.88
379.704	103.88
379.929	108.88
380.155	100.88
380.38	118.88
380.606	105.88
380.831	104.88
381.057	111.88
381.282	124.88
381.507	104.88
381.733	113.88
381.958	105.88
382.184	101.88
382.409	121.88
382.634	126.88
382.86	123.88
383.085	130.88
383.31	125.88
383.535	113.88
383.761	129.88
383.986	146.88
384.211	119.88
384.436	123.88
384.662	133.88
384.887	144.88
385.112	156.88
385.337	140.88
385.562	143.88
385.787	126.88
386.013	146.88
386.238	166.88
386.463	146.88
386.688	139.88
386.913	130.88
387.138	142.88
387.363	141.88
387.588	110.88
387.813	119.88
388.038	134.88
388.263	161.88
388.488	155.88
388.713	122.88
388.938	88.88
389.163	104.88
389.387	100.88
389.612	105.88
389.837	94.88
390.062	88.88
390.287	96.88
390.512	90.88
390.736	91.88
390.961	102.88
391.186	110.88
391.411	90.88
391.636	101.88
391.86	99.88
392.085	109.88
392.31	93.88
392.534	89.88
392.759	101.88
392.984	91.88
393.208	100.88
393.433	125.88
393.658	108.88
393.882	100.88
394.107	104.88
394.331	102.88
394.556	81.88
394.78	86.88
395.005	97.88
395.229	94.88
395.454	85.88
395.678	87.88
395.903	97.88
396.127	103.88
396.352	92.88
396.576	109.88
396.801	101.88
397.025	101.88
397.249	91.88
397.474	95.88
397.698	91.88
397.922	92.88
398.147	94.88
398.371	81.88
398.595	86.88
398.82	87.88
399.044	86.88
399.268	90.88
399.492	102.88
399.717	93.88
399.941	99.88
400.165	105.88
400.389	89.88
400.613	112.88
400.837	90.88
401.062	103.88
401.286	111.88
401.51	114.88
401.734	88.88
401.958	97.88
402.182	144.88
402.406	199.88
402.63	161.88
402.854	110.88
403.078	97.88
403.302	94.88
403.526	95.88
403.75	89.88
403.974	85.88
404.198	95.88
404.422	95.88
404.645	92.88
404.869	109.88
405.093	108.88
405.317	117.88
405.541	117.88
405.765	132.88
405.988	134.88
406.212	220.88
406.436	317.88
406.66	192.88
406.883	115.88
407.107	95.88
407.331	103.88
407.555	116.88
407.778	114.88
408.002	114.88
408.226	94.88
408.449	94.88
408.673	98.88
408.896	102.88
409.12	101.88
409.344	106.88
409.567	104.88
409.791	87.88
410.014	100.88
410.238	95.88
410.461	118.88
410.685	98.88
410.908	93.88
411.132	104.88
411.355	110.88
411.578	104.88
411.802	109.88
412.025	87.88
412.249	103.88
412.472	88.88
412.695	101.88
412.919	109.88
413.142	108.88
413.365	90.88
413.589	98.88
413.812	100.88
414.035	91.88
414.258	104.88
414.482	83.88
414.705	92.88
414.928	98.88
415.151	103.88
415.374	113.88
415.597	104.88
415.821	101.88
416.044	90.88
416.267	105.88
416.49	87.88
416.713	95.88
416.936	98.88
417.159	102.88
417.382	106.88
417.605	104.88
417.828	92.88
418.051	108.88
418.274	97.88
418.497	111.88
418.72	97.88
418.943	98.88
419.166	99.88
419.389	104.88
419.611	94.88
419.834	107.88
420.057	101.88
420.28	100.88
420.503	95.88
420.726	100.88
420.948	122.88
421.171	100.88
421.394	102.88
421.617	83.88
421.839	101.88
422.062	85.88
422.285	107.88
422.507	128.88
422.73	135.88
422.953	121.88
423.175	98.88
423.398	88.88
423.621	97.88
423.843	107.88
424.066	89.88
424.288	87.88
424.511	95.88
424.733	112.88
424.956	105.88
425.178	116.88
425.401	109.88
425.623	114.88
425.846	98.88
426.068	96.88
426.291	101.88
426.513	92.88
426.735	105.88
426.958	104.88
427.18	113.88
427.402	163.88
427.625	230.88
427.847	156.88
428.069	118.88
428.292	96.88
428.514	88.88
428.736	79.88
428.958	86.88
429.181	86.88
429.403	90.88
429.625	107.88
429.847	86.88
430.069	110.88
430.292	94.88
430.514	86.88
430.736	76.88
430.958	98.88
431.18	85.88
431.402	88.88
431.624	71.88
431.846	93.88
432.068	95.88
432.29	89.88
432.512	121.88
432.734	102.88
432.956	107.88
433.178	93.88
433.4	129.88
433.622	91.88
433.844	102.88
434.066	95.88
434.287	99.88
434.509	87.88
434.731	104.88
434.953	88.88
435.175	90.88
435.397	99.88
435.618	90.88
435.84	117.88
436.062	151.88
436.284	140.88
436.505	123.88
436.727	120.88
436.949	97.88
437.17	106.88
437.392	104.88
437.614	93.88
437.835	115.88
438.057	139.88
438.278	127.88
438.5	118.88
438.721	130.88
438.943	100.88
439.165	90.88
439.386	103.88
439.608	98.88
439.829	124.88
440.05	148.88
440.272	191.88
440.493	128.88
440.715	103.88
440.936	87.88
441.158	92.88
441.379	101.88
441.6	109.88
441.822	92.88
442.043	113.88
442.264	116.88
442.486	117.88
442.707	111.88
442.928	113.88
443.149	181.88
443.371	168.88
443.592	149.88
443.813	138.88
444.034	117.88
444.255	102.88
444.476	90.88
444.698	104.88
444.919	100.88
445.14	128.88
445.361	137.88
445.582	135.88
445.803	162.88
446.024	176.88
446.245	176.88
446.466	129.88
446.687	95.88
446.908	104.88
447.129	93.88
447.35	96.88
447.571	111.88
447.792	91.88
448.013	105.88
448.234	137.88
448.455	118.88
448.675	123.88
448.896	139.88
449.117	102.88
449.338	106.88
449.559	141.88
449.779	137.88
450	113.88
450.221	101.88
450.442	119.88
450.662	101.88
450.883	134.88
451.104	152.88
451.324	94.88
451.545	98.88
451.766	101.88
451.986	86.88
452.207	102.88
452.428	110.88
452.648	109.88
452.869	133.88
453.089	156.88
453.31	150.88
453.53	97.88
453.751	111.88
453.971	121.88
454.192	139.88
454.412	116.88
454.633	103.88
454.853	90.88
455.073	104.88
455.294	104.88
455.514	117.88
455.734	98.88
455.955	83.88
456.175	83.88
456.395	90.88
456.616	101.88
456.836	98.88
457.056	94.88
457.276	79.88
457.497	75.88
457.717	80.88
457.937	97.88
458.157	105.88
458.377	95.88
458.598	138.88
458.818	186.88
459.038	207.88
459.258	159.88
459.478	97.88
459.698	88.88
459.918	94.88
460.138	80.88
460.358	96.88
460.578	97.88
460.798	104.88
461.018	97.88
461.238	111.88
461.458	84.88
461.678	86.88
461.898	90.88
462.118	86.88
462.338	88.88
462.558	87.88
462.777	100.88
462.997	103.88
463.217	95.88
463.437	92.88
463.657	93.88
463.876	105.88
464.096	89.88
464.316	91.88
464.536	103.88
464.755	112.88
464.975	134.88
465.195	233.88
465.414	243.88
465.634	102.88
465.854	92.88
466.073	108.88
466.293	98.88
466.512	96.88
466.732	103.88
466.951	89.88
467.171	98.88
467.391	120.88
467.61	110.88
467.829	105.88
468.049	93.88
468.268	88.88
468.488	102.88
468.707	95.88
468.927	86.88
469.146	82.88
469.365	100.88
469.585	97.88
469.804	100.88
470.023	97.88
470.243	101.88
470.462	116.88
470.681	141.88
470.901	103.88
471.12	93.88
471.339	109.88
471.558	89.88
471.777	85.88
471.997	93.88
472.216	89.88
472.435	115.88
472.654	86.88
472.873	100.88
473.092	93.88
473.311	91.88
473.53	84.88
473.749	84.88
473.968	109.88
474.187	119.88
474.406	110.88
474.625	95.88
474.844	89.88
475.063	70.88
475.282	99.88
475.501	74.88
475.72	85.88
475.939	100.88
476.158	97.88
476.377	103.88
476.596	95.88
476.814	97.88
477.033	96.88
477.252	84.88
477.471	86.88
477.69	107.88
477.908	96.88
478.127	92.88
478.346	95.88
478.564	93.88
478.783	103.88
479.002	91.88
479.22	116.88
479.439	114.88
479.658	124.88
479.876	104.88
480.095	88.88
480.313	102.88
480.532	77.88
480.751	102.88
480.969	112.88
481.188	146.88
481.406	134.88
481.624	97.88
481.843	102.88
482.061	106.88
482.28	117.88
482.498	83.88
482.717	93.88
482.935	89.88
483.153	88.88
483.372	107.88
483.59	103.88
483.808	104.88
484.027	96.88
484.245	84.88
484.463	92.88
484.681	90.88
484.9	94.88
485.118	113.88
485.336	99.88
485.554	117.88
485.772	105.88
485.99	113.88
486.209	107.88
486.427	107.88
486.645	128.88
486.863	145.88
487.081	116.88
487.299	107.88
487.517	104.88
487.735	112.88
487.953	101.88
488.171	108.88
488.389	89.88
488.607	120.88
488.825	100.88
489.043	106.88
489.261	90.88
489.479	97.88
489.696	92.88
489.914	76.88
490.132	86.88
490.35	90.88
490.568	108.88
490.786	108.88
491.003	110.88
491.221	88.88
491.439	88.88
491.657	96.88
491.874	99.88
492.092	92.88
492.31	95.88
492.527	100.88
492.745	93.88
492.963	123.88
493.18	95.88
493.398	89.88
493.615	111.88
493.833	92.88
494.05	108.88
494.268	93.88
494.485	106.88
494.703	85.88
494.92	107.88
495.138	98.88
495.355	105.88
495.573	92.88
495.79	93.88
496.008	89.88
496.225	107.88
496.442	94.88
496.66	87.88
496.877	97.88
497.094	97.88
497.312	79.88
497.529	94.88
497.746	99.88
497.963	101.88
498.181	101.88
498.398	96.88
498.615	125.88
498.832	134.88
499.049	92.88
499.267	90.88
499.484	97.88
499.701	91.88
499.918	93.88
500.135	106.88
500.352	86.88
500.569	104.88
500.786	97.88
501.003	95.88
501.22	93.88
501.437	79.88
501.654	109.88
501.871	125.88
502.088	100.88
502.305	96.88
502.522	91.88
502.739	87.88
502.956	102.88
503.172	82.88
503.389	102.88
503.606	122.88
503.823	111.88
504.04	93.88
504.256	95.88
504.473	90.88
504.69	101.88
504.907	108.88
505.123	87.88
505.34	90.88
505.557	102.88
505.773	99.88
505.99	90.88
506.207	106.88
506.423	84.88
506.64	86.88
506.856	106.88
507.073	94.88
507.289	95.88
507.506	113.88
507.722	140.88
507.939	132.88
508.155	116.88
508.372	108.88
508.588	109.88
508.805	104.88
509.021	96.88
509.238	111.88
509.454	124.88
509.67	124.88
509.887	105.88
510.103	156.88
510.319	272.88
510.536	1028.88
510.752	3688.88
510.968	1008.88
511.184	183.88
511.401	120.88
