Data from Circ_2016_H10_HRD10591_00002.txt Node
Date: Wed Jan 03 09:58:41 EST 2024
User: Yrep
Spectrometer: HR+D1059
Trigger mode: 1
Integration Time (sec): 1.000000E-1
Scans to average: 1
Electric dark correction enabled: true
Nonlinearity correction enabled: false
Boxcar width: 0
XAxis mode: Wavelengths
Number of Pixels in Spectrum: 2048
>>>>>Begin Spectral Data<<<<<
223.165	-29.56
223.4	-29.56
223.635	-29.56
223.869	-28.56
224.104	-8.56
224.338	-29.56
224.573	-16.56
224.808	-2.56
225.042	5.44
225.277	-0.56
225.511	-6.56
225.746	2.44
225.98	-3.56
226.215	24.44
226.449	11.44
226.683	30.44
226.918	25.44
227.152	26.44
227.387	37.44
227.621	25.44
227.856	34.44
228.09	41.44
228.324	38.44
228.559	51.44
228.793	64.44
229.027	64.44
229.262	50.44
229.496	62.44
229.73	82.44
229.964	67.44
230.199	60.44
230.433	78.44
230.667	68.44
230.901	72.44
231.136	79.44
231.37	79.44
231.604	81.44
231.838	86.44
232.072	84.44
232.306	87.44
232.541	82.44
232.775	84.44
233.009	74.44
233.243	90.44
233.477	84.44
233.711	84.44
233.945	64.44
234.179	84.44
234.413	87.44
234.647	80.44
234.881	80.44
235.115	78.44
235.349	89.44
235.583	66.44
235.817	68.44
236.051	74.44
236.285	66.44
236.519	74.44
236.753	70.44
236.987	70.44
237.221	70.44
237.455	83.44
237.689	61.44
237.922	67.44
238.156	59.44
238.39	93.44
238.624	67.44
238.858	71.44
239.091	80.44
239.325	67.44
239.559	80.44
239.793	78.44
240.027	85.44
240.26	83.44
240.494	66.44
240.728	73.44
240.961	81.44
241.195	87.44
241.429	71.44
241.662	69.44
241.896	75.44
242.13	64.44
242.363	69.44
242.597	76.44
242.83	83.44
243.064	70.44
243.298	74.44
243.531	65.44
243.765	69.44
243.998	62.44
244.232	62.44
244.465	84.44
244.699	85.44
244.932	71.44
245.166	72.44
245.399	82.44
245.633	83.44
245.866	81.44
246.099	79.44
246.333	70.44
246.566	73.44
246.8	72.44
247.033	72.44
247.266	74.44
247.5	91.44
247.733	86.44
247.966	94.44
248.2	79.44
248.433	86.44
248.666	79.44
248.899	63.44
249.133	74.44
249.366	82.44
249.599	92.44
249.832	88.44
250.066	72.44
250.299	74.44
250.532	93.44
250.765	65.44
250.998	78.44
251.231	71.44
251.465	82.44
251.698	68.44
251.931	86.44
252.164	66.44
252.397	65.44
252.63	83.44
252.863	84.44
253.096	77.44
253.329	72.44
253.562	65.44
253.795	96.44
254.028	77.44
254.261	67.44
254.494	81.44
254.727	63.44
254.96	68.44
255.193	59.44
255.426	81.44
255.659	93.44
255.892	75.44
256.124	78.44
256.357	79.44
256.59	69.44
256.823	74.44
257.056	88.44
257.289	71.44
257.521	66.44
257.754	77.44
257.987	77.44
258.22	75.44
258.452	75.44
258.685	85.44
258.918	83.44
259.151	74.44
259.383	81.44
259.616	88.44
259.849	86.44
260.081	84.44
260.314	78.44
260.547	71.44
260.779	75.44
261.012	66.44
261.244	68.44
261.477	85.44
261.71	82.44
261.942	97.44
262.175	94.44
262.407	80.44
262.64	80.44
262.872	73.44
263.105	79.44
263.337	76.44
263.57	84.44
263.802	96.44
264.035	77.44
264.267	59.44
264.499	70.44
264.732	88.44
264.964	76.44
265.197	68.44
265.429	67.44
265.661	58.44
265.894	72.44
266.126	83.44
266.358	77.44
266.591	88.44
266.823	75.44
267.055	72.44
267.287	80.44
267.52	87.44
267.752	82.44
267.984	83.44
268.216	76.44
268.448	82.44
268.681	80.44
268.913	72.44
269.145	89.44
269.377	79.44
269.609	87.44
269.841	73.44
270.073	75.44
270.306	78.44
270.538	85.44
270.77	90.44
271.002	80.44
271.234	79.44
271.466	72.44
271.698	88.44
271.93	92.44
272.162	84.44
272.394	80.44
272.626	80.44
272.858	94.44
273.09	77.44
273.322	86.44
273.553	69.44
273.785	68.44
274.017	82.44
274.249	75.44
274.481	81.44
274.713	85.44
274.945	88.44
275.176	81.44
275.408	84.44
275.64	73.44
275.872	91.44
276.104	89.44
276.335	95.44
276.567	85.44
276.799	105.44
277.031	104.44
277.262	82.44
277.494	93.44
277.726	81.44
277.957	69.44
278.189	67.44
278.421	82.44
278.652	89.44
278.884	98.44
279.115	75.44
279.347	75.44
279.579	72.44
279.81	70.44
280.042	73.44
280.273	88.44
280.505	87.44
280.736	75.44
280.968	84.44
281.199	88.44
281.431	94.44
281.662	76.44
281.894	87.44
282.125	81.44
282.356	91.44
282.588	103.44
282.819	80.44
283.051	90.44
283.282	74.44
283.513	98.44
283.745	87.44
283.976	80.44
284.207	82.44
284.439	89.44
284.67	87.44
284.901	92.44
285.132	79.44
285.364	88.44
285.595	84.44
285.826	83.44
286.057	90.44
286.288	72.44
286.52	67.44
286.751	73.44
286.982	83.44
287.213	80.44
287.444	94.44
287.675	87.44
287.906	82.44
288.138	78.44
288.369	88.44
288.6	82.44
288.831	86.44
289.062	78.44
289.293	88.44
289.524	80.44
289.755	89.44
289.986	96.44
290.217	88.44
290.448	86.44
290.679	98.44
290.91	78.44
291.141	74.44
291.371	77.44
291.602	80.44
291.833	81.44
292.064	88.44
292.295	87.44
292.526	78.44
292.757	82.44
292.987	79.44
293.218	89.44
293.449	85.44
293.68	90.44
293.91	66.44
294.141	83.44
294.372	84.44
294.603	89.44
294.833	79.44
295.064	80.44
295.295	71.44
295.525	87.44
295.756	90.44
295.987	93.44
296.217	115.44
296.448	111.44
296.679	88.44
296.909	97.44
297.14	95.44
297.37	91.44
297.601	91.44
297.831	84.44
298.062	90.44
298.292	97.44
298.523	91.44
298.753	86.44
298.984	90.44
299.214	86.44
299.445	81.44
299.675	79.44
299.905	78.44
300.136	93.44
300.366	80.44
300.597	80.44
300.827	90.44
301.057	79.44
301.288	109.44
301.518	88.44
301.748	78.44
301.979	109.44
302.209	86.44
302.439	77.44
302.669	86.44
302.9	81.44
303.13	79.44
303.36	84.44
303.59	83.44
303.82	101.44
304.051	89.44
304.281	90.44
304.511	93.44
304.741	79.44
304.971	80.44
305.201	78.44
305.431	79.44
305.661	77.44
305.891	106.44
306.121	86.44
306.352	107.44
306.582	81.44
306.812	82.44
307.042	93.44
307.272	76.44
307.502	91.44
307.731	81.44
307.961	75.44
308.191	95.44
308.421	81.44
308.651	79.44
308.881	87.44
309.111	111.44
309.341	94.44
309.571	80.44
309.8	101.44
310.03	80.44
310.26	86.44
310.49	94.44
310.72	82.44
310.949	89.44
311.179	88.44
311.409	87.44
311.639	89.44
311.868	92.44
312.098	83.44
312.328	78.44
312.557	95.44
312.787	94.44
313.017	87.44
313.246	79.44
313.476	104.44
313.706	86.44
313.935	93.44
314.165	96.44
314.394	88.44
314.624	98.44
314.853	96.44
315.083	89.44
315.312	86.44
315.542	86.44
315.771	85.44
316.001	99.44
316.23	93.44
316.46	84.44
316.689	72.44
316.919	78.44
317.148	86.44
317.377	89.44
317.607	86.44
317.836	78.44
318.065	96.44
318.295	86.44
318.524	88.44
318.753	86.44
318.983	89.44
319.212	88.44
319.441	91.44
319.67	98.44
319.9	82.44
320.129	95.44
320.358	93.44
320.587	95.44
320.816	95.44
321.046	86.44
321.275	117.44
321.504	93.44
321.733	101.44
321.962	93.44
322.191	95.44
322.42	94.44
322.649	90.44
322.878	84.44
323.108	89.44
323.337	111.44
323.566	101.44
323.795	120.44
324.024	169.44
324.253	301.44
324.482	591.44
324.71	1212.44
324.939	1565.44
325.168	610.44
325.397	213.44
325.626	125.44
325.855	115.44
326.084	119.44
326.313	99.44
326.542	135.44
326.77	194.44
326.999	358.44
327.228	718.44
327.457	1246.44
327.686	1020.44
327.914	294.44
328.143	155.44
328.372	114.44
328.6	90.44
328.829	98.44
329.058	101.44
329.287	98.44
329.515	101.44
329.744	103.44
329.972	98.44
330.201	83.44
330.43	92.44
330.658	112.44
330.887	104.44
331.115	106.44
331.344	85.44
331.572	86.44
331.801	82.44
332.03	96.44
332.258	87.44
332.486	84.44
332.715	90.44
332.943	86.44
333.172	88.44
333.4	95.44
333.629	91.44
333.857	89.44
334.085	94.44
334.314	99.44
334.542	99.44
334.771	99.44
334.999	105.44
335.227	87.44
335.455	109.44
335.684	96.44
335.912	93.44
336.14	97.44
336.369	92.44
336.597	96.44
336.825	94.44
337.053	94.44
337.281	97.44
337.51	92.44
337.738	82.44
337.966	89.44
338.194	91.44
338.422	106.44
338.65	94.44
338.878	82.44
339.106	86.44
339.334	83.44
339.562	89.44
339.79	95.44
340.018	73.44
340.246	97.44
340.474	89.44
340.702	82.44
340.93	92.44
341.158	89.44
341.386	96.44
341.614	86.44
341.842	91.44
342.07	78.44
342.298	87.44
342.526	93.44
342.754	82.44
342.981	78.44
343.209	82.44
343.437	94.44
343.665	85.44
343.893	84.44
344.12	84.44
344.348	88.44
344.576	70.44
344.804	97.44
345.031	88.44
345.259	95.44
345.487	82.44
345.714	83.44
345.942	89.44
346.17	86.44
346.397	78.44
346.625	73.44
346.853	92.44
347.08	80.44
347.308	79.44
347.535	91.44
347.763	81.44
347.99	74.44
348.218	92.44
348.445	81.44
348.673	85.44
348.9	80.44
349.128	86.44
349.355	93.44
349.583	96.44
349.81	100.44
350.037	78.44
350.265	82.44
350.492	99.44
350.72	92.44
350.947	103.44
351.174	98.44
351.402	91.44
351.629	104.44
351.856	106.44
352.083	86.44
352.311	104.44
352.538	102.44
352.765	104.44
352.992	109.44
353.22	98.44
353.447	113.44
353.674	117.44
353.901	101.44
354.128	92.44
354.355	87.44
354.583	102.44
354.81	96.44
355.037	114.44
355.264	106.44
355.491	97.44
355.718	97.44
355.945	97.44
356.172	102.44
356.399	99.44
356.626	108.44
356.853	98.44
357.08	89.44
357.307	98.44
357.534	89.44
357.761	111.44
357.988	100.44
358.215	124.44
358.441	136.44
358.668	122.44
358.895	104.44
359.122	101.44
359.349	100.44
359.576	104.44
359.802	92.44
360.029	97.44
360.256	118.44
360.483	98.44
360.709	91.44
360.936	91.44
361.163	96.44
361.39	91.44
361.616	85.44
361.843	83.44
362.07	92.44
362.296	88.44
362.523	98.44
362.749	89.44
362.976	87.44
363.203	77.44
363.429	88.44
363.656	94.44
363.882	91.44
364.109	86.44
364.335	81.44
364.562	90.44
364.788	95.44
365.015	94.44
365.241	88.44
365.468	102.44
365.694	95.44
365.92	94.44
366.147	81.44
366.373	81.44
366.599	89.44
366.826	78.44
367.052	93.44
367.278	83.44
367.505	77.44
367.731	79.44
367.957	93.44
368.184	80.44
368.41	73.44
368.636	73.44
368.862	105.44
369.089	85.44
369.315	77.44
369.541	89.44
369.767	81.44
369.993	103.44
370.219	95.44
370.445	99.44
370.672	90.44
370.898	86.44
371.124	84.44
371.35	90.44
371.576	77.44
371.802	85.44
372.028	87.44
372.254	79.44
372.48	65.44
372.706	78.44
372.932	93.44
373.158	78.44
373.384	87.44
373.61	91.44
373.835	97.44
374.061	83.44
374.287	87.44
374.513	95.44
374.739	78.44
374.965	91.44
375.191	98.44
375.416	108.44
375.642	106.44
375.868	94.44
376.094	94.44
376.319	99.44
376.545	93.44
376.771	94.44
376.997	110.44
377.222	86.44
377.448	108.44
377.674	106.44
377.899	109.44
378.125	111.44
378.35	115.44
378.576	100.44
378.802	114.44
379.027	119.44
379.253	125.44
379.478	121.44
379.704	107.44
379.929	109.44
380.155	109.44
380.38	134.44
380.606	132.44
380.831	111.44
381.057	122.44
381.282	127.44
381.507	127.44
381.733	147.44
381.958	141.44
382.184	131.44
382.409	140.44
382.634	139.44
382.86	139.44
383.085	167.44
383.31	146.44
383.535	146.44
383.761	181.44
383.986	167.44
384.211	157.44
384.436	160.44
384.662	187.44
384.887	185.44
385.112	195.44
385.337	211.44
385.562	209.44
385.787	215.44
386.013	200.44
386.238	202.44
386.463	187.44
386.688	191.44
386.913	194.44
387.138	216.44
387.363	192.44
387.588	148.44
387.813	162.44
388.038	200.44
388.263	235.44
388.488	208.44
388.713	115.44
388.938	104.44
389.163	93.44
389.387	89.44
389.612	91.44
389.837	96.44
390.062	95.44
390.287	105.44
390.512	82.44
390.736	81.44
390.961	86.44
391.186	104.44
391.411	98.44
391.636	84.44
391.86	81.44
392.085	78.44
392.31	89.44
392.534	80.44
392.759	75.44
392.984	89.44
393.208	107.44
393.433	165.44
393.658	118.44
393.882	89.44
394.107	80.44
394.331	85.44
394.556	95.44
394.78	87.44
395.005	102.44
395.229	77.44
395.454	84.44
395.678	94.44
395.903	100.44
396.127	81.44
396.352	96.44
396.576	85.44
396.801	124.44
397.025	130.44
397.249	95.44
397.474	90.44
397.698	78.44
397.922	83.44
398.147	88.44
398.371	77.44
398.595	83.44
398.82	75.44
399.044	74.44
399.268	94.44
399.492	78.44
399.717	87.44
399.941	90.44
400.165	76.44
400.389	91.44
400.613	91.44
400.837	84.44
401.062	85.44
401.286	86.44
401.51	86.44
401.734	85.44
401.958	86.44
402.182	107.44
402.406	109.44
402.63	91.44
402.854	93.44
403.078	80.44
403.302	87.44
403.526	86.44
403.75	89.44
403.974	80.44
404.198	95.44
404.422	89.44
404.645	83.44
404.869	92.44
405.093	85.44
405.317	92.44
405.541	86.44
405.765	93.44
405.988	88.44
406.212	137.44
406.436	140.44
406.66	106.44
406.883	83.44
407.107	99.44
407.331	104.44
407.555	102.44
407.778	93.44
408.002	95.44
408.226	104.44
408.449	92.44
408.673	88.44
408.896	81.44
409.12	95.44
409.344	90.44
409.567	106.44
409.791	83.44
410.014	101.44
410.238	102.44
410.461	96.44
410.685	90.44
410.908	109.44
411.132	104.44
411.355	95.44
411.578	100.44
411.802	80.44
412.025	69.44
412.249	86.44
412.472	96.44
412.695	87.44
412.919	98.44
413.142	93.44
413.365	84.44
413.589	83.44
413.812	93.44
414.035	83.44
414.258	110.44
414.482	102.44
414.705	75.44
414.928	99.44
415.151	105.44
415.374	97.44
415.597	91.44
415.821	88.44
416.044	102.44
416.267	114.44
416.49	85.44
416.713	96.44
416.936	85.44
417.159	81.44
417.382	71.44
417.605	103.44
417.828	99.44
418.051	102.44
418.274	102.44
418.497	103.44
418.72	81.44
418.943	90.44
419.166	94.44
419.389	96.44
419.611	94.44
419.834	105.44
420.057	82.44
420.28	70.44
420.503	77.44
420.726	63.44
420.948	87.44
421.171	87.44
421.394	92.44
421.617	95.44
421.839	83.44
422.062	92.44
422.285	97.44
422.507	112.44
422.73	144.44
422.953	121.44
423.175	94.44
423.398	85.44
423.621	82.44
423.843	89.44
424.066	75.44
424.288	95.44
424.511	85.44
424.733	90.44
424.956	91.44
425.178	94.44
425.401	83.44
425.623	90.44
425.846	81.44
426.068	78.44
426.291	86.44
426.513	83.44
426.735	83.44
426.958	89.44
427.18	95.44
427.402	104.44
427.625	120.44
427.847	105.44
428.069	83.44
428.292	82.44
428.514	71.44
428.736	81.44
428.958	92.44
429.181	87.44
429.403	94.44
429.625	90.44
429.847	93.44
430.069	89.44
430.292	89.44
430.514	70.44
430.736	74.44
430.958	90.44
431.18	79.44
431.402	86.44
431.624	89.44
431.846	78.44
432.068	93.44
432.29	75.44
432.512	76.44
432.734	86.44
432.956	99.44
433.178	94.44
433.4	93.44
433.622	75.44
433.844	101.44
434.066	88.44
434.287	90.44
434.509	66.44
434.731	82.44
434.953	86.44
435.175	91.44
435.397	94.44
435.618	101.44
435.84	94.44
436.062	101.44
436.284	93.44
436.505	96.44
436.727	103.44
436.949	85.44
437.17	74.44
437.392	76.44
437.614	92.44
437.835	99.44
438.057	94.44
438.278	91.44
438.5	81.44
438.721	99.44
438.943	98.44
439.165	84.44
439.386	79.44
439.608	87.44
439.829	83.44
440.05	85.44
440.272	109.44
440.493	82.44
440.715	95.44
440.936	81.44
441.158	94.44
441.379	79.44
441.6	79.44
441.822	78.44
442.043	89.44
442.264	95.44
442.486	90.44
442.707	88.44
442.928	91.44
443.149	107.44
443.371	96.44
443.592	105.44
443.813	98.44
444.034	83.44
444.255	80.44
444.476	83.44
444.698	70.44
444.919	81.44
445.14	126.44
445.361	123.44
445.582	89.44
445.803	134.44
446.024	113.44
446.245	114.44
446.466	96.44
446.687	82.44
446.908	90.44
447.129	84.44
447.35	81.44
447.571	77.44
447.792	92.44
448.013	72.44
448.234	84.44
448.455	102.44
448.675	99.44
448.896	113.44
449.117	102.44
449.338	94.44
449.559	104.44
449.779	108.44
450	86.44
450.221	84.44
450.442	94.44
450.662	76.44
450.883	88.44
451.104	100.44
451.324	93.44
451.545	77.44
451.766	85.44
451.986	95.44
452.207	81.44
452.428	89.44
452.648	74.44
452.869	97.44
453.089	88.44
453.31	88.44
453.53	90.44
453.751	74.44
453.971	107.44
454.192	99.44
454.412	83.44
454.633	82.44
454.853	89.44
455.073	77.44
455.294	68.44
455.514	83.44
455.734	75.44
455.955	72.44
456.175	70.44
456.395	81.44
456.616	75.44
456.836	82.44
457.056	67.44
457.276	80.44
457.497	82.44
457.717	79.44
457.937	81.44
458.157	81.44
458.377	77.44
458.598	88.44
458.818	107.44
459.038	95.44
459.258	80.44
459.478	90.44
459.698	75.44
459.918	89.44
460.138	77.44
460.358	88.44
460.578	78.44
460.798	77.44
461.018	81.44
461.238	87.44
461.458	87.44
461.678	77.44
461.898	80.44
462.118	75.44
462.338	98.44
462.558	88.44
462.777	94.44
462.997	77.44
463.217	94.44
463.437	73.44
463.657	73.44
463.876	82.44
464.096	78.44
464.316	74.44
464.536	83.44
464.755	85.44
464.975	94.44
465.195	125.44
465.414	118.44
465.634	82.44
465.854	87.44
466.073	97.44
466.293	70.44
466.512	83.44
466.732	90.44
466.951	91.44
467.171	87.44
467.391	81.44
467.61	81.44
467.829	86.44
468.049	86.44
468.268	94.44
468.488	63.44
468.707	75.44
468.927	82.44
469.146	76.44
469.365	85.44
469.585	80.44
469.804	91.44
470.023	89.44
470.243	89.44
470.462	96.44
470.681	86.44
470.901	103.44
471.12	77.44
471.339	77.44
471.558	94.44
471.777	83.44
471.997	86.44
472.216	65.44
472.435	94.44
472.654	77.44
472.873	88.44
473.092	90.44
473.311	94.44
473.53	77.44
473.749	77.44
473.968	74.44
474.187	101.44
474.406	84.44
474.625	84.44
474.844	80.44
475.063	74.44
475.282	79.44
475.501	93.44
475.72	84.44
475.939	72.44
476.158	77.44
476.377	92.44
476.596	87.44
476.814	97.44
477.033	93.44
477.252	70.44
477.471	98.44
477.69	92.44
477.908	79.44
478.127	86.44
478.346	95.44
478.564	87.44
478.783	90.44
479.002	85.44
479.22	81.44
479.439	87.44
479.658	102.44
479.876	75.44
480.095	85.44
480.313	82.44
480.532	79.44
480.751	90.44
480.969	87.44
481.188	96.44
481.406	96.44
481.624	82.44
481.843	87.44
482.061	74.44
482.28	82.44
482.498	86.44
482.717	85.44
482.935	91.44
483.153	85.44
483.372	102.44
483.59	80.44
483.808	72.44
484.027	100.44
484.245	88.44
484.463	95.44
484.681	92.44
484.9	80.44
485.118	85.44
485.336	102.44
485.554	103.44
485.772	109.44
485.99	109.44
486.209	117.44
486.427	101.44
486.645	112.44
486.863	98.44
487.081	102.44
487.299	97.44
487.517	88.44
487.735	92.44
487.953	88.44
488.171	79.44
488.389	74.44
488.607	96.44
488.825	99.44
489.043	89.44
489.261	79.44
489.479	83.44
489.696	97.44
489.914	84.44
490.132	97.44
490.35	83.44
490.568	86.44
490.786	82.44
491.003	97.44
491.221	95.44
491.439	80.44
491.657	89.44
491.874	85.44
492.092	94.44
492.31	82.44
492.527	85.44
492.745	83.44
492.963	95.44
493.18	83.44
493.398	93.44
493.615	96.44
493.833	92.44
494.05	85.44
494.268	80.44
494.485	81.44
494.703	80.44
494.92	92.44
495.138	79.44
495.355	91.44
495.573	88.44
495.79	95.44
496.008	100.44
496.225	104.44
496.442	84.44
496.66	91.44
496.877	92.44
497.094	95.44
497.312	94.44
497.529	95.44
497.746	86.44
497.963	87.44
498.181	94.44
498.398	96.44
498.615	89.44
498.832	98.44
499.049	93.44
499.267	83.44
499.484	82.44
499.701	87.44
499.918	74.44
500.135	87.44
500.352	83.44
500.569	78.44
500.786	83.44
501.003	95.44
501.22	82.44
501.437	88.44
501.654	85.44
501.871	95.44
502.088	71.44
502.305	79.44
502.522	95.44
502.739	91.44
502.956	89.44
503.172	89.44
503.389	86.44
503.606	100.44
503.823	82.44
504.04	91.44
504.256	93.44
504.473	85.44
504.69	94.44
504.907	91.44
505.123	82.44
505.34	67.44
505.557	82.44
505.773	83.44
505.99	94.44
506.207	81.44
506.423	86.44
506.64	85.44
506.856	82.44
507.073	88.44
507.289	82.44
507.506	101.44
507.722	97.44
507.939	91.44
508.155	78.44
508.372	98.44
508.588	98.44
508.805	92.44
509.021	76.44
509.238	93.44
509.454	84.44
509.67	86.44
509.887	102.44
510.103	104.44
510.319	163.44
510.536	473.44
510.752	1506.44
510.968	461.44
511.184	128.44
511.401	85.44
511.617	98.44
511.833	96.44
512.049	91.44
512.265	81.44
512.481	80.44
512.698	83.44
512.914	89.44
513.13	87.44
513.346	76.44
513.562	77.44
513.778	87.44
513.994	93.44
514.21	82.44
514.426	92.44
514.642	117.44
514.858	106.44
515.074	117.44
515.29	269.44
515.506	796.44
515.721	323.44
515.937	110.44
516.153	98.44
516.369	79.44
516.585	81.44
516.801	84.44
517.016	86.44
