Data from Circ_2016_H10_HRD10591_00073.txt Node
Date: Wed Jan 03 09:58:55 EST 2024
User: Yrep
Spectrometer: HR+D1059
Trigger mode: 1
Integration Time (sec): 1.000000E-1
Scans to average: 1
Electric dark correction enabled: true
Nonlinearity correction enabled: false
Boxcar width: 0
XAxis mode: Wavelengths
Number of Pixels in Spectrum: 2048
>>>>>Begin Spectral Data<<<<<
223.165	-19.75
223.4	-19.75
223.635	-19.75
223.869	-22.75
224.104	-20.75
224.338	-8.75
224.573	-13.75
224.808	-17.75
225.042	-9.75
225.277	-3.75
225.511	14.25
225.746	7.25
225.98	-2.75
226.215	15.25
226.449	9.25
226.683	20.25
226.918	24.25
227.152	29.25
227.387	31.25
227.621	41.25
227.856	46.25
228.09	39.25
228.324	58.25
228.559	52.25
228.793	75.25
229.027	77.25
229.262	81.25
229.496	81.25
229.73	74.25
229.964	78.25
230.199	86.25
230.433	75.25
230.667	75.25
230.901	80.25
231.136	66.25
231.37	98.25
231.604	90.25
231.838	82.25
232.072	79.25
232.306	84.25
232.541	88.25
232.775	72.25
233.009	73.25
233.243	99.25
233.477	84.25
233.711	82.25
233.945	88.25
234.179	71.25
234.413	87.25
234.647	88.25
234.881	86.25
235.115	90.25
235.349	92.25
235.583	81.25
235.817	85.25
236.051	78.25
236.285	72.25
236.519	78.25
236.753	78.25
236.987	71.25
237.221	85.25
237.455	86.25
237.689	79.25
237.922	91.25
238.156	86.25
238.39	80.25
238.624	79.25
238.858	74.25
239.091	87.25
239.325	60.25
239.559	78.25
239.793	80.25
240.027	96.25
240.26	97.25
240.494	75.25
240.728	69.25
240.961	74.25
241.195	81.25
241.429	76.25
241.662	88.25
241.896	90.25
242.13	75.25
242.363	87.25
242.597	72.25
242.83	81.25
243.064	76.25
243.298	82.25
243.531	79.25
243.765	80.25
243.998	83.25
244.232	78.25
244.465	93.25
244.699	75.25
244.932	76.25
245.166	79.25
245.399	85.25
245.633	98.25
245.866	80.25
246.099	95.25
246.333	76.25
246.566	59.25
246.8	88.25
247.033	89.25
247.266	83.25
247.5	90.25
247.733	94.25
247.966	81.25
248.2	84.25
248.433	85.25
248.666	84.25
248.899	86.25
249.133	96.25
249.366	102.25
249.599	106.25
249.832	92.25
250.066	80.25
250.299	77.25
250.532	70.25
250.765	86.25
250.998	90.25
251.231	83.25
251.465	85.25
251.698	71.25
251.931	80.25
252.164	75.25
252.397	73.25
252.63	77.25
252.863	87.25
253.096	94.25
253.329	83.25
253.562	85.25
253.795	82.25
254.028	88.25
254.261	83.25
254.494	78.25
254.727	109.25
254.96	99.25
255.193	87.25
255.426	89.25
255.659	81.25
255.892	84.25
256.124	81.25
256.357	87.25
256.59	86.25
256.823	82.25
257.056	79.25
257.289	90.25
257.521	89.25
257.754	87.25
257.987	85.25
258.22	96.25
258.452	81.25
258.685	78.25
258.918	79.25
259.151	77.25
259.383	92.25
259.616	85.25
259.849	87.25
260.081	91.25
260.314	91.25
260.547	91.25
260.779	100.25
261.012	93.25
261.244	87.25
261.477	87.25
261.71	98.25
261.942	124.25
262.175	119.25
262.407	92.25
262.64	79.25
262.872	86.25
263.105	83.25
263.337	93.25
263.57	93.25
263.802	84.25
264.035	83.25
264.267	91.25
264.499	80.25
264.732	86.25
264.964	79.25
265.197	98.25
265.429	84.25
265.661	87.25
265.894	96.25
266.126	88.25
266.358	96.25
266.591	79.25
266.823	93.25
267.055	94.25
267.287	85.25
267.52	91.25
267.752	96.25
267.984	86.25
268.216	78.25
268.448	90.25
268.681	89.25
268.913	98.25
269.145	97.25
269.377	85.25
269.609	85.25
269.841	93.25
270.073	97.25
270.306	84.25
270.538	99.25
270.77	81.25
271.002	82.25
271.234	84.25
271.466	79.25
271.698	106.25
271.93	92.25
272.162	83.25
272.394	85.25
272.626	83.25
272.858	86.25
273.09	91.25
273.322	83.25
273.553	88.25
273.785	80.25
274.017	96.25
274.249	77.25
274.481	79.25
274.713	99.25
274.945	96.25
275.176	91.25
275.408	106.25
275.64	97.25
275.872	101.25
276.104	94.25
276.335	101.25
276.567	84.25
276.799	113.25
277.031	97.25
277.262	79.25
277.494	86.25
277.726	93.25
277.957	93.25
278.189	91.25
278.421	90.25
278.652	85.25
278.884	77.25
279.115	80.25
279.347	76.25
279.579	81.25
279.81	91.25
280.042	86.25
280.273	96.25
280.505	97.25
280.736	96.25
280.968	88.25
281.199	92.25
281.431	104.25
281.662	85.25
281.894	100.25
282.125	100.25
282.356	112.25
282.588	136.25
282.819	119.25
283.051	111.25
283.282	77.25
283.513	99.25
283.745	92.25
283.976	87.25
284.207	94.25
284.439	87.25
284.67	84.25
284.901	79.25
285.132	91.25
285.364	71.25
285.595	90.25
285.826	79.25
286.057	95.25
286.288	99.25
286.52	91.25
286.751	81.25
286.982	101.25
287.213	94.25
287.444	101.25
287.675	92.25
287.906	92.25
288.138	93.25
288.369	105.25
288.6	86.25
288.831	88.25
289.062	92.25
289.293	101.25
289.524	84.25
289.755	93.25
289.986	88.25
290.217	74.25
290.448	91.25
290.679	92.25
290.91	92.25
291.141	98.25
291.371	84.25
291.602	91.25
291.833	92.25
292.064	94.25
292.295	86.25
292.526	99.25
292.757	86.25
292.987	80.25
293.218	86.25
293.449	91.25
293.68	93.25
293.91	94.25
294.141	88.25
294.372	90.25
294.603	98.25
294.833	100.25
295.064	90.25
295.295	89.25
295.525	88.25
295.756	107.25
295.987	115.25
296.217	144.25
296.448	131.25
296.679	96.25
296.909	95.25
297.14	108.25
297.37	93.25
297.601	92.25
297.831	85.25
298.062	88.25
298.292	88.25
298.523	90.25
298.753	86.25
298.984	80.25
299.214	90.25
299.445	77.25
299.675	94.25
299.905	101.25
300.136	85.25
300.366	96.25
300.597	99.25
300.827	74.25
301.057	93.25
301.288	110.25
301.518	92.25
301.748	87.25
301.979	101.25
302.209	89.25
302.439	89.25
302.669	74.25
302.9	85.25
303.13	91.25
303.36	92.25
303.59	91.25
303.82	102.25
304.051	84.25
304.281	107.25
304.511	95.25
304.741	102.25
304.971	92.25
305.201	72.25
305.431	108.25
305.661	106.25
305.891	92.25
306.121	79.25
306.352	92.25
306.582	105.25
306.812	99.25
307.042	94.25
307.272	99.25
307.502	97.25
307.731	92.25
307.961	93.25
308.191	93.25
308.421	85.25
308.651	99.25
308.881	102.25
309.111	93.25
309.341	98.25
309.571	92.25
309.8	110.25
310.03	101.25
310.26	98.25
310.49	95.25
310.72	106.25
310.949	108.25
311.179	93.25
311.409	95.25
311.639	104.25
311.868	102.25
312.098	95.25
312.328	97.25
312.557	112.25
312.787	102.25
313.017	80.25
313.246	96.25
313.476	91.25
313.706	78.25
313.935	108.25
314.165	79.25
314.394	108.25
314.624	102.25
314.853	101.25
315.083	90.25
315.312	85.25
315.542	90.25
315.771	80.25
316.001	88.25
316.23	99.25
316.46	86.25
316.689	95.25
316.919	81.25
317.148	97.25
317.377	102.25
317.607	93.25
317.836	86.25
318.065	103.25
318.295	86.25
318.524	96.25
318.753	87.25
318.983	102.25
319.212	97.25
319.441	125.25
319.67	105.25
319.9	82.25
320.129	91.25
320.358	111.25
320.587	111.25
320.816	92.25
321.046	104.25
321.275	109.25
321.504	101.25
321.733	96.25
321.962	93.25
322.191	104.25
322.42	113.25
322.649	117.25
322.878	117.25
323.108	119.25
323.337	141.25
323.566	128.25
323.795	166.25
324.024	196.25
324.253	416.25
324.482	867.25
324.71	1766.25
324.939	2309.25
325.168	835.25
325.397	246.25
325.626	136.25
325.855	137.25
326.084	130.25
326.313	132.25
326.542	155.25
326.77	246.25
326.999	496.25
327.228	1004.25
327.457	1800.25
327.686	1423.25
327.914	391.25
328.143	210.25
328.372	169.25
328.6	139.25
328.829	133.25
329.058	124.25
329.287	123.25
329.515	116.25
329.744	109.25
329.972	119.25
330.201	147.25
330.43	180.25
330.658	136.25
330.887	151.25
331.115	131.25
331.344	92.25
331.572	104.25
331.801	97.25
332.03	99.25
332.258	89.25
332.486	104.25
332.715	97.25
332.943	91.25
333.172	101.25
333.4	95.25
333.629	109.25
333.857	115.25
334.085	121.25
334.314	144.25
334.542	188.25
334.771	169.25
334.999	107.25
335.227	94.25
335.455	96.25
335.684	109.25
335.912	115.25
336.14	107.25
336.369	105.25
336.597	107.25
336.825	94.25
337.053	87.25
337.281	87.25
337.51	75.25
337.738	93.25
337.966	93.25
338.194	95.25
338.422	106.25
338.65	93.25
338.878	94.25
339.106	108.25
339.334	91.25
339.562	94.25
339.79	90.25
340.018	101.25
340.246	89.25
340.474	99.25
340.702	99.25
340.93	101.25
341.158	107.25
341.386	101.25
341.614	92.25
341.842	97.25
342.07	96.25
342.298	96.25
342.526	95.25
342.754	98.25
342.981	92.25
343.209	87.25
343.437	104.25
343.665	105.25
343.893	101.25
344.12	99.25
344.348	106.25
344.576	93.25
344.804	88.25
345.031	96.25
345.259	92.25
345.487	99.25
345.714	89.25
345.942	105.25
346.17	87.25
346.397	107.25
346.625	88.25
346.853	89.25
347.08	111.25
347.308	117.25
347.535	102.25
347.763	79.25
347.99	96.25
348.218	103.25
348.445	112.25
348.673	104.25
348.9	112.25
349.128	93.25
349.355	106.25
349.583	91.25
349.81	102.25
350.037	100.25
350.265	88.25
350.492	98.25
350.72	96.25
350.947	98.25
351.174	98.25
351.402	124.25
351.629	102.25
351.856	89.25
352.083	110.25
352.311	99.25
352.538	111.25
352.765	107.25
352.992	106.25
353.22	106.25
353.447	104.25
353.674	100.25
353.901	90.25
354.128	97.25
354.355	95.25
354.583	103.25
354.81	111.25
355.037	104.25
355.264	104.25
355.491	96.25
355.718	108.25
355.945	103.25
356.172	101.25
356.399	87.25
356.626	94.25
356.853	105.25
357.08	89.25
357.307	95.25
357.534	95.25
357.761	92.25
357.988	99.25
358.215	91.25
358.441	91.25
358.668	97.25
358.895	95.25
359.122	89.25
359.349	105.25
359.576	87.25
359.802	105.25
360.029	102.25
360.256	119.25
360.483	101.25
360.709	95.25
360.936	93.25
361.163	96.25
361.39	104.25
361.616	107.25
361.843	94.25
362.07	104.25
362.296	107.25
362.523	95.25
362.749	81.25
362.976	102.25
363.203	91.25
363.429	79.25
363.656	103.25
363.882	93.25
364.109	70.25
364.335	103.25
364.562	92.25
364.788	83.25
365.015	92.25
365.241	111.25
365.468	110.25
365.694	102.25
365.92	89.25
366.147	88.25
366.373	77.25
366.599	88.25
366.826	109.25
367.052	94.25
367.278	93.25
367.505	90.25
367.731	88.25
367.957	101.25
368.184	88.25
368.41	96.25
368.636	113.25
368.862	111.25
369.089	108.25
369.315	88.25
369.541	106.25
369.767	97.25
369.993	96.25
370.219	93.25
370.445	81.25
370.672	95.25
370.898	98.25
371.124	90.25
371.35	92.25
371.576	104.25
371.802	89.25
372.028	98.25
372.254	75.25
372.48	85.25
372.706	94.25
372.932	81.25
373.158	84.25
373.384	89.25
373.61	89.25
373.835	96.25
374.061	77.25
374.287	93.25
374.513	83.25
374.739	90.25
374.965	97.25
375.191	89.25
375.416	80.25
375.642	85.25
375.868	97.25
376.094	80.25
376.319	99.25
376.545	77.25
376.771	93.25
376.997	95.25
377.222	101.25
377.448	92.25
377.674	87.25
377.899	88.25
378.125	78.25
378.35	101.25
378.576	96.25
378.802	99.25
379.027	90.25
379.253	94.25
379.478	92.25
379.704	100.25
379.929	91.25
380.155	94.25
380.38	98.25
380.606	97.25
380.831	90.25
381.057	99.25
381.282	102.25
381.507	109.25
381.733	107.25
381.958	95.25
382.184	106.25
382.409	111.25
382.634	106.25
382.86	107.25
383.085	108.25
383.31	118.25
383.535	107.25
383.761	100.25
383.986	102.25
384.211	109.25
384.436	113.25
384.662	111.25
384.887	118.25
385.112	122.25
385.337	110.25
385.562	104.25
385.787	112.25
386.013	117.25
386.238	121.25
386.463	128.25
386.688	122.25
386.913	109.25
387.138	111.25
387.363	109.25
387.588	103.25
387.813	101.25
388.038	116.25
388.263	118.25
388.488	112.25
388.713	93.25
388.938	111.25
389.163	96.25
389.387	105.25
389.612	106.25
389.837	96.25
390.062	102.25
390.287	99.25
390.512	99.25
390.736	92.25
390.961	94.25
391.186	98.25
391.411	102.25
391.636	95.25
391.86	85.25
392.085	79.25
392.31	91.25
392.534	96.25
392.759	101.25
392.984	100.25
393.208	81.25
393.433	102.25
393.658	109.25
393.882	90.25
394.107	93.25
394.331	98.25
394.556	87.25
394.78	96.25
395.005	89.25
395.229	86.25
395.454	93.25
395.678	98.25
395.903	87.25
396.127	102.25
396.352	110.25
396.576	105.25
396.801	90.25
397.025	106.25
397.249	99.25
397.474	76.25
397.698	75.25
397.922	88.25
398.147	103.25
398.371	86.25
398.595	93.25
398.82	96.25
399.044	82.25
399.268	97.25
399.492	94.25
399.717	88.25
399.941	101.25
400.165	92.25
400.389	87.25
400.613	87.25
400.837	84.25
401.062	88.25
401.286	92.25
401.51	87.25
401.734	92.25
401.958	99.25
402.182	124.25
402.406	171.25
402.63	116.25
402.854	91.25
403.078	80.25
403.302	89.25
403.526	93.25
403.75	90.25
403.974	82.25
404.198	89.25
404.422	89.25
404.645	87.25
404.869	97.25
405.093	85.25
405.317	109.25
405.541	99.25
405.765	93.25
405.988	134.25
406.212	175.25
406.436	215.25
406.66	159.25
406.883	99.25
407.107	92.25
407.331	94.25
407.555	95.25
407.778	97.25
408.002	105.25
408.226	104.25
408.449	98.25
408.673	94.25
408.896	113.25
409.12	98.25
409.344	96.25
409.567	87.25
409.791	101.25
410.014	84.25
410.238	100.25
410.461	98.25
410.685	96.25
410.908	96.25
411.132	97.25
411.355	108.25
411.578	96.25
411.802	95.25
412.025	93.25
412.249	102.25
412.472	89.25
412.695	103.25
412.919	116.25
413.142	87.25
413.365	88.25
413.589	98.25
413.812	86.25
414.035	86.25
414.258	98.25
414.482	99.25
414.705	83.25
414.928	106.25
415.151	112.25
415.374	97.25
415.597	100.25
415.821	96.25
416.044	80.25
416.267	85.25
416.49	91.25
416.713	88.25
416.936	89.25
417.159	90.25
417.382	79.25
417.605	80.25
417.828	103.25
418.051	94.25
418.274	100.25
418.497	80.25
418.72	77.25
418.943	100.25
419.166	100.25
419.389	101.25
419.611	75.25
419.834	93.25
420.057	97.25
420.28	96.25
420.503	94.25
420.726	71.25
420.948	81.25
421.171	106.25
421.394	108.25
421.617	100.25
421.839	93.25
422.062	80.25
422.285	104.25
422.507	104.25
422.73	99.25
422.953	104.25
423.175	83.25
423.398	96.25
423.621	90.25
423.843	87.25
424.066	87.25
424.288	93.25
424.511	77.25
424.733	103.25
424.956	111.25
425.178	108.25
425.401	103.25
425.623	104.25
425.846	103.25
426.068	103.25
426.291	87.25
426.513	85.25
426.735	93.25
426.958	95.25
427.18	110.25
427.402	141.25
427.625	176.25
427.847	131.25
428.069	129.25
428.292	90.25
428.514	96.25
428.736	95.25
428.958	92.25
429.181	102.25
429.403	103.25
429.625	95.25
429.847	95.25
430.069	99.25
430.292	89.25
430.514	87.25
430.736	100.25
430.958	96.25
431.18	86.25
431.402	91.25
431.624	77.25
431.846	85.25
432.068	95.25
432.29	78.25
432.512	98.25
432.734	96.25
432.956	121.25
433.178	101.25
433.4	103.25
433.622	93.25
433.844	76.25
434.066	82.25
434.287	108.25
434.509	87.25
434.731	84.25
434.953	95.25
435.175	104.25
435.397	107.25
435.618	87.25
435.84	107.25
436.062	119.25
436.284	113.25
436.505	111.25
436.727	99.25
436.949	89.25
437.17	99.25
437.392	96.25
437.614	100.25
437.835	116.25
438.057	117.25
438.278	115.25
438.5	99.25
438.721	129.25
438.943	103.25
439.165	95.25
439.386	86.25
439.608	83.25
439.829	96.25
440.05	116.25
440.272	147.25
440.493	109.25
440.715	92.25
440.936	92.25
441.158	95.25
441.379	70.25
441.6	107.25
441.822	93.25
442.043	106.25
442.264	113.25
442.486	119.25
442.707	98.25
442.928	100.25
443.149	130.25
443.371	128.25
443.592	110.25
443.813	115.25
444.034	90.25
444.255	92.25
444.476	91.25
444.698	80.25
444.919	101.25
445.14	120.25
445.361	118.25
445.582	120.25
445.803	157.25
446.024	131.25
446.245	130.25
446.466	111.25
446.687	98.25
446.908	91.25
447.129	87.25
447.35	98.25
447.571	87.25
447.792	91.25
448.013	99.25
448.234	106.25
448.455	111.25
448.675	117.25
448.896	126.25
449.117	111.25
449.338	115.25
449.559	123.25
449.779	155.25
450	111.25
450.221	84.25
450.442	90.25
450.662	98.25
450.883	93.25
451.104	108.25
451.324	107.25
451.545	99.25
451.766	84.25
451.986	99.25
452.207	90.25
452.428	93.25
452.648	104.25
452.869	108.25
453.089	111.25
453.31	116.25
453.53	107.25
453.751	81.25
453.971	103.25
454.192	99.25
454.412	94.25
454.633	93.25
454.853	88.25
455.073	87.25
455.294	103.25
455.514	99.25
455.734	99.25
455.955	89.25
456.175	75.25
456.395	71.25
456.616	84.25
456.836	92.25
457.056	90.25
457.276	80.25
457.497	82.25
457.717	75.25
457.937	93.25
458.157	92.25
458.377	104.25
458.598	117.25
458.818	154.25
459.038	159.25
459.258	122.25
459.478	97.25
459.698	90.25
459.918	98.25
460.138	101.25
460.358	76.25
460.578	86.25
460.798	102.25
461.018	101.25
461.238	102.25
461.458	95.25
461.678	83.25
461.898	94.25
462.118	90.25
462.338	101.25
462.558	83.25
462.777	105.25
462.997	101.25
463.217	86.25
463.437	93.25
463.657	85.25
463.876	87.25
464.096	91.25
464.316	83.25
464.536	94.25
464.755	94.25
464.975	112.25
465.195	163.25
465.414	174.25
465.634	81.25
465.854	100.25
466.073	91.25
466.293	85.25
466.512	92.25
466.732	89.25
466.951	86.25
467.171	92.25
467.391	105.25
467.61	109.25
467.829	97.25
468.049	95.25
468.268	109.25
468.488	103.25
468.707	90.25
468.927	96.25
469.146	85.25
469.365	85.25
469.585	88.25
469.804	100.25
470.023	103.25
470.243	100.25
470.462	106.25
470.681	116.25
470.901	112.25
471.12	95.25
471.339	86.25
471.558	103.25
471.777	106.25
471.997	104.25
472.216	170.25
472.435	199.25
472.654	136.25
472.873	98.25
473.092	100.25
473.311	88.25
473.53	77.25
473.749	81.25
473.968	89.25
474.187	101.25
474.406	108.25
474.625	75.25
474.844	84.25
475.063	82.25
475.282	80.25
475.501	96.25
475.72	91.25
475.939	77.25
476.158	95.25
476.377	91.25
476.596	85.25
476.814	100.25
477.033	97.25
477.252	104.25
477.471	113.25
477.69	91.25
477.908	96.25
478.127	95.25
478.346	87.25
478.564	84.25
478.783	102.25
479.002	96.25
479.22	99.25
479.439	97.25
479.658	109.25
479.876	106.25
480.095	78.25
480.313	100.25
480.532	84.25
480.751	84.25
480.969	142.25
481.188	303.25
481.406	226.25
481.624	112.25
481.843	96.25
482.061	92.25
482.28	84.25
482.498	99.25
482.717	91.25
482.935	101.25
483.153	94.25
483.372	89.25
483.59	92.25
483.808	94.25
484.027	79.25
484.245	93.25
484.463	84.25
484.681	97.25
484.9	86.25
485.118	99.25
485.336	107.25
485.554	104.25
485.772	110.25
485.99	109.25
486.209	113.25
486.427	110.25
486.645	116.25
486.863	115.25
487.081	106.25
487.299	85.25
487.517	109.25
487.735	82.25
487.953	103.25
488.171	102.25
488.389	113.25
488.607	111.25
488.825	83.25
489.043	99.25
489.261	88.25
489.479	107.25
489.696	92.25
489.914	87.25
490.132	82.25
490.35	109.25
490.568	81.25
490.786	83.25
491.003	104.25
491.221	96.25
491.439	93.25
491.657	102.25
491.874	100.25
492.092	87.25
492.31	105.25
492.527	92.25
492.745	92.25
492.963	106.25
493.18	104.25
493.398	98.25
493.615	115.25
493.833	100.25
494.05	68.25
494.268	88.25
494.485	93.25
494.703	102.25
494.92	91.25
495.138	88.25
495.355	90.25
495.573	100.25
495.79	102.25
496.008	91.25
496.225	90.25
496.442	82.25
496.66	91.25
496.877	103.25
497.094	100.25
497.312	102.25
497.529	89.25
497.746	91.25
497.963	91.25
498.181	105.25
498.398	97.25
498.615	105.25
498.832	111.25
499.049	106.25
499.267	81.25
499.484	84.25
499.701	96.25
499.918	102.25
500.135	90.25
500.352	98.25
500.569	88.25
500.786	99.25
501.003	88.25
501.22	101.25
501.437	104.25
501.654	88.25
501.871	109.25
502.088	100.25
502.305	88.25
502.522	103.25
502.739	89.25
502.956	102.25
503.172	91.25
503.389	77.25
503.606	116.25
503.823	111.25
504.04	95.25
504.256	91.25
504.473	92.25
504.69	95.25
504.907	94.25
505.123	95.25
505.34	81.25
505.557	94.25
505.773	81.25
505.99	97.25
506.207	104.25
506.423	76.25
506.64	91.25
506.856	96.25
507.073	94.25
507.289	90.25
507.506	94.25
507.722	110.25
507.939	119.25
508.155	101.25
508.372	112.25
508.588	99.25
508.805	101.25
509.021	89.25
509.238	100.25
509.454	101.25
509.67	99.25
509.887	115.25
510.103	124.25
510.319	229.25
510.536	721.25
510.752	2435.25
510.968	713.25
511.184	166.25
511.401	110.25
511.617	86.25
511.833	98.25
512.049	93.25
512.265	87.25
512.481	106.25
512.698	83.25
512.914	102.25
513.13	89.25
513.346	85.25
513.562	108.25
513.778	92.25
