Data from Circ_2016_H10_HRD10591_00050.txt Node
Date: Wed Jan 03 09:58:50 EST 2024
User: Yrep
Spectrometer: HR+D1059
Trigger mode: 1
Integration Time (sec): 1.000000E-1
Scans to average: 1
Electric dark correction enabled: true
Nonlinearity correction enabled: false
Boxcar width: 0
XAxis mode: Wavelengths
Number of Pixels in Spectrum: 2048
>>>>>Begin Spectral Data<<<<<
223.165	-21.44
223.4	-21.44
223.635	-21.44
223.869	-13.44
224.104	-14.44
224.338	-17.44
224.573	-7.44
224.808	-5.44
225.042	-6.44
225.277	-5.44
225.511	-5.44
225.746	-6.44
225.98	1.56
226.215	12.56
226.449	13.56
226.683	5.56
226.918	31.56
227.152	38.56
227.387	35.56
227.621	48.56
227.856	43.56
228.09	51.56
228.324	53.56
228.559	49.56
228.793	42.56
229.027	80.56
229.262	67.56
229.496	65.56
229.73	85.56
229.964	83.56
230.199	67.56
230.433	65.56
230.667	76.56
230.901	69.56
231.136	83.56
231.37	90.56
231.604	84.56
231.838	80.56
232.072	76.56
232.306	58.56
232.541	68.56
232.775	67.56
233.009	79.56
233.243	87.56
233.477	69.56
233.711	86.56
233.945	75.56
234.179	82.56
234.413	79.56
234.647	83.56
234.881	75.56
235.115	81.56
235.349	81.56
235.583	76.56
235.817	82.56
236.051	69.56
236.285	69.56
236.519	74.56
236.753	78.56
236.987	75.56
237.221	83.56
237.455	88.56
237.689	72.56
237.922	79.56
238.156	75.56
238.39	69.56
238.624	80.56
238.858	83.56
239.091	82.56
239.325	76.56
239.559	77.56
239.793	74.56
240.027	79.56
240.26	75.56
240.494	71.56
240.728	72.56
240.961	69.56
241.195	73.56
241.429	68.56
241.662	85.56
241.896	77.56
242.13	65.56
242.363	80.56
242.597	65.56
242.83	84.56
243.064	84.56
243.298	77.56
243.531	75.56
243.765	80.56
243.998	74.56
244.232	82.56
244.465	75.56
244.699	65.56
244.932	63.56
245.166	86.56
245.399	68.56
245.633	78.56
245.866	73.56
246.099	80.56
246.333	68.56
246.566	73.56
246.8	75.56
247.033	78.56
247.266	89.56
247.5	73.56
247.733	86.56
247.966	76.56
248.2	56.56
248.433	67.56
248.666	74.56
248.899	75.56
249.133	91.56
249.366	98.56
249.599	103.56
249.832	82.56
250.066	78.56
250.299	79.56
250.532	70.56
250.765	69.56
250.998	76.56
251.231	67.56
251.465	66.56
251.698	72.56
251.931	83.56
252.164	79.56
252.397	80.56
252.63	64.56
252.863	92.56
253.096	83.56
253.329	83.56
253.562	78.56
253.795	79.56
254.028	72.56
254.261	61.56
254.494	74.56
254.727	87.56
254.96	84.56
255.193	73.56
255.426	72.56
255.659	82.56
255.892	92.56
256.124	84.56
256.357	83.56
256.59	83.56
256.823	75.56
257.056	79.56
257.289	81.56
257.521	85.56
257.754	90.56
257.987	76.56
258.22	91.56
258.452	93.56
258.685	88.56
258.918	89.56
259.151	88.56
259.383	77.56
259.616	85.56
259.849	88.56
260.081	88.56
260.314	82.56
260.547	76.56
260.779	87.56
261.012	93.56
261.244	77.56
261.477	89.56
261.71	102.56
261.942	114.56
262.175	122.56
262.407	100.56
262.64	83.56
262.872	70.56
263.105	74.56
263.337	75.56
263.57	78.56
263.802	81.56
264.035	75.56
264.267	79.56
264.499	81.56
264.732	75.56
264.964	75.56
265.197	89.56
265.429	84.56
265.661	83.56
265.894	64.56
266.126	88.56
266.358	86.56
266.591	94.56
266.823	89.56
267.055	89.56
267.287	91.56
267.52	96.56
267.752	80.56
267.984	78.56
268.216	80.56
268.448	96.56
268.681	67.56
268.913	61.56
269.145	88.56
269.377	85.56
269.609	69.56
269.841	68.56
270.073	93.56
270.306	91.56
270.538	80.56
270.77	86.56
271.002	88.56
271.234	94.56
271.466	85.56
271.698	88.56
271.93	89.56
272.162	84.56
272.394	70.56
272.626	82.56
272.858	82.56
273.09	84.56
273.322	80.56
273.553	91.56
273.785	89.56
274.017	75.56
274.249	79.56
274.481	79.56
274.713	74.56
274.945	94.56
275.176	83.56
275.408	92.56
275.64	81.56
275.872	89.56
276.104	95.56
276.335	100.56
276.567	101.56
276.799	107.56
277.031	110.56
277.262	100.56
277.494	89.56
277.726	87.56
277.957	84.56
278.189	82.56
278.421	70.56
278.652	76.56
278.884	83.56
279.115	84.56
279.347	94.56
279.579	101.56
279.81	76.56
280.042	65.56
280.273	80.56
280.505	66.56
280.736	82.56
280.968	86.56
281.199	96.56
281.431	85.56
281.662	80.56
281.894	95.56
282.125	98.56
282.356	136.56
282.588	158.56
282.819	122.56
283.051	95.56
283.282	88.56
283.513	86.56
283.745	87.56
283.976	73.56
284.207	76.56
284.439	86.56
284.67	82.56
284.901	99.56
285.132	91.56
285.364	86.56
285.595	74.56
285.826	88.56
286.057	83.56
286.288	92.56
286.52	69.56
286.751	88.56
286.982	89.56
287.213	64.56
287.444	87.56
287.675	82.56
287.906	81.56
288.138	95.56
288.369	93.56
288.6	98.56
288.831	88.56
289.062	86.56
289.293	71.56
289.524	89.56
289.755	78.56
289.986	88.56
290.217	76.56
290.448	71.56
290.679	96.56
290.91	82.56
291.141	79.56
291.371	85.56
291.602	87.56
291.833	90.56
292.064	87.56
292.295	80.56
292.526	90.56
292.757	85.56
292.987	99.56
293.218	71.56
293.449	79.56
293.68	94.56
293.91	86.56
294.141	78.56
294.372	100.56
294.603	90.56
294.833	83.56
295.064	94.56
295.295	97.56
295.525	97.56
295.756	99.56
295.987	119.56
296.217	150.56
296.448	136.56
296.679	100.56
296.909	83.56
297.14	85.56
297.37	87.56
297.601	90.56
297.831	81.56
298.062	99.56
298.292	100.56
298.523	85.56
298.753	76.56
298.984	74.56
299.214	91.56
299.445	92.56
299.675	85.56
299.905	102.56
300.136	78.56
300.366	87.56
300.597	81.56
300.827	93.56
301.057	109.56
301.288	111.56
301.518	100.56
301.748	84.56
301.979	96.56
302.209	92.56
302.439	86.56
302.669	87.56
302.9	97.56
303.13	84.56
303.36	96.56
303.59	113.56
303.82	112.56
304.051	88.56
304.281	76.56
304.511	81.56
304.741	85.56
304.971	77.56
305.201	77.56
305.431	83.56
305.661	87.56
305.891	83.56
306.121	78.56
306.352	104.56
306.582	95.56
306.812	97.56
307.042	82.56
307.272	86.56
307.502	90.56
307.731	110.56
307.961	89.56
308.191	75.56
308.421	89.56
308.651	90.56
308.881	99.56
309.111	106.56
309.341	92.56
309.571	104.56
309.8	92.56
310.03	97.56
310.26	96.56
310.49	97.56
310.72	107.56
310.949	108.56
311.179	97.56
311.409	92.56
311.639	104.56
311.868	104.56
312.098	98.56
312.328	91.56
312.557	104.56
312.787	101.56
313.017	92.56
313.246	88.56
313.476	87.56
313.706	90.56
313.935	83.56
314.165	104.56
314.394	105.56
314.624	99.56
314.853	103.56
315.083	90.56
315.312	92.56
315.542	80.56
315.771	101.56
316.001	88.56
316.23	99.56
316.46	93.56
316.689	85.56
316.919	96.56
317.148	103.56
317.377	103.56
317.607	100.56
317.836	92.56
318.065	95.56
318.295	88.56
318.524	96.56
318.753	100.56
318.983	98.56
319.212	114.56
319.441	112.56
319.67	112.56
319.9	95.56
320.129	92.56
320.358	105.56
320.587	98.56
320.816	96.56
321.046	104.56
321.275	114.56
321.504	105.56
321.733	96.56
321.962	97.56
322.191	102.56
322.42	103.56
322.649	107.56
322.878	125.56
323.108	124.56
323.337	145.56
323.566	144.56
323.795	170.56
324.024	258.56
324.253	530.56
324.482	1157.56
324.71	2386.56
324.939	3112.56
325.168	1143.56
325.397	306.56
325.626	184.56
325.855	142.56
326.084	129.56
326.313	165.56
326.542	180.56
326.77	278.56
326.999	581.56
327.228	1244.56
327.457	2363.56
327.686	1878.56
327.914	481.56
328.143	234.56
328.372	196.56
328.6	149.56
328.829	148.56
329.058	154.56
329.287	139.56
329.515	103.56
329.744	99.56
329.972	110.56
330.201	120.56
330.43	138.56
330.658	153.56
330.887	174.56
331.115	150.56
331.344	108.56
331.572	111.56
331.801	119.56
332.03	115.56
332.258	98.56
332.486	95.56
332.715	98.56
332.943	99.56
333.172	111.56
333.4	103.56
333.629	112.56
333.857	130.56
334.085	108.56
334.314	129.56
334.542	150.56
334.771	130.56
334.999	102.56
335.227	111.56
335.455	105.56
335.684	86.56
335.912	101.56
336.14	112.56
336.369	103.56
336.597	104.56
336.825	99.56
337.053	93.56
337.281	85.56
337.51	86.56
337.738	84.56
337.966	95.56
338.194	102.56
338.422	100.56
338.65	107.56
338.878	115.56
339.106	110.56
339.334	82.56
339.562	97.56
339.79	98.56
340.018	93.56
340.246	94.56
340.474	92.56
340.702	87.56
340.93	91.56
341.158	84.56
341.386	91.56
341.614	94.56
341.842	80.56
342.07	91.56
342.298	85.56
342.526	81.56
342.754	82.56
342.981	90.56
343.209	96.56
343.437	83.56
343.665	81.56
343.893	101.56
344.12	100.56
344.348	104.56
344.576	87.56
344.804	85.56
345.031	99.56
345.259	89.56
345.487	98.56
345.714	92.56
345.942	101.56
346.17	97.56
346.397	91.56
346.625	102.56
346.853	99.56
347.08	91.56
347.308	88.56
347.535	102.56
347.763	107.56
347.99	94.56
348.218	112.56
348.445	107.56
348.673	110.56
348.9	91.56
349.128	71.56
349.355	99.56
349.583	91.56
349.81	90.56
350.037	88.56
350.265	104.56
350.492	106.56
350.72	95.56
350.947	103.56
351.174	116.56
351.402	112.56
351.629	96.56
351.856	104.56
352.083	107.56
352.311	116.56
352.538	95.56
352.765	106.56
352.992	121.56
353.22	122.56
353.447	105.56
353.674	94.56
353.901	101.56
354.128	91.56
354.355	96.56
354.583	92.56
354.81	99.56
355.037	93.56
355.264	100.56
355.491	98.56
355.718	90.56
355.945	92.56
356.172	88.56
356.399	91.56
356.626	88.56
356.853	104.56
357.08	91.56
357.307	78.56
357.534	84.56
357.761	90.56
357.988	101.56
358.215	88.56
358.441	94.56
358.668	87.56
358.895	90.56
359.122	89.56
359.349	92.56
359.576	93.56
359.802	99.56
360.029	119.56
360.256	118.56
360.483	116.56
360.709	82.56
360.936	85.56
361.163	93.56
361.39	100.56
361.616	103.56
361.843	91.56
362.07	90.56
362.296	111.56
362.523	102.56
362.749	90.56
362.976	99.56
363.203	86.56
363.429	97.56
363.656	118.56
363.882	86.56
364.109	107.56
364.335	99.56
364.562	76.56
364.788	95.56
365.015	111.56
365.241	97.56
365.468	126.56
365.694	109.56
365.92	87.56
366.147	99.56
366.373	91.56
366.599	83.56
366.826	75.56
367.052	92.56
367.278	97.56
367.505	90.56
367.731	102.56
367.957	104.56
368.184	99.56
368.41	116.56
368.636	127.56
368.862	139.56
369.089	94.56
369.315	97.56
369.541	96.56
369.767	88.56
369.993	100.56
370.219	101.56
370.445	95.56
370.672	98.56
370.898	96.56
371.124	75.56
371.35	90.56
371.576	84.56
371.802	76.56
372.028	94.56
372.254	69.56
372.48	96.56
372.706	86.56
372.932	78.56
373.158	79.56
373.384	91.56
373.61	103.56
373.835	86.56
374.061	80.56
374.287	75.56
374.513	76.56
374.739	83.56
374.965	92.56
375.191	87.56
375.416	99.56
375.642	88.56
375.868	99.56
376.094	84.56
376.319	84.56
376.545	101.56
376.771	105.56
376.997	78.56
377.222	86.56
377.448	78.56
377.674	99.56
377.899	90.56
378.125	86.56
378.35	98.56
378.576	96.56
378.802	79.56
379.027	95.56
379.253	104.56
379.478	108.56
379.704	99.56
379.929	98.56
380.155	110.56
380.38	92.56
380.606	82.56
380.831	97.56
381.057	88.56
381.282	99.56
381.507	105.56
381.733	96.56
381.958	95.56
382.184	101.56
382.409	103.56
382.634	116.56
382.86	114.56
383.085	105.56
383.31	93.56
383.535	98.56
383.761	109.56
383.986	90.56
384.211	110.56
384.436	99.56
384.662	118.56
384.887	103.56
385.112	115.56
385.337	120.56
385.562	107.56
385.787	112.56
386.013	108.56
386.238	130.56
386.463	132.56
386.688	114.56
386.913	95.56
387.138	125.56
387.363	101.56
387.588	90.56
387.813	98.56
388.038	112.56
388.263	128.56
388.488	119.56
388.713	88.56
388.938	106.56
389.163	82.56
389.387	84.56
389.612	100.56
389.837	89.56
390.062	77.56
390.287	99.56
390.512	95.56
390.736	91.56
390.961	86.56
391.186	81.56
391.411	100.56
391.636	98.56
391.86	85.56
392.085	79.56
392.31	88.56
392.534	91.56
392.759	84.56
392.984	98.56
393.208	102.56
393.433	91.56
393.658	84.56
393.882	77.56
394.107	88.56
394.331	83.56
394.556	76.56
394.78	95.56
395.005	98.56
395.229	92.56
395.454	91.56
395.678	99.56
395.903	82.56
396.127	74.56
396.352	83.56
396.576	86.56
396.801	89.56
397.025	93.56
397.249	81.56
397.474	71.56
397.698	73.56
397.922	90.56
398.147	98.56
398.371	76.56
398.595	100.56
398.82	82.56
399.044	76.56
399.268	79.56
399.492	84.56
399.717	75.56
399.941	91.56
400.165	94.56
400.389	103.56
400.613	81.56
400.837	88.56
401.062	89.56
401.286	84.56
401.51	90.56
401.734	86.56
401.958	126.56
402.182	132.56
402.406	179.56
402.63	132.56
402.854	98.56
403.078	81.56
403.302	80.56
403.526	102.56
403.75	83.56
403.974	71.56
404.198	87.56
404.422	93.56
404.645	88.56
404.869	87.56
405.093	91.56
405.317	98.56
405.541	108.56
405.765	97.56
405.988	122.56
406.212	178.56
406.436	286.56
406.66	178.56
406.883	104.56
407.107	75.56
407.331	104.56
407.555	103.56
407.778	93.56
408.002	94.56
408.226	113.56
408.449	104.56
408.673	75.56
408.896	70.56
409.12	90.56
409.344	82.56
409.567	83.56
409.791	88.56
410.014	97.56
410.238	98.56
410.461	95.56
410.685	93.56
410.908	100.56
411.132	92.56
411.355	90.56
411.578	82.56
411.802	90.56
412.025	92.56
412.249	75.56
412.472	78.56
412.695	89.56
412.919	84.56
413.142	103.56
413.365	78.56
413.589	81.56
413.812	86.56
414.035	102.56
414.258	99.56
414.482	77.56
414.705	92.56
414.928	90.56
415.151	80.56
415.374	102.56
415.597	85.56
415.821	87.56
416.044	82.56
416.267	78.56
416.49	79.56
416.713	91.56
416.936	83.56
417.159	96.56
417.382	110.56
417.605	100.56
417.828	106.56
418.051	97.56
418.274	91.56
418.497	96.56
418.72	82.56
418.943	93.56
419.166	89.56
419.389	80.56
419.611	87.56
419.834	103.56
420.057	94.56
420.28	104.56
420.503	72.56
420.726	82.56
420.948	88.56
421.171	93.56
421.394	104.56
421.617	93.56
421.839	72.56
422.062	78.56
422.285	91.56
422.507	91.56
422.73	99.56
422.953	103.56
423.175	95.56
423.398	87.56
423.621	84.56
423.843	90.56
424.066	90.56
424.288	85.56
424.511	82.56
424.733	95.56
424.956	112.56
425.178	101.56
425.401	96.56
425.623	103.56
425.846	85.56
426.068	83.56
426.291	88.56
426.513	93.56
426.735	85.56
426.958	99.56
427.18	116.56
427.402	156.56
427.625	201.56
427.847	153.56
428.069	105.56
428.292	100.56
428.514	90.56
428.736	95.56
428.958	89.56
429.181	91.56
429.403	84.56
429.625	79.56
429.847	96.56
430.069	99.56
430.292	101.56
430.514	76.56
430.736	84.56
430.958	83.56
431.18	80.56
431.402	85.56
431.624	90.56
431.846	81.56
432.068	83.56
432.29	78.56
432.512	79.56
432.734	89.56
432.956	97.56
433.178	100.56
433.4	101.56
433.622	99.56
433.844	105.56
434.066	89.56
434.287	83.56
434.509	89.56
434.731	73.56
434.953	92.56
435.175	75.56
435.397	91.56
435.618	89.56
435.84	103.56
436.062	134.56
436.284	126.56
436.505	117.56
436.727	114.56
436.949	103.56
437.17	87.56
437.392	84.56
437.614	79.56
437.835	116.56
438.057	128.56
438.278	128.56
438.5	106.56
438.721	127.56
438.943	106.56
439.165	90.56
439.386	102.56
439.608	98.56
439.829	106.56
440.05	130.56
440.272	178.56
440.493	118.56
440.715	83.56
440.936	99.56
441.158	84.56
441.379	85.56
441.6	97.56
441.822	96.56
442.043	82.56
442.264	105.56
442.486	106.56
442.707	102.56
442.928	112.56
443.149	161.56
443.371	159.56
443.592	124.56
443.813	110.56
444.034	111.56
444.255	101.56
444.476	95.56
444.698	92.56
444.919	90.56
445.14	143.56
445.361	142.56
445.582	126.56
445.803	152.56
446.024	158.56
446.245	150.56
446.466	127.56
446.687	84.56
446.908	86.56
447.129	83.56
447.35	82.56
447.571	89.56
447.792	91.56
448.013	100.56
448.234	108.56
448.455	117.56
448.675	112.56
448.896	132.56
449.117	102.56
449.338	106.56
449.559	139.56
449.779	127.56
450	96.56
450.221	84.56
450.442	86.56
450.662	94.56
450.883	104.56
451.104	126.56
451.324	93.56
451.545	84.56
451.766	76.56
451.986	82.56
452.207	101.56
452.428	98.56
452.648	103.56
452.869	110.56
453.089	116.56
453.31	148.56
453.53	120.56
453.751	89.56
453.971	104.56
454.192	126.56
454.412	97.56
454.633	82.56
454.853	86.56
455.073	81.56
455.294	94.56
455.514	97.56
455.734	91.56
455.955	99.56
456.175	82.56
456.395	81.56
456.616	77.56
456.836	79.56
457.056	75.56
457.276	89.56
457.497	91.56
457.717	79.56
457.937	72.56
458.157	81.56
458.377	101.56
458.598	116.56
458.818	192.56
459.038	196.56
459.258	129.56
459.478	110.56
459.698	79.56
459.918	84.56
460.138	83.56
460.358	103.56
460.578	91.56
460.798	97.56
461.018	91.56
461.238	81.56
461.458	84.56
461.678	86.56
461.898	88.56
462.118	74.56
462.338	86.56
462.558	83.56
462.777	87.56
462.997	83.56
463.217	82.56
463.437	82.56
463.657	92.56
463.876	94.56
464.096	105.56
464.316	84.56
464.536	104.56
464.755	103.56
464.975	137.56
465.195	219.56
465.414	217.56
465.634	99.56
465.854	93.56
466.073	87.56
466.293	82.56
466.512	88.56
466.732	83.56
466.951	83.56
467.171	103.56
467.391	98.56
467.61	119.56
467.829	112.56
468.049	94.56
468.268	100.56
468.488	88.56
468.707	90.56
468.927	94.56
469.146	97.56
469.365	92.56
469.585	84.56
469.804	99.56
470.023	105.56
470.243	88.56
470.462	110.56
470.681	157.56
470.901	90.56
471.12	98.56
471.339	90.56
471.558	74.56
471.777	85.56
471.997	87.56
472.216	121.56
472.435	148.56
472.654	105.56
472.873	75.56
473.092	88.56
473.311	83.56
473.53	72.56
473.749	89.56
473.968	96.56
474.187	112.56
474.406	96.56
474.625	103.56
474.844	89.56
475.063	86.56
475.282	88.56
475.501	71.56
475.72	76.56
475.939	89.56
476.158	78.56
476.377	95.56
476.596	98.56
476.814	101.56
477.033	87.56
477.252	94.56
477.471	90.56
477.69	99.56
477.908	65.56
478.127	91.56
478.346	95.56
478.564	89.56
478.783	105.56
479.002	90.56
479.22	99.56
479.439	106.56
479.658	121.56
479.876	85.56
480.095	94.56
480.313	91.56
480.532	91.56
480.751	79.56
480.969	100.56
481.188	211.56
481.406	167.56
481.624	103.56
481.843	96.56
482.061	88.56
482.28	85.56
482.498	80.56
482.717	90.56
482.935	80.56
483.153	76.56
483.372	83.56
483.59	98.56
483.808	86.56
484.027	97.56
484.245	90.56
484.463	76.56
484.681	97.56
484.9	83.56
485.118	102.56
485.336	98.56
485.554	92.56
485.772	103.56
485.99	91.56
486.209	89.56
486.427	86.56
486.645	120.56
486.863	111.56
487.081	105.56
487.299	84.56
487.517	99.56
487.735	100.56
487.953	79.56
488.171	95.56
488.389	92.56
488.607	118.56
488.825	95.56
489.043	82.56
489.261	87.56
489.479	105.56
489.696	80.56
489.914	82.56
490.132	81.56
490.35	74.56
490.568	92.56
490.786	91.56
491.003	96.56
491.221	89.56
491.439	99.56
491.657	95.56
491.874	88.56
492.092	86.56
492.31	94.56
492.527	94.56
492.745	103.56
492.963	82.56
493.18	70.56
493.398	97.56
493.615	103.56
493.833	87.56
494.05	89.56
494.268	86.56
494.485	84.56
494.703	88.56
494.92	81.56
495.138	80.56
495.355	88.56
495.573	92.56
495.79	89.56
496.008	85.56
496.225	94.56
496.442	74.56
496.66	86.56
496.877	84.56
497.094	92.56
497.312	84.56
497.529	94.56
497.746	94.56
497.963	99.56
498.181	82.56
498.398	102.56
498.615	98.56
498.832	104.56
499.049	89.56
499.267	80.56
499.484	95.56
499.701	87.56
499.918	95.56
500.135	94.56
500.352	88.56
500.569	82.56
500.786	112.56
501.003	79.56
501.22	100.56
501.437	83.56
501.654	91.56
501.871	119.56
502.088	97.56
502.305	86.56
502.522	89.56
502.739	100.56
502.956	89.56
503.172	88.56
503.389	113.56
503.606	111.56
503.823	95.56
504.04	94.56
504.256	87.56
504.473	83.56
504.69	93.56
504.907	89.56
505.123	78.56
505.34	92.56
505.557	87.56
505.773	82.56
505.99	91.56
506.207	111.56
506.423	94.56
506.64	79.56
506.856	88.56
507.073	96.56
507.289	95.56
507.506	98.56
507.722	125.56
507.939	128.56
508.155	98.56
508.372	90.56
508.588	95.56
508.805	100.56
509.021	97.56
509.238	103.56
509.454	99.56
509.67	114.56
509.887	101.56
510.103	136.56
510.319	247.56
510.536	949.56
510.752	3254.56
510.968	920.56
511.184	197.56
511.401	132.56
511.617	97.56
511.833	91.56
512.049	93.56
512.265	91.56
512.481	79.56
512.698	99.56
512.914	92.56
513.13	74.56
513.346	84.56
513.562	100.56
513.778	92.56
513.994	93.56
514.21	114.56
514.426	132.56
514.642	159.56
514.858	143.56
515.074	214.56
