Data from Circ_2016_H10_HRD10591_00036.txt Node
Date: Wed Jan 03 09:58:47 EST 2024
User: Yrep
Spectrometer: HR+D1059
Trigger mode: 1
Integration Time (sec): 1.000000E-1
Scans to average: 1
Electric dark correction enabled: true
Nonlinearity correction enabled: false
Boxcar width: 0
XAxis mode: Wavelengths
Number of Pixels in Spectrum: 2048
>>>>>Begin Spectral Data<<<<<
223.165	-18.62
223.4	-18.62
223.635	-18.62
223.869	-14.62
224.104	-11.62
224.338	-14.62
224.573	-15.62
224.808	-12.62
225.042	-12.62
225.277	-12.62
225.511	0.38
225.746	7.38
225.98	9.38
226.215	10.38
226.449	10.38
226.683	13.38
226.918	23.38
227.152	38.38
227.387	18.38
227.621	34.38
227.856	37.38
228.09	40.38
228.324	36.38
228.559	64.38
228.793	65.38
229.027	62.38
229.262	77.38
229.496	74.38
229.73	89.38
229.964	79.38
230.199	63.38
230.433	79.38
230.667	78.38
230.901	70.38
231.136	86.38
231.37	54.38
231.604	71.38
231.838	83.38
232.072	66.38
232.306	68.38
232.541	84.38
232.775	80.38
233.009	82.38
233.243	80.38
233.477	71.38
233.711	66.38
233.945	70.38
234.179	75.38
234.413	84.38
234.647	69.38
234.881	74.38
235.115	73.38
235.349	68.38
235.583	87.38
235.817	85.38
236.051	65.38
236.285	82.38
236.519	62.38
236.753	56.38
236.987	78.38
237.221	85.38
237.455	79.38
237.689	86.38
237.922	68.38
238.156	72.38
238.39	69.38
238.624	61.38
238.858	71.38
239.091	61.38
239.325	71.38
239.559	63.38
239.793	76.38
240.027	73.38
240.26	77.38
240.494	91.38
240.728	90.38
240.961	67.38
241.195	80.38
241.429	77.38
241.662	71.38
241.896	78.38
242.13	62.38
242.363	73.38
242.597	74.38
242.83	71.38
243.064	78.38
243.298	85.38
243.531	68.38
243.765	74.38
243.998	78.38
244.232	59.38
244.465	81.38
244.699	84.38
244.932	75.38
245.166	81.38
245.399	59.38
245.633	75.38
245.866	80.38
246.099	64.38
246.333	71.38
246.566	77.38
246.8	79.38
247.033	66.38
247.266	70.38
247.5	93.38
247.733	72.38
247.966	75.38
248.2	74.38
248.433	81.38
248.666	77.38
248.899	84.38
249.133	83.38
249.366	103.38
249.599	98.38
249.832	92.38
250.066	78.38
250.299	87.38
250.532	81.38
250.765	71.38
250.998	78.38
251.231	90.38
251.465	76.38
251.698	73.38
251.931	74.38
252.164	83.38
252.397	71.38
252.63	68.38
252.863	71.38
253.096	72.38
253.329	76.38
253.562	96.38
253.795	78.38
254.028	77.38
254.261	73.38
254.494	72.38
254.727	95.38
254.96	70.38
255.193	86.38
255.426	73.38
255.659	87.38
255.892	78.38
256.124	73.38
256.357	75.38
256.59	76.38
256.823	58.38
257.056	79.38
257.289	94.38
257.521	83.38
257.754	81.38
257.987	75.38
258.22	72.38
258.452	78.38
258.685	71.38
258.918	70.38
259.151	72.38
259.383	69.38
259.616	77.38
259.849	70.38
260.081	89.38
260.314	75.38
260.547	73.38
260.779	82.38
261.012	74.38
261.244	70.38
261.477	100.38
261.71	104.38
261.942	108.38
262.175	121.38
262.407	90.38
262.64	70.38
262.872	78.38
263.105	82.38
263.337	72.38
263.57	77.38
263.802	85.38
264.035	69.38
264.267	79.38
264.499	80.38
264.732	85.38
264.964	88.38
265.197	70.38
265.429	70.38
265.661	82.38
265.894	77.38
266.126	85.38
266.358	79.38
266.591	67.38
266.823	73.38
267.055	77.38
267.287	75.38
267.52	72.38
267.752	83.38
267.984	91.38
268.216	67.38
268.448	71.38
268.681	74.38
268.913	70.38
269.145	82.38
269.377	90.38
269.609	93.38
269.841	78.38
270.073	69.38
270.306	84.38
270.538	83.38
270.77	83.38
271.002	68.38
271.234	79.38
271.466	93.38
271.698	88.38
271.93	66.38
272.162	78.38
272.394	82.38
272.626	73.38
272.858	85.38
273.09	88.38
273.322	83.38
273.553	65.38
273.785	78.38
274.017	81.38
274.249	83.38
274.481	85.38
274.713	71.38
274.945	102.38
275.176	83.38
275.408	91.38
275.64	83.38
275.872	77.38
276.104	82.38
276.335	92.38
276.567	97.38
276.799	115.38
277.031	111.38
277.262	101.38
277.494	91.38
277.726	89.38
277.957	83.38
278.189	69.38
278.421	76.38
278.652	89.38
278.884	93.38
279.115	85.38
279.347	88.38
279.579	95.38
279.81	83.38
280.042	86.38
280.273	88.38
280.505	82.38
280.736	94.38
280.968	84.38
281.199	87.38
281.431	71.38
281.662	86.38
281.894	82.38
282.125	97.38
282.356	120.38
282.588	149.38
282.819	115.38
283.051	89.38
283.282	100.38
283.513	98.38
283.745	95.38
283.976	69.38
284.207	85.38
284.439	75.38
284.67	85.38
284.901	76.38
285.132	90.38
285.364	87.38
285.595	86.38
285.826	82.38
286.057	76.38
286.288	80.38
286.52	88.38
286.751	88.38
286.982	88.38
287.213	90.38
287.444	84.38
287.675	93.38
287.906	86.38
288.138	81.38
288.369	89.38
288.6	84.38
288.831	77.38
289.062	73.38
289.293	81.38
289.524	96.38
289.755	81.38
289.986	83.38
290.217	75.38
290.448	88.38
290.679	91.38
290.91	98.38
291.141	97.38
291.371	91.38
291.602	74.38
291.833	90.38
292.064	84.38
292.295	82.38
292.526	80.38
292.757	85.38
292.987	86.38
293.218	84.38
293.449	91.38
293.68	82.38
293.91	82.38
294.141	100.38
294.372	86.38
294.603	82.38
294.833	89.38
295.064	85.38
295.295	71.38
295.525	90.38
295.756	98.38
295.987	114.38
296.217	134.38
296.448	142.38
296.679	106.38
296.909	89.38
297.14	77.38
297.37	90.38
297.601	84.38
297.831	93.38
298.062	75.38
298.292	89.38
298.523	89.38
298.753	87.38
298.984	106.38
299.214	89.38
299.445	86.38
299.675	82.38
299.905	90.38
300.136	87.38
300.366	72.38
300.597	75.38
300.827	98.38
301.057	91.38
301.288	94.38
301.518	97.38
301.748	98.38
301.979	112.38
302.209	95.38
302.439	87.38
302.669	71.38
302.9	87.38
303.13	93.38
303.36	99.38
303.59	99.38
303.82	117.38
304.051	96.38
304.281	67.38
304.511	86.38
304.741	94.38
304.971	87.38
305.201	93.38
305.431	95.38
305.661	89.38
305.891	100.38
306.121	97.38
306.352	91.38
306.582	104.38
306.812	94.38
307.042	79.38
307.272	94.38
307.502	92.38
307.731	74.38
307.961	80.38
308.191	95.38
308.421	90.38
308.651	93.38
308.881	89.38
309.111	103.38
309.341	102.38
309.571	93.38
309.8	94.38
310.03	92.38
310.26	108.38
310.49	93.38
310.72	95.38
310.949	102.38
311.179	114.38
311.409	98.38
311.639	97.38
311.868	89.38
312.098	89.38
312.328	87.38
312.557	106.38
312.787	107.38
313.017	97.38
313.246	86.38
313.476	82.38
313.706	88.38
313.935	94.38
314.165	82.38
314.394	93.38
314.624	98.38
314.853	99.38
315.083	98.38
315.312	98.38
315.542	100.38
315.771	95.38
316.001	84.38
316.23	90.38
316.46	96.38
316.689	90.38
316.919	94.38
317.148	91.38
317.377	81.38
317.607	87.38
317.836	89.38
318.065	79.38
318.295	74.38
318.524	89.38
318.753	101.38
318.983	88.38
319.212	108.38
319.441	120.38
319.67	109.38
319.9	86.38
320.129	90.38
320.358	81.38
320.587	104.38
320.816	105.38
321.046	109.38
321.275	93.38
321.504	89.38
321.733	101.38
321.962	98.38
322.191	109.38
322.42	127.38
322.649	111.38
322.878	117.38
323.108	129.38
323.337	144.38
323.566	149.38
323.795	165.38
324.024	232.38
324.253	468.38
324.482	1055.38
324.71	2209.38
324.939	2877.38
325.168	1022.38
325.397	290.38
325.626	166.38
325.855	136.38
326.084	145.38
326.313	139.38
326.542	162.38
326.77	273.38
326.999	549.38
327.228	1194.38
327.457	2181.38
327.686	1689.38
327.914	442.38
328.143	215.38
328.372	176.38
328.6	143.38
328.829	122.38
329.058	139.38
329.287	143.38
329.515	106.38
329.744	101.38
329.972	91.38
330.201	102.38
330.43	118.38
330.658	134.38
330.887	153.38
331.115	131.38
331.344	105.38
331.572	100.38
331.801	96.38
332.03	102.38
332.258	100.38
332.486	94.38
332.715	83.38
332.943	85.38
333.172	83.38
333.4	85.38
333.629	107.38
333.857	122.38
334.085	113.38
334.314	106.38
334.542	118.38
334.771	97.38
334.999	96.38
335.227	100.38
335.455	98.38
335.684	101.38
335.912	90.38
336.14	96.38
336.369	113.38
336.597	106.38
336.825	99.38
337.053	92.38
337.281	93.38
337.51	82.38
337.738	75.38
337.966	86.38
338.194	88.38
338.422	96.38
338.65	97.38
338.878	95.38
339.106	82.38
339.334	93.38
339.562	99.38
339.79	90.38
340.018	100.38
340.246	101.38
340.474	97.38
340.702	86.38
340.93	89.38
341.158	98.38
341.386	86.38
341.614	86.38
341.842	95.38
342.07	83.38
342.298	88.38
342.526	94.38
342.754	91.38
342.981	96.38
343.209	79.38
343.437	98.38
343.665	98.38
343.893	93.38
344.12	92.38
344.348	103.38
344.576	87.38
344.804	99.38
345.031	90.38
345.259	99.38
345.487	96.38
345.714	111.38
345.942	78.38
346.17	67.38
346.397	83.38
346.625	102.38
346.853	86.38
347.08	99.38
347.308	94.38
347.535	85.38
347.763	95.38
347.99	102.38
348.218	114.38
348.445	107.38
348.673	102.38
348.9	86.38
349.128	100.38
349.355	78.38
349.583	87.38
349.81	83.38
350.037	109.38
350.265	101.38
350.492	81.38
350.72	100.38
350.947	95.38
351.174	114.38
351.402	106.38
351.629	114.38
351.856	100.38
352.083	110.38
352.311	120.38
352.538	127.38
352.765	111.38
352.992	102.38
353.22	115.38
353.447	111.38
353.674	86.38
353.901	94.38
354.128	95.38
354.355	101.38
354.583	92.38
354.81	86.38
355.037	89.38
355.264	80.38
355.491	91.38
355.718	99.38
355.945	98.38
356.172	107.38
356.399	97.38
356.626	93.38
356.853	99.38
357.08	93.38
357.307	82.38
357.534	99.38
357.761	90.38
357.988	98.38
358.215	110.38
358.441	102.38
358.668	87.38
358.895	96.38
359.122	86.38
359.349	84.38
359.576	86.38
359.802	98.38
360.029	101.38
360.256	117.38
360.483	101.38
360.709	83.38
360.936	96.38
361.163	107.38
361.39	95.38
361.616	86.38
361.843	95.38
362.07	97.38
362.296	102.38
362.523	111.38
362.749	80.38
362.976	91.38
363.203	87.38
363.429	94.38
363.656	84.38
363.882	81.38
364.109	92.38
364.335	99.38
364.562	88.38
364.788	100.38
365.015	93.38
365.241	99.38
365.468	105.38
365.694	97.38
365.92	101.38
366.147	76.38
366.373	81.38
366.599	88.38
366.826	85.38
367.052	93.38
367.278	87.38
367.505	88.38
367.731	91.38
367.957	100.38
368.184	89.38
368.41	89.38
368.636	110.38
368.862	126.38
369.089	118.38
369.315	109.38
369.541	81.38
369.767	75.38
369.993	99.38
370.219	98.38
370.445	82.38
370.672	92.38
370.898	83.38
371.124	95.38
371.35	90.38
371.576	94.38
371.802	79.38
372.028	96.38
372.254	92.38
372.48	84.38
372.706	73.38
372.932	86.38
373.158	91.38
373.384	91.38
373.61	89.38
373.835	94.38
374.061	82.38
374.287	87.38
374.513	90.38
374.739	89.38
374.965	90.38
375.191	76.38
375.416	99.38
375.642	87.38
375.868	96.38
376.094	93.38
376.319	91.38
376.545	89.38
376.771	85.38
376.997	95.38
377.222	89.38
377.448	91.38
377.674	103.38
377.899	100.38
378.125	73.38
378.35	98.38
378.576	94.38
378.802	86.38
379.027	84.38
379.253	89.38
379.478	74.38
379.704	93.38
379.929	95.38
380.155	92.38
380.38	75.38
380.606	112.38
380.831	112.38
381.057	108.38
381.282	93.38
381.507	103.38
381.733	95.38
381.958	116.38
382.184	103.38
382.409	101.38
382.634	102.38
382.86	107.38
383.085	103.38
383.31	113.38
383.535	111.38
383.761	102.38
383.986	113.38
384.211	109.38
384.436	95.38
384.662	106.38
384.887	102.38
385.112	113.38
385.337	123.38
385.562	142.38
385.787	121.38
386.013	127.38
386.238	138.38
386.463	117.38
386.688	110.38
386.913	125.38
387.138	136.38
387.363	112.38
387.588	117.38
387.813	90.38
388.038	131.38
388.263	138.38
388.488	133.38
388.713	98.38
388.938	95.38
389.163	98.38
389.387	75.38
389.612	87.38
389.837	76.38
390.062	89.38
390.287	101.38
390.512	73.38
390.736	85.38
390.961	76.38
391.186	88.38
391.411	89.38
391.636	94.38
391.86	87.38
392.085	90.38
392.31	77.38
392.534	87.38
392.759	84.38
392.984	99.38
393.208	97.38
393.433	106.38
393.658	91.38
393.882	85.38
394.107	75.38
394.331	84.38
394.556	94.38
394.78	72.38
395.005	105.38
395.229	96.38
395.454	101.38
395.678	97.38
395.903	83.38
396.127	87.38
396.352	87.38
396.576	87.38
396.801	93.38
397.025	87.38
397.249	86.38
397.474	84.38
397.698	83.38
397.922	75.38
398.147	83.38
398.371	93.38
398.595	89.38
398.82	85.38
399.044	90.38
399.268	80.38
399.492	88.38
399.717	94.38
399.941	84.38
400.165	87.38
400.389	82.38
400.613	88.38
400.837	91.38
401.062	79.38
401.286	90.38
401.51	91.38
401.734	87.38
401.958	109.38
402.182	129.38
402.406	184.38
402.63	132.38
402.854	100.38
403.078	91.38
403.302	89.38
403.526	87.38
403.75	90.38
403.974	89.38
404.198	93.38
404.422	90.38
404.645	90.38
404.869	100.38
405.093	77.38
405.317	96.38
405.541	90.38
405.765	99.38
405.988	126.38
406.212	190.38
406.436	273.38
406.66	177.38
406.883	103.38
407.107	92.38
407.331	102.38
407.555	90.38
407.778	94.38
408.002	102.38
408.226	97.38
408.449	81.38
408.673	71.38
408.896	94.38
409.12	93.38
409.344	82.38
409.567	108.38
409.791	83.38
410.014	84.38
410.238	91.38
410.461	83.38
410.685	93.38
410.908	108.38
411.132	97.38
411.355	107.38
411.578	106.38
411.802	103.38
412.025	86.38
412.249	88.38
412.472	81.38
412.695	87.38
412.919	89.38
413.142	80.38
413.365	91.38
413.589	93.38
413.812	114.38
414.035	87.38
414.258	88.38
414.482	89.38
414.705	84.38
414.928	110.38
415.151	102.38
415.374	88.38
415.597	82.38
415.821	95.38
416.044	90.38
416.267	86.38
416.49	90.38
416.713	106.38
416.936	87.38
417.159	87.38
417.382	90.38
417.605	80.38
417.828	88.38
418.051	85.38
418.274	88.38
418.497	88.38
418.72	71.38
418.943	84.38
419.166	95.38
419.389	87.38
419.611	85.38
419.834	83.38
420.057	100.38
420.28	76.38
420.503	83.38
420.726	87.38
420.948	85.38
421.171	90.38
421.394	82.38
421.617	90.38
421.839	84.38
422.062	96.38
422.285	76.38
422.507	94.38
422.73	114.38
422.953	125.38
423.175	82.38
423.398	82.38
423.621	86.38
423.843	89.38
424.066	86.38
424.288	79.38
424.511	93.38
424.733	109.38
424.956	104.38
425.178	100.38
425.401	107.38
425.623	101.38
425.846	101.38
426.068	106.38
426.291	81.38
426.513	86.38
426.735	95.38
426.958	88.38
427.18	103.38
427.402	147.38
427.625	189.38
427.847	135.38
428.069	104.38
428.292	91.38
428.514	94.38
428.736	81.38
428.958	70.38
429.181	95.38
429.403	80.38
429.625	92.38
429.847	94.38
430.069	102.38
430.292	105.38
430.514	82.38
430.736	84.38
430.958	87.38
431.18	80.38
431.402	87.38
431.624	86.38
431.846	73.38
432.068	71.38
432.29	88.38
432.512	70.38
432.734	86.38
432.956	92.38
433.178	98.38
433.4	103.38
433.622	91.38
433.844	81.38
434.066	75.38
434.287	90.38
434.509	82.38
434.731	94.38
434.953	90.38
435.175	79.38
435.397	101.38
435.618	98.38
435.84	112.38
436.062	122.38
436.284	114.38
436.505	94.38
436.727	107.38
436.949	96.38
437.17	69.38
437.392	95.38
437.614	86.38
437.835	113.38
438.057	117.38
438.278	121.38
438.5	101.38
438.721	112.38
438.943	103.38
439.165	97.38
439.386	94.38
439.608	86.38
439.829	99.38
440.05	124.38
440.272	146.38
440.493	118.38
440.715	90.38
440.936	77.38
441.158	83.38
441.379	83.38
441.6	98.38
441.822	98.38
442.043	93.38
442.264	101.38
442.486	103.38
442.707	91.38
442.928	119.38
443.149	153.38
443.371	139.38
443.592	106.38
443.813	103.38
444.034	115.38
444.255	82.38
444.476	87.38
444.698	89.38
444.919	84.38
445.14	124.38
445.361	150.38
445.582	124.38
445.803	147.38
446.024	150.38
446.245	143.38
446.466	120.38
446.687	87.38
446.908	89.38
447.129	95.38
447.35	89.38
447.571	82.38
447.792	88.38
448.013	91.38
448.234	115.38
448.455	100.38
448.675	127.38
448.896	125.38
449.117	109.38
449.338	104.38
449.559	134.38
449.779	132.38
450	100.38
450.221	74.38
450.442	96.38
450.662	110.38
450.883	112.38
451.104	95.38
451.324	95.38
451.545	93.38
451.766	82.38
451.986	89.38
452.207	81.38
452.428	76.38
452.648	90.38
452.869	108.38
453.089	118.38
453.31	114.38
453.53	96.38
453.751	83.38
453.971	108.38
454.192	117.38
454.412	85.38
454.633	90.38
454.853	82.38
455.073	78.38
455.294	90.38
455.514	90.38
455.734	78.38
455.955	67.38
456.175	85.38
456.395	64.38
456.616	79.38
456.836	81.38
457.056	83.38
457.276	87.38
457.497	83.38
457.717	89.38
457.937	95.38
458.157	93.38
458.377	91.38
458.598	107.38
458.818	168.38
459.038	177.38
459.258	125.38
459.478	90.38
459.698	79.38
459.918	81.38
460.138	74.38
460.358	79.38
460.578	86.38
460.798	78.38
461.018	72.38
461.238	82.38
461.458	90.38
461.678	90.38
461.898	86.38
462.118	96.38
462.338	87.38
462.558	104.38
462.777	97.38
462.997	84.38
463.217	93.38
463.437	80.38
463.657	91.38
463.876	82.38
464.096	79.38
464.316	83.38
464.536	93.38
464.755	86.38
464.975	111.38
465.195	193.38
465.414	193.38
465.634	83.38
465.854	69.38
466.073	83.38
466.293	79.38
466.512	83.38
466.732	94.38
466.951	87.38
467.171	96.38
467.391	87.38
467.61	110.38
467.829	93.38
468.049	90.38
468.268	92.38
468.488	82.38
468.707	66.38
468.927	85.38
469.146	79.38
469.365	80.38
469.585	95.38
469.804	102.38
470.023	99.38
470.243	73.38
470.462	98.38
470.681	108.38
470.901	106.38
471.12	82.38
471.339	83.38
471.558	91.38
471.777	86.38
471.997	72.38
472.216	98.38
472.435	97.38
472.654	81.38
472.873	87.38
473.092	81.38
473.311	89.38
473.53	77.38
473.749	82.38
473.968	90.38
474.187	112.38
474.406	81.38
474.625	81.38
474.844	88.38
475.063	84.38
475.282	90.38
475.501	73.38
475.72	73.38
475.939	84.38
476.158	81.38
476.377	94.38
476.596	92.38
476.814	83.38
477.033	99.38
477.252	87.38
477.471	98.38
477.69	98.38
477.908	86.38
478.127	84.38
478.346	88.38
478.564	86.38
478.783	93.38
479.002	86.38
479.22	85.38
479.439	101.38
479.658	102.38
479.876	99.38
480.095	77.38
480.313	100.38
480.532	94.38
480.751	86.38
480.969	90.38
481.188	111.38
481.406	102.38
481.624	95.38
481.843	87.38
482.061	89.38
482.28	74.38
482.498	90.38
482.717	75.38
482.935	90.38
483.153	85.38
483.372	86.38
483.59	98.38
483.808	93.38
484.027	99.38
484.245	93.38
484.463	92.38
484.681	106.38
484.9	86.38
485.118	90.38
485.336	100.38
485.554	95.38
485.772	95.38
485.99	104.38
486.209	110.38
486.427	114.38
486.645	110.38
486.863	110.38
487.081	103.38
487.299	93.38
487.517	84.38
487.735	82.38
487.953	92.38
488.171	89.38
488.389	93.38
488.607	97.38
488.825	89.38
489.043	93.38
489.261	89.38
489.479	89.38
489.696	97.38
489.914	98.38
490.132	71.38
490.35	70.38
490.568	80.38
490.786	74.38
491.003	98.38
491.221	94.38
491.439	83.38
491.657	93.38
491.874	96.38
492.092	82.38
492.31	84.38
492.527	80.38
492.745	98.38
492.963	88.38
493.18	87.38
493.398	105.38
493.615	98.38
493.833	85.38
494.05	95.38
494.268	80.38
494.485	85.38
494.703	89.38
494.92	92.38
495.138	98.38
495.355	82.38
495.573	80.38
495.79	94.38
496.008	82.38
496.225	72.38
496.442	85.38
496.66	93.38
496.877	91.38
497.094	83.38
497.312	93.38
497.529	91.38
497.746	93.38
497.963	82.38
498.181	78.38
498.398	90.38
498.615	108.38
498.832	106.38
499.049	99.38
499.267	83.38
499.484	71.38
499.701	93.38
499.918	93.38
500.135	85.38
500.352	95.38
500.569	87.38
500.786	83.38
501.003	96.38
501.22	97.38
501.437	75.38
501.654	107.38
501.871	124.38
502.088	87.38
502.305	85.38
502.522	83.38
502.739	77.38
502.956	85.38
503.172	94.38
503.389	94.38
503.606	108.38
503.823	98.38
504.04	98.38
504.256	88.38
504.473	95.38
504.69	92.38
504.907	102.38
505.123	101.38
505.34	91.38
505.557	105.38
505.773	80.38
505.99	81.38
506.207	82.38
506.423	87.38
506.64	94.38
506.856	83.38
507.073	91.38
507.289	94.38
507.506	99.38
507.722	114.38
507.939	127.38
508.155	94.38
508.372	96.38
508.588	90.38
508.805	92.38
509.021	97.38
509.238	87.38
509.454	104.38
509.67	114.38
509.887	126.38
510.103	122.38
510.319	251.38
510.536	913.38
510.752	3207.38
510.968	899.38
511.184	184.38
511.401	111.38
511.617	100.38
511.833	93.38
512.049	110.38
512.265	94.38
512.481	96.38
512.698	95.38
512.914	91.38
513.13	95.38
513.346	87.38
513.562	105.38
513.778	98.38
513.994	96.38
514.21	106.38
514.426	128.38
514.642	147.38
514.858	144.38
515.074	200.38
515.29	577.38
515.506	2064.38
