Data from Circ_2016_H10_HRD10591_00059.txt Node
Date: Wed Jan 03 09:58:52 EST 2024
User: Yrep
Spectrometer: HR+D1059
Trigger mode: 1
Integration Time (sec): 1.000000E-1
Scans to average: 1
Electric dark correction enabled: true
Nonlinearity correction enabled: false
Boxcar width: 0
XAxis mode: Wavelengths
Number of Pixels in Spectrum: 2048
>>>>>Begin Spectral Data<<<<<
223.165	-11.06
223.4	-11.06
223.635	-11.06
223.869	-25.06
224.104	-21.06
224.338	-24.06
224.573	-7.06
224.808	-22.06
225.042	-11.06
225.277	-16.06
225.511	-9.06
225.746	5.94
225.98	5.94
226.215	17.94
226.449	14.94
226.683	35.94
226.918	27.94
227.152	37.94
227.387	44.94
227.621	41.94
227.856	45.94
228.09	50.94
228.324	47.94
228.559	67.94
228.793	65.94
229.027	65.94
229.262	61.94
229.496	70.94
229.73	61.94
229.964	79.94
230.199	83.94
230.433	73.94
230.667	80.94
230.901	76.94
231.136	83.94
231.37	90.94
231.604	79.94
231.838	89.94
232.072	86.94
232.306	90.94
232.541	73.94
232.775	89.94
233.009	79.94
233.243	74.94
233.477	94.94
233.711	83.94
233.945	87.94
234.179	88.94
234.413	86.94
234.647	82.94
234.881	75.94
235.115	95.94
235.349	66.94
235.583	67.94
235.817	78.94
236.051	83.94
236.285	80.94
236.519	70.94
236.753	77.94
236.987	76.94
237.221	87.94
237.455	84.94
237.689	80.94
237.922	73.94
238.156	76.94
238.39	81.94
238.624	85.94
238.858	82.94
239.091	79.94
239.325	77.94
239.559	72.94
239.793	91.94
240.027	78.94
240.26	87.94
240.494	84.94
240.728	73.94
240.961	69.94
241.195	77.94
241.429	82.94
241.662	83.94
241.896	78.94
242.13	68.94
242.363	82.94
242.597	76.94
242.83	83.94
243.064	81.94
243.298	80.94
243.531	81.94
243.765	79.94
243.998	81.94
244.232	74.94
244.465	72.94
244.699	76.94
244.932	68.94
245.166	83.94
245.399	64.94
245.633	78.94
245.866	79.94
246.099	84.94
246.333	93.94
246.566	77.94
246.8	83.94
247.033	84.94
247.266	82.94
247.5	78.94
247.733	83.94
247.966	74.94
248.2	78.94
248.433	71.94
248.666	79.94
248.899	86.94
249.133	87.94
249.366	90.94
249.599	93.94
249.832	101.94
250.066	73.94
250.299	83.94
250.532	85.94
250.765	73.94
250.998	93.94
251.231	87.94
251.465	87.94
251.698	76.94
251.931	83.94
252.164	69.94
252.397	61.94
252.63	74.94
252.863	78.94
253.096	83.94
253.329	77.94
253.562	73.94
253.795	91.94
254.028	78.94
254.261	83.94
254.494	69.94
254.727	69.94
254.96	91.94
255.193	71.94
255.426	99.94
255.659	79.94
255.892	88.94
256.124	84.94
256.357	92.94
256.59	73.94
256.823	81.94
257.056	86.94
257.289	84.94
257.521	87.94
257.754	91.94
257.987	94.94
258.22	90.94
258.452	72.94
258.685	73.94
258.918	77.94
259.151	86.94
259.383	77.94
259.616	97.94
259.849	86.94
260.081	70.94
260.314	82.94
260.547	92.94
260.779	83.94
261.012	99.94
261.244	90.94
261.477	89.94
261.71	95.94
261.942	93.94
262.175	108.94
262.407	84.94
262.64	87.94
262.872	76.94
263.105	85.94
263.337	86.94
263.57	90.94
263.802	92.94
264.035	96.94
264.267	87.94
264.499	84.94
264.732	79.94
264.964	83.94
265.197	92.94
265.429	97.94
265.661	84.94
265.894	87.94
266.126	82.94
266.358	78.94
266.591	82.94
266.823	74.94
267.055	70.94
267.287	95.94
267.52	91.94
267.752	83.94
267.984	90.94
268.216	89.94
268.448	93.94
268.681	87.94
268.913	91.94
269.145	77.94
269.377	87.94
269.609	91.94
269.841	95.94
270.073	97.94
270.306	82.94
270.538	76.94
270.77	79.94
271.002	93.94
271.234	86.94
271.466	96.94
271.698	98.94
271.93	99.94
272.162	82.94
272.394	85.94
272.626	86.94
272.858	88.94
273.09	88.94
273.322	86.94
273.553	92.94
273.785	83.94
274.017	87.94
274.249	91.94
274.481	79.94
274.713	81.94
274.945	85.94
275.176	91.94
275.408	88.94
275.64	86.94
275.872	87.94
276.104	97.94
276.335	87.94
276.567	99.94
276.799	102.94
277.031	97.94
277.262	97.94
277.494	79.94
277.726	83.94
277.957	89.94
278.189	93.94
278.421	81.94
278.652	74.94
278.884	76.94
279.115	92.94
279.347	76.94
279.579	85.94
279.81	100.94
280.042	90.94
280.273	93.94
280.505	85.94
280.736	70.94
280.968	75.94
281.199	70.94
281.431	90.94
281.662	91.94
281.894	90.94
282.125	104.94
282.356	123.94
282.588	143.94
282.819	116.94
283.051	105.94
283.282	82.94
283.513	88.94
283.745	83.94
283.976	93.94
284.207	93.94
284.439	82.94
284.67	87.94
284.901	76.94
285.132	75.94
285.364	91.94
285.595	90.94
285.826	83.94
286.057	89.94
286.288	94.94
286.52	83.94
286.751	106.94
286.982	96.94
287.213	78.94
287.444	83.94
287.675	97.94
287.906	96.94
288.138	94.94
288.369	88.94
288.6	90.94
288.831	73.94
289.062	79.94
289.293	87.94
289.524	87.94
289.755	92.94
289.986	97.94
290.217	94.94
290.448	94.94
290.679	87.94
290.91	89.94
291.141	80.94
291.371	98.94
291.602	86.94
291.833	85.94
292.064	79.94
292.295	80.94
292.526	82.94
292.757	78.94
292.987	86.94
293.218	90.94
293.449	78.94
293.68	116.94
293.91	74.94
294.141	77.94
294.372	74.94
294.603	90.94
294.833	91.94
295.064	88.94
295.295	98.94
295.525	89.94
295.756	110.94
295.987	115.94
296.217	123.94
296.448	118.94
296.679	84.94
296.909	85.94
297.14	87.94
297.37	84.94
297.601	78.94
297.831	87.94
298.062	89.94
298.292	85.94
298.523	83.94
298.753	89.94
298.984	83.94
299.214	94.94
299.445	74.94
299.675	90.94
299.905	92.94
300.136	96.94
300.366	89.94
300.597	91.94
300.827	104.94
301.057	94.94
301.288	93.94
301.518	105.94
301.748	87.94
301.979	100.94
302.209	92.94
302.439	97.94
302.669	87.94
302.9	88.94
303.13	98.94
303.36	93.94
303.59	89.94
303.82	91.94
304.051	94.94
304.281	81.94
304.511	73.94
304.741	82.94
304.971	86.94
305.201	90.94
305.431	85.94
305.661	86.94
305.891	85.94
306.121	91.94
306.352	101.94
306.582	117.94
306.812	78.94
307.042	83.94
307.272	90.94
307.502	97.94
307.731	97.94
307.961	91.94
308.191	92.94
308.421	88.94
308.651	86.94
308.881	87.94
309.111	98.94
309.341	97.94
309.571	90.94
309.8	89.94
310.03	88.94
310.26	74.94
310.49	90.94
310.72	86.94
310.949	94.94
311.179	78.94
311.409	92.94
311.639	98.94
311.868	91.94
312.098	96.94
312.328	105.94
312.557	91.94
312.787	105.94
313.017	109.94
313.246	84.94
313.476	92.94
313.706	102.94
313.935	100.94
314.165	102.94
314.394	106.94
314.624	110.94
314.853	89.94
315.083	91.94
315.312	89.94
315.542	84.94
315.771	88.94
316.001	101.94
316.23	96.94
316.46	92.94
316.689	93.94
316.919	94.94
317.148	92.94
317.377	101.94
317.607	96.94
317.836	90.94
318.065	92.94
318.295	84.94
318.524	89.94
318.753	92.94
318.983	81.94
319.212	108.94
319.441	103.94
319.67	110.94
319.9	89.94
320.129	76.94
320.358	99.94
320.587	102.94
320.816	91.94
321.046	93.94
321.275	85.94
321.504	99.94
321.733	102.94
321.962	104.94
322.191	113.94
322.42	107.94
322.649	115.94
322.878	102.94
323.108	110.94
323.337	113.94
323.566	138.94
323.795	156.94
324.024	193.94
324.253	389.94
324.482	789.94
324.71	1647.94
324.939	2146.94
325.168	797.94
325.397	238.94
325.626	145.94
325.855	137.94
326.084	123.94
326.313	129.94
326.542	154.94
326.77	238.94
326.999	445.94
327.228	928.94
327.457	1639.94
327.686	1326.94
327.914	359.94
328.143	186.94
328.372	154.94
328.6	142.94
328.829	141.94
329.058	123.94
329.287	108.94
329.515	120.94
329.744	102.94
329.972	108.94
330.201	130.94
330.43	128.94
330.658	120.94
330.887	109.94
331.115	117.94
331.344	103.94
331.572	107.94
331.801	109.94
332.03	106.94
332.258	105.94
332.486	93.94
332.715	94.94
332.943	94.94
333.172	97.94
333.4	88.94
333.629	105.94
333.857	120.94
334.085	110.94
334.314	123.94
334.542	152.94
334.771	149.94
334.999	115.94
335.227	98.94
335.455	99.94
335.684	95.94
335.912	106.94
336.14	113.94
336.369	92.94
336.597	99.94
336.825	94.94
337.053	86.94
337.281	85.94
337.51	89.94
337.738	98.94
337.966	90.94
338.194	88.94
338.422	93.94
338.65	89.94
338.878	85.94
339.106	94.94
339.334	96.94
339.562	73.94
339.79	93.94
340.018	102.94
340.246	83.94
340.474	101.94
340.702	99.94
340.93	86.94
341.158	92.94
341.386	91.94
341.614	85.94
341.842	96.94
342.07	96.94
342.298	104.94
342.526	100.94
342.754	96.94
342.981	92.94
343.209	85.94
343.437	106.94
343.665	89.94
343.893	89.94
344.12	78.94
344.348	96.94
344.576	87.94
344.804	87.94
345.031	101.94
345.259	103.94
345.487	95.94
345.714	89.94
345.942	95.94
346.17	101.94
346.397	88.94
346.625	93.94
346.853	88.94
347.08	94.94
347.308	102.94
347.535	94.94
347.763	102.94
347.99	103.94
348.218	94.94
348.445	102.94
348.673	91.94
348.9	88.94
349.128	107.94
349.355	105.94
349.583	91.94
349.81	102.94
350.037	93.94
350.265	97.94
350.492	98.94
350.72	92.94
350.947	109.94
351.174	94.94
351.402	100.94
351.629	99.94
351.856	103.94
352.083	102.94
352.311	94.94
352.538	104.94
352.765	123.94
352.992	115.94
353.22	108.94
353.447	97.94
353.674	97.94
353.901	100.94
354.128	95.94
354.355	108.94
354.583	99.94
354.81	103.94
355.037	95.94
355.264	102.94
355.491	99.94
355.718	103.94
355.945	94.94
356.172	86.94
356.399	95.94
356.626	108.94
356.853	79.94
357.08	88.94
357.307	98.94
357.534	90.94
357.761	98.94
357.988	104.94
358.215	103.94
358.441	102.94
358.668	116.94
358.895	87.94
359.122	97.94
359.349	93.94
359.576	100.94
359.802	90.94
360.029	114.94
360.256	101.94
360.483	84.94
360.709	93.94
360.936	95.94
361.163	91.94
361.39	99.94
361.616	100.94
361.843	92.94
362.07	84.94
362.296	98.94
362.523	100.94
362.749	102.94
362.976	91.94
363.203	89.94
363.429	84.94
363.656	86.94
363.882	83.94
364.109	106.94
364.335	86.94
364.562	85.94
364.788	87.94
365.015	78.94
365.241	107.94
365.468	112.94
365.694	97.94
365.92	90.94
366.147	77.94
366.373	87.94
366.599	79.94
366.826	94.94
367.052	94.94
367.278	92.94
367.505	87.94
367.731	98.94
367.957	87.94
368.184	83.94
368.41	108.94
368.636	104.94
368.862	119.94
369.089	118.94
369.315	87.94
369.541	92.94
369.767	97.94
369.993	91.94
370.219	88.94
370.445	101.94
370.672	86.94
370.898	98.94
371.124	88.94
371.35	91.94
371.576	79.94
371.802	83.94
372.028	85.94
372.254	89.94
372.48	97.94
372.706	93.94
372.932	89.94
373.158	98.94
373.384	98.94
373.61	82.94
373.835	98.94
374.061	93.94
374.287	91.94
374.513	83.94
374.739	91.94
374.965	86.94
375.191	92.94
375.416	77.94
375.642	85.94
375.868	96.94
376.094	108.94
376.319	85.94
376.545	101.94
376.771	88.94
376.997	87.94
377.222	88.94
377.448	103.94
377.674	97.94
377.899	93.94
378.125	88.94
378.35	94.94
378.576	88.94
378.802	93.94
379.027	87.94
379.253	106.94
379.478	89.94
379.704	99.94
379.929	98.94
380.155	107.94
380.38	86.94
380.606	88.94
380.831	92.94
381.057	107.94
381.282	99.94
381.507	100.94
381.733	104.94
381.958	110.94
382.184	106.94
382.409	107.94
382.634	112.94
382.86	96.94
383.085	108.94
383.31	121.94
383.535	118.94
383.761	102.94
383.986	99.94
384.211	100.94
384.436	120.94
384.662	105.94
384.887	116.94
385.112	106.94
385.337	115.94
385.562	113.94
385.787	100.94
386.013	118.94
386.238	125.94
386.463	120.94
386.688	126.94
386.913	113.94
387.138	118.94
387.363	106.94
387.588	109.94
387.813	105.94
388.038	117.94
388.263	115.94
388.488	118.94
388.713	98.94
388.938	96.94
389.163	103.94
389.387	105.94
389.612	96.94
389.837	100.94
390.062	98.94
390.287	95.94
390.512	95.94
390.736	110.94
390.961	88.94
391.186	99.94
391.411	101.94
391.636	96.94
391.86	89.94
392.085	94.94
392.31	85.94
392.534	90.94
392.759	70.94
392.984	92.94
393.208	92.94
393.433	94.94
393.658	104.94
393.882	83.94
394.107	79.94
394.331	89.94
394.556	79.94
394.78	91.94
395.005	84.94
395.229	81.94
395.454	82.94
395.678	95.94
395.903	93.94
396.127	93.94
396.352	90.94
396.576	89.94
396.801	90.94
397.025	102.94
397.249	88.94
397.474	88.94
397.698	85.94
397.922	93.94
398.147	83.94
398.371	83.94
398.595	97.94
398.82	92.94
399.044	94.94
399.268	93.94
399.492	75.94
399.717	84.94
399.941	91.94
400.165	102.94
400.389	80.94
400.613	98.94
400.837	93.94
401.062	95.94
401.286	93.94
401.51	91.94
401.734	85.94
401.958	94.94
402.182	104.94
402.406	141.94
402.63	115.94
402.854	95.94
403.078	92.94
403.302	73.94
403.526	85.94
403.75	96.94
403.974	72.94
404.198	84.94
404.422	98.94
404.645	97.94
404.869	86.94
405.093	91.94
405.317	110.94
405.541	104.94
405.765	106.94
405.988	104.94
406.212	146.94
406.436	219.94
406.66	139.94
406.883	94.94
407.107	101.94
407.331	96.94
407.555	101.94
407.778	93.94
408.002	102.94
408.226	90.94
408.449	100.94
408.673	87.94
408.896	88.94
409.12	93.94
409.344	92.94
409.567	78.94
409.791	93.94
410.014	99.94
410.238	83.94
410.461	93.94
410.685	99.94
410.908	91.94
411.132	101.94
411.355	90.94
411.578	103.94
411.802	99.94
412.025	77.94
412.249	93.94
412.472	112.94
412.695	99.94
412.919	98.94
413.142	83.94
413.365	86.94
413.589	85.94
413.812	88.94
414.035	101.94
414.258	95.94
414.482	87.94
414.705	80.94
414.928	87.94
415.151	101.94
415.374	96.94
415.597	102.94
415.821	84.94
416.044	87.94
416.267	97.94
416.49	83.94
416.713	92.94
416.936	91.94
417.159	84.94
417.382	74.94
417.605	83.94
417.828	93.94
418.051	106.94
418.274	71.94
418.497	94.94
418.72	88.94
418.943	93.94
419.166	82.94
419.389	100.94
419.611	86.94
419.834	77.94
420.057	95.94
420.28	87.94
420.503	88.94
420.726	90.94
420.948	87.94
421.171	83.94
421.394	103.94
421.617	101.94
421.839	74.94
422.062	89.94
422.285	91.94
422.507	103.94
422.73	105.94
422.953	96.94
423.175	78.94
423.398	71.94
423.621	83.94
423.843	94.94
424.066	79.94
424.288	89.94
424.511	100.94
424.733	91.94
424.956	106.94
425.178	103.94
425.401	94.94
425.623	99.94
425.846	92.94
426.068	91.94
426.291	95.94
426.513	84.94
426.735	89.94
426.958	92.94
427.18	95.94
427.402	117.94
427.625	143.94
427.847	129.94
428.069	101.94
428.292	92.94
428.514	86.94
428.736	96.94
428.958	93.94
429.181	105.94
429.403	87.94
429.625	79.94
429.847	88.94
430.069	110.94
430.292	98.94
430.514	75.94
430.736	95.94
430.958	99.94
431.18	80.94
431.402	90.94
431.624	86.94
431.846	77.94
432.068	90.94
432.29	97.94
432.512	83.94
432.734	98.94
432.956	101.94
433.178	100.94
433.4	112.94
433.622	91.94
433.844	103.94
434.066	86.94
434.287	94.94
434.509	80.94
434.731	97.94
434.953	90.94
435.175	78.94
435.397	89.94
435.618	90.94
435.84	90.94
436.062	109.94
436.284	114.94
436.505	97.94
436.727	100.94
436.949	100.94
437.17	99.94
437.392	78.94
437.614	93.94
437.835	100.94
438.057	110.94
438.278	106.94
438.5	97.94
438.721	132.94
438.943	108.94
439.165	92.94
439.386	86.94
439.608	78.94
439.829	89.94
440.05	119.94
440.272	136.94
440.493	98.94
440.715	94.94
440.936	96.94
441.158	78.94
441.379	87.94
441.6	95.94
441.822	87.94
442.043	86.94
442.264	106.94
442.486	104.94
442.707	99.94
442.928	94.94
443.149	115.94
443.371	122.94
443.592	110.94
443.813	113.94
444.034	104.94
444.255	104.94
444.476	98.94
444.698	97.94
444.919	108.94
445.14	134.94
445.361	118.94
445.582	123.94
445.803	131.94
446.024	114.94
446.245	126.94
446.466	107.94
446.687	101.94
446.908	101.94
447.129	90.94
447.35	93.94
447.571	82.94
447.792	98.94
448.013	98.94
448.234	108.94
448.455	103.94
448.675	115.94
448.896	118.94
449.117	87.94
449.338	100.94
449.559	114.94
449.779	140.94
450	93.94
450.221	83.94
450.442	90.94
450.662	88.94
450.883	105.94
451.104	115.94
451.324	88.94
451.545	84.94
451.766	83.94
451.986	94.94
452.207	98.94
452.428	98.94
452.648	91.94
452.869	95.94
453.089	105.94
453.31	107.94
453.53	94.94
453.751	92.94
453.971	110.94
454.192	103.94
454.412	91.94
454.633	81.94
454.853	83.94
455.073	90.94
455.294	93.94
455.514	93.94
455.734	95.94
455.955	92.94
456.175	83.94
456.395	77.94
456.616	89.94
456.836	88.94
457.056	84.94
457.276	86.94
457.497	91.94
457.717	95.94
457.937	81.94
458.157	101.94
458.377	90.94
458.598	102.94
458.818	136.94
459.038	165.94
459.258	91.94
459.478	102.94
459.698	96.94
459.918	73.94
460.138	78.94
460.358	96.94
460.578	86.94
460.798	84.94
461.018	91.94
461.238	89.94
461.458	103.94
461.678	99.94
461.898	87.94
462.118	94.94
462.338	76.94
462.558	103.94
462.777	90.94
462.997	87.94
463.217	80.94
463.437	78.94
463.657	71.94
463.876	85.94
464.096	94.94
464.316	79.94
464.536	88.94
464.755	87.94
464.975	109.94
465.195	159.94
465.414	151.94
465.634	98.94
465.854	85.94
466.073	98.94
466.293	80.94
466.512	86.94
466.732	92.94
466.951	78.94
467.171	88.94
467.391	93.94
467.61	100.94
467.829	102.94
468.049	105.94
468.268	100.94
468.488	94.94
468.707	93.94
468.927	94.94
469.146	82.94
469.365	105.94
469.585	81.94
469.804	100.94
470.023	97.94
470.243	87.94
470.462	94.94
470.681	105.94
470.901	105.94
471.12	73.94
471.339	97.94
471.558	94.94
471.777	92.94
471.997	100.94
472.216	108.94
472.435	153.94
472.654	103.94
472.873	94.94
473.092	74.94
473.311	91.94
473.53	83.94
473.749	89.94
473.968	101.94
474.187	101.94
474.406	97.94
474.625	88.94
474.844	97.94
475.063	89.94
475.282	91.94
475.501	90.94
475.72	88.94
475.939	87.94
476.158	93.94
476.377	73.94
476.596	85.94
476.814	86.94
477.033	85.94
477.252	85.94
477.471	91.94
477.69	92.94
477.908	85.94
478.127	96.94
478.346	94.94
478.564	91.94
478.783	90.94
479.002	88.94
479.22	94.94
479.439	100.94
479.658	88.94
479.876	92.94
480.095	81.94
480.313	104.94
480.532	91.94
480.751	102.94
480.969	113.94
481.188	216.94
481.406	179.94
481.624	102.94
481.843	94.94
482.061	95.94
482.28	91.94
482.498	71.94
482.717	91.94
482.935	82.94
483.153	92.94
483.372	92.94
483.59	86.94
483.808	103.94
484.027	94.94
484.245	89.94
484.463	97.94
484.681	94.94
484.9	92.94
485.118	93.94
485.336	100.94
485.554	92.94
485.772	100.94
485.99	110.94
486.209	101.94
486.427	99.94
486.645	101.94
486.863	111.94
487.081	112.94
487.299	105.94
487.517	94.94
487.735	92.94
487.953	94.94
488.171	91.94
488.389	98.94
488.607	104.94
488.825	102.94
489.043	97.94
489.261	80.94
489.479	72.94
489.696	91.94
489.914	104.94
490.132	94.94
490.35	96.94
490.568	93.94
490.786	82.94
491.003	80.94
491.221	114.94
491.439	94.94
491.657	75.94
491.874	90.94
492.092	92.94
492.31	101.94
492.527	86.94
492.745	90.94
492.963	91.94
493.18	94.94
493.398	97.94
493.615	108.94
493.833	90.94
494.05	94.94
494.268	90.94
494.485	81.94
494.703	85.94
494.92	90.94
495.138	87.94
495.355	94.94
495.573	103.94
495.79	93.94
496.008	91.94
496.225	99.94
496.442	91.94
496.66	98.94
496.877	88.94
497.094	89.94
497.312	94.94
497.529	107.94
497.746	93.94
497.963	92.94
498.181	84.94
498.398	104.94
498.615	111.94
498.832	105.94
499.049	94.94
499.267	94.94
499.484	91.94
499.701	92.94
499.918	90.94
500.135	100.94
500.352	89.94
500.569	96.94
500.786	89.94
501.003	99.94
501.22	97.94
501.437	83.94
501.654	73.94
501.871	101.94
502.088	94.94
502.305	92.94
502.522	93.94
502.739	90.94
502.956	93.94
503.172	106.94
503.389	88.94
503.606	105.94
503.823	97.94
504.04	75.94
504.256	91.94
504.473	83.94
504.69	103.94
504.907	94.94
505.123	74.94
505.34	75.94
505.557	87.94
505.773	102.94
505.99	90.94
506.207	87.94
506.423	107.94
506.64	83.94
506.856	101.94
507.073	97.94
507.289	94.94
507.506	93.94
507.722	104.94
507.939	110.94
508.155	91.94
508.372	82.94
508.588	95.94
508.805	99.94
509.021	92.94
509.238	91.94
509.454	91.94
509.67	98.94
509.887	96.94
510.103	130.94
510.319	211.94
510.536	705.94
510.752	2329.94
510.968	657.94
511.184	143.94
511.401	118.94
511.617	103.94
511.833	101.94
512.049	95.94
512.265	101.94
512.481	85.94
512.698	93.94
512.914	94.94
513.13	94.94
513.346	87.94
513.562	94.94
513.778	104.94
513.994	98.94
514.21	98.94
514.426	110.94
514.642	130.94
514.858	113.94
515.074	159.94
515.29	402.94
