Data from Circ_2016_H10_HRD10591_00037.txt Node
Date: Wed Jan 03 09:58:48 EST 2024
User: Yrep
Spectrometer: HR+D1059
Trigger mode: 1
Integration Time (sec): 1.000000E-1
Scans to average: 1
Electric dark correction enabled: true
Nonlinearity correction enabled: false
Boxcar width: 0
XAxis mode: Wavelengths
Number of Pixels in Spectrum: 2048
>>>>>Begin Spectral Data<<<<<
223.165	-24.5
223.4	-24.5
223.635	-24.5
223.869	-29.5
224.104	-7.5
224.338	-14.5
224.573	-23.5
224.808	-4.5
225.042	-7.5
225.277	-13.5
225.511	-8.5
225.746	5.5
225.98	6.5
226.215	12.5
226.449	22.5
226.683	31.5
226.918	26.5
227.152	28.5
227.387	33.5
227.621	47.5
227.856	40.5
228.09	59.5
228.324	46.5
228.559	63.5
228.793	64.5
229.027	63.5
229.262	84.5
229.496	74.5
229.73	92.5
229.964	80.5
230.199	68.5
230.433	61.5
230.667	85.5
230.901	77.5
231.136	77.5
231.37	74.5
231.604	67.5
231.838	77.5
232.072	73.5
232.306	74.5
232.541	82.5
232.775	76.5
233.009	73.5
233.243	85.5
233.477	83.5
233.711	95.5
233.945	84.5
234.179	77.5
234.413	63.5
234.647	67.5
234.881	92.5
235.115	73.5
235.349	73.5
235.583	82.5
235.817	67.5
236.051	68.5
236.285	71.5
236.519	86.5
236.753	73.5
236.987	88.5
237.221	84.5
237.455	95.5
237.689	79.5
237.922	77.5
238.156	68.5
238.39	72.5
238.624	68.5
238.858	72.5
239.091	88.5
239.325	63.5
239.559	82.5
239.793	76.5
240.027	79.5
240.26	70.5
240.494	87.5
240.728	75.5
240.961	65.5
241.195	61.5
241.429	89.5
241.662	69.5
241.896	88.5
242.13	80.5
242.363	71.5
242.597	78.5
242.83	81.5
243.064	79.5
243.298	69.5
243.531	88.5
243.765	81.5
243.998	87.5
244.232	77.5
244.465	59.5
244.699	77.5
244.932	81.5
245.166	83.5
245.399	76.5
245.633	81.5
245.866	63.5
246.099	89.5
246.333	60.5
246.566	89.5
246.8	68.5
247.033	74.5
247.266	72.5
247.5	68.5
247.733	73.5
247.966	91.5
248.2	83.5
248.433	69.5
248.666	74.5
248.899	68.5
249.133	76.5
249.366	111.5
249.599	107.5
249.832	81.5
250.066	70.5
250.299	71.5
250.532	67.5
250.765	75.5
250.998	60.5
251.231	74.5
251.465	80.5
251.698	80.5
251.931	85.5
252.164	83.5
252.397	72.5
252.63	86.5
252.863	74.5
253.096	77.5
253.329	76.5
253.562	78.5
253.795	89.5
254.028	76.5
254.261	80.5
254.494	86.5
254.727	85.5
254.96	85.5
255.193	89.5
255.426	75.5
255.659	85.5
255.892	77.5
256.124	83.5
256.357	78.5
256.59	82.5
256.823	64.5
257.056	81.5
257.289	72.5
257.521	65.5
257.754	78.5
257.987	74.5
258.22	75.5
258.452	93.5
258.685	76.5
258.918	70.5
259.151	84.5
259.383	81.5
259.616	83.5
259.849	83.5
260.081	85.5
260.314	70.5
260.547	85.5
260.779	77.5
261.012	81.5
261.244	100.5
261.477	88.5
261.71	88.5
261.942	121.5
262.175	126.5
262.407	86.5
262.64	91.5
262.872	86.5
263.105	84.5
263.337	70.5
263.57	84.5
263.802	75.5
264.035	80.5
264.267	81.5
264.499	74.5
264.732	85.5
264.964	85.5
265.197	85.5
265.429	77.5
265.661	76.5
265.894	82.5
266.126	81.5
266.358	79.5
266.591	73.5
266.823	83.5
267.055	86.5
267.287	78.5
267.52	85.5
267.752	82.5
267.984	78.5
268.216	96.5
268.448	77.5
268.681	74.5
268.913	72.5
269.145	83.5
269.377	76.5
269.609	90.5
269.841	88.5
270.073	78.5
270.306	55.5
270.538	66.5
270.77	96.5
271.002	83.5
271.234	77.5
271.466	81.5
271.698	84.5
271.93	85.5
272.162	75.5
272.394	78.5
272.626	99.5
272.858	92.5
273.09	81.5
273.322	95.5
273.553	85.5
273.785	80.5
274.017	80.5
274.249	80.5
274.481	74.5
274.713	81.5
274.945	80.5
275.176	86.5
275.408	96.5
275.64	87.5
275.872	101.5
276.104	105.5
276.335	104.5
276.567	104.5
276.799	121.5
277.031	102.5
277.262	85.5
277.494	96.5
277.726	87.5
277.957	86.5
278.189	80.5
278.421	79.5
278.652	91.5
278.884	86.5
279.115	86.5
279.347	91.5
279.579	77.5
279.81	93.5
280.042	97.5
280.273	87.5
280.505	87.5
280.736	80.5
280.968	77.5
281.199	95.5
281.431	73.5
281.662	81.5
281.894	91.5
282.125	96.5
282.356	119.5
282.588	166.5
282.819	135.5
283.051	94.5
283.282	77.5
283.513	80.5
283.745	72.5
283.976	79.5
284.207	76.5
284.439	81.5
284.67	87.5
284.901	83.5
285.132	91.5
285.364	83.5
285.595	74.5
285.826	93.5
286.057	84.5
286.288	75.5
286.52	94.5
286.751	79.5
286.982	103.5
287.213	78.5
287.444	76.5
287.675	84.5
287.906	80.5
288.138	91.5
288.369	91.5
288.6	95.5
288.831	84.5
289.062	72.5
289.293	95.5
289.524	84.5
289.755	77.5
289.986	88.5
290.217	83.5
290.448	79.5
290.679	91.5
290.91	87.5
291.141	92.5
291.371	75.5
291.602	77.5
291.833	99.5
292.064	84.5
292.295	77.5
292.526	100.5
292.757	99.5
292.987	94.5
293.218	88.5
293.449	80.5
293.68	84.5
293.91	91.5
294.141	91.5
294.372	91.5
294.603	100.5
294.833	82.5
295.064	86.5
295.295	98.5
295.525	79.5
295.756	103.5
295.987	119.5
296.217	172.5
296.448	142.5
296.679	111.5
296.909	105.5
297.14	108.5
297.37	81.5
297.601	90.5
297.831	93.5
298.062	93.5
298.292	91.5
298.523	102.5
298.753	90.5
298.984	100.5
299.214	83.5
299.445	92.5
299.675	100.5
299.905	92.5
300.136	89.5
300.366	100.5
300.597	87.5
300.827	98.5
301.057	113.5
301.288	105.5
301.518	95.5
301.748	95.5
301.979	91.5
302.209	101.5
302.439	86.5
302.669	88.5
302.9	97.5
303.13	97.5
303.36	98.5
303.59	102.5
303.82	116.5
304.051	99.5
304.281	92.5
304.511	87.5
304.741	93.5
304.971	91.5
305.201	97.5
305.431	91.5
305.661	87.5
305.891	95.5
306.121	75.5
306.352	110.5
306.582	118.5
306.812	95.5
307.042	102.5
307.272	98.5
307.502	82.5
307.731	92.5
307.961	85.5
308.191	86.5
308.421	103.5
308.651	94.5
308.881	102.5
309.111	95.5
309.341	123.5
309.571	92.5
309.8	104.5
310.03	106.5
310.26	115.5
310.49	95.5
310.72	85.5
310.949	102.5
311.179	97.5
311.409	99.5
311.639	95.5
311.868	96.5
312.098	96.5
312.328	112.5
312.557	105.5
312.787	113.5
313.017	93.5
313.246	93.5
313.476	85.5
313.706	95.5
313.935	91.5
314.165	112.5
314.394	94.5
314.624	102.5
314.853	91.5
315.083	97.5
315.312	104.5
315.542	91.5
315.771	93.5
316.001	75.5
316.23	104.5
316.46	96.5
316.689	85.5
316.919	96.5
317.148	106.5
317.377	94.5
317.607	89.5
317.836	96.5
318.065	87.5
318.295	88.5
318.524	91.5
318.753	79.5
318.983	103.5
319.212	114.5
319.441	116.5
319.67	128.5
319.9	99.5
320.129	96.5
320.358	81.5
320.587	97.5
320.816	102.5
321.046	109.5
321.275	101.5
321.504	98.5
321.733	101.5
321.962	96.5
322.191	97.5
322.42	114.5
322.649	113.5
322.878	138.5
323.108	133.5
323.337	131.5
323.566	141.5
323.795	180.5
324.024	274.5
324.253	548.5
324.482	1164.5
324.71	2461.5
324.939	3214.5
325.168	1156.5
325.397	308.5
325.626	170.5
325.855	147.5
326.084	149.5
326.313	141.5
326.542	189.5
326.77	298.5
326.999	613.5
327.228	1316.5
327.457	2419.5
327.686	1885.5
327.914	480.5
328.143	238.5
328.372	156.5
328.6	137.5
328.829	123.5
329.058	146.5
329.287	151.5
329.515	113.5
329.744	103.5
329.972	108.5
330.201	117.5
330.43	128.5
330.658	143.5
330.887	169.5
331.115	151.5
331.344	100.5
331.572	111.5
331.801	113.5
332.03	107.5
332.258	111.5
332.486	88.5
332.715	92.5
332.943	100.5
333.172	114.5
333.4	90.5
333.629	104.5
333.857	119.5
334.085	118.5
334.314	116.5
334.542	117.5
334.771	125.5
334.999	119.5
335.227	107.5
335.455	84.5
335.684	96.5
335.912	93.5
336.14	91.5
336.369	113.5
336.597	103.5
336.825	107.5
337.053	93.5
337.281	102.5
337.51	87.5
337.738	95.5
337.966	111.5
338.194	85.5
338.422	94.5
338.65	89.5
338.878	96.5
339.106	89.5
339.334	89.5
339.562	86.5
339.79	96.5
340.018	89.5
340.246	96.5
340.474	102.5
340.702	95.5
340.93	88.5
341.158	92.5
341.386	93.5
341.614	105.5
341.842	107.5
342.07	96.5
342.298	81.5
342.526	80.5
342.754	90.5
342.981	95.5
343.209	97.5
343.437	103.5
343.665	93.5
343.893	82.5
344.12	95.5
344.348	87.5
344.576	97.5
344.804	92.5
345.031	102.5
345.259	105.5
345.487	112.5
345.714	85.5
345.942	91.5
346.17	93.5
346.397	92.5
346.625	90.5
346.853	106.5
347.08	102.5
347.308	92.5
347.535	102.5
347.763	96.5
347.99	100.5
348.218	98.5
348.445	118.5
348.673	106.5
348.9	95.5
349.128	92.5
349.355	92.5
349.583	84.5
349.81	99.5
350.037	108.5
350.265	94.5
350.492	108.5
350.72	93.5
350.947	107.5
351.174	115.5
351.402	124.5
351.629	97.5
351.856	106.5
352.083	123.5
352.311	114.5
352.538	118.5
352.765	130.5
352.992	124.5
353.22	124.5
353.447	113.5
353.674	92.5
353.901	82.5
354.128	114.5
354.355	94.5
354.583	96.5
354.81	103.5
355.037	90.5
355.264	104.5
355.491	90.5
355.718	98.5
355.945	101.5
356.172	99.5
356.399	98.5
356.626	89.5
356.853	87.5
357.08	87.5
357.307	85.5
357.534	99.5
357.761	94.5
357.988	88.5
358.215	106.5
358.441	108.5
358.668	108.5
358.895	103.5
359.122	86.5
359.349	87.5
359.576	113.5
359.802	116.5
360.029	139.5
360.256	143.5
360.483	115.5
360.709	88.5
360.936	85.5
361.163	98.5
361.39	104.5
361.616	97.5
361.843	112.5
362.07	99.5
362.296	98.5
362.523	95.5
362.749	88.5
362.976	85.5
363.203	89.5
363.429	106.5
363.656	96.5
363.882	90.5
364.109	96.5
364.335	100.5
364.562	111.5
364.788	90.5
365.015	92.5
365.241	114.5
365.468	116.5
365.694	112.5
365.92	99.5
366.147	96.5
366.373	96.5
366.599	100.5
366.826	100.5
367.052	77.5
367.278	84.5
367.505	94.5
367.731	83.5
367.957	90.5
368.184	92.5
368.41	103.5
368.636	110.5
368.862	131.5
369.089	118.5
369.315	99.5
369.541	91.5
369.767	87.5
369.993	101.5
370.219	102.5
370.445	79.5
370.672	114.5
370.898	83.5
371.124	82.5
371.35	97.5
371.576	89.5
371.802	64.5
372.028	67.5
372.254	92.5
372.48	82.5
372.706	91.5
372.932	101.5
373.158	79.5
373.384	86.5
373.61	98.5
373.835	91.5
374.061	95.5
374.287	97.5
374.513	85.5
374.739	93.5
374.965	82.5
375.191	88.5
375.416	92.5
375.642	93.5
375.868	94.5
376.094	96.5
376.319	90.5
376.545	86.5
376.771	97.5
376.997	102.5
377.222	88.5
377.448	96.5
377.674	96.5
377.899	97.5
378.125	82.5
378.35	96.5
378.576	88.5
378.802	103.5
379.027	103.5
379.253	97.5
379.478	109.5
379.704	101.5
379.929	109.5
380.155	103.5
380.38	106.5
380.606	99.5
380.831	85.5
381.057	110.5
381.282	97.5
381.507	92.5
381.733	106.5
381.958	101.5
382.184	110.5
382.409	111.5
382.634	115.5
382.86	107.5
383.085	100.5
383.31	113.5
383.535	107.5
383.761	106.5
383.986	105.5
384.211	98.5
384.436	104.5
384.662	125.5
384.887	120.5
385.112	121.5
385.337	130.5
385.562	135.5
385.787	127.5
386.013	134.5
386.238	130.5
386.463	120.5
386.688	123.5
386.913	121.5
387.138	118.5
387.363	126.5
387.588	108.5
387.813	112.5
388.038	120.5
388.263	143.5
388.488	133.5
388.713	104.5
388.938	92.5
389.163	100.5
389.387	93.5
389.612	108.5
389.837	106.5
390.062	96.5
390.287	85.5
390.512	85.5
390.736	85.5
390.961	85.5
391.186	72.5
391.411	98.5
391.636	90.5
391.86	88.5
392.085	78.5
392.31	92.5
392.534	77.5
392.759	75.5
392.984	86.5
393.208	96.5
393.433	116.5
393.658	116.5
393.882	95.5
394.107	82.5
394.331	84.5
394.556	77.5
394.78	89.5
395.005	92.5
395.229	93.5
395.454	88.5
395.678	76.5
395.903	90.5
396.127	83.5
396.352	98.5
396.576	87.5
396.801	91.5
397.025	112.5
397.249	84.5
397.474	79.5
397.698	76.5
397.922	68.5
398.147	93.5
398.371	73.5
398.595	80.5
398.82	85.5
399.044	92.5
399.268	86.5
399.492	93.5
399.717	91.5
399.941	95.5
400.165	96.5
400.389	99.5
400.613	80.5
400.837	87.5
401.062	73.5
401.286	90.5
401.51	98.5
401.734	89.5
401.958	93.5
402.182	133.5
402.406	196.5
402.63	149.5
402.854	96.5
403.078	91.5
403.302	84.5
403.526	91.5
403.75	80.5
403.974	90.5
404.198	84.5
404.422	90.5
404.645	77.5
404.869	80.5
405.093	89.5
405.317	105.5
405.541	102.5
405.765	108.5
405.988	135.5
406.212	211.5
406.436	280.5
406.66	193.5
406.883	109.5
407.107	96.5
407.331	91.5
407.555	99.5
407.778	95.5
408.002	84.5
408.226	92.5
408.449	100.5
408.673	77.5
408.896	87.5
409.12	94.5
409.344	98.5
409.567	93.5
409.791	95.5
410.014	77.5
410.238	91.5
410.461	88.5
410.685	103.5
410.908	103.5
411.132	100.5
411.355	82.5
411.578	81.5
411.802	81.5
412.025	95.5
412.249	88.5
412.472	87.5
412.695	98.5
412.919	86.5
413.142	83.5
413.365	88.5
413.589	93.5
413.812	83.5
414.035	92.5
414.258	84.5
414.482	93.5
414.705	76.5
414.928	88.5
415.151	98.5
415.374	90.5
415.597	99.5
415.821	87.5
416.044	75.5
416.267	93.5
416.49	92.5
416.713	103.5
416.936	99.5
417.159	97.5
417.382	85.5
417.605	85.5
417.828	91.5
418.051	88.5
418.274	89.5
418.497	74.5
418.72	95.5
418.943	84.5
419.166	81.5
419.389	95.5
419.611	96.5
419.834	93.5
420.057	87.5
420.28	80.5
420.503	90.5
420.726	71.5
420.948	90.5
421.171	78.5
421.394	98.5
421.617	87.5
421.839	96.5
422.062	86.5
422.285	78.5
422.507	113.5
422.73	127.5
422.953	107.5
423.175	89.5
423.398	88.5
423.621	77.5
423.843	86.5
424.066	91.5
424.288	75.5
424.511	88.5
424.733	98.5
424.956	126.5
425.178	96.5
425.401	109.5
425.623	100.5
425.846	96.5
426.068	111.5
426.291	101.5
426.513	82.5
426.735	87.5
426.958	89.5
427.18	101.5
427.402	139.5
427.625	185.5
427.847	142.5
428.069	111.5
428.292	87.5
428.514	89.5
428.736	90.5
428.958	87.5
429.181	72.5
429.403	77.5
429.625	86.5
429.847	79.5
430.069	102.5
430.292	99.5
430.514	81.5
430.736	79.5
430.958	88.5
431.18	76.5
431.402	93.5
431.624	90.5
431.846	78.5
432.068	81.5
432.29	68.5
432.512	87.5
432.734	80.5
432.956	101.5
433.178	88.5
433.4	105.5
433.622	101.5
433.844	87.5
434.066	84.5
434.287	96.5
434.509	84.5
434.731	94.5
434.953	98.5
435.175	76.5
435.397	91.5
435.618	94.5
435.84	111.5
436.062	125.5
436.284	117.5
436.505	99.5
436.727	95.5
436.949	95.5
437.17	94.5
437.392	87.5
437.614	112.5
437.835	123.5
438.057	137.5
438.278	99.5
438.5	97.5
438.721	117.5
438.943	100.5
439.165	87.5
439.386	90.5
439.608	71.5
439.829	107.5
440.05	147.5
440.272	168.5
440.493	91.5
440.715	87.5
440.936	79.5
441.158	84.5
441.379	81.5
441.6	111.5
441.822	99.5
442.043	92.5
442.264	111.5
442.486	111.5
442.707	100.5
442.928	93.5
443.149	147.5
443.371	138.5
443.592	112.5
443.813	100.5
444.034	105.5
444.255	97.5
444.476	89.5
444.698	76.5
444.919	83.5
445.14	139.5
445.361	137.5
445.582	118.5
445.803	155.5
446.024	154.5
446.245	146.5
446.466	120.5
446.687	89.5
446.908	105.5
447.129	87.5
447.35	80.5
447.571	88.5
447.792	99.5
448.013	106.5
448.234	113.5
448.455	99.5
448.675	117.5
448.896	120.5
449.117	104.5
449.338	93.5
449.559	146.5
449.779	135.5
450	84.5
450.221	79.5
450.442	85.5
450.662	97.5
450.883	89.5
451.104	101.5
451.324	107.5
451.545	84.5
451.766	87.5
451.986	76.5
452.207	84.5
452.428	86.5
452.648	101.5
452.869	112.5
453.089	105.5
453.31	128.5
453.53	102.5
453.751	111.5
453.971	117.5
454.192	114.5
454.412	88.5
454.633	92.5
454.853	77.5
455.073	77.5
455.294	78.5
455.514	83.5
455.734	77.5
455.955	74.5
456.175	77.5
456.395	83.5
456.616	92.5
456.836	82.5
457.056	81.5
457.276	85.5
457.497	81.5
457.717	99.5
457.937	82.5
458.157	84.5
458.377	79.5
458.598	133.5
458.818	167.5
459.038	207.5
459.258	122.5
459.478	101.5
459.698	82.5
459.918	75.5
460.138	82.5
460.358	79.5
460.578	80.5
460.798	82.5
461.018	82.5
461.238	73.5
461.458	71.5
461.678	81.5
461.898	91.5
462.118	101.5
462.338	81.5
462.558	82.5
462.777	80.5
462.997	84.5
463.217	81.5
463.437	80.5
463.657	84.5
463.876	93.5
464.096	99.5
464.316	93.5
464.536	99.5
464.755	112.5
464.975	121.5
465.195	190.5
465.414	207.5
465.634	117.5
465.854	84.5
466.073	84.5
466.293	86.5
466.512	85.5
466.732	85.5
466.951	93.5
467.171	102.5
467.391	97.5
467.61	103.5
467.829	93.5
468.049	80.5
468.268	87.5
468.488	83.5
468.707	86.5
468.927	73.5
469.146	86.5
469.365	87.5
469.585	96.5
469.804	101.5
470.023	108.5
470.243	101.5
470.462	111.5
470.681	115.5
470.901	86.5
471.12	86.5
471.339	88.5
471.558	93.5
471.777	89.5
471.997	86.5
472.216	70.5
472.435	117.5
472.654	97.5
472.873	88.5
473.092	89.5
473.311	89.5
473.53	74.5
473.749	84.5
473.968	105.5
474.187	108.5
474.406	99.5
474.625	85.5
474.844	88.5
475.063	88.5
475.282	80.5
475.501	84.5
475.72	99.5
475.939	92.5
476.158	80.5
476.377	87.5
476.596	96.5
476.814	86.5
477.033	100.5
477.252	84.5
477.471	92.5
477.69	100.5
477.908	97.5
478.127	82.5
478.346	83.5
478.564	89.5
478.783	80.5
479.002	97.5
479.22	95.5
479.439	98.5
479.658	112.5
479.876	95.5
480.095	94.5
480.313	99.5
480.532	95.5
480.751	92.5
480.969	106.5
481.188	151.5
481.406	116.5
481.624	82.5
481.843	79.5
482.061	90.5
482.28	94.5
482.498	98.5
482.717	79.5
482.935	86.5
483.153	92.5
483.372	78.5
483.59	83.5
483.808	84.5
484.027	84.5
484.245	92.5
484.463	81.5
484.681	87.5
484.9	96.5
485.118	91.5
485.336	98.5
485.554	103.5
485.772	102.5
485.99	119.5
486.209	90.5
486.427	111.5
486.645	117.5
486.863	131.5
487.081	109.5
487.299	90.5
487.517	99.5
487.735	103.5
487.953	98.5
488.171	92.5
488.389	103.5
488.607	89.5
488.825	87.5
489.043	88.5
489.261	88.5
489.479	81.5
489.696	92.5
489.914	79.5
490.132	91.5
490.35	97.5
490.568	75.5
490.786	87.5
491.003	88.5
491.221	84.5
491.439	94.5
491.657	88.5
491.874	84.5
492.092	108.5
492.31	98.5
492.527	86.5
492.745	94.5
492.963	79.5
493.18	82.5
493.398	91.5
493.615	86.5
493.833	89.5
494.05	93.5
494.268	92.5
494.485	88.5
494.703	92.5
494.92	81.5
495.138	93.5
495.355	81.5
495.573	87.5
495.79	90.5
496.008	97.5
496.225	89.5
496.442	73.5
496.66	92.5
496.877	95.5
497.094	101.5
497.312	82.5
497.529	81.5
497.746	94.5
497.963	88.5
498.181	99.5
498.398	92.5
498.615	108.5
498.832	106.5
499.049	106.5
499.267	98.5
499.484	89.5
499.701	87.5
499.918	91.5
500.135	97.5
500.352	91.5
500.569	90.5
500.786	103.5
501.003	102.5
501.22	89.5
501.437	83.5
501.654	94.5
501.871	109.5
502.088	97.5
502.305	82.5
502.522	90.5
502.739	83.5
502.956	77.5
503.172	92.5
503.389	90.5
503.606	119.5
503.823	99.5
504.04	95.5
504.256	100.5
504.473	89.5
504.69	91.5
504.907	88.5
505.123	91.5
505.34	80.5
505.557	84.5
505.773	89.5
505.99	86.5
506.207	92.5
506.423	101.5
506.64	95.5
506.856	85.5
507.073	90.5
507.289	108.5
507.506	92.5
507.722	99.5
507.939	122.5
508.155	86.5
508.372	81.5
508.588	87.5
508.805	84.5
509.021	89.5
509.238	104.5
509.454	100.5
509.67	109.5
509.887	112.5
510.103	160.5
510.319	243.5
510.536	1010.5
510.752	3562.5
510.968	962.5
511.184	195.5
511.401	119.5
511.617	114.5
511.833	91.5
512.049	97.5
512.265	92.5
512.481	97.5
512.698	98.5
512.914	93.5
513.13	98.5
513.346	100.5
513.562	94.5
513.778	95.5
513.994	106.5
514.21	96.5
514.426	117.5
514.642	155.5
514.858	140.5
515.074	205.5
515.29	642.5
515.506	2316.5
515.721	828.5
515.937	218.5
516.153	123.5
516.369	111.5
516.585	82.5
516.801	89.5
517.016	115.5
517.232	112.5
517.448	86.5
517.664	97.5
517.879	100.5
518.095	104.5
518.311	104.5
518.527	96.5
518.742	83.5
518.958	104.5
519.173	100.5
519.389	92.5
519.605	99.5
519.82	102.5
520.036	101.5
520.251	139.5
520.467	140.5
520.682	110.5
520.898	104.5
521.113	143.5
521.329	155.5
521.544	257.5
521.76	811.5
521.975	3695.5
522.19	2289.5
522.406	454.5
522.621	156.5
522.836	121.5
523.052	93.5
523.267	101.5
523.482	94.5
523.698	101.5
523.913	149.5
524.128	104.5
524.343	99.5
524.559	111.5
524.774	91.5
524.989	97.5
525.204	102.5
525.419	108.5
525.634	88.5
525.849	89.5
526.064	95.5
526.28	89.5
526.495	75.5
526.71	79.5
526.925	94.5
527.14	88.5
527.355	85.5
527.57	90.5
527.785	98.5
527.999	97.5
528.214	82.5
528.429	91.5
528.644	84.5
528.859	95.5
529.074	85.5
529.289	143.5
529.503	223.5
529.718	121.5
529.933	100.5
530.148	93.5
530.363	85.5
530.577	95.5
530.792	82.5
531.007	72.5
531.221	80.5
531.436	86.5
531.651	101.5
531.865	89.5
532.08	80.5
532.295	88.5
532.509	88.5
532.724	87.5
532.938	69.5
533.153	96.5
533.367	93.5
533.582	87.5
533.796	86.5
534.011	87.5
534.225	97.5
