Data from Circ_2016_H10_HRD10591_00011.txt Node
Date: Wed Jan 03 09:58:42 EST 2024
User: Yrep
Spectrometer: HR+D1059
Trigger mode: 1
Integration Time (sec): 1.000000E-1
Scans to average: 1
Electric dark correction enabled: true
Nonlinearity correction enabled: false
Boxcar width: 0
XAxis mode: Wavelengths
Number of Pixels in Spectrum: 2048
>>>>>Begin Spectral Data<<<<<
223.165	-9.94
223.4	-9.94
223.635	-9.94
223.869	-15.94
224.104	-14.94
224.338	-6.94
224.573	-26.94
224.808	-0.94
225.042	-27.94
225.277	-4.94
225.511	1.06
225.746	17.06
225.98	18.06
226.215	3.06
226.449	12.06
226.683	15.06
226.918	24.06
227.152	18.06
227.387	42.06
227.621	36.06
227.856	46.06
228.09	56.06
228.324	40.06
228.559	52.06
228.793	67.06
229.027	49.06
229.262	66.06
229.496	75.06
229.73	83.06
229.964	69.06
230.199	69.06
230.433	69.06
230.667	90.06
230.901	90.06
231.136	75.06
231.37	74.06
231.604	89.06
231.838	68.06
232.072	75.06
232.306	76.06
232.541	82.06
232.775	75.06
233.009	74.06
233.243	81.06
233.477	83.06
233.711	82.06
233.945	88.06
234.179	86.06
234.413	82.06
234.647	78.06
234.881	74.06
235.115	75.06
235.349	72.06
235.583	74.06
235.817	85.06
236.051	73.06
236.285	82.06
236.519	69.06
236.753	83.06
236.987	79.06
237.221	78.06
237.455	83.06
237.689	95.06
237.922	78.06
238.156	72.06
238.39	75.06
238.624	86.06
238.858	76.06
239.091	69.06
239.325	97.06
239.559	82.06
239.793	74.06
240.027	79.06
240.26	75.06
240.494	68.06
240.728	71.06
240.961	79.06
241.195	79.06
241.429	70.06
241.662	84.06
241.896	78.06
242.13	96.06
242.363	90.06
242.597	81.06
242.83	84.06
243.064	64.06
243.298	73.06
243.531	77.06
243.765	85.06
243.998	71.06
244.232	89.06
244.465	97.06
244.699	79.06
244.932	77.06
245.166	83.06
245.399	77.06
245.633	83.06
245.866	83.06
246.099	86.06
246.333	78.06
246.566	75.06
246.8	69.06
247.033	69.06
247.266	74.06
247.5	83.06
247.733	90.06
247.966	89.06
248.2	71.06
248.433	84.06
248.666	87.06
248.899	103.06
249.133	94.06
249.366	87.06
249.599	88.06
249.832	83.06
250.066	71.06
250.299	99.06
250.532	90.06
250.765	81.06
250.998	87.06
251.231	79.06
251.465	80.06
251.698	97.06
251.931	84.06
252.164	71.06
252.397	75.06
252.63	82.06
252.863	88.06
253.096	80.06
253.329	80.06
253.562	80.06
253.795	82.06
254.028	85.06
254.261	83.06
254.494	84.06
254.727	78.06
254.96	77.06
255.193	70.06
255.426	80.06
255.659	79.06
255.892	86.06
256.124	70.06
256.357	76.06
256.59	86.06
256.823	71.06
257.056	74.06
257.289	78.06
257.521	92.06
257.754	80.06
257.987	88.06
258.22	79.06
258.452	93.06
258.685	66.06
258.918	82.06
259.151	92.06
259.383	79.06
259.616	92.06
259.849	87.06
260.081	82.06
260.314	84.06
260.547	89.06
260.779	91.06
261.012	89.06
261.244	101.06
261.477	83.06
261.71	88.06
261.942	97.06
262.175	129.06
262.407	62.06
262.64	92.06
262.872	84.06
263.105	80.06
263.337	94.06
263.57	78.06
263.802	76.06
264.035	82.06
264.267	86.06
264.499	76.06
264.732	91.06
264.964	86.06
265.197	88.06
265.429	94.06
265.661	95.06
265.894	75.06
266.126	81.06
266.358	88.06
266.591	88.06
266.823	93.06
267.055	75.06
267.287	69.06
267.52	72.06
267.752	78.06
267.984	99.06
268.216	77.06
268.448	77.06
268.681	77.06
268.913	88.06
269.145	91.06
269.377	81.06
269.609	75.06
269.841	88.06
270.073	89.06
270.306	92.06
270.538	80.06
270.77	85.06
271.002	77.06
271.234	107.06
271.466	86.06
271.698	97.06
271.93	87.06
272.162	77.06
272.394	93.06
272.626	83.06
272.858	92.06
273.09	78.06
273.322	89.06
273.553	84.06
273.785	81.06
274.017	86.06
274.249	100.06
274.481	79.06
274.713	91.06
274.945	80.06
275.176	70.06
275.408	77.06
275.64	88.06
275.872	97.06
276.104	97.06
276.335	91.06
276.567	101.06
276.799	90.06
277.031	92.06
277.262	85.06
277.494	77.06
277.726	98.06
277.957	96.06
278.189	87.06
278.421	97.06
278.652	79.06
278.884	84.06
279.115	95.06
279.347	96.06
279.579	87.06
279.81	85.06
280.042	94.06
280.273	85.06
280.505	88.06
280.736	86.06
280.968	87.06
281.199	101.06
281.431	84.06
281.662	85.06
281.894	89.06
282.125	98.06
282.356	97.06
282.588	134.06
282.819	117.06
283.051	94.06
283.282	100.06
283.513	87.06
283.745	80.06
283.976	81.06
284.207	89.06
284.439	73.06
284.67	100.06
284.901	91.06
285.132	101.06
285.364	82.06
285.595	98.06
285.826	99.06
286.057	87.06
286.288	105.06
286.52	85.06
286.751	89.06
286.982	86.06
287.213	92.06
287.444	89.06
287.675	96.06
287.906	92.06
288.138	84.06
288.369	89.06
288.6	88.06
288.831	99.06
289.062	94.06
289.293	88.06
289.524	79.06
289.755	94.06
289.986	84.06
290.217	93.06
290.448	99.06
290.679	94.06
290.91	95.06
291.141	99.06
291.371	91.06
291.602	99.06
291.833	84.06
292.064	98.06
292.295	74.06
292.526	97.06
292.757	82.06
292.987	87.06
293.218	88.06
293.449	95.06
293.68	88.06
293.91	84.06
294.141	78.06
294.372	82.06
294.603	87.06
294.833	90.06
295.064	89.06
295.295	82.06
295.525	101.06
295.756	106.06
295.987	109.06
296.217	119.06
296.448	119.06
296.679	100.06
296.909	107.06
297.14	104.06
297.37	94.06
297.601	104.06
297.831	83.06
298.062	82.06
298.292	98.06
298.523	101.06
298.753	88.06
298.984	86.06
299.214	91.06
299.445	94.06
299.675	97.06
299.905	98.06
300.136	98.06
300.366	87.06
300.597	110.06
300.827	88.06
301.057	102.06
301.288	95.06
301.518	98.06
301.748	89.06
301.979	115.06
302.209	90.06
302.439	87.06
302.669	107.06
302.9	88.06
303.13	100.06
303.36	98.06
303.59	105.06
303.82	108.06
304.051	88.06
304.281	102.06
304.511	96.06
304.741	104.06
304.971	97.06
305.201	84.06
305.431	86.06
305.661	107.06
305.891	87.06
306.121	100.06
306.352	107.06
306.582	133.06
306.812	101.06
307.042	93.06
307.272	97.06
307.502	103.06
307.731	95.06
307.961	86.06
308.191	89.06
308.421	92.06
308.651	102.06
308.881	90.06
309.111	95.06
309.341	91.06
309.571	97.06
309.8	100.06
310.03	115.06
310.26	103.06
310.49	91.06
310.72	101.06
310.949	92.06
311.179	89.06
311.409	108.06
311.639	85.06
311.868	104.06
312.098	109.06
312.328	108.06
312.557	119.06
312.787	105.06
313.017	112.06
313.246	99.06
313.476	97.06
313.706	104.06
313.935	92.06
314.165	105.06
314.394	106.06
314.624	98.06
314.853	107.06
315.083	99.06
315.312	84.06
315.542	88.06
315.771	101.06
316.001	82.06
316.23	101.06
316.46	95.06
316.689	82.06
316.919	97.06
317.148	91.06
317.377	105.06
317.607	101.06
317.836	63.06
318.065	105.06
318.295	82.06
318.524	82.06
318.753	96.06
318.983	107.06
319.212	92.06
319.441	108.06
319.67	114.06
319.9	91.06
320.129	90.06
320.358	108.06
320.587	104.06
320.816	103.06
321.046	98.06
321.275	93.06
321.504	80.06
321.733	99.06
321.962	102.06
322.191	99.06
322.42	100.06
322.649	117.06
322.878	108.06
323.108	106.06
323.337	125.06
323.566	134.06
323.795	149.06
324.024	195.06
324.253	371.06
324.482	807.06
324.71	1643.06
324.939	2154.06
325.168	818.06
325.397	265.06
325.626	146.06
325.855	129.06
326.084	117.06
326.313	118.06
326.542	146.06
326.77	226.06
326.999	446.06
327.228	948.06
327.457	1698.06
327.686	1355.06
327.914	361.06
328.143	199.06
328.372	139.06
328.6	135.06
328.829	123.06
329.058	124.06
329.287	121.06
329.515	106.06
329.744	96.06
329.972	100.06
330.201	93.06
330.43	106.06
330.658	105.06
330.887	135.06
331.115	122.06
331.344	74.06
331.572	103.06
331.801	92.06
332.03	108.06
332.258	99.06
332.486	100.06
332.715	101.06
332.943	95.06
333.172	86.06
333.4	97.06
333.629	83.06
333.857	108.06
334.085	92.06
334.314	100.06
334.542	103.06
334.771	98.06
334.999	97.06
335.227	99.06
335.455	101.06
335.684	102.06
335.912	84.06
336.14	99.06
336.369	100.06
336.597	92.06
336.825	102.06
337.053	111.06
337.281	115.06
337.51	78.06
337.738	98.06
337.966	91.06
338.194	87.06
338.422	96.06
338.65	116.06
338.878	95.06
339.106	88.06
339.334	115.06
339.562	89.06
339.79	89.06
340.018	86.06
340.246	106.06
340.474	105.06
340.702	97.06
340.93	98.06
341.158	94.06
341.386	87.06
341.614	85.06
341.842	74.06
342.07	87.06
342.298	101.06
342.526	101.06
342.754	86.06
342.981	91.06
343.209	100.06
343.437	101.06
343.665	98.06
343.893	88.06
344.12	94.06
344.348	106.06
344.576	83.06
344.804	88.06
345.031	88.06
345.259	90.06
345.487	107.06
345.714	89.06
345.942	79.06
346.17	93.06
346.397	94.06
346.625	92.06
346.853	98.06
347.08	95.06
347.308	102.06
347.535	86.06
347.763	88.06
347.99	107.06
348.218	100.06
348.445	103.06
348.673	93.06
348.9	86.06
349.128	102.06
349.355	90.06
349.583	102.06
349.81	107.06
350.037	90.06
350.265	91.06
350.492	89.06
350.72	107.06
350.947	108.06
351.174	104.06
351.402	116.06
351.629	92.06
351.856	101.06
352.083	92.06
352.311	107.06
352.538	107.06
352.765	109.06
352.992	95.06
353.22	100.06
353.447	102.06
353.674	106.06
353.901	114.06
354.128	103.06
354.355	100.06
354.583	93.06
354.81	99.06
355.037	104.06
355.264	115.06
355.491	99.06
355.718	98.06
355.945	106.06
356.172	107.06
356.399	101.06
356.626	101.06
356.853	103.06
357.08	99.06
357.307	97.06
357.534	102.06
357.761	96.06
357.988	111.06
358.215	114.06
358.441	113.06
358.668	110.06
358.895	100.06
359.122	101.06
359.349	106.06
359.576	95.06
359.802	110.06
360.029	93.06
360.256	104.06
360.483	104.06
360.709	95.06
360.936	99.06
361.163	107.06
361.39	100.06
361.616	108.06
361.843	88.06
362.07	97.06
362.296	94.06
362.523	85.06
362.749	78.06
362.976	88.06
363.203	102.06
363.429	98.06
363.656	91.06
363.882	95.06
364.109	98.06
364.335	108.06
364.562	88.06
364.788	86.06
365.015	94.06
365.241	99.06
365.468	120.06
365.694	108.06
365.92	102.06
366.147	90.06
366.373	85.06
366.599	79.06
366.826	77.06
367.052	88.06
367.278	100.06
367.505	92.06
367.731	94.06
367.957	88.06
368.184	83.06
368.41	88.06
368.636	123.06
368.862	109.06
369.089	102.06
369.315	82.06
369.541	98.06
369.767	92.06
369.993	90.06
370.219	92.06
370.445	92.06
370.672	86.06
370.898	94.06
371.124	99.06
371.35	95.06
371.576	104.06
371.802	94.06
372.028	94.06
372.254	100.06
372.48	95.06
372.706	105.06
372.932	97.06
373.158	91.06
373.384	97.06
373.61	100.06
373.835	110.06
374.061	99.06
374.287	100.06
374.513	84.06
374.739	95.06
374.965	97.06
375.191	90.06
375.416	95.06
375.642	99.06
375.868	94.06
376.094	84.06
376.319	108.06
376.545	99.06
376.771	111.06
376.997	98.06
377.222	105.06
377.448	106.06
377.674	101.06
377.899	115.06
378.125	110.06
378.35	103.06
378.576	107.06
378.802	117.06
379.027	119.06
379.253	108.06
379.478	116.06
379.704	113.06
379.929	110.06
380.155	113.06
380.38	110.06
380.606	115.06
380.831	113.06
381.057	126.06
381.282	124.06
381.507	118.06
381.733	118.06
381.958	123.06
382.184	133.06
382.409	127.06
382.634	131.06
382.86	105.06
383.085	141.06
383.31	151.06
383.535	145.06
383.761	135.06
383.986	125.06
384.211	135.06
384.436	134.06
384.662	156.06
384.887	154.06
385.112	163.06
385.337	162.06
385.562	145.06
385.787	175.06
386.013	159.06
386.238	176.06
386.463	160.06
386.688	154.06
386.913	163.06
387.138	192.06
387.363	159.06
387.588	131.06
387.813	118.06
388.038	148.06
388.263	206.06
388.488	176.06
388.713	110.06
388.938	116.06
389.163	99.06
389.387	105.06
389.612	86.06
389.837	85.06
390.062	83.06
390.287	105.06
390.512	92.06
390.736	90.06
390.961	103.06
391.186	96.06
391.411	91.06
391.636	98.06
391.86	82.06
392.085	87.06
392.31	90.06
392.534	82.06
392.759	97.06
392.984	106.06
393.208	127.06
393.433	143.06
393.658	137.06
393.882	97.06
394.107	94.06
394.331	85.06
394.556	97.06
394.78	90.06
395.005	96.06
395.229	91.06
395.454	94.06
395.678	90.06
395.903	89.06
396.127	91.06
396.352	110.06
396.576	97.06
396.801	101.06
397.025	120.06
397.249	108.06
397.474	86.06
397.698	94.06
397.922	91.06
398.147	80.06
398.371	102.06
398.595	103.06
398.82	87.06
399.044	90.06
399.268	93.06
399.492	80.06
399.717	91.06
399.941	90.06
400.165	104.06
400.389	83.06
400.613	91.06
400.837	84.06
401.062	82.06
401.286	78.06
401.51	85.06
401.734	78.06
401.958	93.06
402.182	102.06
402.406	148.06
402.63	113.06
402.854	102.06
403.078	84.06
403.302	78.06
403.526	88.06
403.75	94.06
403.974	88.06
404.198	88.06
404.422	97.06
404.645	90.06
404.869	94.06
405.093	108.06
405.317	114.06
405.541	97.06
405.765	82.06
405.988	100.06
406.212	156.06
406.436	210.06
406.66	143.06
406.883	98.06
407.107	99.06
407.331	100.06
407.555	97.06
407.778	93.06
408.002	90.06
408.226	89.06
408.449	104.06
408.673	85.06
408.896	102.06
409.12	103.06
409.344	106.06
409.567	84.06
409.791	96.06
410.014	88.06
410.238	91.06
410.461	94.06
410.685	85.06
410.908	101.06
411.132	107.06
411.355	108.06
411.578	100.06
411.802	107.06
412.025	90.06
412.249	107.06
412.472	99.06
412.695	81.06
412.919	105.06
413.142	78.06
413.365	81.06
413.589	92.06
413.812	96.06
414.035	104.06
414.258	110.06
414.482	98.06
414.705	95.06
414.928	100.06
415.151	94.06
415.374	91.06
415.597	94.06
415.821	99.06
416.044	101.06
416.267	94.06
416.49	83.06
416.713	102.06
416.936	101.06
417.159	84.06
417.382	85.06
417.605	85.06
417.828	104.06
418.051	96.06
418.274	102.06
418.497	93.06
418.72	84.06
418.943	101.06
419.166	95.06
419.389	93.06
419.611	102.06
419.834	104.06
420.057	84.06
420.28	73.06
420.503	103.06
420.726	93.06
420.948	98.06
421.171	98.06
421.394	98.06
421.617	95.06
421.839	98.06
422.062	76.06
422.285	113.06
422.507	113.06
422.73	117.06
422.953	133.06
423.175	102.06
423.398	91.06
423.621	83.06
423.843	89.06
424.066	97.06
424.288	85.06
424.511	78.06
424.733	92.06
424.956	98.06
425.178	100.06
425.401	87.06
425.623	90.06
425.846	85.06
426.068	92.06
426.291	89.06
426.513	87.06
426.735	81.06
426.958	78.06
427.18	90.06
427.402	128.06
427.625	154.06
427.847	120.06
428.069	98.06
428.292	91.06
428.514	105.06
428.736	87.06
428.958	86.06
429.181	108.06
429.403	101.06
429.625	98.06
429.847	92.06
430.069	108.06
430.292	79.06
430.514	78.06
430.736	98.06
430.958	83.06
431.18	95.06
431.402	93.06
431.624	86.06
431.846	81.06
432.068	81.06
432.29	86.06
432.512	79.06
432.734	93.06
432.956	94.06
433.178	99.06
433.4	97.06
433.622	89.06
433.844	84.06
434.066	84.06
434.287	82.06
434.509	88.06
434.731	84.06
434.953	101.06
435.175	92.06
435.397	92.06
435.618	98.06
435.84	100.06
436.062	97.06
436.284	113.06
436.505	103.06
436.727	111.06
436.949	103.06
437.17	89.06
437.392	87.06
437.614	86.06
437.835	106.06
438.057	99.06
438.278	95.06
438.5	102.06
438.721	107.06
438.943	98.06
439.165	82.06
439.386	77.06
439.608	88.06
439.829	100.06
440.05	118.06
440.272	137.06
440.493	92.06
440.715	78.06
440.936	95.06
441.158	97.06
441.379	78.06
441.6	89.06
441.822	91.06
442.043	102.06
442.264	89.06
442.486	102.06
442.707	100.06
442.928	103.06
443.149	115.06
443.371	121.06
443.592	97.06
443.813	115.06
444.034	105.06
444.255	86.06
444.476	98.06
444.698	85.06
444.919	81.06
445.14	128.06
445.361	138.06
445.582	109.06
445.803	136.06
446.024	113.06
446.245	134.06
446.466	121.06
446.687	98.06
446.908	83.06
447.129	91.06
447.35	88.06
447.571	89.06
447.792	69.06
448.013	91.06
448.234	100.06
448.455	97.06
448.675	105.06
448.896	122.06
449.117	89.06
449.338	84.06
449.559	129.06
449.779	135.06
450	89.06
450.221	96.06
450.442	85.06
450.662	100.06
450.883	108.06
451.104	97.06
451.324	92.06
451.545	84.06
451.766	76.06
451.986	88.06
452.207	83.06
452.428	91.06
452.648	101.06
452.869	97.06
453.089	101.06
453.31	115.06
453.53	93.06
453.751	86.06
453.971	105.06
454.192	101.06
454.412	84.06
454.633	91.06
454.853	89.06
455.073	79.06
455.294	86.06
455.514	96.06
455.734	98.06
455.955	93.06
456.175	80.06
456.395	71.06
456.616	96.06
456.836	78.06
457.056	83.06
457.276	78.06
457.497	97.06
457.717	82.06
457.937	82.06
458.157	86.06
458.377	90.06
458.598	103.06
458.818	129.06
459.038	134.06
459.258	99.06
459.478	70.06
459.698	95.06
459.918	90.06
460.138	83.06
460.358	88.06
460.578	96.06
460.798	90.06
461.018	79.06
461.238	95.06
461.458	86.06
461.678	86.06
461.898	100.06
462.118	78.06
462.338	84.06
462.558	94.06
462.777	81.06
462.997	103.06
463.217	94.06
463.437	83.06
463.657	92.06
463.876	97.06
464.096	92.06
464.316	71.06
464.536	85.06
464.755	107.06
464.975	94.06
465.195	151.06
465.414	128.06
465.634	93.06
465.854	90.06
466.073	100.06
466.293	91.06
466.512	83.06
466.732	75.06
466.951	75.06
467.171	94.06
467.391	89.06
467.61	84.06
467.829	91.06
468.049	83.06
468.268	78.06
468.488	91.06
468.707	83.06
468.927	78.06
469.146	96.06
469.365	90.06
469.585	81.06
469.804	94.06
470.023	95.06
470.243	95.06
470.462	97.06
470.681	114.06
470.901	77.06
471.12	95.06
471.339	89.06
471.558	87.06
471.777	85.06
471.997	97.06
472.216	99.06
472.435	96.06
472.654	83.06
472.873	75.06
473.092	82.06
473.311	74.06
473.53	94.06
473.749	88.06
473.968	99.06
474.187	104.06
474.406	103.06
474.625	82.06
474.844	83.06
475.063	93.06
475.282	90.06
475.501	83.06
475.72	97.06
475.939	85.06
476.158	86.06
476.377	89.06
476.596	85.06
476.814	91.06
477.033	100.06
477.252	90.06
477.471	82.06
477.69	96.06
477.908	93.06
478.127	97.06
478.346	81.06
478.564	93.06
478.783	93.06
479.002	111.06
479.22	87.06
479.439	115.06
479.658	102.06
479.876	106.06
480.095	73.06
480.313	87.06
480.532	89.06
480.751	74.06
480.969	93.06
481.188	80.06
481.406	101.06
481.624	97.06
481.843	78.06
482.061	91.06
482.28	85.06
482.498	105.06
482.717	82.06
482.935	96.06
483.153	93.06
483.372	89.06
483.59	83.06
483.808	90.06
484.027	82.06
484.245	106.06
484.463	97.06
484.681	71.06
484.9	101.06
485.118	109.06
485.336	102.06
485.554	101.06
485.772	116.06
485.99	108.06
486.209	123.06
486.427	133.06
486.645	110.06
486.863	121.06
487.081	99.06
487.299	114.06
487.517	92.06
487.735	98.06
487.953	107.06
488.171	91.06
488.389	90.06
488.607	97.06
488.825	94.06
489.043	102.06
489.261	97.06
489.479	95.06
489.696	78.06
489.914	84.06
490.132	82.06
490.35	113.06
490.568	94.06
490.786	94.06
491.003	110.06
491.221	103.06
491.439	96.06
491.657	84.06
491.874	98.06
492.092	88.06
492.31	96.06
492.527	95.06
492.745	87.06
492.963	89.06
493.18	100.06
493.398	99.06
493.615	95.06
493.833	94.06
494.05	84.06
494.268	84.06
494.485	101.06
494.703	77.06
494.92	88.06
495.138	101.06
495.355	98.06
495.573	93.06
495.79	90.06
496.008	86.06
496.225	89.06
496.442	74.06
496.66	92.06
496.877	86.06
497.094	87.06
497.312	78.06
497.529	88.06
497.746	83.06
497.963	88.06
498.181	89.06
498.398	82.06
498.615	108.06
498.832	105.06
499.049	94.06
499.267	98.06
499.484	82.06
499.701	87.06
499.918	94.06
500.135	99.06
500.352	86.06
500.569	89.06
500.786	90.06
501.003	87.06
501.22	85.06
501.437	89.06
501.654	92.06
501.871	97.06
502.088	99.06
502.305	91.06
502.522	95.06
502.739	94.06
502.956	85.06
503.172	94.06
503.389	78.06
503.606	118.06
503.823	95.06
504.04	93.06
504.256	88.06
504.473	86.06
504.69	92.06
504.907	93.06
505.123	102.06
505.34	74.06
505.557	85.06
505.773	97.06
505.99	82.06
506.207	83.06
506.423	98.06
506.64	87.06
506.856	97.06
507.073	89.06
507.289	73.06
507.506	95.06
507.722	101.06
507.939	115.06
508.155	88.06
508.372	102.06
508.588	86.06
508.805	85.06
509.021	79.06
509.238	85.06
509.454	101.06
509.67	108.06
509.887	98.06
510.103	115.06
510.319	181.06
510.536	653.06
510.752	2188.06
510.968	639.06
511.184	155.06
511.401	99.06
511.617	98.06
511.833	88.06
512.049	106.06
512.265	102.06
512.481	83.06
512.698	85.06
512.914	96.06
513.13	88.06
513.346	94.06
513.562	100.06
513.778	102.06
513.994	99.06
514.21	105.06
514.426	114.06
