Data from Circ_2016_H10_HRD10591_00048.txt Node
Date: Wed Jan 03 09:58:50 EST 2024
User: Yrep
Spectrometer: HR+D1059
Trigger mode: 1
Integration Time (sec): 1.000000E-1
Scans to average: 1
Electric dark correction enabled: true
Nonlinearity correction enabled: false
Boxcar width: 0
XAxis mode: Wavelengths
Number of Pixels in Spectrum: 2048
>>>>>Begin Spectral Data<<<<<
223.165	-13.19
223.4	-13.19
223.635	-13.19
223.869	-17.19
224.104	-13.19
224.338	-14.19
224.573	-9.19
224.808	-25.19
225.042	-4.19
225.277	-7.19
225.511	-2.19
225.746	6.81
225.98	17.81
226.215	3.81
226.449	3.81
226.683	19.81
226.918	18.81
227.152	34.81
227.387	46.81
227.621	41.81
227.856	53.81
228.09	44.81
228.324	54.81
228.559	52.81
228.793	66.81
229.027	54.81
229.262	73.81
229.496	71.81
229.73	81.81
229.964	75.81
230.199	78.81
230.433	68.81
230.667	68.81
230.901	70.81
231.136	82.81
231.37	72.81
231.604	77.81
231.838	75.81
232.072	70.81
232.306	66.81
232.541	83.81
232.775	84.81
233.009	77.81
233.243	75.81
233.477	74.81
233.711	67.81
233.945	76.81
234.179	78.81
234.413	86.81
234.647	92.81
234.881	85.81
235.115	75.81
235.349	80.81
235.583	88.81
235.817	88.81
236.051	68.81
236.285	76.81
236.519	76.81
236.753	72.81
236.987	69.81
237.221	85.81
237.455	82.81
237.689	89.81
237.922	83.81
238.156	73.81
238.39	74.81
238.624	67.81
238.858	70.81
239.091	71.81
239.325	80.81
239.559	69.81
239.793	82.81
240.027	76.81
240.26	61.81
240.494	99.81
240.728	84.81
240.961	76.81
241.195	78.81
241.429	75.81
241.662	69.81
241.896	81.81
242.13	71.81
242.363	70.81
242.597	65.81
242.83	64.81
243.064	81.81
243.298	74.81
243.531	71.81
243.765	77.81
243.998	89.81
244.232	65.81
244.465	83.81
244.699	64.81
244.932	68.81
245.166	80.81
245.399	75.81
245.633	77.81
245.866	71.81
246.099	57.81
246.333	77.81
246.566	72.81
246.8	88.81
247.033	68.81
247.266	68.81
247.5	83.81
247.733	72.81
247.966	70.81
248.2	92.81
248.433	90.81
248.666	68.81
248.899	91.81
249.133	75.81
249.366	92.81
249.599	90.81
249.832	86.81
250.066	75.81
250.299	97.81
250.532	91.81
250.765	81.81
250.998	84.81
251.231	75.81
251.465	75.81
251.698	75.81
251.931	76.81
252.164	70.81
252.397	61.81
252.63	88.81
252.863	75.81
253.096	83.81
253.329	75.81
253.562	67.81
253.795	74.81
254.028	91.81
254.261	75.81
254.494	77.81
254.727	74.81
254.96	86.81
255.193	75.81
255.426	74.81
255.659	76.81
255.892	72.81
256.124	82.81
256.357	85.81
256.59	86.81
256.823	80.81
257.056	87.81
257.289	84.81
257.521	86.81
257.754	90.81
257.987	80.81
258.22	89.81
258.452	77.81
258.685	74.81
258.918	77.81
259.151	75.81
259.383	88.81
259.616	74.81
259.849	88.81
260.081	80.81
260.314	77.81
260.547	81.81
260.779	76.81
261.012	68.81
261.244	80.81
261.477	92.81
261.71	82.81
261.942	112.81
262.175	107.81
262.407	90.81
262.64	67.81
262.872	78.81
263.105	78.81
263.337	79.81
263.57	83.81
263.802	72.81
264.035	91.81
264.267	75.81
264.499	65.81
264.732	96.81
264.964	86.81
265.197	93.81
265.429	95.81
265.661	75.81
265.894	87.81
266.126	83.81
266.358	73.81
266.591	93.81
266.823	81.81
267.055	81.81
267.287	90.81
267.52	80.81
267.752	84.81
267.984	86.81
268.216	75.81
268.448	91.81
268.681	82.81
268.913	98.81
269.145	78.81
269.377	87.81
269.609	77.81
269.841	93.81
270.073	80.81
270.306	89.81
270.538	66.81
270.77	73.81
271.002	84.81
271.234	82.81
271.466	79.81
271.698	90.81
271.93	76.81
272.162	79.81
272.394	84.81
272.626	92.81
272.858	82.81
273.09	75.81
273.322	91.81
273.553	97.81
273.785	83.81
274.017	86.81
274.249	75.81
274.481	74.81
274.713	82.81
274.945	73.81
275.176	80.81
275.408	86.81
275.64	87.81
275.872	94.81
276.104	77.81
276.335	97.81
276.567	87.81
276.799	105.81
277.031	113.81
277.262	74.81
277.494	89.81
277.726	83.81
277.957	92.81
278.189	85.81
278.421	76.81
278.652	90.81
278.884	80.81
279.115	75.81
279.347	71.81
279.579	83.81
279.81	82.81
280.042	87.81
280.273	88.81
280.505	82.81
280.736	91.81
280.968	87.81
281.199	99.81
281.431	77.81
281.662	91.81
281.894	86.81
282.125	97.81
282.356	110.81
282.588	140.81
282.819	111.81
283.051	85.81
283.282	87.81
283.513	97.81
283.745	80.81
283.976	79.81
284.207	79.81
284.439	84.81
284.67	76.81
284.901	89.81
285.132	81.81
285.364	89.81
285.595	100.81
285.826	84.81
286.057	87.81
286.288	86.81
286.52	73.81
286.751	94.81
286.982	91.81
287.213	78.81
287.444	83.81
287.675	103.81
287.906	85.81
288.138	89.81
288.369	99.81
288.6	87.81
288.831	83.81
289.062	89.81
289.293	90.81
289.524	92.81
289.755	86.81
289.986	82.81
290.217	76.81
290.448	101.81
290.679	79.81
290.91	86.81
291.141	70.81
291.371	71.81
291.602	99.81
291.833	85.81
292.064	93.81
292.295	91.81
292.526	79.81
292.757	106.81
292.987	78.81
293.218	94.81
293.449	79.81
293.68	91.81
293.91	89.81
294.141	89.81
294.372	89.81
294.603	87.81
294.833	75.81
295.064	98.81
295.295	104.81
295.525	112.81
295.756	105.81
295.987	109.81
296.217	134.81
296.448	132.81
296.679	95.81
296.909	84.81
297.14	79.81
297.37	83.81
297.601	95.81
297.831	69.81
298.062	90.81
298.292	100.81
298.523	75.81
298.753	73.81
298.984	90.81
299.214	96.81
299.445	95.81
299.675	93.81
299.905	97.81
300.136	87.81
300.366	76.81
300.597	92.81
300.827	100.81
301.057	94.81
301.288	91.81
301.518	97.81
301.748	98.81
301.979	93.81
302.209	102.81
302.439	90.81
302.669	89.81
302.9	81.81
303.13	84.81
303.36	83.81
303.59	98.81
303.82	92.81
304.051	102.81
304.281	87.81
304.511	88.81
304.741	94.81
304.971	95.81
305.201	83.81
305.431	84.81
305.661	71.81
305.891	80.81
306.121	96.81
306.352	103.81
306.582	105.81
306.812	85.81
307.042	77.81
307.272	91.81
307.502	103.81
307.731	85.81
307.961	78.81
308.191	74.81
308.421	81.81
308.651	91.81
308.881	98.81
309.111	97.81
309.341	106.81
309.571	99.81
309.8	91.81
310.03	84.81
310.26	89.81
310.49	87.81
310.72	97.81
310.949	93.81
311.179	115.81
311.409	88.81
311.639	82.81
311.868	93.81
312.098	81.81
312.328	99.81
312.557	103.81
312.787	98.81
313.017	97.81
313.246	100.81
313.476	84.81
313.706	84.81
313.935	105.81
314.165	83.81
314.394	75.81
314.624	109.81
314.853	93.81
315.083	91.81
315.312	100.81
315.542	83.81
315.771	78.81
316.001	93.81
316.23	95.81
316.46	80.81
316.689	95.81
316.919	97.81
317.148	92.81
317.377	97.81
317.607	101.81
317.836	100.81
318.065	92.81
318.295	94.81
318.524	85.81
318.753	109.81
318.983	94.81
319.212	104.81
319.441	102.81
319.67	118.81
319.9	99.81
320.129	86.81
320.358	86.81
320.587	97.81
320.816	85.81
321.046	108.81
321.275	90.81
321.504	92.81
321.733	86.81
321.962	85.81
322.191	101.81
322.42	105.81
322.649	105.81
322.878	122.81
323.108	117.81
323.337	120.81
323.566	118.81
323.795	163.81
324.024	198.81
324.253	386.81
324.482	793.81
324.71	1616.81
324.939	2169.81
325.168	794.81
325.397	225.81
325.626	154.81
325.855	135.81
326.084	120.81
326.313	131.81
326.542	133.81
326.77	229.81
326.999	434.81
327.228	961.81
327.457	1699.81
327.686	1374.81
327.914	371.81
328.143	188.81
328.372	146.81
328.6	130.81
328.829	112.81
329.058	136.81
329.287	109.81
329.515	99.81
329.744	94.81
329.972	105.81
330.201	108.81
330.43	128.81
330.658	119.81
330.887	115.81
331.115	114.81
331.344	98.81
331.572	92.81
331.801	99.81
332.03	101.81
332.258	87.81
332.486	85.81
332.715	101.81
332.943	88.81
333.172	103.81
333.4	94.81
333.629	104.81
333.857	90.81
334.085	101.81
334.314	113.81
334.542	130.81
334.771	115.81
334.999	112.81
335.227	89.81
335.455	84.81
335.684	101.81
335.912	90.81
336.14	85.81
336.369	94.81
336.597	89.81
336.825	95.81
337.053	82.81
337.281	92.81
337.51	95.81
337.738	101.81
337.966	90.81
338.194	100.81
338.422	101.81
338.65	88.81
338.878	88.81
339.106	82.81
339.334	101.81
339.562	87.81
339.79	105.81
340.018	91.81
340.246	86.81
340.474	86.81
340.702	87.81
340.93	84.81
341.158	83.81
341.386	115.81
341.614	92.81
341.842	100.81
342.07	94.81
342.298	87.81
342.526	94.81
342.754	81.81
342.981	63.81
343.209	90.81
343.437	96.81
343.665	82.81
343.893	95.81
344.12	103.81
344.348	104.81
344.576	91.81
344.804	99.81
345.031	92.81
345.259	93.81
345.487	92.81
345.714	93.81
345.942	73.81
346.17	83.81
346.397	97.81
346.625	86.81
346.853	89.81
347.08	96.81
347.308	93.81
347.535	96.81
347.763	92.81
347.99	87.81
348.218	93.81
348.445	91.81
348.673	107.81
348.9	99.81
349.128	97.81
349.355	98.81
349.583	103.81
349.81	100.81
350.037	90.81
350.265	91.81
350.492	84.81
350.72	101.81
350.947	108.81
351.174	113.81
351.402	93.81
351.629	115.81
351.856	95.81
352.083	109.81
352.311	96.81
352.538	114.81
352.765	113.81
352.992	104.81
353.22	101.81
353.447	90.81
353.674	93.81
353.901	102.81
354.128	95.81
354.355	95.81
354.583	91.81
354.81	97.81
355.037	103.81
355.264	88.81
355.491	99.81
355.718	102.81
355.945	97.81
356.172	104.81
356.399	97.81
356.626	103.81
356.853	103.81
357.08	85.81
357.307	90.81
357.534	88.81
357.761	81.81
357.988	100.81
358.215	109.81
358.441	102.81
358.668	107.81
358.895	101.81
359.122	86.81
359.349	85.81
359.576	89.81
359.802	92.81
360.029	104.81
360.256	116.81
360.483	93.81
360.709	85.81
360.936	91.81
361.163	85.81
361.39	93.81
361.616	85.81
361.843	98.81
362.07	88.81
362.296	98.81
362.523	98.81
362.749	82.81
362.976	71.81
363.203	88.81
363.429	80.81
363.656	90.81
363.882	85.81
364.109	99.81
364.335	112.81
364.562	98.81
364.788	84.81
365.015	79.81
365.241	93.81
365.468	115.81
365.694	102.81
365.92	78.81
366.147	89.81
366.373	93.81
366.599	92.81
366.826	93.81
367.052	91.81
367.278	92.81
367.505	100.81
367.731	85.81
367.957	86.81
368.184	91.81
368.41	97.81
368.636	104.81
368.862	112.81
369.089	113.81
369.315	82.81
369.541	98.81
369.767	104.81
369.993	102.81
370.219	91.81
370.445	95.81
370.672	95.81
370.898	93.81
371.124	88.81
371.35	91.81
371.576	107.81
371.802	84.81
372.028	101.81
372.254	84.81
372.48	91.81
372.706	87.81
372.932	100.81
373.158	91.81
373.384	93.81
373.61	85.81
373.835	78.81
374.061	89.81
374.287	91.81
374.513	68.81
374.739	93.81
374.965	85.81
375.191	92.81
375.416	104.81
375.642	92.81
375.868	96.81
376.094	99.81
376.319	101.81
376.545	90.81
376.771	84.81
376.997	92.81
377.222	92.81
377.448	82.81
377.674	87.81
377.899	113.81
378.125	88.81
378.35	99.81
378.576	83.81
378.802	76.81
379.027	96.81
379.253	84.81
379.478	86.81
379.704	88.81
379.929	92.81
380.155	92.81
380.38	94.81
380.606	95.81
380.831	86.81
381.057	104.81
381.282	97.81
381.507	105.81
381.733	97.81
381.958	102.81
382.184	97.81
382.409	99.81
382.634	107.81
382.86	106.81
383.085	108.81
383.31	113.81
383.535	112.81
383.761	98.81
383.986	108.81
384.211	124.81
384.436	118.81
384.662	107.81
384.887	107.81
385.112	119.81
385.337	131.81
385.562	104.81
385.787	132.81
386.013	107.81
386.238	119.81
386.463	120.81
386.688	137.81
386.913	129.81
387.138	129.81
387.363	130.81
387.588	129.81
387.813	124.81
388.038	128.81
388.263	126.81
388.488	128.81
388.713	103.81
388.938	96.81
389.163	88.81
389.387	103.81
389.612	91.81
389.837	96.81
390.062	106.81
390.287	99.81
390.512	107.81
390.736	104.81
390.961	94.81
391.186	105.81
391.411	92.81
391.636	94.81
391.86	99.81
392.085	106.81
392.31	92.81
392.534	86.81
392.759	96.81
392.984	88.81
393.208	100.81
393.433	95.81
393.658	96.81
393.882	89.81
394.107	85.81
394.331	82.81
394.556	94.81
394.78	94.81
395.005	98.81
395.229	81.81
395.454	89.81
395.678	77.81
395.903	88.81
396.127	79.81
396.352	99.81
396.576	92.81
396.801	111.81
397.025	98.81
397.249	94.81
397.474	84.81
397.698	97.81
397.922	66.81
398.147	71.81
398.371	86.81
398.595	84.81
398.82	86.81
399.044	102.81
399.268	78.81
399.492	96.81
399.717	94.81
399.941	92.81
400.165	88.81
400.389	92.81
400.613	105.81
400.837	93.81
401.062	82.81
401.286	85.81
401.51	99.81
401.734	84.81
401.958	89.81
402.182	104.81
402.406	148.81
402.63	121.81
402.854	87.81
403.078	88.81
403.302	86.81
403.526	86.81
403.75	77.81
403.974	93.81
404.198	95.81
404.422	98.81
404.645	97.81
404.869	90.81
405.093	101.81
405.317	93.81
405.541	90.81
405.765	100.81
405.988	114.81
406.212	156.81
406.436	195.81
406.66	152.81
406.883	112.81
407.107	89.81
407.331	90.81
407.555	104.81
407.778	91.81
408.002	96.81
408.226	83.81
408.449	90.81
408.673	91.81
408.896	106.81
409.12	85.81
409.344	86.81
409.567	93.81
409.791	96.81
410.014	96.81
410.238	93.81
410.461	95.81
410.685	92.81
410.908	96.81
411.132	110.81
411.355	103.81
411.578	96.81
411.802	97.81
412.025	83.81
412.249	85.81
412.472	86.81
412.695	100.81
412.919	97.81
413.142	93.81
413.365	89.81
413.589	87.81
413.812	97.81
414.035	112.81
414.258	80.81
414.482	80.81
414.705	84.81
414.928	92.81
415.151	89.81
415.374	110.81
415.597	98.81
415.821	91.81
416.044	98.81
416.267	97.81
416.49	93.81
416.713	91.81
416.936	83.81
417.159	96.81
417.382	82.81
417.605	97.81
417.828	105.81
418.051	93.81
418.274	89.81
418.497	80.81
418.72	87.81
418.943	89.81
419.166	98.81
419.389	86.81
419.611	93.81
419.834	94.81
420.057	90.81
420.28	98.81
420.503	88.81
420.726	99.81
420.948	81.81
421.171	90.81
421.394	92.81
421.617	93.81
421.839	91.81
422.062	100.81
422.285	89.81
422.507	105.81
422.73	109.81
422.953	99.81
423.175	91.81
423.398	91.81
423.621	86.81
423.843	94.81
424.066	91.81
424.288	91.81
424.511	97.81
424.733	102.81
424.956	96.81
425.178	88.81
425.401	103.81
425.623	99.81
425.846	89.81
426.068	91.81
426.291	84.81
426.513	89.81
426.735	108.81
426.958	110.81
427.18	116.81
427.402	134.81
427.625	156.81
427.847	133.81
428.069	115.81
428.292	83.81
428.514	83.81
428.736	77.81
428.958	76.81
429.181	86.81
429.403	97.81
429.625	87.81
429.847	101.81
430.069	94.81
430.292	96.81
430.514	83.81
430.736	81.81
430.958	87.81
431.18	94.81
431.402	97.81
431.624	89.81
431.846	101.81
432.068	84.81
432.29	88.81
432.512	88.81
432.734	91.81
432.956	81.81
433.178	93.81
433.4	103.81
433.622	89.81
433.844	77.81
434.066	90.81
434.287	106.81
434.509	93.81
434.731	101.81
434.953	90.81
435.175	91.81
435.397	91.81
435.618	100.81
435.84	99.81
436.062	123.81
436.284	116.81
436.505	83.81
436.727	108.81
436.949	99.81
437.17	94.81
437.392	82.81
437.614	100.81
437.835	111.81
438.057	115.81
438.278	112.81
438.5	117.81
438.721	127.81
438.943	110.81
439.165	78.81
439.386	86.81
439.608	92.81
439.829	101.81
440.05	112.81
440.272	136.81
440.493	108.81
440.715	92.81
440.936	90.81
441.158	92.81
441.379	94.81
441.6	106.81
441.822	94.81
442.043	99.81
442.264	115.81
442.486	101.81
442.707	85.81
442.928	94.81
443.149	126.81
443.371	130.81
443.592	121.81
443.813	105.81
444.034	100.81
444.255	98.81
444.476	100.81
444.698	90.81
444.919	97.81
445.14	118.81
445.361	113.81
445.582	106.81
445.803	137.81
446.024	124.81
446.245	127.81
446.466	122.81
446.687	97.81
446.908	74.81
447.129	109.81
447.35	87.81
447.571	87.81
447.792	104.81
448.013	102.81
448.234	104.81
448.455	111.81
448.675	107.81
448.896	119.81
449.117	105.81
449.338	107.81
449.559	139.81
449.779	136.81
450	94.81
450.221	110.81
450.442	90.81
450.662	85.81
450.883	107.81
451.104	108.81
451.324	102.81
451.545	83.81
451.766	97.81
451.986	90.81
452.207	93.81
452.428	104.81
452.648	102.81
452.869	93.81
453.089	98.81
453.31	101.81
453.53	84.81
453.751	93.81
453.971	105.81
454.192	102.81
454.412	84.81
454.633	86.81
454.853	86.81
455.073	87.81
455.294	84.81
455.514	90.81
455.734	94.81
455.955	90.81
456.175	77.81
456.395	90.81
456.616	90.81
456.836	88.81
457.056	90.81
457.276	97.81
457.497	83.81
457.717	88.81
457.937	78.81
458.157	68.81
458.377	85.81
458.598	112.81
458.818	139.81
459.038	151.81
459.258	131.81
459.478	94.81
459.698	83.81
459.918	77.81
460.138	79.81
460.358	99.81
460.578	96.81
460.798	92.81
461.018	92.81
461.238	83.81
461.458	88.81
461.678	83.81
461.898	89.81
462.118	87.81
462.338	86.81
462.558	97.81
462.777	90.81
462.997	73.81
463.217	82.81
463.437	91.81
463.657	80.81
463.876	90.81
464.096	92.81
464.316	94.81
464.536	86.81
464.755	93.81
464.975	99.81
465.195	137.81
465.414	166.81
465.634	99.81
465.854	101.81
466.073	95.81
466.293	87.81
466.512	99.81
466.732	91.81
466.951	96.81
467.171	84.81
467.391	90.81
467.61	96.81
467.829	89.81
468.049	91.81
468.268	94.81
468.488	85.81
468.707	92.81
468.927	90.81
469.146	88.81
469.365	81.81
469.585	70.81
469.804	73.81
470.023	95.81
470.243	102.81
470.462	93.81
470.681	87.81
470.901	86.81
471.12	99.81
471.339	74.81
471.558	91.81
471.777	84.81
471.997	91.81
472.216	111.81
472.435	147.81
472.654	88.81
472.873	94.81
473.092	76.81
473.311	89.81
473.53	93.81
473.749	78.81
473.968	98.81
474.187	105.81
474.406	89.81
474.625	93.81
474.844	96.81
475.063	80.81
475.282	78.81
475.501	77.81
475.72	84.81
475.939	84.81
476.158	92.81
476.377	77.81
476.596	99.81
476.814	101.81
477.033	78.81
477.252	100.81
477.471	92.81
477.69	84.81
477.908	90.81
478.127	87.81
478.346	86.81
478.564	86.81
478.783	96.81
479.002	91.81
479.22	82.81
479.439	82.81
479.658	102.81
479.876	83.81
480.095	100.81
480.313	91.81
480.532	113.81
480.751	103.81
480.969	116.81
481.188	186.81
481.406	149.81
481.624	93.81
481.843	103.81
482.061	84.81
482.28	90.81
482.498	89.81
482.717	86.81
482.935	88.81
483.153	90.81
483.372	78.81
483.59	98.81
483.808	94.81
484.027	93.81
484.245	93.81
484.463	98.81
484.681	88.81
484.9	94.81
485.118	86.81
485.336	91.81
485.554	95.81
485.772	101.81
485.99	87.81
486.209	108.81
486.427	93.81
486.645	110.81
486.863	122.81
487.081	97.81
487.299	99.81
487.517	94.81
487.735	104.81
487.953	93.81
488.171	97.81
488.389	88.81
488.607	112.81
488.825	93.81
489.043	108.81
489.261	85.81
489.479	92.81
489.696	88.81
489.914	89.81
490.132	90.81
490.35	84.81
490.568	91.81
490.786	81.81
491.003	85.81
491.221	86.81
491.439	109.81
491.657	102.81
491.874	87.81
492.092	92.81
492.31	95.81
492.527	97.81
492.745	77.81
492.963	87.81
493.18	89.81
493.398	93.81
493.615	118.81
493.833	100.81
494.05	95.81
494.268	96.81
494.485	91.81
494.703	90.81
494.92	105.81
495.138	105.81
495.355	87.81
495.573	88.81
495.79	84.81
496.008	106.81
496.225	106.81
496.442	92.81
496.66	91.81
496.877	78.81
497.094	94.81
497.312	87.81
497.529	91.81
497.746	81.81
497.963	84.81
498.181	95.81
498.398	100.81
498.615	105.81
498.832	109.81
499.049	78.81
499.267	102.81
499.484	91.81
499.701	83.81
499.918	90.81
500.135	94.81
500.352	85.81
500.569	92.81
500.786	94.81
501.003	95.81
501.22	70.81
501.437	93.81
501.654	96.81
501.871	106.81
502.088	93.81
502.305	103.81
502.522	102.81
502.739	96.81
502.956	89.81
503.172	93.81
503.389	97.81
503.606	92.81
503.823	101.81
504.04	98.81
504.256	102.81
504.473	82.81
504.69	100.81
504.907	98.81
505.123	104.81
505.34	84.81
505.557	97.81
505.773	94.81
505.99	88.81
506.207	80.81
506.423	93.81
506.64	92.81
506.856	88.81
507.073	87.81
507.289	87.81
507.506	107.81
507.722	102.81
507.939	104.81
508.155	98.81
508.372	100.81
508.588	99.81
508.805	80.81
509.021	94.81
509.238	87.81
509.454	100.81
509.67	107.81
509.887	121.81
510.103	136.81
510.319	195.81
510.536	715.81
510.752	2331.81
510.968	674.81
511.184	166.81
511.401	105.81
511.617	101.81
511.833	88.81
512.049	95.81
512.265	96.81
512.481	97.81
512.698	96.81
512.914	86.81
513.13	102.81
513.346	91.81
513.562	84.81
513.778	84.81
513.994	105.81
514.21	96.81
514.426	122.81
514.642	116.81
514.858	100.81
515.074	151.81
515.29	402.81
