Data from Circ_2016_H10_HRD10591_00045.txt Node
Date: Wed Jan 03 09:58:49 EST 2024
User: Yrep
Spectrometer: HR+D1059
Trigger mode: 1
Integration Time (sec): 1.000000E-1
Scans to average: 1
Electric dark correction enabled: true
Nonlinearity correction enabled: false
Boxcar width: 0
XAxis mode: Wavelengths
Number of Pixels in Spectrum: 2048
>>>>>Begin Spectral Data<<<<<
223.165	-10.62
223.4	-10.62
223.635	-10.62
223.869	-21.62
224.104	-16.62
224.338	-20.62
224.573	-11.62
224.808	-10.62
225.042	9.38
225.277	-3.62
225.511	-8.62
225.746	-6.62
225.98	8.38
226.215	17.38
226.449	17.38
226.683	6.38
226.918	20.38
227.152	31.38
227.387	46.38
227.621	36.38
227.856	48.38
228.09	43.38
228.324	34.38
228.559	50.38
228.793	59.38
229.027	59.38
229.262	71.38
229.496	53.38
229.73	79.38
229.964	72.38
230.199	74.38
230.433	87.38
230.667	85.38
230.901	78.38
231.136	68.38
231.37	85.38
231.604	76.38
231.838	81.38
232.072	84.38
232.306	80.38
232.541	95.38
232.775	79.38
233.009	80.38
233.243	63.38
233.477	82.38
233.711	83.38
233.945	77.38
234.179	65.38
234.413	64.38
234.647	72.38
234.881	86.38
235.115	82.38
235.349	68.38
235.583	82.38
235.817	84.38
236.051	84.38
236.285	80.38
236.519	81.38
236.753	75.38
236.987	79.38
237.221	72.38
237.455	71.38
237.689	76.38
237.922	77.38
238.156	72.38
238.39	68.38
238.624	82.38
238.858	72.38
239.091	66.38
239.325	73.38
239.559	76.38
239.793	94.38
240.027	85.38
240.26	79.38
240.494	76.38
240.728	75.38
240.961	69.38
241.195	77.38
241.429	71.38
241.662	62.38
241.896	73.38
242.13	85.38
242.363	101.38
242.597	70.38
242.83	77.38
243.064	81.38
243.298	77.38
243.531	97.38
243.765	83.38
243.998	76.38
244.232	101.38
244.465	77.38
244.699	83.38
244.932	62.38
245.166	81.38
245.399	70.38
245.633	77.38
245.866	83.38
246.099	76.38
246.333	71.38
246.566	74.38
246.8	78.38
247.033	63.38
247.266	88.38
247.5	76.38
247.733	78.38
247.966	85.38
248.2	83.38
248.433	74.38
248.666	84.38
248.899	91.38
249.133	85.38
249.366	91.38
249.599	105.38
249.832	80.38
250.066	93.38
250.299	96.38
250.532	81.38
250.765	85.38
250.998	76.38
251.231	67.38
251.465	72.38
251.698	67.38
251.931	86.38
252.164	77.38
252.397	79.38
252.63	75.38
252.863	67.38
253.096	69.38
253.329	80.38
253.562	81.38
253.795	78.38
254.028	83.38
254.261	87.38
254.494	79.38
254.727	94.38
254.96	88.38
255.193	75.38
255.426	85.38
255.659	93.38
255.892	80.38
256.124	76.38
256.357	71.38
256.59	83.38
256.823	72.38
257.056	73.38
257.289	85.38
257.521	85.38
257.754	88.38
257.987	82.38
258.22	76.38
258.452	83.38
258.685	95.38
258.918	76.38
259.151	69.38
259.383	90.38
259.616	76.38
259.849	72.38
260.081	87.38
260.314	77.38
260.547	76.38
260.779	79.38
261.012	83.38
261.244	69.38
261.477	83.38
261.71	97.38
261.942	112.38
262.175	111.38
262.407	90.38
262.64	77.38
262.872	89.38
263.105	82.38
263.337	67.38
263.57	69.38
263.802	83.38
264.035	87.38
264.267	77.38
264.499	74.38
264.732	89.38
264.964	95.38
265.197	70.38
265.429	80.38
265.661	88.38
265.894	91.38
266.126	82.38
266.358	86.38
266.591	75.38
266.823	84.38
267.055	83.38
267.287	91.38
267.52	88.38
267.752	89.38
267.984	63.38
268.216	86.38
268.448	73.38
268.681	77.38
268.913	79.38
269.145	80.38
269.377	88.38
269.609	82.38
269.841	82.38
270.073	84.38
270.306	74.38
270.538	86.38
270.77	77.38
271.002	81.38
271.234	72.38
271.466	99.38
271.698	84.38
271.93	72.38
272.162	92.38
272.394	84.38
272.626	72.38
272.858	69.38
273.09	79.38
273.322	82.38
273.553	84.38
273.785	83.38
274.017	78.38
274.249	95.38
274.481	89.38
274.713	67.38
274.945	81.38
275.176	97.38
275.408	93.38
275.64	79.38
275.872	82.38
276.104	90.38
276.335	90.38
276.567	96.38
276.799	109.38
277.031	105.38
277.262	98.38
277.494	86.38
277.726	85.38
277.957	86.38
278.189	88.38
278.421	68.38
278.652	83.38
278.884	74.38
279.115	69.38
279.347	83.38
279.579	76.38
279.81	81.38
280.042	84.38
280.273	90.38
280.505	98.38
280.736	80.38
280.968	93.38
281.199	87.38
281.431	98.38
281.662	95.38
281.894	96.38
282.125	107.38
282.356	113.38
282.588	137.38
282.819	123.38
283.051	92.38
283.282	86.38
283.513	82.38
283.745	89.38
283.976	85.38
284.207	87.38
284.439	70.38
284.67	84.38
284.901	85.38
285.132	81.38
285.364	94.38
285.595	87.38
285.826	90.38
286.057	94.38
286.288	87.38
286.52	88.38
286.751	88.38
286.982	92.38
287.213	81.38
287.444	82.38
287.675	85.38
287.906	86.38
288.138	85.38
288.369	90.38
288.6	89.38
288.831	89.38
289.062	80.38
289.293	82.38
289.524	81.38
289.755	77.38
289.986	80.38
290.217	85.38
290.448	85.38
290.679	96.38
290.91	91.38
291.141	85.38
291.371	89.38
291.602	94.38
291.833	96.38
292.064	76.38
292.295	81.38
292.526	87.38
292.757	72.38
292.987	76.38
293.218	84.38
293.449	79.38
293.68	90.38
293.91	73.38
294.141	91.38
294.372	102.38
294.603	88.38
294.833	91.38
295.064	91.38
295.295	88.38
295.525	76.38
295.756	105.38
295.987	112.38
296.217	153.38
296.448	119.38
296.679	93.38
296.909	77.38
297.14	63.38
297.37	81.38
297.601	95.38
297.831	83.38
298.062	105.38
298.292	83.38
298.523	91.38
298.753	74.38
298.984	94.38
299.214	92.38
299.445	98.38
299.675	92.38
299.905	85.38
300.136	98.38
300.366	78.38
300.597	81.38
300.827	90.38
301.057	101.38
301.288	102.38
301.518	91.38
301.748	86.38
301.979	102.38
302.209	110.38
302.439	85.38
302.669	80.38
302.9	87.38
303.13	95.38
303.36	85.38
303.59	100.38
303.82	99.38
304.051	74.38
304.281	80.38
304.511	90.38
304.741	86.38
304.971	79.38
305.201	87.38
305.431	88.38
305.661	99.38
305.891	74.38
306.121	96.38
306.352	103.38
306.582	105.38
306.812	84.38
307.042	89.38
307.272	85.38
307.502	98.38
307.731	99.38
307.961	99.38
308.191	86.38
308.421	89.38
308.651	90.38
308.881	101.38
309.111	99.38
309.341	106.38
309.571	102.38
309.8	92.38
310.03	109.38
310.26	104.38
310.49	92.38
310.72	98.38
310.949	92.38
311.179	91.38
311.409	96.38
311.639	96.38
311.868	78.38
312.098	97.38
312.328	93.38
312.557	97.38
312.787	83.38
313.017	103.38
313.246	76.38
313.476	89.38
313.706	84.38
313.935	91.38
314.165	85.38
314.394	94.38
314.624	90.38
314.853	91.38
315.083	93.38
315.312	92.38
315.542	96.38
315.771	99.38
316.001	89.38
316.23	85.38
316.46	98.38
316.689	83.38
316.919	86.38
317.148	90.38
317.377	115.38
317.607	85.38
317.836	94.38
318.065	84.38
318.295	85.38
318.524	76.38
318.753	97.38
318.983	80.38
319.212	92.38
319.441	103.38
319.67	106.38
319.9	101.38
320.129	95.38
320.358	92.38
320.587	76.38
320.816	96.38
321.046	99.38
321.275	91.38
321.504	102.38
321.733	105.38
321.962	104.38
322.191	97.38
322.42	102.38
322.649	106.38
322.878	105.38
323.108	118.38
323.337	114.38
323.566	137.38
323.795	159.38
324.024	216.38
324.253	431.38
324.482	900.38
324.71	1817.38
324.939	2345.38
325.168	866.38
325.397	257.38
325.626	150.38
325.855	131.38
326.084	132.38
326.313	134.38
326.542	153.38
326.77	239.38
326.999	489.38
327.228	1020.38
327.457	1843.38
327.686	1463.38
327.914	375.38
328.143	192.38
328.372	162.38
328.6	123.38
328.829	129.38
329.058	118.38
329.287	130.38
329.515	113.38
329.744	97.38
329.972	100.38
330.201	111.38
330.43	104.38
330.658	116.38
330.887	128.38
331.115	125.38
331.344	114.38
331.572	107.38
331.801	101.38
332.03	107.38
332.258	87.38
332.486	93.38
332.715	89.38
332.943	91.38
333.172	98.38
333.4	84.38
333.629	105.38
333.857	107.38
334.085	107.38
334.314	108.38
334.542	112.38
334.771	129.38
334.999	102.38
335.227	93.38
335.455	90.38
335.684	93.38
335.912	97.38
336.14	95.38
336.369	94.38
336.597	83.38
336.825	107.38
337.053	74.38
337.281	85.38
337.51	87.38
337.738	103.38
337.966	77.38
338.194	75.38
338.422	98.38
338.65	101.38
338.878	84.38
339.106	75.38
339.334	83.38
339.562	91.38
339.79	83.38
340.018	85.38
340.246	93.38
340.474	98.38
340.702	97.38
340.93	85.38
341.158	100.38
341.386	94.38
341.614	84.38
341.842	79.38
342.07	81.38
342.298	106.38
342.526	97.38
342.754	91.38
342.981	84.38
343.209	85.38
343.437	101.38
343.665	86.38
343.893	89.38
344.12	91.38
344.348	76.38
344.576	90.38
344.804	96.38
345.031	83.38
345.259	84.38
345.487	96.38
345.714	91.38
345.942	73.38
346.17	90.38
346.397	82.38
346.625	88.38
346.853	93.38
347.08	106.38
347.308	115.38
347.535	99.38
347.763	103.38
347.99	100.38
348.218	90.38
348.445	88.38
348.673	99.38
348.9	90.38
349.128	82.38
349.355	95.38
349.583	84.38
349.81	91.38
350.037	88.38
350.265	95.38
350.492	81.38
350.72	102.38
350.947	96.38
351.174	102.38
351.402	114.38
351.629	98.38
351.856	110.38
352.083	97.38
352.311	84.38
352.538	95.38
352.765	119.38
352.992	89.38
353.22	99.38
353.447	111.38
353.674	102.38
353.901	98.38
354.128	99.38
354.355	89.38
354.583	92.38
354.81	87.38
355.037	100.38
355.264	95.38
355.491	85.38
355.718	81.38
355.945	104.38
356.172	99.38
356.399	97.38
356.626	101.38
356.853	95.38
357.08	97.38
357.307	93.38
357.534	96.38
357.761	86.38
357.988	97.38
358.215	100.38
358.441	87.38
358.668	94.38
358.895	89.38
359.122	92.38
359.349	89.38
359.576	92.38
359.802	106.38
360.029	112.38
360.256	105.38
360.483	98.38
360.709	101.38
360.936	88.38
361.163	100.38
361.39	91.38
361.616	84.38
361.843	95.38
362.07	96.38
362.296	90.38
362.523	89.38
362.749	88.38
362.976	79.38
363.203	93.38
363.429	84.38
363.656	89.38
363.882	96.38
364.109	96.38
364.335	81.38
364.562	88.38
364.788	95.38
365.015	74.38
365.241	87.38
365.468	104.38
365.694	114.38
365.92	90.38
366.147	98.38
366.373	88.38
366.599	97.38
366.826	77.38
367.052	72.38
367.278	82.38
367.505	85.38
367.731	97.38
367.957	90.38
368.184	102.38
368.41	92.38
368.636	115.38
368.862	111.38
369.089	101.38
369.315	91.38
369.541	88.38
369.767	104.38
369.993	98.38
370.219	84.38
370.445	83.38
370.672	90.38
370.898	91.38
371.124	75.38
371.35	90.38
371.576	88.38
371.802	86.38
372.028	104.38
372.254	91.38
372.48	95.38
372.706	82.38
372.932	72.38
373.158	87.38
373.384	79.38
373.61	92.38
373.835	89.38
374.061	75.38
374.287	87.38
374.513	98.38
374.739	70.38
374.965	81.38
375.191	90.38
375.416	81.38
375.642	98.38
375.868	113.38
376.094	89.38
376.319	89.38
376.545	80.38
376.771	89.38
376.997	94.38
377.222	99.38
377.448	88.38
377.674	75.38
377.899	88.38
378.125	95.38
378.35	91.38
378.576	93.38
378.802	97.38
379.027	87.38
379.253	88.38
379.478	81.38
379.704	107.38
379.929	99.38
380.155	103.38
380.38	106.38
380.606	100.38
380.831	91.38
381.057	101.38
381.282	88.38
381.507	107.38
381.733	97.38
381.958	101.38
382.184	112.38
382.409	108.38
382.634	90.38
382.86	111.38
383.085	104.38
383.31	100.38
383.535	123.38
383.761	119.38
383.986	107.38
384.211	100.38
384.436	92.38
384.662	111.38
384.887	115.38
385.112	111.38
385.337	121.38
385.562	124.38
385.787	105.38
386.013	123.38
386.238	131.38
386.463	106.38
386.688	112.38
386.913	111.38
387.138	105.38
387.363	104.38
387.588	106.38
387.813	94.38
388.038	105.38
388.263	130.38
388.488	133.38
388.713	98.38
388.938	93.38
389.163	89.38
389.387	94.38
389.612	100.38
389.837	88.38
390.062	104.38
390.287	91.38
390.512	63.38
390.736	80.38
390.961	90.38
391.186	88.38
391.411	94.38
391.636	83.38
391.86	79.38
392.085	91.38
392.31	87.38
392.534	96.38
392.759	87.38
392.984	84.38
393.208	93.38
393.433	115.38
393.658	92.38
393.882	81.38
394.107	85.38
394.331	105.38
394.556	84.38
394.78	88.38
395.005	68.38
395.229	91.38
395.454	97.38
395.678	76.38
395.903	87.38
396.127	92.38
396.352	74.38
396.576	86.38
396.801	94.38
397.025	88.38
397.249	91.38
397.474	101.38
397.698	87.38
397.922	81.38
398.147	78.38
398.371	92.38
398.595	97.38
398.82	96.38
399.044	80.38
399.268	91.38
399.492	88.38
399.717	85.38
399.941	82.38
400.165	98.38
400.389	92.38
400.613	84.38
400.837	85.38
401.062	87.38
401.286	79.38
401.51	107.38
401.734	87.38
401.958	88.38
402.182	113.38
402.406	164.38
402.63	113.38
402.854	88.38
403.078	93.38
403.302	81.38
403.526	82.38
403.75	93.38
403.974	95.38
404.198	89.38
404.422	89.38
404.645	94.38
404.869	91.38
405.093	95.38
405.317	95.38
405.541	97.38
405.765	95.38
405.988	100.38
406.212	157.38
406.436	225.38
406.66	139.38
406.883	98.38
407.107	93.38
407.331	97.38
407.555	111.38
407.778	84.38
408.002	78.38
408.226	85.38
408.449	95.38
408.673	91.38
408.896	95.38
409.12	92.38
409.344	95.38
409.567	83.38
409.791	95.38
410.014	82.38
410.238	93.38
410.461	77.38
410.685	91.38
410.908	103.38
411.132	82.38
411.355	93.38
411.578	84.38
411.802	79.38
412.025	91.38
412.249	85.38
412.472	91.38
412.695	95.38
412.919	90.38
413.142	74.38
413.365	84.38
413.589	93.38
413.812	77.38
414.035	87.38
414.258	83.38
414.482	89.38
414.705	85.38
414.928	100.38
415.151	83.38
415.374	89.38
415.597	75.38
415.821	79.38
416.044	86.38
416.267	86.38
416.49	96.38
416.713	66.38
416.936	80.38
417.159	97.38
417.382	95.38
417.605	86.38
417.828	89.38
418.051	81.38
418.274	75.38
418.497	76.38
418.72	81.38
418.943	85.38
419.166	96.38
419.389	84.38
419.611	96.38
419.834	85.38
420.057	81.38
420.28	100.38
420.503	99.38
420.726	101.38
420.948	86.38
421.171	87.38
421.394	96.38
421.617	90.38
421.839	83.38
422.062	100.38
422.285	97.38
422.507	100.38
422.73	92.38
422.953	100.38
423.175	78.38
423.398	74.38
423.621	74.38
423.843	94.38
424.066	91.38
424.288	98.38
424.511	97.38
424.733	93.38
424.956	89.38
425.178	115.38
425.401	98.38
425.623	96.38
425.846	95.38
426.068	94.38
426.291	93.38
426.513	89.38
426.735	91.38
426.958	87.38
427.18	104.38
427.402	125.38
427.625	155.38
427.847	127.38
428.069	100.38
428.292	77.38
428.514	73.38
428.736	76.38
428.958	84.38
429.181	85.38
429.403	79.38
429.625	90.38
429.847	90.38
430.069	89.38
430.292	102.38
430.514	89.38
430.736	77.38
430.958	82.38
431.18	88.38
431.402	90.38
431.624	88.38
431.846	73.38
432.068	91.38
432.29	81.38
432.512	73.38
432.734	82.38
432.956	91.38
433.178	80.38
433.4	96.38
433.622	86.38
433.844	87.38
434.066	75.38
434.287	85.38
434.509	85.38
434.731	83.38
434.953	80.38
435.175	84.38
435.397	92.38
435.618	86.38
435.84	93.38
436.062	115.38
436.284	101.38
436.505	99.38
436.727	97.38
436.949	90.38
437.17	81.38
437.392	64.38
437.614	90.38
437.835	113.38
438.057	106.38
438.278	99.38
438.5	97.38
438.721	101.38
438.943	97.38
439.165	97.38
439.386	90.38
439.608	94.38
439.829	99.38
440.05	116.38
440.272	121.38
440.493	87.38
440.715	68.38
440.936	91.38
441.158	105.38
441.379	83.38
441.6	87.38
441.822	88.38
442.043	85.38
442.264	87.38
442.486	98.38
442.707	95.38
442.928	90.38
443.149	124.38
443.371	124.38
443.592	102.38
443.813	85.38
444.034	97.38
444.255	102.38
444.476	82.38
444.698	80.38
444.919	94.38
445.14	142.38
445.361	130.38
445.582	109.38
445.803	138.38
446.024	115.38
446.245	124.38
446.466	112.38
446.687	76.38
446.908	83.38
447.129	90.38
447.35	89.38
447.571	87.38
447.792	83.38
448.013	83.38
448.234	109.38
448.455	97.38
448.675	109.38
448.896	104.38
449.117	107.38
449.338	88.38
449.559	116.38
449.779	117.38
450	95.38
450.221	96.38
450.442	93.38
450.662	91.38
450.883	85.38
451.104	116.38
451.324	92.38
451.545	85.38
451.766	81.38
451.986	90.38
452.207	96.38
452.428	106.38
452.648	103.38
452.869	106.38
453.089	97.38
453.31	108.38
453.53	93.38
453.751	102.38
453.971	93.38
454.192	99.38
454.412	88.38
454.633	81.38
454.853	67.38
455.073	84.38
455.294	91.38
455.514	88.38
455.734	82.38
455.955	87.38
456.175	81.38
456.395	77.38
456.616	88.38
456.836	93.38
457.056	85.38
457.276	85.38
457.497	86.38
457.717	82.38
457.937	92.38
458.157	84.38
458.377	90.38
458.598	96.38
458.818	123.38
459.038	135.38
459.258	115.38
459.478	81.38
459.698	79.38
459.918	89.38
460.138	82.38
460.358	83.38
460.578	84.38
460.798	80.38
461.018	69.38
461.238	93.38
461.458	58.38
461.678	96.38
461.898	93.38
462.118	84.38
462.338	81.38
462.558	81.38
462.777	83.38
462.997	77.38
463.217	90.38
463.437	79.38
463.657	81.38
463.876	101.38
464.096	77.38
464.316	90.38
464.536	80.38
464.755	83.38
464.975	104.38
465.195	147.38
465.414	151.38
465.634	96.38
465.854	90.38
466.073	90.38
466.293	70.38
466.512	88.38
466.732	77.38
466.951	84.38
467.171	93.38
467.391	95.38
467.61	108.38
467.829	88.38
468.049	91.38
468.268	88.38
468.488	82.38
468.707	72.38
468.927	95.38
469.146	91.38
469.365	79.38
469.585	83.38
469.804	90.38
470.023	80.38
470.243	91.38
470.462	94.38
470.681	108.38
470.901	76.38
471.12	81.38
471.339	106.38
471.558	85.38
471.777	92.38
471.997	92.38
472.216	106.38
472.435	134.38
472.654	93.38
472.873	91.38
473.092	92.38
473.311	84.38
473.53	84.38
473.749	78.38
473.968	83.38
474.187	102.38
474.406	104.38
474.625	85.38
474.844	82.38
475.063	84.38
475.282	94.38
475.501	111.38
475.72	92.38
475.939	86.38
476.158	87.38
476.377	89.38
476.596	87.38
476.814	77.38
477.033	99.38
477.252	82.38
477.471	79.38
477.69	84.38
477.908	99.38
478.127	73.38
478.346	86.38
478.564	88.38
478.783	100.38
479.002	85.38
479.22	88.38
479.439	98.38
479.658	101.38
479.876	104.38
480.095	79.38
480.313	86.38
480.532	82.38
480.751	92.38
480.969	108.38
481.188	154.38
481.406	137.38
481.624	94.38
481.843	83.38
482.061	96.38
482.28	91.38
482.498	101.38
482.717	100.38
482.935	90.38
483.153	89.38
483.372	87.38
483.59	96.38
483.808	90.38
484.027	90.38
484.245	111.38
484.463	81.38
484.681	94.38
484.9	96.38
485.118	111.38
485.336	100.38
485.554	107.38
485.772	102.38
485.99	102.38
486.209	109.38
486.427	109.38
486.645	95.38
486.863	115.38
487.081	114.38
487.299	93.38
487.517	109.38
487.735	84.38
487.953	90.38
488.171	89.38
488.389	87.38
488.607	84.38
488.825	94.38
489.043	87.38
489.261	97.38
489.479	85.38
489.696	96.38
489.914	83.38
490.132	91.38
490.35	95.38
490.568	97.38
490.786	82.38
491.003	89.38
491.221	90.38
491.439	87.38
491.657	89.38
491.874	87.38
492.092	90.38
492.31	93.38
492.527	88.38
492.745	92.38
492.963	81.38
493.18	80.38
493.398	93.38
493.615	90.38
493.833	103.38
494.05	104.38
494.268	92.38
494.485	100.38
494.703	81.38
494.92	90.38
495.138	88.38
495.355	82.38
495.573	97.38
495.79	99.38
496.008	91.38
496.225	86.38
496.442	87.38
496.66	106.38
496.877	74.38
497.094	92.38
497.312	83.38
497.529	86.38
497.746	83.38
497.963	79.38
498.181	88.38
498.398	94.38
498.615	94.38
498.832	105.38
499.049	100.38
499.267	106.38
499.484	78.38
499.701	75.38
499.918	84.38
500.135	85.38
500.352	74.38
500.569	75.38
500.786	90.38
501.003	86.38
501.22	78.38
501.437	98.38
501.654	89.38
501.871	101.38
502.088	97.38
502.305	79.38
502.522	81.38
502.739	78.38
502.956	82.38
503.172	85.38
503.389	100.38
503.606	91.38
503.823	95.38
504.04	111.38
504.256	88.38
504.473	86.38
504.69	81.38
504.907	92.38
505.123	95.38
505.34	86.38
505.557	95.38
505.773	83.38
505.99	94.38
506.207	91.38
506.423	83.38
506.64	94.38
506.856	95.38
507.073	82.38
507.289	90.38
507.506	92.38
507.722	103.38
507.939	112.38
508.155	94.38
508.372	92.38
508.588	97.38
508.805	87.38
509.021	92.38
509.238	93.38
509.454	105.38
509.67	94.38
509.887	124.38
510.103	137.38
510.319	219.38
510.536	801.38
510.752	2712.38
510.968	750.38
511.184	159.38
511.401	111.38
511.617	85.38
511.833	87.38
512.049	79.38
512.265	80.38
512.481	91.38
512.698	79.38
512.914	88.38
513.13	90.38
513.346	90.38
513.562	90.38
513.778	95.38
513.994	102.38
514.21	115.38
514.426	111.38
514.642	138.38
514.858	125.38
515.074	176.38
515.29	454.38
515.506	1596.38
515.721	614.38
515.937	176.38
516.153	101.38
