Data from Circ_2016_H10_HRD10591_00077.txt Node
Date: Wed Jan 03 09:58:56 EST 2024
User: Yrep
Spectrometer: HR+D1059
Trigger mode: 1
Integration Time (sec): 1.000000E-1
Scans to average: 1
Electric dark correction enabled: true
Nonlinearity correction enabled: false
Boxcar width: 0
XAxis mode: Wavelengths
Number of Pixels in Spectrum: 2048
>>>>>Begin Spectral Data<<<<<
223.165	-36.44
223.4	-36.44
223.635	-36.44
223.869	-29.44
224.104	-25.44
224.338	-15.44
224.573	-6.44
224.808	-11.44
225.042	-10.44
225.277	-3.44
225.511	6.56
225.746	8.56
225.98	19.56
226.215	22.56
226.449	15.56
226.683	29.56
226.918	20.56
227.152	15.56
227.387	46.56
227.621	52.56
227.856	43.56
228.09	47.56
228.324	52.56
228.559	60.56
228.793	61.56
229.027	70.56
229.262	74.56
229.496	66.56
229.73	74.56
229.964	87.56
230.199	72.56
230.433	77.56
230.667	70.56
230.901	72.56
231.136	78.56
231.37	89.56
231.604	86.56
231.838	91.56
232.072	86.56
232.306	87.56
232.541	99.56
232.775	82.56
233.009	90.56
233.243	94.56
233.477	71.56
233.711	77.56
233.945	88.56
234.179	86.56
234.413	80.56
234.647	96.56
234.881	80.56
235.115	79.56
235.349	80.56
235.583	81.56
235.817	85.56
236.051	66.56
236.285	66.56
236.519	77.56
236.753	71.56
236.987	83.56
237.221	84.56
237.455	88.56
237.689	79.56
237.922	70.56
238.156	71.56
238.39	70.56
238.624	76.56
238.858	75.56
239.091	89.56
239.325	72.56
239.559	76.56
239.793	81.56
240.027	83.56
240.26	84.56
240.494	87.56
240.728	74.56
240.961	75.56
241.195	73.56
241.429	86.56
241.662	74.56
241.896	95.56
242.13	80.56
242.363	77.56
242.597	83.56
242.83	91.56
243.064	82.56
243.298	94.56
243.531	88.56
243.765	70.56
243.998	86.56
244.232	93.56
244.465	82.56
244.699	80.56
244.932	77.56
245.166	63.56
245.399	80.56
245.633	80.56
245.866	76.56
246.099	85.56
246.333	93.56
246.566	68.56
246.8	80.56
247.033	86.56
247.266	76.56
247.5	80.56
247.733	75.56
247.966	79.56
248.2	79.56
248.433	82.56
248.666	84.56
248.899	88.56
249.133	95.56
249.366	104.56
249.599	95.56
249.832	79.56
250.066	80.56
250.299	84.56
250.532	92.56
250.765	88.56
250.998	79.56
251.231	87.56
251.465	86.56
251.698	88.56
251.931	86.56
252.164	92.56
252.397	85.56
252.63	92.56
252.863	74.56
253.096	82.56
253.329	86.56
253.562	94.56
253.795	89.56
254.028	82.56
254.261	87.56
254.494	87.56
254.727	82.56
254.96	84.56
255.193	79.56
255.426	72.56
255.659	79.56
255.892	87.56
256.124	103.56
256.357	76.56
256.59	81.56
256.823	84.56
257.056	88.56
257.289	92.56
257.521	85.56
257.754	84.56
257.987	80.56
258.22	77.56
258.452	83.56
258.685	90.56
258.918	91.56
259.151	78.56
259.383	79.56
259.616	85.56
259.849	84.56
260.081	73.56
260.314	89.56
260.547	84.56
260.779	90.56
261.012	76.56
261.244	92.56
261.477	80.56
261.71	88.56
261.942	114.56
262.175	118.56
262.407	84.56
262.64	75.56
262.872	76.56
263.105	86.56
263.337	82.56
263.57	82.56
263.802	80.56
264.035	93.56
264.267	86.56
264.499	82.56
264.732	96.56
264.964	89.56
265.197	78.56
265.429	88.56
265.661	87.56
265.894	81.56
266.126	97.56
266.358	77.56
266.591	81.56
266.823	82.56
267.055	87.56
267.287	87.56
267.52	85.56
267.752	87.56
267.984	71.56
268.216	82.56
268.448	99.56
268.681	80.56
268.913	89.56
269.145	86.56
269.377	95.56
269.609	87.56
269.841	81.56
270.073	95.56
270.306	78.56
270.538	90.56
270.77	93.56
271.002	78.56
271.234	96.56
271.466	65.56
271.698	87.56
271.93	96.56
272.162	85.56
272.394	88.56
272.626	88.56
272.858	91.56
273.09	90.56
273.322	94.56
273.553	98.56
273.785	73.56
274.017	74.56
274.249	90.56
274.481	88.56
274.713	88.56
274.945	87.56
275.176	91.56
275.408	90.56
275.64	74.56
275.872	89.56
276.104	103.56
276.335	96.56
276.567	103.56
276.799	104.56
277.031	112.56
277.262	101.56
277.494	94.56
277.726	80.56
277.957	79.56
278.189	77.56
278.421	89.56
278.652	92.56
278.884	94.56
279.115	90.56
279.347	103.56
279.579	89.56
279.81	80.56
280.042	86.56
280.273	85.56
280.505	87.56
280.736	91.56
280.968	96.56
281.199	98.56
281.431	88.56
281.662	84.56
281.894	81.56
282.125	94.56
282.356	130.56
282.588	140.56
282.819	132.56
283.051	90.56
283.282	74.56
283.513	81.56
283.745	92.56
283.976	85.56
284.207	79.56
284.439	74.56
284.67	92.56
284.901	89.56
285.132	74.56
285.364	87.56
285.595	83.56
285.826	87.56
286.057	90.56
286.288	84.56
286.52	84.56
286.751	78.56
286.982	88.56
287.213	87.56
287.444	101.56
287.675	82.56
287.906	97.56
288.138	84.56
288.369	92.56
288.6	106.56
288.831	90.56
289.062	96.56
289.293	99.56
289.524	80.56
289.755	86.56
289.986	93.56
290.217	83.56
290.448	89.56
290.679	94.56
290.91	82.56
291.141	84.56
291.371	89.56
291.602	91.56
291.833	88.56
292.064	90.56
292.295	100.56
292.526	82.56
292.757	89.56
292.987	91.56
293.218	98.56
293.449	99.56
293.68	89.56
293.91	86.56
294.141	93.56
294.372	86.56
294.603	87.56
294.833	89.56
295.064	95.56
295.295	93.56
295.525	100.56
295.756	98.56
295.987	117.56
296.217	144.56
296.448	123.56
296.679	94.56
296.909	88.56
297.14	89.56
297.37	77.56
297.601	92.56
297.831	85.56
298.062	88.56
298.292	102.56
298.523	93.56
298.753	110.56
298.984	108.56
299.214	87.56
299.445	93.56
299.675	82.56
299.905	77.56
300.136	89.56
300.366	93.56
300.597	105.56
300.827	94.56
301.057	106.56
301.288	105.56
301.518	91.56
301.748	93.56
301.979	95.56
302.209	92.56
302.439	93.56
302.669	96.56
302.9	94.56
303.13	98.56
303.36	100.56
303.59	96.56
303.82	106.56
304.051	89.56
304.281	91.56
304.511	91.56
304.741	87.56
304.971	82.56
305.201	94.56
305.431	85.56
305.661	90.56
305.891	99.56
306.121	93.56
306.352	92.56
306.582	100.56
306.812	91.56
307.042	106.56
307.272	104.56
307.502	104.56
307.731	105.56
307.961	94.56
308.191	96.56
308.421	77.56
308.651	95.56
308.881	101.56
309.111	100.56
309.341	85.56
309.571	97.56
309.8	100.56
310.03	108.56
310.26	103.56
310.49	87.56
310.72	103.56
310.949	104.56
311.179	105.56
311.409	87.56
311.639	92.56
311.868	91.56
312.098	101.56
312.328	85.56
312.557	99.56
312.787	95.56
313.017	109.56
313.246	86.56
313.476	86.56
313.706	100.56
313.935	94.56
314.165	98.56
314.394	90.56
314.624	101.56
314.853	92.56
315.083	91.56
315.312	78.56
315.542	91.56
315.771	80.56
316.001	92.56
316.23	112.56
316.46	99.56
316.689	92.56
316.919	83.56
317.148	103.56
317.377	114.56
317.607	100.56
317.836	107.56
318.065	95.56
318.295	96.56
318.524	101.56
318.753	91.56
318.983	102.56
319.212	99.56
319.441	115.56
319.67	103.56
319.9	96.56
320.129	96.56
320.358	97.56
320.587	97.56
320.816	92.56
321.046	93.56
321.275	97.56
321.504	94.56
321.733	87.56
321.962	98.56
322.191	106.56
322.42	119.56
322.649	117.56
322.878	128.56
323.108	129.56
323.337	134.56
323.566	137.56
323.795	160.56
324.024	235.56
324.253	462.56
324.482	958.56
324.71	1991.56
324.939	2572.56
325.168	920.56
325.397	268.56
325.626	162.56
325.855	127.56
326.084	134.56
326.313	130.56
326.542	167.56
326.77	247.56
326.999	492.56
327.228	1096.56
327.457	1996.56
327.686	1588.56
327.914	402.56
328.143	230.56
328.372	179.56
328.6	145.56
328.829	129.56
329.058	126.56
329.287	123.56
329.515	117.56
329.744	107.56
329.972	115.56
330.201	152.56
330.43	172.56
330.658	139.56
330.887	137.56
331.115	134.56
331.344	108.56
331.572	116.56
331.801	106.56
332.03	104.56
332.258	104.56
332.486	101.56
332.715	98.56
332.943	96.56
333.172	97.56
333.4	93.56
333.629	121.56
333.857	116.56
334.085	132.56
334.314	149.56
334.542	180.56
334.771	171.56
334.999	110.56
335.227	106.56
335.455	96.56
335.684	95.56
335.912	103.56
336.14	102.56
336.369	105.56
336.597	114.56
336.825	91.56
337.053	96.56
337.281	99.56
337.51	91.56
337.738	102.56
337.966	98.56
338.194	93.56
338.422	110.56
338.65	88.56
338.878	90.56
339.106	77.56
339.334	93.56
339.562	110.56
339.79	93.56
340.018	89.56
340.246	89.56
340.474	98.56
340.702	95.56
340.93	97.56
341.158	92.56
341.386	90.56
341.614	84.56
341.842	104.56
342.07	98.56
342.298	93.56
342.526	100.56
342.754	99.56
342.981	101.56
343.209	99.56
343.437	95.56
343.665	92.56
343.893	88.56
344.12	86.56
344.348	93.56
344.576	90.56
344.804	94.56
345.031	91.56
345.259	89.56
345.487	99.56
345.714	107.56
345.942	93.56
346.17	98.56
346.397	94.56
346.625	82.56
346.853	90.56
347.08	94.56
347.308	91.56
347.535	94.56
347.763	110.56
347.99	102.56
348.218	111.56
348.445	104.56
348.673	100.56
348.9	115.56
349.128	89.56
349.355	100.56
349.583	98.56
349.81	95.56
350.037	100.56
350.265	89.56
350.492	89.56
350.72	115.56
350.947	118.56
351.174	105.56
351.402	110.56
351.629	99.56
351.856	104.56
352.083	108.56
352.311	107.56
352.538	98.56
352.765	96.56
352.992	103.56
353.22	125.56
353.447	114.56
353.674	101.56
353.901	105.56
354.128	111.56
354.355	92.56
354.583	102.56
354.81	86.56
355.037	95.56
355.264	86.56
355.491	101.56
355.718	94.56
355.945	82.56
356.172	89.56
356.399	94.56
356.626	99.56
356.853	90.56
357.08	91.56
357.307	87.56
357.534	89.56
357.761	107.56
357.988	102.56
358.215	93.56
358.441	102.56
358.668	87.56
358.895	92.56
359.122	89.56
359.349	78.56
359.576	88.56
359.802	108.56
360.029	115.56
360.256	109.56
360.483	100.56
360.709	93.56
360.936	97.56
361.163	87.56
361.39	94.56
361.616	105.56
361.843	98.56
362.07	90.56
362.296	88.56
362.523	96.56
362.749	90.56
362.976	91.56
363.203	88.56
363.429	87.56
363.656	91.56
363.882	101.56
364.109	85.56
364.335	92.56
364.562	94.56
364.788	88.56
365.015	98.56
365.241	114.56
365.468	114.56
365.694	107.56
365.92	92.56
366.147	88.56
366.373	83.56
366.599	95.56
366.826	95.56
367.052	100.56
367.278	104.56
367.505	87.56
367.731	95.56
367.957	101.56
368.184	97.56
368.41	106.56
368.636	95.56
368.862	111.56
369.089	110.56
369.315	97.56
369.541	91.56
369.767	95.56
369.993	108.56
370.219	79.56
370.445	97.56
370.672	95.56
370.898	87.56
371.124	92.56
371.35	90.56
371.576	92.56
371.802	85.56
372.028	81.56
372.254	79.56
372.48	97.56
372.706	90.56
372.932	88.56
373.158	86.56
373.384	97.56
373.61	108.56
373.835	93.56
374.061	91.56
374.287	87.56
374.513	95.56
374.739	92.56
374.965	96.56
375.191	89.56
375.416	76.56
375.642	102.56
375.868	92.56
376.094	91.56
376.319	84.56
376.545	88.56
376.771	87.56
376.997	84.56
377.222	102.56
377.448	96.56
377.674	94.56
377.899	94.56
378.125	91.56
378.35	96.56
378.576	104.56
378.802	94.56
379.027	98.56
379.253	91.56
379.478	99.56
379.704	89.56
379.929	87.56
380.155	94.56
380.38	98.56
380.606	113.56
380.831	99.56
381.057	98.56
381.282	102.56
381.507	109.56
381.733	105.56
381.958	109.56
382.184	103.56
382.409	111.56
382.634	110.56
382.86	107.56
383.085	108.56
383.31	115.56
383.535	105.56
383.761	108.56
383.986	110.56
384.211	97.56
384.436	113.56
384.662	92.56
384.887	117.56
385.112	102.56
385.337	107.56
385.562	97.56
385.787	103.56
386.013	130.56
386.238	107.56
386.463	101.56
386.688	114.56
386.913	115.56
387.138	110.56
387.363	109.56
387.588	104.56
387.813	107.56
388.038	111.56
388.263	112.56
388.488	131.56
388.713	111.56
388.938	98.56
389.163	89.56
389.387	104.56
389.612	86.56
389.837	87.56
390.062	95.56
390.287	88.56
390.512	94.56
390.736	87.56
390.961	97.56
391.186	85.56
391.411	87.56
391.636	94.56
391.86	96.56
392.085	82.56
392.31	94.56
392.534	92.56
392.759	100.56
392.984	98.56
393.208	101.56
393.433	104.56
393.658	96.56
393.882	96.56
394.107	85.56
394.331	94.56
394.556	93.56
394.78	84.56
395.005	83.56
395.229	90.56
395.454	89.56
395.678	99.56
395.903	98.56
396.127	113.56
396.352	79.56
396.576	80.56
396.801	93.56
397.025	87.56
397.249	89.56
397.474	97.56
397.698	91.56
397.922	86.56
398.147	88.56
398.371	87.56
398.595	88.56
398.82	74.56
399.044	79.56
399.268	93.56
399.492	95.56
399.717	76.56
399.941	84.56
400.165	104.56
400.389	92.56
400.613	86.56
400.837	83.56
401.062	75.56
401.286	102.56
401.51	87.56
401.734	92.56
401.958	87.56
402.182	130.56
402.406	160.56
402.63	125.56
402.854	94.56
403.078	94.56
403.302	72.56
403.526	78.56
403.75	97.56
403.974	83.56
404.198	84.56
404.422	94.56
404.645	88.56
404.869	86.56
405.093	88.56
405.317	118.56
405.541	99.56
405.765	95.56
405.988	111.56
406.212	186.56
406.436	225.56
406.66	150.56
406.883	96.56
407.107	107.56
407.331	107.56
407.555	104.56
407.778	93.56
408.002	104.56
408.226	86.56
408.449	79.56
408.673	98.56
408.896	103.56
409.12	101.56
409.344	81.56
409.567	94.56
409.791	89.56
410.014	90.56
410.238	99.56
410.461	68.56
410.685	100.56
410.908	99.56
411.132	102.56
411.355	89.56
411.578	78.56
411.802	98.56
412.025	93.56
412.249	83.56
412.472	84.56
412.695	87.56
412.919	106.56
413.142	98.56
413.365	85.56
413.589	91.56
413.812	98.56
414.035	90.56
414.258	85.56
414.482	87.56
414.705	89.56
414.928	96.56
415.151	90.56
415.374	104.56
415.597	103.56
415.821	85.56
416.044	82.56
416.267	94.56
416.49	74.56
416.713	99.56
416.936	84.56
417.159	101.56
417.382	105.56
417.605	86.56
417.828	88.56
418.051	101.56
418.274	91.56
418.497	94.56
418.72	114.56
418.943	94.56
419.166	91.56
419.389	91.56
419.611	88.56
419.834	90.56
420.057	96.56
420.28	91.56
420.503	99.56
420.726	93.56
420.948	98.56
421.171	105.56
421.394	95.56
421.617	90.56
421.839	79.56
422.062	90.56
422.285	91.56
422.507	115.56
422.73	125.56
422.953	96.56
423.175	99.56
423.398	92.56
423.621	73.56
423.843	86.56
424.066	86.56
424.288	88.56
424.511	94.56
424.733	94.56
424.956	96.56
425.178	112.56
425.401	96.56
425.623	101.56
425.846	83.56
426.068	106.56
426.291	97.56
426.513	101.56
426.735	94.56
426.958	91.56
427.18	116.56
427.402	134.56
427.625	188.56
427.847	128.56
428.069	115.56
428.292	100.56
428.514	84.56
428.736	99.56
428.958	94.56
429.181	88.56
429.403	100.56
429.625	85.56
429.847	82.56
430.069	104.56
430.292	91.56
430.514	78.56
430.736	93.56
430.958	88.56
431.18	84.56
431.402	88.56
431.624	84.56
431.846	86.56
432.068	98.56
432.29	90.56
432.512	74.56
432.734	101.56
432.956	87.56
433.178	91.56
433.4	94.56
433.622	94.56
433.844	92.56
434.066	104.56
434.287	96.56
434.509	91.56
434.731	102.56
434.953	94.56
435.175	86.56
435.397	80.56
435.618	107.56
435.84	109.56
436.062	119.56
436.284	128.56
436.505	104.56
436.727	118.56
436.949	97.56
437.17	80.56
437.392	98.56
437.614	97.56
437.835	117.56
438.057	136.56
438.278	107.56
438.5	104.56
438.721	122.56
438.943	98.56
439.165	92.56
439.386	83.56
439.608	97.56
439.829	104.56
440.05	118.56
440.272	148.56
440.493	104.56
440.715	94.56
440.936	97.56
441.158	90.56
441.379	86.56
441.6	83.56
441.822	102.56
442.043	89.56
442.264	109.56
442.486	96.56
442.707	94.56
442.928	107.56
443.149	150.56
443.371	144.56
443.592	114.56
443.813	114.56
444.034	105.56
444.255	96.56
444.476	90.56
444.698	90.56
444.919	94.56
445.14	142.56
445.361	138.56
445.582	126.56
445.803	149.56
446.024	139.56
446.245	127.56
446.466	109.56
446.687	93.56
446.908	97.56
447.129	84.56
447.35	78.56
447.571	105.56
447.792	98.56
448.013	105.56
448.234	110.56
448.455	113.56
448.675	111.56
448.896	114.56
449.117	107.56
449.338	115.56
449.559	128.56
449.779	131.56
450	106.56
450.221	106.56
450.442	93.56
450.662	99.56
450.883	127.56
451.104	127.56
451.324	94.56
451.545	95.56
451.766	80.56
451.986	91.56
452.207	80.56
452.428	90.56
452.648	117.56
452.869	116.56
453.089	109.56
453.31	130.56
453.53	97.56
453.751	97.56
453.971	114.56
454.192	101.56
454.412	103.56
454.633	77.56
454.853	87.56
455.073	92.56
455.294	98.56
455.514	105.56
455.734	100.56
455.955	97.56
456.175	76.56
456.395	73.56
456.616	79.56
456.836	90.56
457.056	86.56
457.276	81.56
457.497	85.56
457.717	65.56
457.937	97.56
458.157	90.56
458.377	105.56
458.598	109.56
458.818	154.56
459.038	164.56
459.258	127.56
459.478	86.56
459.698	88.56
459.918	74.56
460.138	91.56
460.358	89.56
460.578	102.56
460.798	94.56
461.018	92.56
461.238	84.56
461.458	91.56
461.678	83.56
461.898	84.56
462.118	88.56
462.338	76.56
462.558	91.56
462.777	79.56
462.997	93.56
463.217	82.56
463.437	95.56
463.657	92.56
463.876	96.56
464.096	92.56
464.316	91.56
464.536	92.56
464.755	107.56
464.975	110.56
465.195	165.56
465.414	173.56
465.634	100.56
465.854	76.56
466.073	96.56
466.293	101.56
466.512	79.56
466.732	89.56
466.951	96.56
467.171	97.56
467.391	98.56
467.61	112.56
467.829	102.56
468.049	129.56
468.268	130.56
468.488	80.56
468.707	84.56
468.927	80.56
469.146	93.56
469.365	89.56
469.585	85.56
469.804	91.56
470.023	100.56
470.243	103.56
470.462	96.56
470.681	108.56
470.901	110.56
471.12	83.56
471.339	85.56
471.558	86.56
471.777	116.56
471.997	103.56
472.216	138.56
472.435	225.56
472.654	112.56
472.873	101.56
473.092	86.56
473.311	88.56
473.53	75.56
473.749	98.56
473.968	90.56
474.187	111.56
474.406	99.56
474.625	87.56
474.844	90.56
475.063	92.56
475.282	84.56
475.501	90.56
475.72	91.56
475.939	98.56
476.158	80.56
476.377	89.56
476.596	87.56
476.814	87.56
477.033	91.56
477.252	85.56
477.471	104.56
477.69	92.56
477.908	84.56
478.127	99.56
478.346	91.56
478.564	74.56
478.783	92.56
479.002	92.56
479.22	97.56
479.439	102.56
479.658	111.56
479.876	94.56
480.095	100.56
480.313	98.56
480.532	84.56
480.751	88.56
480.969	143.56
481.188	340.56
481.406	237.56
481.624	106.56
481.843	81.56
482.061	93.56
482.28	82.56
482.498	91.56
482.717	110.56
482.935	94.56
483.153	87.56
483.372	97.56
483.59	83.56
483.808	83.56
484.027	101.56
484.245	90.56
484.463	95.56
484.681	110.56
484.9	110.56
485.118	90.56
485.336	117.56
485.554	102.56
485.772	108.56
485.99	104.56
486.209	104.56
486.427	108.56
486.645	125.56
486.863	111.56
487.081	110.56
487.299	88.56
487.517	95.56
487.735	102.56
487.953	107.56
488.171	97.56
488.389	98.56
488.607	105.56
488.825	97.56
489.043	101.56
489.261	95.56
489.479	84.56
489.696	94.56
489.914	84.56
490.132	88.56
490.35	83.56
490.568	77.56
490.786	88.56
491.003	103.56
491.221	88.56
491.439	78.56
491.657	102.56
491.874	91.56
492.092	99.56
492.31	91.56
492.527	97.56
492.745	100.56
492.963	99.56
493.18	89.56
493.398	77.56
493.615	95.56
493.833	110.56
494.05	93.56
494.268	86.56
494.485	87.56
494.703	110.56
494.92	87.56
495.138	86.56
495.355	88.56
495.573	93.56
495.79	96.56
496.008	88.56
496.225	89.56
496.442	92.56
496.66	90.56
496.877	102.56
497.094	84.56
497.312	84.56
497.529	110.56
497.746	80.56
497.963	84.56
498.181	108.56
498.398	83.56
498.615	110.56
498.832	98.56
499.049	107.56
499.267	84.56
499.484	84.56
499.701	123.56
499.918	97.56
500.135	91.56
500.352	91.56
500.569	102.56
500.786	87.56
501.003	93.56
501.22	91.56
501.437	89.56
501.654	104.56
501.871	128.56
502.088	101.56
502.305	89.56
502.522	74.56
502.739	91.56
502.956	102.56
503.172	88.56
503.389	90.56
503.606	103.56
503.823	101.56
504.04	99.56
504.256	91.56
504.473	102.56
504.69	87.56
504.907	103.56
505.123	103.56
505.34	106.56
505.557	90.56
505.773	98.56
505.99	83.56
506.207	103.56
506.423	98.56
506.64	78.56
506.856	101.56
507.073	91.56
507.289	92.56
507.506	105.56
507.722	121.56
507.939	105.56
508.155	105.56
508.372	86.56
508.588	97.56
508.805	95.56
509.021	113.56
509.238	94.56
509.454	107.56
509.67	130.56
509.887	120.56
510.103	138.56
510.319	219.56
510.536	855.56
510.752	2730.56
510.968	755.56
511.184	154.56
511.401	117.56
511.617	97.56
511.833	107.56
512.049	88.56
512.265	104.56
512.481	89.56
512.698	98.56
512.914	90.56
513.13	99.56
513.346	93.56
513.562	86.56
513.778	97.56
513.994	102.56
514.21	98.56
514.426	122.56
