Data from Circ_2016_H10_HRD10591_00025.txt Node
Date: Wed Jan 03 09:58:45 EST 2024
User: Yrep
Spectrometer: HR+D1059
Trigger mode: 1
Integration Time (sec): 1.000000E-1
Scans to average: 1
Electric dark correction enabled: true
Nonlinearity correction enabled: false
Boxcar width: 0
XAxis mode: Wavelengths
Number of Pixels in Spectrum: 2048
>>>>>Begin Spectral Data<<<<<
223.165	-21.06
223.4	-21.06
223.635	-21.06
223.869	-18.06
224.104	-19.06
224.338	-14.06
224.573	-14.06
224.808	-10.06
225.042	-4.06
225.277	-7.06
225.511	-4.06
225.746	5.94
225.98	5.94
226.215	6.94
226.449	14.94
226.683	12.94
226.918	25.94
227.152	38.94
227.387	42.94
227.621	23.94
227.856	48.94
228.09	54.94
228.324	56.94
228.559	56.94
228.793	67.94
229.027	62.94
229.262	70.94
229.496	70.94
229.73	89.94
229.964	92.94
230.199	76.94
230.433	87.94
230.667	90.94
230.901	68.94
231.136	83.94
231.37	82.94
231.604	81.94
231.838	92.94
232.072	96.94
232.306	83.94
232.541	85.94
232.775	77.94
233.009	84.94
233.243	77.94
233.477	77.94
233.711	77.94
233.945	85.94
234.179	76.94
234.413	75.94
234.647	77.94
234.881	93.94
235.115	79.94
235.349	85.94
235.583	72.94
235.817	72.94
236.051	71.94
236.285	84.94
236.519	82.94
236.753	78.94
236.987	78.94
237.221	77.94
237.455	89.94
237.689	73.94
237.922	74.94
238.156	85.94
238.39	75.94
238.624	66.94
238.858	87.94
239.091	89.94
239.325	90.94
239.559	99.94
239.793	73.94
240.027	84.94
240.26	77.94
240.494	84.94
240.728	92.94
240.961	74.94
241.195	72.94
241.429	74.94
241.662	74.94
241.896	75.94
242.13	75.94
242.363	74.94
242.597	83.94
242.83	72.94
243.064	78.94
243.298	80.94
243.531	77.94
243.765	90.94
243.998	89.94
244.232	78.94
244.465	88.94
244.699	78.94
244.932	81.94
245.166	78.94
245.399	76.94
245.633	71.94
245.866	69.94
246.099	74.94
246.333	64.94
246.566	83.94
246.8	76.94
247.033	75.94
247.266	69.94
247.5	74.94
247.733	74.94
247.966	81.94
248.2	89.94
248.433	85.94
248.666	70.94
248.899	78.94
249.133	91.94
249.366	113.94
249.599	99.94
249.832	73.94
250.066	73.94
250.299	81.94
250.532	83.94
250.765	80.94
250.998	76.94
251.231	94.94
251.465	67.94
251.698	89.94
251.931	80.94
252.164	75.94
252.397	78.94
252.63	83.94
252.863	76.94
253.096	70.94
253.329	89.94
253.562	86.94
253.795	67.94
254.028	87.94
254.261	66.94
254.494	93.94
254.727	92.94
254.96	88.94
255.193	77.94
255.426	80.94
255.659	79.94
255.892	81.94
256.124	85.94
256.357	92.94
256.59	82.94
256.823	85.94
257.056	85.94
257.289	74.94
257.521	70.94
257.754	88.94
257.987	86.94
258.22	73.94
258.452	89.94
258.685	95.94
258.918	77.94
259.151	91.94
259.383	84.94
259.616	87.94
259.849	84.94
260.081	65.94
260.314	78.94
260.547	82.94
260.779	76.94
261.012	89.94
261.244	93.94
261.477	94.94
261.71	108.94
261.942	143.94
262.175	143.94
262.407	107.94
262.64	89.94
262.872	64.94
263.105	90.94
263.337	98.94
263.57	91.94
263.802	89.94
264.035	81.94
264.267	89.94
264.499	99.94
264.732	84.94
264.964	84.94
265.197	88.94
265.429	74.94
265.661	78.94
265.894	80.94
266.126	76.94
266.358	73.94
266.591	89.94
266.823	91.94
267.055	66.94
267.287	76.94
267.52	86.94
267.752	74.94
267.984	75.94
268.216	96.94
268.448	78.94
268.681	76.94
268.913	96.94
269.145	85.94
269.377	91.94
269.609	75.94
269.841	97.94
270.073	68.94
270.306	85.94
270.538	101.94
270.77	81.94
271.002	81.94
271.234	80.94
271.466	91.94
271.698	99.94
271.93	87.94
272.162	91.94
272.394	104.94
272.626	90.94
272.858	97.94
273.09	89.94
273.322	86.94
273.553	100.94
273.785	102.94
274.017	71.94
274.249	97.94
274.481	70.94
274.713	94.94
274.945	94.94
275.176	79.94
275.408	88.94
275.64	85.94
275.872	90.94
276.104	87.94
276.335	96.94
276.567	125.94
276.799	125.94
277.031	122.94
277.262	88.94
277.494	73.94
277.726	86.94
277.957	96.94
278.189	94.94
278.421	79.94
278.652	92.94
278.884	73.94
279.115	78.94
279.347	81.94
279.579	90.94
279.81	84.94
280.042	85.94
280.273	97.94
280.505	86.94
280.736	87.94
280.968	80.94
281.199	77.94
281.431	98.94
281.662	97.94
281.894	100.94
282.125	101.94
282.356	161.94
282.588	178.94
282.819	131.94
283.051	99.94
283.282	91.94
283.513	88.94
283.745	86.94
283.976	88.94
284.207	72.94
284.439	77.94
284.67	78.94
284.901	101.94
285.132	91.94
285.364	90.94
285.595	87.94
285.826	86.94
286.057	76.94
286.288	100.94
286.52	86.94
286.751	96.94
286.982	99.94
287.213	81.94
287.444	88.94
287.675	90.94
287.906	89.94
288.138	97.94
288.369	91.94
288.6	92.94
288.831	105.94
289.062	97.94
289.293	82.94
289.524	88.94
289.755	81.94
289.986	105.94
290.217	98.94
290.448	96.94
290.679	100.94
290.91	96.94
291.141	81.94
291.371	73.94
291.602	77.94
291.833	85.94
292.064	97.94
292.295	91.94
292.526	78.94
292.757	91.94
292.987	100.94
293.218	97.94
293.449	101.94
293.68	89.94
293.91	99.94
294.141	77.94
294.372	73.94
294.603	105.94
294.833	97.94
295.064	97.94
295.295	86.94
295.525	82.94
295.756	95.94
295.987	133.94
296.217	172.94
296.448	155.94
296.679	92.94
296.909	93.94
297.14	93.94
297.37	86.94
297.601	82.94
297.831	93.94
298.062	85.94
298.292	79.94
298.523	89.94
298.753	84.94
298.984	83.94
299.214	97.94
299.445	104.94
299.675	94.94
299.905	101.94
300.136	101.94
300.366	88.94
300.597	91.94
300.827	109.94
301.057	102.94
301.288	111.94
301.518	86.94
301.748	97.94
301.979	92.94
302.209	92.94
302.439	91.94
302.669	88.94
302.9	86.94
303.13	94.94
303.36	96.94
303.59	129.94
303.82	110.94
304.051	109.94
304.281	100.94
304.511	79.94
304.741	96.94
304.971	82.94
305.201	90.94
305.431	85.94
305.661	84.94
305.891	113.94
306.121	113.94
306.352	121.94
306.582	124.94
306.812	91.94
307.042	80.94
307.272	85.94
307.502	83.94
307.731	93.94
307.961	92.94
308.191	92.94
308.421	89.94
308.651	98.94
308.881	105.94
309.111	101.94
309.341	99.94
309.571	108.94
309.8	100.94
310.03	105.94
310.26	109.94
310.49	106.94
310.72	102.94
310.949	117.94
311.179	111.94
311.409	102.94
311.639	105.94
311.868	106.94
312.098	90.94
312.328	106.94
312.557	108.94
312.787	122.94
313.017	119.94
313.246	97.94
313.476	92.94
313.706	103.94
313.935	101.94
314.165	115.94
314.394	111.94
314.624	100.94
314.853	98.94
315.083	97.94
315.312	106.94
315.542	113.94
315.771	93.94
316.001	91.94
316.23	91.94
316.46	85.94
316.689	88.94
316.919	101.94
317.148	100.94
317.377	105.94
317.607	91.94
317.836	94.94
318.065	106.94
318.295	86.94
318.524	98.94
318.753	88.94
318.983	97.94
319.212	119.94
319.441	129.94
319.67	122.94
319.9	117.94
320.129	108.94
320.358	106.94
320.587	114.94
320.816	116.94
321.046	105.94
321.275	102.94
321.504	109.94
321.733	101.94
321.962	111.94
322.191	104.94
322.42	128.94
322.649	126.94
322.878	129.94
323.108	147.94
323.337	152.94
323.566	157.94
323.795	211.94
324.024	297.94
324.253	644.94
324.482	1430.94
324.71	2989.94
324.939	3884.94
325.168	1370.94
325.397	366.94
325.626	207.94
325.855	151.94
326.084	142.94
326.313	174.94
326.542	194.94
326.77	334.94
326.999	728.94
327.228	1560.94
327.457	2872.94
327.686	2196.94
327.914	572.94
328.143	265.94
328.372	213.94
328.6	164.94
328.829	149.94
329.058	150.94
329.287	175.94
329.515	107.94
329.744	108.94
329.972	111.94
330.201	124.94
330.43	136.94
330.658	162.94
330.887	208.94
331.115	152.94
331.344	108.94
331.572	102.94
331.801	132.94
332.03	117.94
332.258	96.94
332.486	107.94
332.715	101.94
332.943	100.94
333.172	86.94
333.4	98.94
333.629	134.94
333.857	128.94
334.085	121.94
334.314	106.94
334.542	92.94
334.771	122.94
334.999	110.94
335.227	112.94
335.455	106.94
335.684	116.94
335.912	110.94
336.14	113.94
336.369	102.94
336.597	96.94
336.825	103.94
337.053	100.94
337.281	90.94
337.51	94.94
337.738	105.94
337.966	93.94
338.194	104.94
338.422	99.94
338.65	97.94
338.878	99.94
339.106	85.94
339.334	89.94
339.562	95.94
339.79	92.94
340.018	92.94
340.246	94.94
340.474	102.94
340.702	110.94
340.93	90.94
341.158	94.94
341.386	101.94
341.614	112.94
341.842	110.94
342.07	107.94
342.298	103.94
342.526	84.94
342.754	98.94
342.981	97.94
343.209	85.94
343.437	104.94
343.665	85.94
343.893	90.94
344.12	84.94
344.348	97.94
344.576	77.94
344.804	75.94
345.031	96.94
345.259	101.94
345.487	101.94
345.714	99.94
345.942	105.94
346.17	104.94
346.397	94.94
346.625	98.94
346.853	90.94
347.08	85.94
347.308	95.94
347.535	118.94
347.763	105.94
347.99	112.94
348.218	106.94
348.445	115.94
348.673	122.94
348.9	101.94
349.128	102.94
349.355	99.94
349.583	87.94
349.81	88.94
350.037	94.94
350.265	105.94
350.492	94.94
350.72	112.94
350.947	122.94
351.174	108.94
351.402	120.94
351.629	114.94
351.856	113.94
352.083	119.94
352.311	112.94
352.538	121.94
352.765	141.94
352.992	122.94
353.22	138.94
353.447	130.94
353.674	107.94
353.901	96.94
354.128	87.94
354.355	96.94
354.583	100.94
354.81	102.94
355.037	91.94
355.264	94.94
355.491	92.94
355.718	91.94
355.945	104.94
356.172	99.94
356.399	100.94
356.626	94.94
356.853	100.94
357.08	94.94
357.307	112.94
357.534	93.94
357.761	93.94
357.988	105.94
358.215	109.94
358.441	94.94
358.668	115.94
358.895	119.94
359.122	99.94
359.349	82.94
359.576	121.94
359.802	127.94
360.029	151.94
360.256	147.94
360.483	104.94
360.709	113.94
360.936	108.94
361.163	92.94
361.39	113.94
361.616	94.94
361.843	85.94
362.07	109.94
362.296	106.94
362.523	96.94
362.749	108.94
362.976	105.94
363.203	103.94
363.429	92.94
363.656	90.94
363.882	103.94
364.109	79.94
364.335	107.94
364.562	104.94
364.788	101.94
365.015	100.94
365.241	106.94
365.468	118.94
365.694	127.94
365.92	119.94
366.147	108.94
366.373	107.94
366.599	100.94
366.826	82.94
367.052	89.94
367.278	95.94
367.505	95.94
367.731	96.94
367.957	97.94
368.184	94.94
368.41	101.94
368.636	133.94
368.862	146.94
369.089	138.94
369.315	113.94
369.541	105.94
369.767	103.94
369.993	95.94
370.219	86.94
370.445	102.94
370.672	84.94
370.898	92.94
371.124	92.94
371.35	97.94
371.576	88.94
371.802	92.94
372.028	91.94
372.254	88.94
372.48	92.94
372.706	82.94
372.932	87.94
373.158	92.94
373.384	110.94
373.61	90.94
373.835	101.94
374.061	90.94
374.287	94.94
374.513	105.94
374.739	104.94
374.965	90.94
375.191	94.94
375.416	100.94
375.642	93.94
375.868	90.94
376.094	90.94
376.319	97.94
376.545	93.94
376.771	100.94
376.997	102.94
377.222	96.94
377.448	96.94
377.674	100.94
377.899	100.94
378.125	104.94
378.35	107.94
378.576	94.94
378.802	90.94
379.027	84.94
379.253	91.94
379.478	102.94
379.704	107.94
379.929	114.94
380.155	114.94
380.38	114.94
380.606	103.94
380.831	98.94
381.057	104.94
381.282	109.94
381.507	112.94
381.733	117.94
381.958	121.94
382.184	128.94
382.409	116.94
382.634	133.94
382.86	104.94
383.085	123.94
383.31	128.94
383.535	112.94
383.761	122.94
383.986	121.94
384.211	105.94
384.436	112.94
384.662	124.94
384.887	135.94
385.112	141.94
385.337	145.94
385.562	132.94
385.787	139.94
386.013	160.94
386.238	162.94
386.463	152.94
386.688	130.94
386.913	130.94
387.138	145.94
387.363	136.94
387.588	116.94
387.813	127.94
388.038	147.94
388.263	152.94
388.488	143.94
388.713	106.94
388.938	97.94
389.163	89.94
389.387	89.94
389.612	90.94
389.837	85.94
390.062	98.94
390.287	105.94
390.512	84.94
390.736	105.94
390.961	93.94
391.186	86.94
391.411	98.94
391.636	93.94
391.86	93.94
392.085	86.94
392.31	92.94
392.534	83.94
392.759	106.94
392.984	97.94
393.208	105.94
393.433	116.94
393.658	99.94
393.882	83.94
394.107	98.94
394.331	91.94
394.556	86.94
394.78	100.94
395.005	107.94
395.229	84.94
395.454	84.94
395.678	84.94
395.903	96.94
396.127	89.94
396.352	82.94
396.576	94.94
396.801	107.94
397.025	107.94
397.249	83.94
397.474	97.94
397.698	86.94
397.922	94.94
398.147	80.94
398.371	100.94
398.595	97.94
398.82	93.94
399.044	89.94
399.268	80.94
399.492	85.94
399.717	95.94
399.941	96.94
400.165	104.94
400.389	94.94
400.613	96.94
400.837	88.94
401.062	94.94
401.286	91.94
401.51	88.94
401.734	110.94
401.958	117.94
402.182	153.94
402.406	226.94
402.63	132.94
402.854	120.94
403.078	92.94
403.302	100.94
403.526	92.94
403.75	83.94
403.974	93.94
404.198	94.94
404.422	84.94
404.645	89.94
404.869	96.94
405.093	101.94
405.317	109.94
405.541	112.94
405.765	128.94
405.988	145.94
406.212	221.94
406.436	345.94
406.66	212.94
406.883	123.94
407.107	105.94
407.331	118.94
407.555	124.94
407.778	109.94
408.002	89.94
408.226	93.94
408.449	93.94
408.673	89.94
408.896	99.94
409.12	91.94
409.344	96.94
409.567	92.94
409.791	96.94
410.014	113.94
410.238	84.94
410.461	97.94
410.685	107.94
410.908	113.94
411.132	113.94
411.355	104.94
411.578	103.94
411.802	82.94
412.025	100.94
412.249	81.94
412.472	112.94
412.695	104.94
412.919	96.94
413.142	89.94
413.365	116.94
413.589	104.94
413.812	92.94
414.035	112.94
414.258	81.94
414.482	99.94
414.705	99.94
414.928	88.94
415.151	94.94
415.374	94.94
415.597	75.94
415.821	88.94
416.044	84.94
416.267	96.94
416.49	87.94
416.713	85.94
416.936	89.94
417.159	88.94
417.382	85.94
417.605	102.94
417.828	83.94
418.051	109.94
418.274	104.94
418.497	95.94
418.72	90.94
418.943	100.94
419.166	94.94
419.389	89.94
419.611	89.94
419.834	84.94
420.057	90.94
420.28	78.94
420.503	97.94
420.726	92.94
420.948	96.94
421.171	93.94
421.394	87.94
421.617	94.94
421.839	95.94
422.062	84.94
422.285	91.94
422.507	98.94
422.73	112.94
422.953	104.94
423.175	96.94
423.398	91.94
423.621	107.94
423.843	92.94
424.066	77.94
424.288	92.94
424.511	86.94
424.733	103.94
424.956	109.94
425.178	103.94
425.401	104.94
425.623	90.94
425.846	92.94
426.068	105.94
426.291	97.94
426.513	94.94
426.735	93.94
426.958	97.94
427.18	106.94
427.402	163.94
427.625	240.94
427.847	163.94
428.069	113.94
428.292	94.94
428.514	87.94
428.736	101.94
428.958	93.94
429.181	100.94
429.403	87.94
429.625	87.94
429.847	99.94
430.069	111.94
430.292	96.94
430.514	92.94
430.736	90.94
430.958	86.94
431.18	82.94
431.402	88.94
431.624	97.94
431.846	88.94
432.068	97.94
432.29	87.94
432.512	102.94
432.734	81.94
432.956	88.94
433.178	113.94
433.4	99.94
433.622	96.94
433.844	97.94
434.066	94.94
434.287	95.94
434.509	102.94
434.731	91.94
434.953	93.94
435.175	101.94
435.397	105.94
435.618	109.94
435.84	118.94
436.062	140.94
436.284	131.94
436.505	99.94
436.727	117.94
436.949	94.94
437.17	92.94
437.392	97.94
437.614	126.94
437.835	128.94
438.057	148.94
438.278	126.94
438.5	119.94
438.721	139.94
438.943	102.94
439.165	102.94
439.386	106.94
439.608	101.94
439.829	112.94
440.05	152.94
440.272	172.94
440.493	104.94
440.715	90.94
440.936	84.94
441.158	95.94
441.379	97.94
441.6	120.94
441.822	95.94
442.043	103.94
442.264	115.94
442.486	117.94
442.707	115.94
442.928	128.94
443.149	171.94
443.371	178.94
443.592	142.94
443.813	120.94
444.034	112.94
444.255	97.94
444.476	97.94
444.698	92.94
444.919	87.94
445.14	131.94
445.361	116.94
445.582	162.94
445.803	180.94
446.024	176.94
446.245	168.94
446.466	148.94
446.687	104.94
446.908	104.94
447.129	81.94
447.35	102.94
447.571	101.94
447.792	99.94
448.013	120.94
448.234	136.94
448.455	103.94
448.675	122.94
448.896	122.94
449.117	122.94
449.338	133.94
449.559	141.94
449.779	165.94
450	96.94
450.221	90.94
450.442	97.94
450.662	112.94
450.883	126.94
451.104	140.94
451.324	107.94
451.545	83.94
451.766	91.94
451.986	87.94
452.207	91.94
452.428	100.94
452.648	109.94
452.869	119.94
453.089	134.94
453.31	134.94
453.53	115.94
453.751	103.94
453.971	119.94
454.192	133.94
454.412	99.94
454.633	89.94
454.853	92.94
455.073	98.94
455.294	85.94
455.514	114.94
455.734	102.94
455.955	87.94
456.175	86.94
456.395	86.94
456.616	75.94
456.836	80.94
457.056	91.94
457.276	89.94
457.497	84.94
457.717	94.94
457.937	85.94
458.157	104.94
458.377	109.94
458.598	138.94
458.818	206.94
459.038	243.94
459.258	131.94
459.478	90.94
459.698	96.94
459.918	84.94
460.138	85.94
460.358	86.94
460.578	85.94
460.798	92.94
461.018	96.94
461.238	98.94
461.458	104.94
461.678	86.94
461.898	87.94
462.118	70.94
462.338	76.94
462.558	77.94
462.777	85.94
462.997	84.94
463.217	87.94
463.437	82.94
463.657	98.94
463.876	92.94
464.096	98.94
464.316	111.94
464.536	97.94
464.755	109.94
464.975	130.94
465.195	228.94
465.414	243.94
465.634	107.94
465.854	103.94
466.073	83.94
466.293	92.94
466.512	90.94
466.732	99.94
466.951	93.94
467.171	91.94
467.391	106.94
467.61	124.94
467.829	103.94
468.049	85.94
468.268	89.94
468.488	83.94
468.707	90.94
468.927	86.94
469.146	88.94
469.365	84.94
469.585	100.94
469.804	103.94
470.023	103.94
470.243	116.94
470.462	120.94
470.681	133.94
470.901	97.94
471.12	85.94
471.339	93.94
471.558	92.94
471.777	78.94
471.997	86.94
472.216	106.94
472.435	104.94
472.654	86.94
472.873	89.94
473.092	90.94
473.311	100.94
473.53	68.94
473.749	84.94
473.968	104.94
474.187	118.94
474.406	94.94
474.625	83.94
474.844	78.94
475.063	88.94
475.282	89.94
475.501	91.94
475.72	89.94
475.939	88.94
476.158	90.94
476.377	83.94
476.596	97.94
476.814	87.94
477.033	92.94
477.252	90.94
477.471	96.94
477.69	96.94
477.908	91.94
478.127	98.94
478.346	83.94
478.564	101.94
478.783	90.94
479.002	96.94
479.22	102.94
479.439	105.94
479.658	113.94
479.876	93.94
480.095	102.94
480.313	85.94
480.532	94.94
480.751	93.94
480.969	102.94
481.188	129.94
481.406	109.94
481.624	82.94
481.843	83.94
482.061	114.94
482.28	92.94
482.498	76.94
482.717	93.94
482.935	96.94
483.153	84.94
483.372	84.94
483.59	85.94
483.808	69.94
484.027	91.94
484.245	96.94
484.463	96.94
484.681	101.94
484.9	94.94
485.118	97.94
485.336	83.94
485.554	96.94
485.772	128.94
485.99	116.94
486.209	118.94
486.427	118.94
486.645	133.94
486.863	149.94
487.081	122.94
487.299	100.94
487.517	100.94
487.735	94.94
487.953	98.94
488.171	91.94
488.389	100.94
488.607	103.94
488.825	96.94
489.043	93.94
489.261	91.94
489.479	86.94
489.696	76.94
489.914	94.94
490.132	85.94
490.35	93.94
490.568	87.94
490.786	101.94
491.003	106.94
491.221	76.94
491.439	93.94
491.657	105.94
491.874	102.94
492.092	91.94
492.31	91.94
492.527	89.94
492.745	97.94
492.963	86.94
493.18	82.94
493.398	99.94
493.615	92.94
493.833	90.94
494.05	92.94
494.268	107.94
494.485	98.94
494.703	83.94
494.92	90.94
495.138	92.94
495.355	92.94
495.573	82.94
495.79	95.94
496.008	97.94
496.225	96.94
496.442	104.94
496.66	100.94
496.877	104.94
497.094	95.94
497.312	96.94
497.529	93.94
497.746	123.94
497.963	92.94
498.181	98.94
498.398	98.94
498.615	126.94
498.832	121.94
499.049	107.94
499.267	109.94
499.484	95.94
499.701	92.94
499.918	100.94
500.135	108.94
500.352	95.94
500.569	102.94
500.786	87.94
501.003	98.94
501.22	90.94
501.437	88.94
501.654	98.94
501.871	132.94
502.088	100.94
502.305	90.94
502.522	93.94
502.739	99.94
502.956	105.94
503.172	108.94
503.389	105.94
503.606	126.94
503.823	109.94
504.04	95.94
504.256	92.94
504.473	88.94
504.69	82.94
504.907	100.94
505.123	85.94
505.34	76.94
505.557	95.94
505.773	88.94
505.99	90.94
506.207	80.94
506.423	84.94
506.64	85.94
506.856	97.94
507.073	91.94
507.289	115.94
507.506	112.94
507.722	128.94
507.939	139.94
508.155	101.94
508.372	103.94
508.588	88.94
508.805	108.94
509.021	110.94
509.238	107.94
509.454	110.94
509.67	115.94
509.887	119.94
510.103	161.94
510.319	298.94
510.536	1130.94
510.752	4132.94
510.968	1066.94
511.184	206.94
511.401	132.94
511.617	101.94
511.833	108.94
512.049	99.94
512.265	109.94
512.481	106.94
512.698	87.94
