Data from Circ_2016_H10_HRD10591_00013.txt Node
Date: Wed Jan 03 09:58:43 EST 2024
User: Yrep
Spectrometer: HR+D1059
Trigger mode: 1
Integration Time (sec): 1.000000E-1
Scans to average: 1
Electric dark correction enabled: true
Nonlinearity correction enabled: false
Boxcar width: 0
XAxis mode: Wavelengths
Number of Pixels in Spectrum: 2048
>>>>>Begin Spectral Data<<<<<
223.165	-20.19
223.4	-20.19
223.635	-20.19
223.869	-15.19
224.104	-27.19
224.338	-11.19
224.573	-17.19
224.808	-20.19
225.042	-16.19
225.277	-11.19
225.511	-1.19
225.746	16.81
225.98	7.81
226.215	5.81
226.449	26.81
226.683	34.81
226.918	14.81
227.152	32.81
227.387	31.81
227.621	30.81
227.856	59.81
228.09	40.81
228.324	60.81
228.559	60.81
228.793	57.81
229.027	55.81
229.262	59.81
229.496	76.81
229.73	87.81
229.964	74.81
230.199	76.81
230.433	67.81
230.667	74.81
230.901	73.81
231.136	69.81
231.37	83.81
231.604	74.81
231.838	78.81
232.072	92.81
232.306	75.81
232.541	70.81
232.775	93.81
233.009	82.81
233.243	83.81
233.477	68.81
233.711	78.81
233.945	70.81
234.179	80.81
234.413	74.81
234.647	81.81
234.881	86.81
235.115	83.81
235.349	83.81
235.583	87.81
235.817	78.81
236.051	72.81
236.285	75.81
236.519	84.81
236.753	75.81
236.987	86.81
237.221	64.81
237.455	98.81
237.689	81.81
237.922	80.81
238.156	71.81
238.39	79.81
238.624	72.81
238.858	74.81
239.091	69.81
239.325	86.81
239.559	89.81
239.793	81.81
240.027	90.81
240.26	82.81
240.494	77.81
240.728	90.81
240.961	75.81
241.195	74.81
241.429	83.81
241.662	82.81
241.896	57.81
242.13	73.81
242.363	69.81
242.597	77.81
242.83	81.81
243.064	77.81
243.298	81.81
243.531	81.81
243.765	78.81
243.998	78.81
244.232	87.81
244.465	95.81
244.699	77.81
244.932	73.81
245.166	82.81
245.399	69.81
245.633	77.81
245.866	76.81
246.099	82.81
246.333	79.81
246.566	88.81
246.8	80.81
247.033	84.81
247.266	77.81
247.5	80.81
247.733	84.81
247.966	83.81
248.2	85.81
248.433	77.81
248.666	82.81
248.899	73.81
249.133	81.81
249.366	105.81
249.599	87.81
249.832	82.81
250.066	86.81
250.299	79.81
250.532	78.81
250.765	90.81
250.998	68.81
251.231	84.81
251.465	78.81
251.698	83.81
251.931	58.81
252.164	64.81
252.397	76.81
252.63	87.81
252.863	85.81
253.096	97.81
253.329	71.81
253.562	82.81
253.795	78.81
254.028	70.81
254.261	81.81
254.494	84.81
254.727	77.81
254.96	86.81
255.193	72.81
255.426	86.81
255.659	79.81
255.892	83.81
256.124	60.81
256.357	83.81
256.59	72.81
256.823	82.81
257.056	83.81
257.289	89.81
257.521	83.81
257.754	70.81
257.987	74.81
258.22	92.81
258.452	77.81
258.685	83.81
258.918	80.81
259.151	75.81
259.383	80.81
259.616	85.81
259.849	68.81
260.081	66.81
260.314	70.81
260.547	89.81
260.779	90.81
261.012	89.81
261.244	98.81
261.477	93.81
261.71	103.81
261.942	99.81
262.175	116.81
262.407	94.81
262.64	82.81
262.872	82.81
263.105	85.81
263.337	84.81
263.57	89.81
263.802	90.81
264.035	87.81
264.267	82.81
264.499	92.81
264.732	78.81
264.964	82.81
265.197	82.81
265.429	80.81
265.661	84.81
265.894	78.81
266.126	84.81
266.358	76.81
266.591	87.81
266.823	89.81
267.055	78.81
267.287	84.81
267.52	81.81
267.752	79.81
267.984	79.81
268.216	89.81
268.448	89.81
268.681	80.81
268.913	71.81
269.145	79.81
269.377	78.81
269.609	71.81
269.841	85.81
270.073	81.81
270.306	75.81
270.538	75.81
270.77	82.81
271.002	93.81
271.234	77.81
271.466	87.81
271.698	86.81
271.93	78.81
272.162	88.81
272.394	86.81
272.626	97.81
272.858	88.81
273.09	85.81
273.322	80.81
273.553	81.81
273.785	74.81
274.017	76.81
274.249	83.81
274.481	78.81
274.713	78.81
274.945	84.81
275.176	92.81
275.408	83.81
275.64	81.81
275.872	77.81
276.104	88.81
276.335	90.81
276.567	88.81
276.799	75.81
277.031	88.81
277.262	89.81
277.494	83.81
277.726	80.81
277.957	86.81
278.189	86.81
278.421	84.81
278.652	78.81
278.884	86.81
279.115	88.81
279.347	85.81
279.579	98.81
279.81	101.81
280.042	91.81
280.273	92.81
280.505	92.81
280.736	82.81
280.968	88.81
281.199	88.81
281.431	103.81
281.662	91.81
281.894	86.81
282.125	89.81
282.356	114.81
282.588	128.81
282.819	109.81
283.051	90.81
283.282	75.81
283.513	86.81
283.745	95.81
283.976	73.81
284.207	77.81
284.439	91.81
284.67	91.81
284.901	85.81
285.132	83.81
285.364	91.81
285.595	93.81
285.826	83.81
286.057	91.81
286.288	85.81
286.52	94.81
286.751	91.81
286.982	89.81
287.213	80.81
287.444	94.81
287.675	96.81
287.906	93.81
288.138	84.81
288.369	94.81
288.6	89.81
288.831	97.81
289.062	75.81
289.293	97.81
289.524	98.81
289.755	89.81
289.986	95.81
290.217	97.81
290.448	98.81
290.679	90.81
290.91	104.81
291.141	74.81
291.371	88.81
291.602	91.81
291.833	93.81
292.064	88.81
292.295	90.81
292.526	83.81
292.757	90.81
292.987	93.81
293.218	83.81
293.449	84.81
293.68	89.81
293.91	87.81
294.141	82.81
294.372	93.81
294.603	77.81
294.833	84.81
295.064	100.81
295.295	89.81
295.525	82.81
295.756	92.81
295.987	112.81
296.217	139.81
296.448	103.81
296.679	81.81
296.909	104.81
297.14	83.81
297.37	87.81
297.601	85.81
297.831	93.81
298.062	98.81
298.292	81.81
298.523	82.81
298.753	91.81
298.984	76.81
299.214	89.81
299.445	95.81
299.675	101.81
299.905	107.81
300.136	87.81
300.366	75.81
300.597	69.81
300.827	100.81
301.057	75.81
301.288	97.81
301.518	82.81
301.748	93.81
301.979	105.81
302.209	84.81
302.439	94.81
302.669	90.81
302.9	84.81
303.13	81.81
303.36	93.81
303.59	93.81
303.82	109.81
304.051	93.81
304.281	109.81
304.511	86.81
304.741	77.81
304.971	90.81
305.201	86.81
305.431	93.81
305.661	105.81
305.891	86.81
306.121	105.81
306.352	91.81
306.582	107.81
306.812	97.81
307.042	94.81
307.272	88.81
307.502	71.81
307.731	93.81
307.961	89.81
308.191	97.81
308.421	92.81
308.651	98.81
308.881	93.81
309.111	78.81
309.341	97.81
309.571	91.81
309.8	96.81
310.03	93.81
310.26	96.81
310.49	95.81
310.72	94.81
310.949	94.81
311.179	100.81
311.409	88.81
311.639	98.81
311.868	94.81
312.098	95.81
312.328	86.81
312.557	97.81
312.787	94.81
313.017	120.81
313.246	90.81
313.476	86.81
313.706	105.81
313.935	88.81
314.165	93.81
314.394	105.81
314.624	86.81
314.853	84.81
315.083	93.81
315.312	84.81
315.542	90.81
315.771	83.81
316.001	93.81
316.23	101.81
316.46	100.81
316.689	87.81
316.919	93.81
317.148	105.81
317.377	85.81
317.607	84.81
317.836	93.81
318.065	100.81
318.295	87.81
318.524	94.81
318.753	98.81
318.983	89.81
319.212	93.81
319.441	96.81
319.67	112.81
319.9	88.81
320.129	77.81
320.358	87.81
320.587	101.81
320.816	94.81
321.046	94.81
321.275	97.81
321.504	103.81
321.733	105.81
321.962	98.81
322.191	116.81
322.42	104.81
322.649	109.81
322.878	96.81
323.108	112.81
323.337	112.81
323.566	142.81
323.795	152.81
324.024	188.81
324.253	388.81
324.482	780.81
324.71	1653.81
324.939	2142.81
325.168	784.81
325.397	237.81
325.626	146.81
325.855	128.81
326.084	105.81
326.313	148.81
326.542	156.81
326.77	213.81
326.999	463.81
327.228	929.81
327.457	1698.81
327.686	1338.81
327.914	375.81
328.143	192.81
328.372	150.81
328.6	125.81
328.829	94.81
329.058	115.81
329.287	108.81
329.515	93.81
329.744	107.81
329.972	98.81
330.201	90.81
330.43	116.81
330.658	120.81
330.887	109.81
331.115	120.81
331.344	104.81
331.572	101.81
331.801	120.81
332.03	91.81
332.258	88.81
332.486	86.81
332.715	83.81
332.943	74.81
333.172	90.81
333.4	84.81
333.629	99.81
333.857	109.81
334.085	102.81
334.314	109.81
334.542	82.81
334.771	107.81
334.999	101.81
335.227	82.81
335.455	79.81
335.684	86.81
335.912	95.81
336.14	95.81
336.369	87.81
336.597	87.81
336.825	115.81
337.053	100.81
337.281	96.81
337.51	85.81
337.738	89.81
337.966	84.81
338.194	107.81
338.422	88.81
338.65	79.81
338.878	103.81
339.106	86.81
339.334	90.81
339.562	94.81
339.79	94.81
340.018	93.81
340.246	96.81
340.474	86.81
340.702	93.81
340.93	90.81
341.158	93.81
341.386	96.81
341.614	100.81
341.842	89.81
342.07	89.81
342.298	104.81
342.526	92.81
342.754	85.81
342.981	93.81
343.209	84.81
343.437	95.81
343.665	96.81
343.893	107.81
344.12	92.81
344.348	98.81
344.576	93.81
344.804	89.81
345.031	81.81
345.259	93.81
345.487	92.81
345.714	88.81
345.942	100.81
346.17	95.81
346.397	99.81
346.625	95.81
346.853	89.81
347.08	102.81
347.308	101.81
347.535	106.81
347.763	92.81
347.99	107.81
348.218	94.81
348.445	99.81
348.673	86.81
348.9	79.81
349.128	91.81
349.355	104.81
349.583	94.81
349.81	113.81
350.037	106.81
350.265	97.81
350.492	108.81
350.72	110.81
350.947	87.81
351.174	105.81
351.402	102.81
351.629	85.81
351.856	105.81
352.083	107.81
352.311	99.81
352.538	114.81
352.765	107.81
352.992	109.81
353.22	124.81
353.447	105.81
353.674	108.81
353.901	109.81
354.128	110.81
354.355	87.81
354.583	98.81
354.81	116.81
355.037	92.81
355.264	87.81
355.491	107.81
355.718	106.81
355.945	97.81
356.172	101.81
356.399	97.81
356.626	100.81
356.853	96.81
357.08	106.81
357.307	86.81
357.534	93.81
357.761	102.81
357.988	101.81
358.215	114.81
358.441	115.81
358.668	106.81
358.895	117.81
359.122	96.81
359.349	98.81
359.576	93.81
359.802	97.81
360.029	110.81
360.256	116.81
360.483	85.81
360.709	82.81
360.936	91.81
361.163	98.81
361.39	96.81
361.616	96.81
361.843	88.81
362.07	97.81
362.296	108.81
362.523	93.81
362.749	93.81
362.976	89.81
363.203	102.81
363.429	84.81
363.656	103.81
363.882	91.81
364.109	93.81
364.335	91.81
364.562	107.81
364.788	100.81
365.015	101.81
365.241	99.81
365.468	98.81
365.694	88.81
365.92	87.81
366.147	83.81
366.373	78.81
366.599	90.81
366.826	88.81
367.052	83.81
367.278	90.81
367.505	101.81
367.731	96.81
367.957	87.81
368.184	90.81
368.41	115.81
368.636	96.81
368.862	115.81
369.089	85.81
369.315	93.81
369.541	100.81
369.767	86.81
369.993	88.81
370.219	98.81
370.445	94.81
370.672	94.81
370.898	73.81
371.124	90.81
371.35	82.81
371.576	83.81
371.802	81.81
372.028	84.81
372.254	79.81
372.48	88.81
372.706	91.81
372.932	78.81
373.158	91.81
373.384	108.81
373.61	101.81
373.835	91.81
374.061	110.81
374.287	94.81
374.513	87.81
374.739	79.81
374.965	90.81
375.191	104.81
375.416	98.81
375.642	88.81
375.868	90.81
376.094	94.81
376.319	95.81
376.545	98.81
376.771	98.81
376.997	91.81
377.222	108.81
377.448	95.81
377.674	96.81
377.899	105.81
378.125	106.81
378.35	121.81
378.576	116.81
378.802	98.81
379.027	112.81
379.253	105.81
379.478	99.81
379.704	92.81
379.929	107.81
380.155	112.81
380.38	116.81
380.606	114.81
380.831	103.81
381.057	116.81
381.282	117.81
381.507	129.81
381.733	129.81
381.958	125.81
382.184	116.81
382.409	118.81
382.634	119.81
382.86	126.81
383.085	119.81
383.31	128.81
383.535	143.81
383.761	122.81
383.986	128.81
384.211	125.81
384.436	124.81
384.662	143.81
384.887	159.81
385.112	156.81
385.337	154.81
385.562	163.81
385.787	154.81
386.013	144.81
386.238	169.81
386.463	162.81
386.688	155.81
386.913	153.81
387.138	163.81
387.363	137.81
387.588	105.81
387.813	132.81
388.038	167.81
388.263	195.81
388.488	170.81
388.713	115.81
388.938	96.81
389.163	101.81
389.387	88.81
389.612	89.81
389.837	96.81
390.062	91.81
390.287	89.81
390.512	93.81
390.736	97.81
390.961	111.81
391.186	99.81
391.411	101.81
391.636	101.81
391.86	77.81
392.085	86.81
392.31	89.81
392.534	70.81
392.759	97.81
392.984	94.81
393.208	113.81
393.433	131.81
393.658	126.81
393.882	77.81
394.107	84.81
394.331	85.81
394.556	93.81
394.78	99.81
395.005	88.81
395.229	91.81
395.454	84.81
395.678	69.81
395.903	89.81
396.127	95.81
396.352	85.81
396.576	92.81
396.801	112.81
397.025	112.81
397.249	95.81
397.474	99.81
397.698	67.81
397.922	81.81
398.147	89.81
398.371	85.81
398.595	95.81
398.82	88.81
399.044	80.81
399.268	87.81
399.492	66.81
399.717	85.81
399.941	93.81
400.165	97.81
400.389	96.81
400.613	100.81
400.837	87.81
401.062	91.81
401.286	98.81
401.51	97.81
401.734	97.81
401.958	92.81
402.182	127.81
402.406	146.81
402.63	99.81
402.854	88.81
403.078	96.81
403.302	84.81
403.526	94.81
403.75	81.81
403.974	74.81
404.198	104.81
404.422	85.81
404.645	95.81
404.869	83.81
405.093	92.81
405.317	94.81
405.541	101.81
405.765	104.81
405.988	120.81
406.212	144.81
406.436	211.81
406.66	131.81
406.883	89.81
407.107	90.81
407.331	97.81
407.555	92.81
407.778	88.81
408.002	84.81
408.226	87.81
408.449	94.81
408.673	87.81
408.896	88.81
409.12	100.81
409.344	85.81
409.567	92.81
409.791	86.81
410.014	107.81
410.238	81.81
410.461	95.81
410.685	84.81
410.908	95.81
411.132	107.81
411.355	92.81
411.578	101.81
411.802	91.81
412.025	85.81
412.249	74.81
412.472	85.81
412.695	105.81
412.919	81.81
413.142	96.81
413.365	95.81
413.589	94.81
413.812	97.81
414.035	100.81
414.258	99.81
414.482	94.81
414.705	93.81
414.928	82.81
415.151	96.81
415.374	85.81
415.597	104.81
415.821	86.81
416.044	95.81
416.267	94.81
416.49	104.81
416.713	91.81
416.936	96.81
417.159	106.81
417.382	97.81
417.605	87.81
417.828	90.81
418.051	109.81
418.274	116.81
418.497	85.81
418.72	100.81
418.943	78.81
419.166	78.81
419.389	109.81
419.611	93.81
419.834	98.81
420.057	97.81
420.28	96.81
420.503	81.81
420.726	86.81
420.948	96.81
421.171	90.81
421.394	94.81
421.617	86.81
421.839	89.81
422.062	91.81
422.285	92.81
422.507	107.81
422.73	134.81
422.953	118.81
423.175	78.81
423.398	73.81
423.621	96.81
423.843	88.81
424.066	89.81
424.288	78.81
424.511	91.81
424.733	99.81
424.956	102.81
425.178	105.81
425.401	102.81
425.623	98.81
425.846	95.81
426.068	84.81
426.291	90.81
426.513	88.81
426.735	85.81
426.958	88.81
427.18	89.81
427.402	147.81
427.625	151.81
427.847	125.81
428.069	110.81
428.292	93.81
428.514	98.81
428.736	81.81
428.958	81.81
429.181	85.81
429.403	83.81
429.625	76.81
429.847	95.81
430.069	95.81
430.292	96.81
430.514	88.81
430.736	84.81
430.958	108.81
431.18	97.81
431.402	75.81
431.624	88.81
431.846	92.81
432.068	79.81
432.29	86.81
432.512	75.81
432.734	87.81
432.956	98.81
433.178	98.81
433.4	79.81
433.622	85.81
433.844	87.81
434.066	90.81
434.287	92.81
434.509	100.81
434.731	90.81
434.953	94.81
435.175	81.81
435.397	78.81
435.618	85.81
435.84	91.81
436.062	117.81
436.284	114.81
436.505	109.81
436.727	101.81
436.949	104.81
437.17	83.81
437.392	82.81
437.614	79.81
437.835	94.81
438.057	102.81
438.278	114.81
438.5	105.81
438.721	110.81
438.943	96.81
439.165	88.81
439.386	81.81
439.608	102.81
439.829	98.81
440.05	128.81
440.272	139.81
440.493	103.81
440.715	97.81
440.936	68.81
441.158	80.81
441.379	92.81
441.6	98.81
441.822	105.81
442.043	94.81
442.264	108.81
442.486	102.81
442.707	114.81
442.928	109.81
443.149	126.81
443.371	125.81
443.592	105.81
443.813	110.81
444.034	101.81
444.255	105.81
444.476	74.81
444.698	85.81
444.919	75.81
445.14	129.81
445.361	139.81
445.582	112.81
445.803	150.81
446.024	141.81
446.245	120.81
446.466	109.81
446.687	93.81
446.908	90.81
447.129	75.81
447.35	81.81
447.571	91.81
447.792	101.81
448.013	98.81
448.234	96.81
448.455	94.81
448.675	114.81
448.896	102.81
449.117	90.81
449.338	103.81
449.559	117.81
449.779	128.81
450	98.81
450.221	91.81
450.442	82.81
450.662	98.81
450.883	111.81
451.104	108.81
451.324	105.81
451.545	98.81
451.766	76.81
451.986	99.81
452.207	102.81
452.428	79.81
452.648	105.81
452.869	90.81
453.089	104.81
453.31	110.81
453.53	88.81
453.751	93.81
453.971	105.81
454.192	101.81
454.412	101.81
454.633	89.81
454.853	86.81
455.073	84.81
455.294	86.81
455.514	115.81
455.734	74.81
455.955	77.81
456.175	83.81
456.395	77.81
456.616	93.81
456.836	89.81
457.056	73.81
457.276	94.81
457.497	94.81
457.717	83.81
457.937	91.81
458.157	89.81
458.377	83.81
458.598	93.81
458.818	130.81
459.038	151.81
459.258	104.81
459.478	80.81
459.698	89.81
459.918	83.81
460.138	102.81
460.358	92.81
460.578	85.81
460.798	75.81
461.018	86.81
461.238	84.81
461.458	74.81
461.678	82.81
461.898	78.81
462.118	96.81
462.338	97.81
462.558	74.81
462.777	71.81
462.997	87.81
463.217	87.81
463.437	86.81
463.657	92.81
463.876	82.81
464.096	97.81
464.316	86.81
464.536	83.81
464.755	102.81
464.975	116.81
465.195	142.81
465.414	117.81
465.634	84.81
465.854	86.81
466.073	94.81
466.293	85.81
466.512	91.81
466.732	87.81
466.951	91.81
467.171	94.81
467.391	84.81
467.61	87.81
467.829	95.81
468.049	99.81
468.268	86.81
468.488	78.81
468.707	93.81
468.927	79.81
469.146	91.81
469.365	81.81
469.585	72.81
469.804	93.81
470.023	97.81
470.243	86.81
470.462	99.81
470.681	87.81
470.901	78.81
471.12	80.81
471.339	72.81
471.558	92.81
471.777	93.81
471.997	91.81
472.216	76.81
472.435	89.81
472.654	88.81
472.873	94.81
473.092	82.81
473.311	93.81
473.53	86.81
473.749	84.81
473.968	81.81
474.187	103.81
474.406	95.81
474.625	82.81
474.844	76.81
475.063	82.81
475.282	89.81
475.501	84.81
475.72	79.81
475.939	88.81
476.158	94.81
476.377	78.81
476.596	77.81
476.814	75.81
477.033	97.81
477.252	103.81
477.471	93.81
477.69	85.81
477.908	95.81
478.127	94.81
478.346	93.81
478.564	95.81
478.783	103.81
479.002	88.81
479.22	93.81
479.439	94.81
479.658	99.81
479.876	90.81
480.095	67.81
480.313	98.81
480.532	85.81
480.751	102.81
480.969	89.81
481.188	100.81
481.406	96.81
481.624	95.81
481.843	102.81
482.061	101.81
482.28	82.81
482.498	98.81
482.717	74.81
482.935	97.81
483.153	85.81
483.372	92.81
483.59	89.81
483.808	87.81
484.027	85.81
484.245	94.81
484.463	82.81
484.681	99.81
484.9	89.81
485.118	100.81
485.336	106.81
485.554	96.81
485.772	102.81
485.99	106.81
486.209	107.81
486.427	92.81
486.645	107.81
486.863	106.81
487.081	117.81
487.299	94.81
487.517	98.81
487.735	85.81
487.953	85.81
488.171	93.81
488.389	99.81
488.607	101.81
488.825	104.81
489.043	73.81
489.261	91.81
489.479	93.81
489.696	93.81
489.914	89.81
490.132	72.81
490.35	87.81
490.568	90.81
490.786	101.81
491.003	84.81
491.221	82.81
491.439	100.81
491.657	99.81
491.874	84.81
492.092	91.81
492.31	92.81
492.527	62.81
492.745	89.81
492.963	100.81
493.18	94.81
493.398	93.81
493.615	97.81
493.833	84.81
494.05	86.81
494.268	91.81
494.485	93.81
494.703	91.81
494.92	76.81
495.138	88.81
495.355	95.81
495.573	96.81
495.79	83.81
496.008	98.81
496.225	87.81
496.442	72.81
496.66	82.81
496.877	98.81
497.094	96.81
497.312	85.81
497.529	93.81
497.746	85.81
497.963	80.81
498.181	88.81
498.398	103.81
498.615	97.81
498.832	95.81
499.049	89.81
499.267	97.81
499.484	95.81
499.701	82.81
499.918	90.81
500.135	96.81
500.352	91.81
500.569	78.81
500.786	88.81
501.003	96.81
501.22	91.81
501.437	99.81
501.654	101.81
501.871	118.81
502.088	81.81
502.305	84.81
502.522	98.81
502.739	91.81
502.956	81.81
503.172	91.81
503.389	105.81
503.606	119.81
503.823	99.81
504.04	89.81
504.256	91.81
504.473	91.81
504.69	93.81
504.907	94.81
505.123	93.81
505.34	95.81
505.557	96.81
505.773	94.81
505.99	94.81
506.207	84.81
506.423	74.81
506.64	98.81
506.856	89.81
507.073	85.81
507.289	91.81
507.506	98.81
507.722	107.81
507.939	98.81
508.155	91.81
508.372	88.81
508.588	95.81
508.805	96.81
509.021	105.81
509.238	102.81
509.454	107.81
509.67	89.81
509.887	113.81
510.103	119.81
510.319	194.81
510.536	651.81
510.752	2235.81
510.968	658.81
511.184	159.81
511.401	109.81
511.617	86.81
511.833	95.81
512.049	90.81
512.265	82.81
512.481	99.81
512.698	105.81
512.914	93.81
513.13	95.81
513.346	90.81
513.562	92.81
513.778	89.81
513.994	104.81
514.21	94.81
514.426	116.81
514.642	132.81
514.858	119.81
515.074	160.81
515.29	365.81
