Data from Circ_2016_H10_HRD10591_00069.txt Node
Date: Wed Jan 03 09:58:54 EST 2024
User: Yrep
Spectrometer: HR+D1059
Trigger mode: 1
Integration Time (sec): 1.000000E-1
Scans to average: 1
Electric dark correction enabled: true
Nonlinearity correction enabled: false
Boxcar width: 0
XAxis mode: Wavelengths
Number of Pixels in Spectrum: 2048
>>>>>Begin Spectral Data<<<<<
223.165	-18.81
223.4	-18.81
223.635	-18.81
223.869	-22.81
224.104	-14.81
224.338	-20.81
224.573	-10.81
224.808	-21.81
225.042	-6.81
225.277	-15.81
225.511	0.19
225.746	7.19
225.98	10.19
226.215	16.19
226.449	13.19
226.683	28.19
226.918	24.19
227.152	33.19
227.387	28.19
227.621	45.19
227.856	48.19
228.09	48.19
228.324	43.19
228.559	43.19
228.793	55.19
229.027	65.19
229.262	63.19
229.496	64.19
229.73	75.19
229.964	76.19
230.199	66.19
230.433	78.19
230.667	84.19
230.901	75.19
231.136	78.19
231.37	76.19
231.604	78.19
231.838	73.19
232.072	89.19
232.306	70.19
232.541	83.19
232.775	82.19
233.009	72.19
233.243	70.19
233.477	79.19
233.711	70.19
233.945	86.19
234.179	72.19
234.413	73.19
234.647	73.19
234.881	86.19
235.115	80.19
235.349	77.19
235.583	83.19
235.817	73.19
236.051	81.19
236.285	88.19
236.519	86.19
236.753	70.19
236.987	82.19
237.221	88.19
237.455	68.19
237.689	77.19
237.922	75.19
238.156	64.19
238.39	65.19
238.624	81.19
238.858	77.19
239.091	78.19
239.325	71.19
239.559	72.19
239.793	77.19
240.027	76.19
240.26	78.19
240.494	61.19
240.728	90.19
240.961	79.19
241.195	62.19
241.429	78.19
241.662	72.19
241.896	66.19
242.13	90.19
242.363	63.19
242.597	77.19
242.83	78.19
243.064	81.19
243.298	82.19
243.531	66.19
243.765	75.19
243.998	82.19
244.232	74.19
244.465	85.19
244.699	80.19
244.932	84.19
245.166	74.19
245.399	61.19
245.633	79.19
245.866	78.19
246.099	78.19
246.333	70.19
246.566	76.19
246.8	78.19
247.033	64.19
247.266	84.19
247.5	78.19
247.733	85.19
247.966	72.19
248.2	82.19
248.433	87.19
248.666	80.19
248.899	66.19
249.133	104.19
249.366	90.19
249.599	90.19
249.832	73.19
250.066	90.19
250.299	96.19
250.532	82.19
250.765	76.19
250.998	83.19
251.231	74.19
251.465	83.19
251.698	84.19
251.931	67.19
252.164	89.19
252.397	79.19
252.63	73.19
252.863	76.19
253.096	77.19
253.329	83.19
253.562	88.19
253.795	74.19
254.028	82.19
254.261	84.19
254.494	76.19
254.727	74.19
254.96	79.19
255.193	80.19
255.426	76.19
255.659	73.19
255.892	77.19
256.124	85.19
256.357	75.19
256.59	76.19
256.823	72.19
257.056	78.19
257.289	88.19
257.521	82.19
257.754	82.19
257.987	76.19
258.22	72.19
258.452	90.19
258.685	101.19
258.918	94.19
259.151	82.19
259.383	98.19
259.616	82.19
259.849	87.19
260.081	84.19
260.314	69.19
260.547	70.19
260.779	77.19
261.012	82.19
261.244	70.19
261.477	94.19
261.71	97.19
261.942	98.19
262.175	118.19
262.407	101.19
262.64	87.19
262.872	82.19
263.105	77.19
263.337	86.19
263.57	84.19
263.802	75.19
264.035	83.19
264.267	84.19
264.499	86.19
264.732	77.19
264.964	89.19
265.197	77.19
265.429	74.19
265.661	83.19
265.894	81.19
266.126	88.19
266.358	78.19
266.591	95.19
266.823	80.19
267.055	83.19
267.287	92.19
267.52	75.19
267.752	68.19
267.984	74.19
268.216	94.19
268.448	82.19
268.681	82.19
268.913	87.19
269.145	84.19
269.377	79.19
269.609	70.19
269.841	88.19
270.073	77.19
270.306	79.19
270.538	83.19
270.77	81.19
271.002	74.19
271.234	80.19
271.466	86.19
271.698	88.19
271.93	86.19
272.162	84.19
272.394	76.19
272.626	86.19
272.858	76.19
273.09	86.19
273.322	81.19
273.553	85.19
273.785	60.19
274.017	83.19
274.249	89.19
274.481	81.19
274.713	71.19
274.945	82.19
275.176	95.19
275.408	84.19
275.64	99.19
275.872	80.19
276.104	89.19
276.335	88.19
276.567	84.19
276.799	98.19
277.031	98.19
277.262	101.19
277.494	91.19
277.726	91.19
277.957	80.19
278.189	75.19
278.421	100.19
278.652	80.19
278.884	81.19
279.115	88.19
279.347	76.19
279.579	72.19
279.81	89.19
280.042	98.19
280.273	89.19
280.505	81.19
280.736	93.19
280.968	84.19
281.199	100.19
281.431	90.19
281.662	76.19
281.894	92.19
282.125	96.19
282.356	111.19
282.588	136.19
282.819	110.19
283.051	83.19
283.282	74.19
283.513	88.19
283.745	75.19
283.976	82.19
284.207	69.19
284.439	96.19
284.67	93.19
284.901	88.19
285.132	87.19
285.364	90.19
285.595	91.19
285.826	90.19
286.057	90.19
286.288	100.19
286.52	90.19
286.751	90.19
286.982	86.19
287.213	91.19
287.444	99.19
287.675	80.19
287.906	83.19
288.138	98.19
288.369	93.19
288.6	89.19
288.831	78.19
289.062	100.19
289.293	90.19
289.524	88.19
289.755	88.19
289.986	97.19
290.217	88.19
290.448	84.19
290.679	72.19
290.91	91.19
291.141	76.19
291.371	89.19
291.602	84.19
291.833	84.19
292.064	91.19
292.295	93.19
292.526	81.19
292.757	93.19
292.987	90.19
293.218	75.19
293.449	85.19
293.68	80.19
293.91	105.19
294.141	98.19
294.372	90.19
294.603	86.19
294.833	84.19
295.064	91.19
295.295	78.19
295.525	80.19
295.756	92.19
295.987	119.19
296.217	122.19
296.448	119.19
296.679	107.19
296.909	89.19
297.14	84.19
297.37	86.19
297.601	78.19
297.831	91.19
298.062	104.19
298.292	103.19
298.523	89.19
298.753	93.19
298.984	81.19
299.214	78.19
299.445	92.19
299.675	90.19
299.905	99.19
300.136	106.19
300.366	86.19
300.597	105.19
300.827	107.19
301.057	99.19
301.288	94.19
301.518	94.19
301.748	82.19
301.979	85.19
302.209	93.19
302.439	89.19
302.669	94.19
302.9	89.19
303.13	94.19
303.36	91.19
303.59	86.19
303.82	100.19
304.051	102.19
304.281	101.19
304.511	79.19
304.741	87.19
304.971	79.19
305.201	90.19
305.431	84.19
305.661	96.19
305.891	107.19
306.121	100.19
306.352	108.19
306.582	91.19
306.812	94.19
307.042	99.19
307.272	97.19
307.502	111.19
307.731	97.19
307.961	92.19
308.191	95.19
308.421	90.19
308.651	102.19
308.881	95.19
309.111	87.19
309.341	84.19
309.571	93.19
309.8	98.19
310.03	99.19
310.26	99.19
310.49	92.19
310.72	95.19
310.949	95.19
311.179	104.19
311.409	87.19
311.639	93.19
311.868	101.19
312.098	89.19
312.328	115.19
312.557	99.19
312.787	105.19
313.017	89.19
313.246	89.19
313.476	96.19
313.706	97.19
313.935	82.19
314.165	92.19
314.394	91.19
314.624	101.19
314.853	86.19
315.083	93.19
315.312	100.19
315.542	84.19
315.771	83.19
316.001	85.19
316.23	89.19
316.46	94.19
316.689	93.19
316.919	90.19
317.148	100.19
317.377	97.19
317.607	104.19
317.836	90.19
318.065	89.19
318.295	90.19
318.524	90.19
318.753	78.19
318.983	94.19
319.212	96.19
319.441	100.19
319.67	105.19
319.9	87.19
320.129	94.19
320.358	99.19
320.587	96.19
320.816	87.19
321.046	95.19
321.275	94.19
321.504	97.19
321.733	98.19
321.962	93.19
322.191	99.19
322.42	98.19
322.649	91.19
322.878	101.19
323.108	114.19
323.337	119.19
323.566	103.19
323.795	144.19
324.024	184.19
324.253	340.19
324.482	718.19
324.71	1467.19
324.939	1888.19
325.168	714.19
325.397	232.19
325.626	140.19
325.855	124.19
326.084	118.19
326.313	125.19
326.542	143.19
326.77	214.19
326.999	417.19
327.228	835.19
327.457	1476.19
327.686	1173.19
327.914	325.19
328.143	169.19
328.372	144.19
328.6	126.19
328.829	96.19
329.058	113.19
329.287	136.19
329.515	102.19
329.744	117.19
329.972	109.19
330.201	128.19
330.43	146.19
330.658	116.19
330.887	132.19
331.115	116.19
331.344	99.19
331.572	108.19
331.801	116.19
332.03	107.19
332.258	81.19
332.486	94.19
332.715	96.19
332.943	92.19
333.172	108.19
333.4	97.19
333.629	106.19
333.857	126.19
334.085	112.19
334.314	113.19
334.542	145.19
334.771	154.19
334.999	121.19
335.227	85.19
335.455	114.19
335.684	100.19
335.912	92.19
336.14	95.19
336.369	93.19
336.597	105.19
336.825	92.19
337.053	88.19
337.281	108.19
337.51	80.19
337.738	83.19
337.966	99.19
338.194	109.19
338.422	92.19
338.65	104.19
338.878	84.19
339.106	101.19
339.334	95.19
339.562	92.19
339.79	97.19
340.018	98.19
340.246	99.19
340.474	84.19
340.702	92.19
340.93	87.19
341.158	88.19
341.386	94.19
341.614	90.19
341.842	97.19
342.07	100.19
342.298	107.19
342.526	98.19
342.754	98.19
342.981	86.19
343.209	92.19
343.437	97.19
343.665	89.19
343.893	76.19
344.12	90.19
344.348	77.19
344.576	104.19
344.804	93.19
345.031	86.19
345.259	104.19
345.487	97.19
345.714	103.19
345.942	102.19
346.17	82.19
346.397	80.19
346.625	97.19
346.853	96.19
347.08	85.19
347.308	101.19
347.535	96.19
347.763	88.19
347.99	87.19
348.218	98.19
348.445	93.19
348.673	92.19
348.9	95.19
349.128	96.19
349.355	79.19
349.583	91.19
349.81	81.19
350.037	90.19
350.265	93.19
350.492	90.19
350.72	86.19
350.947	96.19
351.174	96.19
351.402	97.19
351.629	110.19
351.856	96.19
352.083	86.19
352.311	100.19
352.538	106.19
352.765	115.19
352.992	110.19
353.22	102.19
353.447	114.19
353.674	101.19
353.901	95.19
354.128	98.19
354.355	93.19
354.583	98.19
354.81	96.19
355.037	89.19
355.264	85.19
355.491	96.19
355.718	101.19
355.945	96.19
356.172	90.19
356.399	107.19
356.626	89.19
356.853	102.19
357.08	104.19
357.307	87.19
357.534	82.19
357.761	91.19
357.988	98.19
358.215	97.19
358.441	100.19
358.668	107.19
358.895	93.19
359.122	87.19
359.349	93.19
359.576	105.19
359.802	85.19
360.029	116.19
360.256	111.19
360.483	101.19
360.709	89.19
360.936	97.19
361.163	95.19
361.39	93.19
361.616	80.19
361.843	86.19
362.07	87.19
362.296	81.19
362.523	105.19
362.749	85.19
362.976	110.19
363.203	77.19
363.429	86.19
363.656	82.19
363.882	102.19
364.109	70.19
364.335	93.19
364.562	72.19
364.788	81.19
365.015	86.19
365.241	99.19
365.468	102.19
365.694	110.19
365.92	95.19
366.147	89.19
366.373	70.19
366.599	94.19
366.826	98.19
367.052	99.19
367.278	91.19
367.505	85.19
367.731	82.19
367.957	83.19
368.184	94.19
368.41	89.19
368.636	124.19
368.862	122.19
369.089	98.19
369.315	93.19
369.541	101.19
369.767	85.19
369.993	85.19
370.219	89.19
370.445	76.19
370.672	95.19
370.898	95.19
371.124	85.19
371.35	87.19
371.576	75.19
371.802	92.19
372.028	87.19
372.254	86.19
372.48	85.19
372.706	96.19
372.932	96.19
373.158	107.19
373.384	79.19
373.61	110.19
373.835	102.19
374.061	94.19
374.287	95.19
374.513	87.19
374.739	81.19
374.965	97.19
375.191	89.19
375.416	97.19
375.642	85.19
375.868	92.19
376.094	82.19
376.319	82.19
376.545	82.19
376.771	103.19
376.997	91.19
377.222	91.19
377.448	90.19
377.674	102.19
377.899	91.19
378.125	84.19
378.35	90.19
378.576	90.19
378.802	85.19
379.027	84.19
379.253	94.19
379.478	98.19
379.704	93.19
379.929	95.19
380.155	94.19
380.38	100.19
380.606	103.19
380.831	108.19
381.057	109.19
381.282	105.19
381.507	107.19
381.733	101.19
381.958	83.19
382.184	109.19
382.409	110.19
382.634	102.19
382.86	101.19
383.085	107.19
383.31	102.19
383.535	107.19
383.761	109.19
383.986	94.19
384.211	105.19
384.436	96.19
384.662	93.19
384.887	109.19
385.112	114.19
385.337	99.19
385.562	122.19
385.787	116.19
386.013	121.19
386.238	124.19
386.463	112.19
386.688	108.19
386.913	118.19
387.138	126.19
387.363	120.19
387.588	105.19
387.813	102.19
388.038	103.19
388.263	124.19
388.488	138.19
388.713	106.19
388.938	105.19
389.163	92.19
389.387	102.19
389.612	88.19
389.837	102.19
390.062	100.19
390.287	81.19
390.512	92.19
390.736	74.19
390.961	90.19
391.186	100.19
391.411	100.19
391.636	84.19
391.86	83.19
392.085	83.19
392.31	75.19
392.534	85.19
392.759	97.19
392.984	77.19
393.208	94.19
393.433	96.19
393.658	112.19
393.882	86.19
394.107	80.19
394.331	72.19
394.556	89.19
394.78	98.19
395.005	92.19
395.229	94.19
395.454	90.19
395.678	82.19
395.903	102.19
396.127	86.19
396.352	87.19
396.576	85.19
396.801	88.19
397.025	90.19
397.249	101.19
397.474	104.19
397.698	77.19
397.922	88.19
398.147	88.19
398.371	80.19
398.595	94.19
398.82	85.19
399.044	91.19
399.268	81.19
399.492	77.19
399.717	86.19
399.941	89.19
400.165	102.19
400.389	83.19
400.613	80.19
400.837	87.19
401.062	91.19
401.286	85.19
401.51	93.19
401.734	93.19
401.958	91.19
402.182	129.19
402.406	136.19
402.63	107.19
402.854	85.19
403.078	86.19
403.302	85.19
403.526	89.19
403.75	86.19
403.974	86.19
404.198	93.19
404.422	88.19
404.645	84.19
404.869	85.19
405.093	94.19
405.317	96.19
405.541	112.19
405.765	93.19
405.988	108.19
406.212	154.19
406.436	187.19
406.66	139.19
406.883	94.19
407.107	88.19
407.331	95.19
407.555	96.19
407.778	94.19
408.002	79.19
408.226	83.19
408.449	94.19
408.673	99.19
408.896	94.19
409.12	102.19
409.344	87.19
409.567	107.19
409.791	90.19
410.014	99.19
410.238	102.19
410.461	86.19
410.685	93.19
410.908	96.19
411.132	112.19
411.355	105.19
411.578	89.19
411.802	77.19
412.025	101.19
412.249	84.19
412.472	97.19
412.695	100.19
412.919	92.19
413.142	98.19
413.365	89.19
413.589	85.19
413.812	78.19
414.035	94.19
414.258	91.19
414.482	104.19
414.705	96.19
414.928	91.19
415.151	82.19
415.374	98.19
415.597	91.19
415.821	84.19
416.044	88.19
416.267	88.19
416.49	84.19
416.713	79.19
416.936	89.19
417.159	87.19
417.382	80.19
417.605	98.19
417.828	88.19
418.051	87.19
418.274	96.19
418.497	92.19
418.72	99.19
418.943	97.19
419.166	98.19
419.389	86.19
419.611	78.19
419.834	88.19
420.057	86.19
420.28	74.19
420.503	97.19
420.726	89.19
420.948	101.19
421.171	101.19
421.394	97.19
421.617	92.19
421.839	84.19
422.062	106.19
422.285	97.19
422.507	104.19
422.73	97.19
422.953	90.19
423.175	89.19
423.398	91.19
423.621	81.19
423.843	104.19
424.066	87.19
424.288	99.19
424.511	85.19
424.733	98.19
424.956	116.19
425.178	86.19
425.401	84.19
425.623	92.19
425.846	83.19
426.068	81.19
426.291	93.19
426.513	83.19
426.735	86.19
426.958	96.19
427.18	92.19
427.402	113.19
427.625	135.19
427.847	114.19
428.069	114.19
428.292	93.19
428.514	77.19
428.736	71.19
428.958	79.19
429.181	99.19
429.403	90.19
429.625	70.19
429.847	80.19
430.069	104.19
430.292	96.19
430.514	86.19
430.736	90.19
430.958	72.19
431.18	81.19
431.402	93.19
431.624	87.19
431.846	85.19
432.068	93.19
432.29	91.19
432.512	97.19
432.734	90.19
432.956	83.19
433.178	90.19
433.4	100.19
433.622	101.19
433.844	87.19
434.066	85.19
434.287	107.19
434.509	103.19
434.731	84.19
434.953	88.19
435.175	90.19
435.397	96.19
435.618	89.19
435.84	94.19
436.062	119.19
436.284	102.19
436.505	101.19
436.727	105.19
436.949	97.19
437.17	70.19
437.392	83.19
437.614	85.19
437.835	98.19
438.057	101.19
438.278	101.19
438.5	106.19
438.721	122.19
438.943	94.19
439.165	80.19
439.386	92.19
439.608	92.19
439.829	98.19
440.05	116.19
440.272	125.19
440.493	98.19
440.715	82.19
440.936	79.19
441.158	95.19
441.379	84.19
441.6	94.19
441.822	91.19
442.043	87.19
442.264	98.19
442.486	104.19
442.707	90.19
442.928	100.19
443.149	117.19
443.371	116.19
443.592	104.19
443.813	106.19
444.034	119.19
444.255	90.19
444.476	77.19
444.698	80.19
444.919	77.19
445.14	117.19
445.361	112.19
445.582	101.19
445.803	125.19
446.024	109.19
446.245	120.19
446.466	114.19
446.687	83.19
446.908	89.19
447.129	91.19
447.35	87.19
447.571	106.19
447.792	103.19
448.013	92.19
448.234	99.19
448.455	97.19
448.675	108.19
448.896	112.19
449.117	101.19
449.338	102.19
449.559	122.19
449.779	122.19
450	98.19
450.221	76.19
450.442	103.19
450.662	101.19
450.883	99.19
451.104	111.19
451.324	105.19
451.545	86.19
451.766	65.19
451.986	92.19
452.207	80.19
452.428	84.19
452.648	83.19
452.869	106.19
453.089	106.19
453.31	106.19
453.53	82.19
453.751	94.19
453.971	87.19
454.192	94.19
454.412	107.19
454.633	88.19
454.853	79.19
455.073	82.19
455.294	76.19
455.514	100.19
455.734	94.19
455.955	93.19
456.175	94.19
456.395	77.19
456.616	85.19
456.836	84.19
457.056	88.19
457.276	85.19
457.497	92.19
457.717	75.19
457.937	90.19
458.157	86.19
458.377	104.19
458.598	105.19
458.818	128.19
459.038	132.19
459.258	100.19
459.478	93.19
459.698	90.19
459.918	74.19
460.138	77.19
460.358	88.19
460.578	87.19
460.798	90.19
461.018	94.19
461.238	81.19
461.458	77.19
461.678	69.19
461.898	95.19
462.118	90.19
462.338	83.19
462.558	99.19
462.777	82.19
462.997	82.19
463.217	86.19
463.437	84.19
463.657	79.19
463.876	91.19
464.096	85.19
464.316	90.19
464.536	92.19
464.755	105.19
464.975	107.19
465.195	137.19
465.414	137.19
465.634	106.19
465.854	109.19
466.073	92.19
466.293	87.19
466.512	89.19
466.732	93.19
466.951	89.19
467.171	93.19
467.391	92.19
467.61	110.19
467.829	81.19
468.049	99.19
468.268	124.19
468.488	90.19
468.707	84.19
468.927	74.19
469.146	85.19
469.365	78.19
469.585	84.19
469.804	97.19
470.023	99.19
470.243	94.19
470.462	90.19
470.681	100.19
470.901	90.19
471.12	88.19
471.339	89.19
471.558	86.19
471.777	87.19
471.997	96.19
472.216	107.19
472.435	170.19
472.654	93.19
472.873	90.19
473.092	87.19
473.311	94.19
473.53	79.19
473.749	76.19
473.968	104.19
474.187	91.19
474.406	98.19
474.625	90.19
474.844	99.19
475.063	89.19
475.282	89.19
475.501	74.19
475.72	99.19
475.939	87.19
476.158	90.19
476.377	85.19
476.596	96.19
476.814	85.19
477.033	94.19
477.252	68.19
477.471	81.19
477.69	93.19
477.908	85.19
478.127	83.19
478.346	84.19
478.564	91.19
478.783	99.19
479.002	90.19
479.22	85.19
479.439	83.19
479.658	99.19
479.876	90.19
480.095	81.19
480.313	95.19
480.532	97.19
480.751	93.19
480.969	122.19
481.188	257.19
481.406	196.19
481.624	88.19
481.843	82.19
482.061	70.19
482.28	89.19
482.498	94.19
482.717	85.19
482.935	82.19
483.153	98.19
483.372	102.19
483.59	99.19
483.808	78.19
484.027	97.19
484.245	94.19
484.463	106.19
484.681	95.19
484.9	93.19
485.118	94.19
485.336	90.19
485.554	91.19
485.772	105.19
485.99	101.19
486.209	102.19
486.427	112.19
486.645	113.19
486.863	112.19
487.081	89.19
487.299	100.19
487.517	89.19
487.735	105.19
487.953	85.19
488.171	103.19
488.389	100.19
488.607	97.19
488.825	89.19
489.043	90.19
489.261	87.19
489.479	89.19
489.696	97.19
489.914	85.19
490.132	93.19
490.35	101.19
490.568	90.19
490.786	90.19
491.003	96.19
491.221	99.19
491.439	91.19
491.657	99.19
491.874	86.19
492.092	83.19
492.31	93.19
492.527	90.19
492.745	82.19
492.963	88.19
493.18	89.19
493.398	101.19
493.615	90.19
493.833	83.19
494.05	81.19
494.268	97.19
494.485	92.19
494.703	93.19
494.92	80.19
495.138	103.19
495.355	87.19
495.573	90.19
495.79	88.19
496.008	92.19
496.225	94.19
496.442	91.19
496.66	87.19
496.877	100.19
497.094	94.19
497.312	93.19
497.529	85.19
497.746	93.19
497.963	101.19
498.181	72.19
498.398	96.19
498.615	106.19
498.832	89.19
499.049	90.19
499.267	90.19
499.484	87.19
499.701	92.19
499.918	96.19
500.135	88.19
500.352	80.19
500.569	81.19
500.786	91.19
501.003	84.19
501.22	81.19
501.437	101.19
501.654	92.19
501.871	100.19
502.088	83.19
502.305	84.19
502.522	100.19
502.739	93.19
502.956	82.19
503.172	102.19
503.389	97.19
503.606	104.19
503.823	88.19
504.04	91.19
504.256	76.19
504.473	89.19
504.69	90.19
504.907	87.19
505.123	92.19
505.34	94.19
505.557	88.19
505.773	99.19
505.99	95.19
506.207	91.19
506.423	86.19
506.64	96.19
506.856	80.19
507.073	78.19
507.289	93.19
507.506	87.19
507.722	96.19
507.939	116.19
508.155	85.19
508.372	85.19
508.588	103.19
508.805	88.19
509.021	93.19
509.238	98.19
509.454	80.19
509.67	100.19
509.887	90.19
510.103	134.19
510.319	189.19
510.536	629.19
510.752	2093.19
510.968	618.19
511.184	161.19
511.401	96.19
511.617	84.19
511.833	105.19
512.049	89.19
512.265	88.19
512.481	100.19
512.698	93.19
512.914	96.19
513.13	90.19
513.346	80.19
513.562	87.19
513.778	93.19
513.994	99.19
514.21	103.19
514.426	107.19
514.642	132.19
514.858	128.19
515.074	136.19
515.29	361.19
515.506	1110.19
515.721	460.19
