Data from Circ_2016_H10_HRD10591_00017.txt Node
Date: Wed Jan 03 09:58:44 EST 2024
User: Yrep
Spectrometer: HR+D1059
Trigger mode: 1
Integration Time (sec): 1.000000E-1
Scans to average: 1
Electric dark correction enabled: true
Nonlinearity correction enabled: false
Boxcar width: 0
XAxis mode: Wavelengths
Number of Pixels in Spectrum: 2048
>>>>>Begin Spectral Data<<<<<
223.165	-14.56
223.4	-14.56
223.635	-14.56
223.869	-10.56
224.104	-34.56
224.338	-13.56
224.573	-10.56
224.808	-12.56
225.042	-3.56
225.277	-12.56
225.511	-7.56
225.746	-1.56
225.98	15.44
226.215	0.44
226.449	20.44
226.683	20.44
226.918	24.44
227.152	40.44
227.387	51.44
227.621	34.44
227.856	52.44
228.09	69.44
228.324	49.44
228.559	62.44
228.793	63.44
229.027	55.44
229.262	63.44
229.496	68.44
229.73	95.44
229.964	92.44
230.199	68.44
230.433	77.44
230.667	84.44
230.901	84.44
231.136	79.44
231.37	75.44
231.604	80.44
231.838	79.44
232.072	78.44
232.306	93.44
232.541	84.44
232.775	79.44
233.009	76.44
233.243	77.44
233.477	86.44
233.711	78.44
233.945	76.44
234.179	85.44
234.413	73.44
234.647	73.44
234.881	71.44
235.115	82.44
235.349	78.44
235.583	74.44
235.817	70.44
236.051	67.44
236.285	74.44
236.519	76.44
236.753	80.44
236.987	78.44
237.221	92.44
237.455	77.44
237.689	75.44
237.922	86.44
238.156	84.44
238.39	71.44
238.624	77.44
238.858	73.44
239.091	76.44
239.325	75.44
239.559	76.44
239.793	85.44
240.027	90.44
240.26	88.44
240.494	78.44
240.728	79.44
240.961	76.44
241.195	70.44
241.429	77.44
241.662	74.44
241.896	73.44
242.13	83.44
242.363	72.44
242.597	77.44
242.83	81.44
243.064	89.44
243.298	75.44
243.531	79.44
243.765	66.44
243.998	90.44
244.232	90.44
244.465	90.44
244.699	81.44
244.932	101.44
245.166	82.44
245.399	84.44
245.633	82.44
245.866	77.44
246.099	77.44
246.333	70.44
246.566	79.44
246.8	78.44
247.033	79.44
247.266	90.44
247.5	82.44
247.733	71.44
247.966	67.44
248.2	95.44
248.433	87.44
248.666	80.44
248.899	93.44
249.133	86.44
249.366	104.44
249.599	104.44
249.832	89.44
250.066	89.44
250.299	87.44
250.532	84.44
250.765	90.44
250.998	76.44
251.231	75.44
251.465	79.44
251.698	85.44
251.931	80.44
252.164	85.44
252.397	70.44
252.63	90.44
252.863	88.44
253.096	92.44
253.329	75.44
253.562	76.44
253.795	90.44
254.028	93.44
254.261	97.44
254.494	92.44
254.727	86.44
254.96	79.44
255.193	82.44
255.426	78.44
255.659	70.44
255.892	79.44
256.124	91.44
256.357	100.44
256.59	83.44
256.823	70.44
257.056	77.44
257.289	69.44
257.521	86.44
257.754	81.44
257.987	80.44
258.22	87.44
258.452	84.44
258.685	94.44
258.918	83.44
259.151	84.44
259.383	88.44
259.616	86.44
259.849	88.44
260.081	91.44
260.314	82.44
260.547	76.44
260.779	81.44
261.012	78.44
261.244	80.44
261.477	87.44
261.71	117.44
261.942	140.44
262.175	124.44
262.407	96.44
262.64	98.44
262.872	94.44
263.105	78.44
263.337	89.44
263.57	76.44
263.802	74.44
264.035	90.44
264.267	79.44
264.499	71.44
264.732	83.44
264.964	85.44
265.197	78.44
265.429	96.44
265.661	87.44
265.894	85.44
266.126	78.44
266.358	95.44
266.591	96.44
266.823	70.44
267.055	87.44
267.287	83.44
267.52	85.44
267.752	68.44
267.984	86.44
268.216	84.44
268.448	90.44
268.681	86.44
268.913	99.44
269.145	89.44
269.377	79.44
269.609	86.44
269.841	87.44
270.073	89.44
270.306	77.44
270.538	78.44
270.77	84.44
271.002	92.44
271.234	92.44
271.466	89.44
271.698	86.44
271.93	86.44
272.162	83.44
272.394	78.44
272.626	86.44
272.858	80.44
273.09	79.44
273.322	90.44
273.553	81.44
273.785	83.44
274.017	89.44
274.249	75.44
274.481	86.44
274.713	77.44
274.945	86.44
275.176	70.44
275.408	89.44
275.64	91.44
275.872	93.44
276.104	104.44
276.335	90.44
276.567	101.44
276.799	113.44
277.031	105.44
277.262	98.44
277.494	91.44
277.726	95.44
277.957	97.44
278.189	94.44
278.421	93.44
278.652	83.44
278.884	74.44
279.115	74.44
279.347	89.44
279.579	93.44
279.81	99.44
280.042	86.44
280.273	91.44
280.505	82.44
280.736	88.44
280.968	85.44
281.199	79.44
281.431	76.44
281.662	86.44
281.894	93.44
282.125	101.44
282.356	136.44
282.588	180.44
282.819	125.44
283.051	78.44
283.282	83.44
283.513	97.44
283.745	91.44
283.976	89.44
284.207	90.44
284.439	97.44
284.67	99.44
284.901	80.44
285.132	82.44
285.364	76.44
285.595	82.44
285.826	88.44
286.057	81.44
286.288	95.44
286.52	86.44
286.751	79.44
286.982	86.44
287.213	84.44
287.444	97.44
287.675	91.44
287.906	94.44
288.138	89.44
288.369	99.44
288.6	93.44
288.831	100.44
289.062	91.44
289.293	85.44
289.524	89.44
289.755	69.44
289.986	91.44
290.217	104.44
290.448	93.44
290.679	73.44
290.91	79.44
291.141	90.44
291.371	83.44
291.602	84.44
291.833	85.44
292.064	87.44
292.295	99.44
292.526	99.44
292.757	91.44
292.987	83.44
293.218	84.44
293.449	88.44
293.68	78.44
293.91	90.44
294.141	99.44
294.372	92.44
294.603	102.44
294.833	86.44
295.064	93.44
295.295	94.44
295.525	97.44
295.756	111.44
295.987	149.44
296.217	177.44
296.448	146.44
296.679	98.44
296.909	84.44
297.14	88.44
297.37	90.44
297.601	91.44
297.831	87.44
298.062	86.44
298.292	99.44
298.523	85.44
298.753	89.44
298.984	92.44
299.214	91.44
299.445	93.44
299.675	110.44
299.905	106.44
300.136	100.44
300.366	74.44
300.597	81.44
300.827	87.44
301.057	102.44
301.288	106.44
301.518	98.44
301.748	102.44
301.979	106.44
302.209	86.44
302.439	100.44
302.669	96.44
302.9	91.44
303.13	93.44
303.36	96.44
303.59	110.44
303.82	118.44
304.051	94.44
304.281	89.44
304.511	86.44
304.741	79.44
304.971	80.44
305.201	75.44
305.431	83.44
305.661	110.44
305.891	119.44
306.121	110.44
306.352	101.44
306.582	109.44
306.812	100.44
307.042	98.44
307.272	103.44
307.502	110.44
307.731	89.44
307.961	106.44
308.191	74.44
308.421	95.44
308.651	91.44
308.881	101.44
309.111	90.44
309.341	107.44
309.571	100.44
309.8	102.44
310.03	100.44
310.26	108.44
310.49	92.44
310.72	98.44
310.949	114.44
311.179	96.44
311.409	102.44
311.639	97.44
311.868	99.44
312.098	100.44
312.328	102.44
312.557	103.44
312.787	107.44
313.017	101.44
313.246	91.44
313.476	109.44
313.706	95.44
313.935	94.44
314.165	114.44
314.394	127.44
314.624	89.44
314.853	91.44
315.083	93.44
315.312	97.44
315.542	86.44
315.771	101.44
316.001	99.44
316.23	86.44
316.46	85.44
316.689	102.44
316.919	99.44
317.148	95.44
317.377	101.44
317.607	98.44
317.836	104.44
318.065	103.44
318.295	110.44
318.524	97.44
318.753	90.44
318.983	116.44
319.212	106.44
319.441	115.44
319.67	118.44
319.9	97.44
320.129	92.44
320.358	88.44
320.587	106.44
320.816	105.44
321.046	97.44
321.275	108.44
321.504	95.44
321.733	118.44
321.962	91.44
322.191	115.44
322.42	107.44
322.649	112.44
322.878	119.44
323.108	129.44
323.337	138.44
323.566	158.44
323.795	201.44
324.024	272.44
324.253	594.44
324.482	1273.44
324.71	2666.44
324.939	3538.44
325.168	1255.44
325.397	353.44
325.626	195.44
325.855	163.44
326.084	149.44
326.313	174.44
326.542	188.44
326.77	298.44
326.999	643.44
327.228	1431.44
327.457	2589.44
327.686	2049.44
327.914	545.44
328.143	257.44
328.372	183.44
328.6	145.44
328.829	134.44
329.058	153.44
329.287	155.44
329.515	129.44
329.744	120.44
329.972	116.44
330.201	101.44
330.43	126.44
330.658	148.44
330.887	188.44
331.115	155.44
331.344	104.44
331.572	107.44
331.801	120.44
332.03	107.44
332.258	95.44
332.486	104.44
332.715	108.44
332.943	117.44
333.172	100.44
333.4	103.44
333.629	106.44
333.857	130.44
334.085	131.44
334.314	89.44
334.542	95.44
334.771	101.44
334.999	105.44
335.227	98.44
335.455	107.44
335.684	102.44
335.912	96.44
336.14	97.44
336.369	113.44
336.597	106.44
336.825	124.44
337.053	101.44
337.281	89.44
337.51	108.44
337.738	95.44
337.966	104.44
338.194	100.44
338.422	106.44
338.65	106.44
338.878	110.44
339.106	90.44
339.334	92.44
339.562	87.44
339.79	90.44
340.018	101.44
340.246	84.44
340.474	105.44
340.702	111.44
340.93	78.44
341.158	93.44
341.386	100.44
341.614	113.44
341.842	97.44
342.07	103.44
342.298	97.44
342.526	92.44
342.754	102.44
342.981	104.44
343.209	99.44
343.437	101.44
343.665	83.44
343.893	99.44
344.12	98.44
344.348	91.44
344.576	105.44
344.804	79.44
345.031	108.44
345.259	107.44
345.487	94.44
345.714	101.44
345.942	100.44
346.17	88.44
346.397	85.44
346.625	93.44
346.853	102.44
347.08	85.44
347.308	95.44
347.535	94.44
347.763	101.44
347.99	104.44
348.218	109.44
348.445	123.44
348.673	116.44
348.9	94.44
349.128	96.44
349.355	89.44
349.583	93.44
349.81	103.44
350.037	92.44
350.265	95.44
350.492	88.44
350.72	98.44
350.947	109.44
351.174	121.44
351.402	127.44
351.629	125.44
351.856	100.44
352.083	112.44
352.311	129.44
352.538	121.44
352.765	110.44
352.992	113.44
353.22	121.44
353.447	118.44
353.674	117.44
353.901	100.44
354.128	97.44
354.355	102.44
354.583	106.44
354.81	98.44
355.037	96.44
355.264	94.44
355.491	90.44
355.718	98.44
355.945	93.44
356.172	100.44
356.399	102.44
356.626	105.44
356.853	84.44
357.08	114.44
357.307	91.44
357.534	101.44
357.761	98.44
357.988	113.44
358.215	114.44
358.441	125.44
358.668	129.44
358.895	119.44
359.122	103.44
359.349	98.44
359.576	95.44
359.802	102.44
360.029	131.44
360.256	127.44
360.483	117.44
360.709	103.44
360.936	92.44
361.163	103.44
361.39	108.44
361.616	87.44
361.843	93.44
362.07	90.44
362.296	97.44
362.523	99.44
362.749	98.44
362.976	101.44
363.203	96.44
363.429	98.44
363.656	91.44
363.882	98.44
364.109	91.44
364.335	99.44
364.562	91.44
364.788	102.44
365.015	96.44
365.241	97.44
365.468	111.44
365.694	105.44
365.92	89.44
366.147	87.44
366.373	100.44
366.599	97.44
366.826	93.44
367.052	94.44
367.278	102.44
367.505	99.44
367.731	91.44
367.957	104.44
368.184	94.44
368.41	108.44
368.636	111.44
368.862	134.44
369.089	125.44
369.315	92.44
369.541	90.44
369.767	87.44
369.993	96.44
370.219	102.44
370.445	102.44
370.672	81.44
370.898	87.44
371.124	89.44
371.35	82.44
371.576	95.44
371.802	92.44
372.028	109.44
372.254	93.44
372.48	101.44
372.706	90.44
372.932	83.44
373.158	82.44
373.384	97.44
373.61	107.44
373.835	111.44
374.061	84.44
374.287	98.44
374.513	88.44
374.739	90.44
374.965	104.44
375.191	115.44
375.416	87.44
375.642	99.44
375.868	102.44
376.094	101.44
376.319	104.44
376.545	98.44
376.771	95.44
376.997	101.44
377.222	111.44
377.448	98.44
377.674	94.44
377.899	116.44
378.125	111.44
378.35	101.44
378.576	97.44
378.802	104.44
379.027	101.44
379.253	97.44
379.478	105.44
379.704	113.44
379.929	120.44
380.155	114.44
380.38	102.44
380.606	120.44
380.831	100.44
381.057	106.44
381.282	122.44
381.507	113.44
381.733	121.44
381.958	118.44
382.184	129.44
382.409	145.44
382.634	140.44
382.86	130.44
383.085	119.44
383.31	152.44
383.535	154.44
383.761	136.44
383.986	113.44
384.211	142.44
384.436	135.44
384.662	158.44
384.887	137.44
385.112	145.44
385.337	163.44
385.562	162.44
385.787	152.44
386.013	155.44
386.238	175.44
386.463	150.44
386.688	148.44
386.913	158.44
387.138	169.44
387.363	145.44
387.588	126.44
387.813	142.44
388.038	154.44
388.263	180.44
388.488	164.44
388.713	113.44
388.938	94.44
389.163	93.44
389.387	105.44
389.612	100.44
389.837	100.44
390.062	102.44
390.287	92.44
390.512	94.44
390.736	94.44
390.961	90.44
391.186	82.44
391.411	99.44
391.636	79.44
391.86	89.44
392.085	87.44
392.31	79.44
392.534	94.44
392.759	96.44
392.984	91.44
393.208	116.44
393.433	139.44
393.658	116.44
393.882	98.44
394.107	95.44
394.331	95.44
394.556	75.44
394.78	98.44
395.005	99.44
395.229	108.44
395.454	90.44
395.678	94.44
395.903	93.44
396.127	94.44
396.352	89.44
396.576	86.44
396.801	104.44
397.025	118.44
397.249	93.44
397.474	94.44
397.698	89.44
397.922	93.44
398.147	108.44
398.371	102.44
398.595	78.44
398.82	75.44
399.044	94.44
399.268	76.44
399.492	84.44
399.717	108.44
399.941	88.44
400.165	108.44
400.389	88.44
400.613	97.44
400.837	91.44
401.062	89.44
401.286	95.44
401.51	100.44
401.734	93.44
401.958	108.44
402.182	147.44
402.406	198.44
402.63	139.44
402.854	101.44
403.078	85.44
403.302	94.44
403.526	100.44
403.75	95.44
403.974	81.44
404.198	87.44
404.422	95.44
404.645	94.44
404.869	92.44
405.093	100.44
405.317	99.44
405.541	99.44
405.765	115.44
405.988	147.44
406.212	234.44
406.436	317.44
406.66	193.44
406.883	111.44
407.107	111.44
407.331	91.44
407.555	102.44
407.778	118.44
408.002	93.44
408.226	92.44
408.449	93.44
408.673	92.44
408.896	99.44
409.12	87.44
409.344	101.44
409.567	80.44
409.791	82.44
410.014	97.44
410.238	97.44
410.461	90.44
410.685	99.44
410.908	97.44
411.132	116.44
411.355	117.44
411.578	95.44
411.802	117.44
412.025	89.44
412.249	95.44
412.472	93.44
412.695	99.44
412.919	101.44
413.142	108.44
413.365	100.44
413.589	98.44
413.812	92.44
414.035	114.44
414.258	103.44
414.482	101.44
414.705	90.44
414.928	105.44
415.151	92.44
415.374	92.44
415.597	104.44
415.821	87.44
416.044	99.44
416.267	99.44
416.49	81.44
416.713	94.44
416.936	105.44
417.159	94.44
417.382	95.44
417.605	88.44
417.828	106.44
418.051	106.44
418.274	92.44
418.497	95.44
418.72	83.44
418.943	95.44
419.166	99.44
419.389	94.44
419.611	102.44
419.834	94.44
420.057	88.44
420.28	90.44
420.503	88.44
420.726	100.44
420.948	93.44
421.171	103.44
421.394	97.44
421.617	92.44
421.839	82.44
422.062	84.44
422.285	90.44
422.507	109.44
422.73	128.44
422.953	111.44
423.175	85.44
423.398	79.44
423.621	96.44
423.843	98.44
424.066	92.44
424.288	89.44
424.511	99.44
424.733	90.44
424.956	104.44
425.178	106.44
425.401	99.44
425.623	102.44
425.846	115.44
426.068	105.44
426.291	117.44
426.513	94.44
426.735	94.44
426.958	92.44
427.18	118.44
427.402	143.44
427.625	209.44
427.847	150.44
428.069	105.44
428.292	107.44
428.514	89.44
428.736	83.44
428.958	80.44
429.181	99.44
429.403	104.44
429.625	86.44
429.847	97.44
430.069	98.44
430.292	89.44
430.514	92.44
430.736	94.44
430.958	85.44
431.18	70.44
431.402	96.44
431.624	88.44
431.846	82.44
432.068	79.44
432.29	92.44
432.512	104.44
432.734	79.44
432.956	99.44
433.178	105.44
433.4	102.44
433.622	97.44
433.844	98.44
434.066	89.44
434.287	100.44
434.509	96.44
434.731	100.44
434.953	97.44
435.175	82.44
435.397	105.44
435.618	93.44
435.84	104.44
436.062	136.44
436.284	134.44
436.505	115.44
436.727	106.44
436.949	85.44
437.17	82.44
437.392	87.44
437.614	94.44
437.835	125.44
438.057	110.44
438.278	102.44
438.5	100.44
438.721	126.44
438.943	101.44
439.165	98.44
439.386	95.44
439.608	97.44
439.829	100.44
440.05	132.44
440.272	157.44
440.493	116.44
440.715	99.44
440.936	86.44
441.158	83.44
441.379	85.44
441.6	114.44
441.822	97.44
442.043	101.44
442.264	88.44
442.486	102.44
442.707	92.44
442.928	120.44
443.149	160.44
443.371	166.44
443.592	129.44
443.813	117.44
444.034	98.44
444.255	87.44
444.476	89.44
444.698	99.44
444.919	88.44
445.14	130.44
445.361	154.44
445.582	135.44
445.803	172.44
446.024	157.44
446.245	137.44
446.466	136.44
446.687	92.44
446.908	85.44
447.129	84.44
447.35	96.44
447.571	92.44
447.792	94.44
448.013	107.44
448.234	131.44
448.455	107.44
448.675	113.44
448.896	127.44
449.117	121.44
449.338	120.44
449.559	135.44
449.779	133.44
450	93.44
450.221	102.44
450.442	98.44
450.662	106.44
450.883	126.44
451.104	120.44
451.324	105.44
451.545	85.44
451.766	95.44
451.986	67.44
452.207	104.44
452.428	104.44
452.648	107.44
452.869	134.44
453.089	136.44
453.31	135.44
453.53	84.44
453.751	90.44
453.971	121.44
454.192	136.44
454.412	101.44
454.633	79.44
454.853	88.44
455.073	102.44
455.294	87.44
455.514	99.44
455.734	90.44
455.955	93.44
456.175	85.44
456.395	99.44
456.616	88.44
456.836	91.44
457.056	86.44
457.276	82.44
457.497	94.44
457.717	87.44
457.937	93.44
458.157	77.44
458.377	82.44
458.598	118.44
458.818	192.44
459.038	211.44
459.258	133.44
459.478	102.44
459.698	100.44
459.918	92.44
460.138	88.44
460.358	94.44
460.578	90.44
460.798	94.44
461.018	90.44
461.238	96.44
461.458	89.44
461.678	94.44
461.898	100.44
462.118	94.44
462.338	92.44
462.558	85.44
462.777	73.44
462.997	93.44
463.217	91.44
463.437	99.44
463.657	102.44
463.876	108.44
464.096	88.44
464.316	100.44
464.536	95.44
464.755	116.44
464.975	115.44
465.195	215.44
465.414	205.44
465.634	86.44
465.854	89.44
466.073	104.44
466.293	90.44
466.512	81.44
466.732	65.44
466.951	87.44
467.171	87.44
467.391	114.44
467.61	103.44
467.829	105.44
468.049	99.44
468.268	105.44
468.488	83.44
468.707	85.44
468.927	84.44
469.146	92.44
469.365	79.44
469.585	85.44
469.804	105.44
470.023	114.44
470.243	92.44
470.462	103.44
470.681	137.44
470.901	87.44
471.12	97.44
471.339	92.44
471.558	82.44
471.777	84.44
471.997	86.44
472.216	73.44
472.435	98.44
472.654	77.44
472.873	104.44
473.092	97.44
473.311	75.44
473.53	86.44
473.749	84.44
473.968	99.44
474.187	95.44
474.406	90.44
474.625	97.44
474.844	94.44
475.063	83.44
475.282	99.44
475.501	102.44
475.72	99.44
475.939	87.44
476.158	93.44
476.377	100.44
476.596	99.44
476.814	86.44
477.033	101.44
477.252	101.44
477.471	84.44
477.69	80.44
477.908	95.44
478.127	96.44
478.346	100.44
478.564	112.44
478.783	106.44
479.002	102.44
479.22	106.44
479.439	101.44
479.658	97.44
479.876	100.44
480.095	104.44
480.313	95.44
480.532	97.44
480.751	97.44
480.969	92.44
481.188	111.44
481.406	95.44
481.624	87.44
481.843	92.44
482.061	76.44
482.28	96.44
482.498	77.44
482.717	88.44
482.935	93.44
483.153	98.44
483.372	82.44
483.59	98.44
483.808	90.44
484.027	93.44
484.245	91.44
484.463	90.44
484.681	107.44
484.9	100.44
485.118	100.44
485.336	97.44
485.554	110.44
485.772	110.44
485.99	124.44
486.209	123.44
486.427	129.44
486.645	134.44
486.863	134.44
487.081	103.44
487.299	91.44
487.517	121.44
487.735	80.44
487.953	111.44
488.171	103.44
488.389	100.44
488.607	122.44
488.825	118.44
489.043	86.44
489.261	84.44
489.479	93.44
489.696	95.44
489.914	95.44
490.132	92.44
490.35	93.44
490.568	86.44
490.786	88.44
491.003	102.44
491.221	81.44
491.439	100.44
491.657	91.44
491.874	87.44
492.092	96.44
492.31	84.44
492.527	76.44
492.745	90.44
492.963	84.44
493.18	94.44
493.398	87.44
493.615	99.44
493.833	99.44
494.05	93.44
494.268	93.44
494.485	77.44
494.703	95.44
494.92	81.44
495.138	87.44
495.355	97.44
495.573	98.44
495.79	89.44
496.008	106.44
496.225	103.44
496.442	78.44
496.66	91.44
496.877	90.44
497.094	80.44
497.312	102.44
497.529	109.44
497.746	95.44
497.963	102.44
498.181	87.44
498.398	94.44
498.615	138.44
498.832	99.44
499.049	97.44
499.267	98.44
499.484	91.44
499.701	94.44
499.918	103.44
500.135	103.44
500.352	92.44
500.569	68.44
500.786	95.44
501.003	99.44
501.22	97.44
501.437	91.44
501.654	100.44
501.871	119.44
502.088	92.44
502.305	101.44
502.522	96.44
502.739	89.44
502.956	102.44
503.172	104.44
503.389	95.44
503.606	123.44
503.823	88.44
504.04	91.44
504.256	102.44
504.473	81.44
504.69	92.44
504.907	88.44
505.123	90.44
505.34	90.44
505.557	85.44
505.773	92.44
505.99	87.44
506.207	92.44
506.423	90.44
506.64	78.44
506.856	88.44
507.073	84.44
507.289	98.44
507.506	107.44
507.722	122.44
507.939	118.44
508.155	102.44
508.372	103.44
508.588	99.44
508.805	92.44
509.021	98.44
509.238	110.44
509.454	107.44
509.67	105.44
509.887	114.44
510.103	138.44
510.319	281.44
510.536	1059.44
510.752	3742.44
510.968	997.44
511.184	193.44
511.401	145.44
511.617	107.44
511.833	108.44
512.049	100.44
512.265	96.44
512.481	89.44
512.698	106.44
512.914	104.44
513.13	102.44
