Data from Circ_2016_H10_HRD10591_00083.txt Node
Date: Wed Jan 03 09:58:57 EST 2024
User: Yrep
Spectrometer: HR+D1059
Trigger mode: 1
Integration Time (sec): 1.000000E-1
Scans to average: 1
Electric dark correction enabled: true
Nonlinearity correction enabled: false
Boxcar width: 0
XAxis mode: Wavelengths
Number of Pixels in Spectrum: 2048
>>>>>Begin Spectral Data<<<<<
223.165	-7.69
223.4	-7.69
223.635	-7.69
223.869	-7.69
224.104	-26.69
224.338	-2.69
224.573	-9.69
224.808	-25.69
225.042	-17.69
225.277	-5.69
225.511	-3.69
225.746	-7.69
225.98	12.31
226.215	14.31
226.449	7.31
226.683	24.31
226.918	17.31
227.152	39.31
227.387	44.31
227.621	42.31
227.856	40.31
228.09	41.31
228.324	54.31
228.559	55.31
228.793	38.31
229.027	62.31
229.262	52.31
229.496	66.31
229.73	82.31
229.964	79.31
230.199	67.31
230.433	85.31
230.667	87.31
230.901	87.31
231.136	87.31
231.37	81.31
231.604	84.31
231.838	81.31
232.072	76.31
232.306	86.31
232.541	86.31
232.775	84.31
233.009	77.31
233.243	89.31
233.477	78.31
233.711	82.31
233.945	78.31
234.179	75.31
234.413	85.31
234.647	90.31
234.881	82.31
235.115	75.31
235.349	84.31
235.583	86.31
235.817	82.31
236.051	73.31
236.285	77.31
236.519	62.31
236.753	78.31
236.987	82.31
237.221	79.31
237.455	77.31
237.689	87.31
237.922	80.31
238.156	75.31
238.39	92.31
238.624	81.31
238.858	79.31
239.091	70.31
239.325	90.31
239.559	66.31
239.793	85.31
240.027	75.31
240.26	71.31
240.494	82.31
240.728	82.31
240.961	72.31
241.195	67.31
241.429	84.31
241.662	75.31
241.896	61.31
242.13	83.31
242.363	86.31
242.597	80.31
242.83	89.31
243.064	75.31
243.298	74.31
243.531	89.31
243.765	78.31
243.998	85.31
244.232	81.31
244.465	91.31
244.699	89.31
244.932	69.31
245.166	69.31
245.399	79.31
245.633	78.31
245.866	68.31
246.099	79.31
246.333	88.31
246.566	84.31
246.8	85.31
247.033	89.31
247.266	74.31
247.5	82.31
247.733	73.31
247.966	83.31
248.2	84.31
248.433	76.31
248.666	84.31
248.899	87.31
249.133	71.31
249.366	93.31
249.599	97.31
249.832	83.31
250.066	95.31
250.299	88.31
250.532	89.31
250.765	77.31
250.998	83.31
251.231	81.31
251.465	80.31
251.698	66.31
251.931	73.31
252.164	78.31
252.397	73.31
252.63	74.31
252.863	76.31
253.096	72.31
253.329	81.31
253.562	87.31
253.795	72.31
254.028	82.31
254.261	75.31
254.494	76.31
254.727	77.31
254.96	76.31
255.193	85.31
255.426	82.31
255.659	76.31
255.892	80.31
256.124	74.31
256.357	87.31
256.59	67.31
256.823	96.31
257.056	78.31
257.289	82.31
257.521	77.31
257.754	78.31
257.987	85.31
258.22	75.31
258.452	61.31
258.685	75.31
258.918	82.31
259.151	82.31
259.383	97.31
259.616	78.31
259.849	79.31
260.081	85.31
260.314	73.31
260.547	89.31
260.779	89.31
261.012	96.31
261.244	74.31
261.477	94.31
261.71	78.31
261.942	111.31
262.175	116.31
262.407	88.31
262.64	89.31
262.872	75.31
263.105	75.31
263.337	95.31
263.57	86.31
263.802	84.31
264.035	86.31
264.267	78.31
264.499	83.31
264.732	79.31
264.964	82.31
265.197	75.31
265.429	88.31
265.661	75.31
265.894	81.31
266.126	82.31
266.358	100.31
266.591	85.31
266.823	78.31
267.055	83.31
267.287	75.31
267.52	85.31
267.752	91.31
267.984	90.31
268.216	74.31
268.448	85.31
268.681	69.31
268.913	87.31
269.145	83.31
269.377	91.31
269.609	84.31
269.841	92.31
270.073	90.31
270.306	82.31
270.538	92.31
270.77	68.31
271.002	96.31
271.234	80.31
271.466	82.31
271.698	77.31
271.93	87.31
272.162	82.31
272.394	84.31
272.626	93.31
272.858	95.31
273.09	98.31
273.322	71.31
273.553	88.31
273.785	75.31
274.017	73.31
274.249	82.31
274.481	92.31
274.713	84.31
274.945	67.31
275.176	82.31
275.408	97.31
275.64	83.31
275.872	79.31
276.104	91.31
276.335	85.31
276.567	96.31
276.799	101.31
277.031	119.31
277.262	83.31
277.494	99.31
277.726	68.31
277.957	78.31
278.189	86.31
278.421	80.31
278.652	84.31
278.884	83.31
279.115	80.31
279.347	102.31
279.579	92.31
279.81	86.31
280.042	94.31
280.273	93.31
280.505	78.31
280.736	87.31
280.968	84.31
281.199	89.31
281.431	84.31
281.662	77.31
281.894	91.31
282.125	102.31
282.356	112.31
282.588	136.31
282.819	116.31
283.051	97.31
283.282	84.31
283.513	97.31
283.745	108.31
283.976	98.31
284.207	97.31
284.439	86.31
284.67	90.31
284.901	80.31
285.132	94.31
285.364	82.31
285.595	81.31
285.826	72.31
286.057	104.31
286.288	91.31
286.52	82.31
286.751	92.31
286.982	91.31
287.213	92.31
287.444	89.31
287.675	83.31
287.906	81.31
288.138	97.31
288.369	84.31
288.6	81.31
288.831	90.31
289.062	95.31
289.293	75.31
289.524	70.31
289.755	78.31
289.986	86.31
290.217	97.31
290.448	75.31
290.679	75.31
290.91	85.31
291.141	66.31
291.371	74.31
291.602	88.31
291.833	96.31
292.064	80.31
292.295	92.31
292.526	80.31
292.757	90.31
292.987	91.31
293.218	85.31
293.449	89.31
293.68	84.31
293.91	84.31
294.141	86.31
294.372	89.31
294.603	80.31
294.833	80.31
295.064	91.31
295.295	98.31
295.525	85.31
295.756	113.31
295.987	119.31
296.217	137.31
296.448	120.31
296.679	99.31
296.909	87.31
297.14	89.31
297.37	89.31
297.601	87.31
297.831	88.31
298.062	84.31
298.292	94.31
298.523	89.31
298.753	85.31
298.984	74.31
299.214	77.31
299.445	100.31
299.675	93.31
299.905	94.31
300.136	98.31
300.366	88.31
300.597	86.31
300.827	101.31
301.057	107.31
301.288	103.31
301.518	83.31
301.748	91.31
301.979	89.31
302.209	94.31
302.439	90.31
302.669	86.31
302.9	77.31
303.13	84.31
303.36	87.31
303.59	101.31
303.82	93.31
304.051	88.31
304.281	84.31
304.511	79.31
304.741	77.31
304.971	87.31
305.201	92.31
305.431	92.31
305.661	93.31
305.891	87.31
306.121	98.31
306.352	100.31
306.582	100.31
306.812	103.31
307.042	90.31
307.272	107.31
307.502	94.31
307.731	83.31
307.961	101.31
308.191	94.31
308.421	87.31
308.651	85.31
308.881	98.31
309.111	95.31
309.341	90.31
309.571	100.31
309.8	88.31
310.03	107.31
310.26	107.31
310.49	94.31
310.72	88.31
310.949	122.31
311.179	92.31
311.409	76.31
311.639	87.31
311.868	89.31
312.098	84.31
312.328	97.31
312.557	96.31
312.787	97.31
313.017	97.31
313.246	107.31
313.476	95.31
313.706	87.31
313.935	103.31
314.165	94.31
314.394	99.31
314.624	92.31
314.853	99.31
315.083	99.31
315.312	75.31
315.542	76.31
315.771	103.31
316.001	89.31
316.23	94.31
316.46	82.31
316.689	87.31
316.919	83.31
317.148	96.31
317.377	88.31
317.607	81.31
317.836	84.31
318.065	97.31
318.295	83.31
318.524	84.31
318.753	94.31
318.983	98.31
319.212	115.31
319.441	109.31
319.67	110.31
319.9	92.31
320.129	90.31
320.358	83.31
320.587	92.31
320.816	98.31
321.046	105.31
321.275	92.31
321.504	99.31
321.733	111.31
321.962	96.31
322.191	94.31
322.42	108.31
322.649	108.31
322.878	128.31
323.108	129.31
323.337	137.31
323.566	141.31
323.795	157.31
324.024	208.31
324.253	412.31
324.482	855.31
324.71	1789.31
324.939	2342.31
325.168	862.31
325.397	241.31
325.626	158.31
325.855	126.31
326.084	130.31
326.313	131.31
326.542	170.31
326.77	236.31
326.999	477.31
327.228	1003.31
327.457	1843.31
327.686	1407.31
327.914	386.31
328.143	210.31
328.372	161.31
328.6	143.31
328.829	121.31
329.058	134.31
329.287	121.31
329.515	111.31
329.744	114.31
329.972	112.31
330.201	141.31
330.43	162.31
330.658	136.31
330.887	134.31
331.115	119.31
331.344	105.31
331.572	104.31
331.801	90.31
332.03	88.31
332.258	95.31
332.486	96.31
332.715	87.31
332.943	101.31
333.172	96.31
333.4	96.31
333.629	97.31
333.857	117.31
334.085	110.31
334.314	147.31
334.542	191.31
334.771	181.31
334.999	115.31
335.227	103.31
335.455	79.31
335.684	88.31
335.912	92.31
336.14	97.31
336.369	96.31
336.597	88.31
336.825	77.31
337.053	89.31
337.281	87.31
337.51	86.31
337.738	105.31
337.966	93.31
338.194	88.31
338.422	90.31
338.65	92.31
338.878	88.31
339.106	93.31
339.334	98.31
339.562	89.31
339.79	94.31
340.018	74.31
340.246	87.31
340.474	92.31
340.702	91.31
340.93	83.31
341.158	88.31
341.386	85.31
341.614	79.31
341.842	85.31
342.07	76.31
342.298	72.31
342.526	97.31
342.754	91.31
342.981	101.31
343.209	83.31
343.437	93.31
343.665	89.31
343.893	79.31
344.12	85.31
344.348	94.31
344.576	95.31
344.804	102.31
345.031	77.31
345.259	84.31
345.487	97.31
345.714	86.31
345.942	98.31
346.17	91.31
346.397	93.31
346.625	85.31
346.853	98.31
347.08	85.31
347.308	96.31
347.535	101.31
347.763	96.31
347.99	97.31
348.218	109.31
348.445	90.31
348.673	106.31
348.9	105.31
349.128	96.31
349.355	87.31
349.583	112.31
349.81	82.31
350.037	90.31
350.265	98.31
350.492	84.31
350.72	96.31
350.947	94.31
351.174	105.31
351.402	104.31
351.629	100.31
351.856	100.31
352.083	107.31
352.311	126.31
352.538	109.31
352.765	120.31
352.992	116.31
353.22	107.31
353.447	101.31
353.674	114.31
353.901	95.31
354.128	90.31
354.355	94.31
354.583	102.31
354.81	80.31
355.037	97.31
355.264	88.31
355.491	99.31
355.718	93.31
355.945	96.31
356.172	101.31
356.399	108.31
356.626	92.31
356.853	98.31
357.08	91.31
357.307	97.31
357.534	90.31
357.761	75.31
357.988	101.31
358.215	104.31
358.441	86.31
358.668	102.31
358.895	77.31
359.122	80.31
359.349	78.31
359.576	102.31
359.802	94.31
360.029	112.31
360.256	110.31
360.483	89.31
360.709	95.31
360.936	89.31
361.163	87.31
361.39	87.31
361.616	92.31
361.843	88.31
362.07	101.31
362.296	108.31
362.523	95.31
362.749	87.31
362.976	91.31
363.203	87.31
363.429	89.31
363.656	90.31
363.882	95.31
364.109	92.31
364.335	95.31
364.562	91.31
364.788	95.31
365.015	85.31
365.241	88.31
365.468	118.31
365.694	98.31
365.92	98.31
366.147	89.31
366.373	94.31
366.599	82.31
366.826	88.31
367.052	88.31
367.278	90.31
367.505	85.31
367.731	104.31
367.957	84.31
368.184	104.31
368.41	95.31
368.636	104.31
368.862	111.31
369.089	99.31
369.315	98.31
369.541	89.31
369.767	87.31
369.993	88.31
370.219	90.31
370.445	89.31
370.672	98.31
370.898	85.31
371.124	88.31
371.35	89.31
371.576	90.31
371.802	68.31
372.028	83.31
372.254	94.31
372.48	100.31
372.706	96.31
372.932	90.31
373.158	97.31
373.384	95.31
373.61	88.31
373.835	82.31
374.061	87.31
374.287	97.31
374.513	101.31
374.739	93.31
374.965	96.31
375.191	93.31
375.416	99.31
375.642	80.31
375.868	97.31
376.094	76.31
376.319	85.31
376.545	82.31
376.771	88.31
376.997	93.31
377.222	97.31
377.448	91.31
377.674	96.31
377.899	87.31
378.125	99.31
378.35	96.31
378.576	89.31
378.802	89.31
379.027	90.31
379.253	94.31
379.478	96.31
379.704	107.31
379.929	100.31
380.155	89.31
380.38	97.31
380.606	93.31
380.831	104.31
381.057	104.31
381.282	110.31
381.507	98.31
381.733	90.31
381.958	103.31
382.184	97.31
382.409	94.31
382.634	92.31
382.86	98.31
383.085	103.31
383.31	99.31
383.535	93.31
383.761	105.31
383.986	99.31
384.211	78.31
384.436	103.31
384.662	97.31
384.887	101.31
385.112	94.31
385.337	107.31
385.562	115.31
385.787	113.31
386.013	107.31
386.238	116.31
386.463	123.31
386.688	118.31
386.913	96.31
387.138	109.31
387.363	105.31
387.588	93.31
387.813	89.31
388.038	105.31
388.263	113.31
388.488	113.31
388.713	99.31
388.938	85.31
389.163	95.31
389.387	97.31
389.612	100.31
389.837	93.31
390.062	95.31
390.287	95.31
390.512	101.31
390.736	86.31
390.961	99.31
391.186	96.31
391.411	97.31
391.636	91.31
391.86	88.31
392.085	92.31
392.31	73.31
392.534	101.31
392.759	92.31
392.984	90.31
393.208	99.31
393.433	103.31
393.658	88.31
393.882	80.31
394.107	79.31
394.331	73.31
394.556	89.31
394.78	70.31
395.005	86.31
395.229	91.31
395.454	93.31
395.678	92.31
395.903	85.31
396.127	78.31
396.352	87.31
396.576	96.31
396.801	88.31
397.025	99.31
397.249	83.31
397.474	76.31
397.698	84.31
397.922	90.31
398.147	98.31
398.371	86.31
398.595	88.31
398.82	83.31
399.044	91.31
399.268	81.31
399.492	79.31
399.717	93.31
399.941	91.31
400.165	77.31
400.389	100.31
400.613	85.31
400.837	93.31
401.062	82.31
401.286	99.31
401.51	86.31
401.734	88.31
401.958	89.31
402.182	131.31
402.406	176.31
402.63	130.31
402.854	100.31
403.078	97.31
403.302	93.31
403.526	94.31
403.75	86.31
403.974	93.31
404.198	90.31
404.422	94.31
404.645	87.31
404.869	91.31
405.093	97.31
405.317	98.31
405.541	105.31
405.765	100.31
405.988	112.31
406.212	177.31
406.436	220.31
406.66	164.31
406.883	107.31
407.107	89.31
407.331	96.31
407.555	89.31
407.778	91.31
408.002	107.31
408.226	105.31
408.449	96.31
408.673	101.31
408.896	93.31
409.12	93.31
409.344	82.31
409.567	88.31
409.791	91.31
410.014	78.31
410.238	94.31
410.461	101.31
410.685	84.31
410.908	98.31
411.132	104.31
411.355	93.31
411.578	91.31
411.802	82.31
412.025	102.31
412.249	80.31
412.472	92.31
412.695	102.31
412.919	94.31
413.142	93.31
413.365	70.31
413.589	85.31
413.812	99.31
414.035	91.31
414.258	91.31
414.482	98.31
414.705	81.31
414.928	83.31
415.151	86.31
415.374	82.31
415.597	100.31
415.821	99.31
416.044	83.31
416.267	98.31
416.49	85.31
416.713	91.31
416.936	87.31
417.159	89.31
417.382	76.31
417.605	101.31
417.828	88.31
418.051	103.31
418.274	81.31
418.497	81.31
418.72	86.31
418.943	77.31
419.166	84.31
419.389	95.31
419.611	98.31
419.834	93.31
420.057	103.31
420.28	93.31
420.503	81.31
420.726	84.31
420.948	90.31
421.171	97.31
421.394	100.31
421.617	92.31
421.839	91.31
422.062	91.31
422.285	91.31
422.507	98.31
422.73	101.31
422.953	103.31
423.175	97.31
423.398	97.31
423.621	96.31
423.843	87.31
424.066	87.31
424.288	72.31
424.511	78.31
424.733	91.31
424.956	112.31
425.178	102.31
425.401	105.31
425.623	101.31
425.846	87.31
426.068	99.31
426.291	90.31
426.513	92.31
426.735	95.31
426.958	101.31
427.18	104.31
427.402	146.31
427.625	168.31
427.847	141.31
428.069	119.31
428.292	82.31
428.514	88.31
428.736	83.31
428.958	94.31
429.181	90.31
429.403	98.31
429.625	93.31
429.847	91.31
430.069	86.31
430.292	94.31
430.514	98.31
430.736	89.31
430.958	96.31
431.18	89.31
431.402	100.31
431.624	92.31
431.846	91.31
432.068	106.31
432.29	79.31
432.512	96.31
432.734	106.31
432.956	95.31
433.178	99.31
433.4	88.31
433.622	76.31
433.844	93.31
434.066	89.31
434.287	78.31
434.509	108.31
434.731	95.31
434.953	92.31
435.175	87.31
435.397	90.31
435.618	97.31
435.84	110.31
436.062	116.31
436.284	116.31
436.505	102.31
436.727	111.31
436.949	103.31
437.17	93.31
437.392	102.31
437.614	94.31
437.835	100.31
438.057	105.31
438.278	96.31
438.5	101.31
438.721	142.31
438.943	105.31
439.165	78.31
439.386	77.31
439.608	90.31
439.829	87.31
440.05	117.31
440.272	130.31
440.493	105.31
440.715	82.31
440.936	90.31
441.158	81.31
441.379	88.31
441.6	83.31
441.822	87.31
442.043	86.31
442.264	108.31
442.486	100.31
442.707	89.31
442.928	108.31
443.149	123.31
443.371	128.31
443.592	101.31
443.813	99.31
444.034	100.31
444.255	89.31
444.476	86.31
444.698	88.31
444.919	90.31
445.14	136.31
445.361	126.31
445.582	116.31
445.803	151.31
446.024	136.31
446.245	144.31
446.466	107.31
446.687	94.31
446.908	76.31
447.129	87.31
447.35	106.31
447.571	94.31
447.792	93.31
448.013	106.31
448.234	99.31
448.455	95.31
448.675	114.31
448.896	119.31
449.117	107.31
449.338	104.31
449.559	137.31
449.779	133.31
450	92.31
450.221	83.31
450.442	88.31
450.662	88.31
450.883	100.31
451.104	119.31
451.324	97.31
451.545	86.31
451.766	91.31
451.986	89.31
452.207	94.31
452.428	109.31
452.648	88.31
452.869	107.31
453.089	114.31
453.31	109.31
453.53	101.31
453.751	99.31
453.971	94.31
454.192	114.31
454.412	89.31
454.633	86.31
454.853	85.31
455.073	86.31
455.294	98.31
455.514	82.31
455.734	84.31
455.955	91.31
456.175	86.31
456.395	75.31
456.616	68.31
456.836	80.31
457.056	88.31
457.276	82.31
457.497	87.31
457.717	80.31
457.937	86.31
458.157	92.31
458.377	82.31
458.598	101.31
458.818	140.31
459.038	150.31
459.258	123.31
459.478	108.31
459.698	85.31
459.918	93.31
460.138	77.31
460.358	87.31
460.578	98.31
460.798	73.31
461.018	85.31
461.238	71.31
461.458	89.31
461.678	80.31
461.898	86.31
462.118	100.31
462.338	90.31
462.558	96.31
462.777	76.31
462.997	84.31
463.217	94.31
463.437	106.31
463.657	88.31
463.876	77.31
464.096	86.31
464.316	95.31
464.536	98.31
464.755	101.31
464.975	101.31
465.195	165.31
465.414	169.31
465.634	103.31
465.854	85.31
466.073	92.31
466.293	73.31
466.512	87.31
466.732	90.31
466.951	87.31
467.171	97.31
467.391	81.31
467.61	95.31
467.829	101.31
468.049	125.31
468.268	120.31
468.488	92.31
468.707	90.31
468.927	88.31
469.146	94.31
469.365	91.31
469.585	90.31
469.804	95.31
470.023	98.31
470.243	93.31
470.462	98.31
470.681	132.31
470.901	101.31
471.12	91.31
471.339	88.31
471.558	82.31
471.777	78.31
471.997	100.31
472.216	142.31
472.435	222.31
472.654	128.31
472.873	100.31
473.092	93.31
473.311	89.31
473.53	85.31
473.749	85.31
473.968	90.31
474.187	97.31
474.406	89.31
474.625	88.31
474.844	69.31
475.063	85.31
475.282	85.31
475.501	76.31
475.72	88.31
475.939	76.31
476.158	90.31
476.377	78.31
476.596	82.31
476.814	93.31
477.033	95.31
477.252	84.31
477.471	82.31
477.69	91.31
477.908	89.31
478.127	87.31
478.346	99.31
478.564	77.31
478.783	113.31
479.002	104.31
479.22	97.31
479.439	105.31
479.658	114.31
479.876	93.31
480.095	89.31
480.313	107.31
480.532	91.31
480.751	96.31
480.969	142.31
481.188	318.31
481.406	230.31
481.624	104.31
481.843	91.31
482.061	92.31
482.28	96.31
482.498	91.31
482.717	93.31
482.935	103.31
483.153	78.31
483.372	87.31
483.59	86.31
483.808	94.31
484.027	94.31
484.245	104.31
484.463	97.31
484.681	111.31
484.9	94.31
485.118	104.31
485.336	76.31
485.554	98.31
485.772	105.31
485.99	117.31
486.209	106.31
486.427	118.31
486.645	122.31
486.863	105.31
487.081	108.31
487.299	111.31
487.517	101.31
487.735	94.31
487.953	81.31
488.171	83.31
488.389	83.31
488.607	103.31
488.825	110.31
489.043	99.31
489.261	113.31
489.479	99.31
489.696	92.31
489.914	91.31
490.132	86.31
490.35	100.31
490.568	87.31
490.786	97.31
491.003	86.31
491.221	92.31
491.439	84.31
491.657	93.31
491.874	95.31
492.092	86.31
492.31	82.31
492.527	90.31
492.745	87.31
492.963	98.31
493.18	98.31
493.398	86.31
493.615	97.31
493.833	90.31
494.05	93.31
494.268	93.31
494.485	82.31
494.703	88.31
494.92	85.31
495.138	82.31
495.355	105.31
495.573	99.31
495.79	92.31
496.008	86.31
496.225	95.31
496.442	88.31
496.66	76.31
496.877	103.31
497.094	103.31
497.312	86.31
497.529	80.31
497.746	88.31
497.963	82.31
498.181	101.31
498.398	106.31
498.615	104.31
498.832	83.31
499.049	85.31
499.267	82.31
499.484	96.31
499.701	89.31
499.918	77.31
500.135	96.31
500.352	89.31
500.569	96.31
500.786	99.31
501.003	94.31
501.22	82.31
501.437	103.31
501.654	103.31
501.871	84.31
502.088	85.31
502.305	87.31
502.522	106.31
502.739	91.31
502.956	103.31
503.172	89.31
503.389	93.31
503.606	100.31
503.823	94.31
504.04	114.31
504.256	105.31
504.473	99.31
504.69	96.31
504.907	116.31
505.123	96.31
505.34	75.31
505.557	82.31
505.773	89.31
505.99	78.31
506.207	91.31
506.423	88.31
506.64	98.31
506.856	90.31
507.073	97.31
507.289	91.31
507.506	99.31
507.722	120.31
507.939	118.31
508.155	100.31
508.372	96.31
508.588	97.31
508.805	92.31
509.021	88.31
509.238	109.31
509.454	89.31
509.67	89.31
509.887	103.31
510.103	135.31
510.319	228.31
510.536	770.31
510.752	2554.31
510.968	722.31
511.184	154.31
511.401	103.31
511.617	83.31
511.833	102.31
512.049	103.31
512.265	86.31
512.481	100.31
512.698	93.31
512.914	98.31
513.13	103.31
513.346	91.31
513.562	103.31
513.778	99.31
513.994	112.31
514.21	102.31
514.426	107.31
514.642	119.31
514.858	120.31
515.074	169.31
515.29	450.31
515.506	1505.31
