Data from Circ_2016_H10_HRD10591_00004.txt Node
Date: Wed Jan 03 09:58:41 EST 2024
User: Yrep
Spectrometer: HR+D1059
Trigger mode: 1
Integration Time (sec): 1.000000E-1
Scans to average: 1
Electric dark correction enabled: true
Nonlinearity correction enabled: false
Boxcar width: 0
XAxis mode: Wavelengths
Number of Pixels in Spectrum: 2048
>>>>>Begin Spectral Data<<<<<
223.165	-15.06
223.4	-15.06
223.635	-15.06
223.869	-18.06
224.104	-30.06
224.338	-13.06
224.573	-20.06
224.808	-21.06
225.042	10.94
225.277	-12.06
225.511	-6.06
225.746	6.94
225.98	10.94
226.215	12.94
226.449	5.94
226.683	24.94
226.918	23.94
227.152	38.94
227.387	55.94
227.621	31.94
227.856	51.94
228.09	42.94
228.324	45.94
228.559	57.94
228.793	65.94
229.027	55.94
229.262	59.94
229.496	75.94
229.73	70.94
229.964	73.94
230.199	82.94
230.433	72.94
230.667	91.94
230.901	84.94
231.136	88.94
231.37	79.94
231.604	68.94
231.838	74.94
232.072	74.94
232.306	79.94
232.541	62.94
232.775	82.94
233.009	79.94
233.243	71.94
233.477	88.94
233.711	89.94
233.945	90.94
234.179	87.94
234.413	82.94
234.647	84.94
234.881	85.94
235.115	80.94
235.349	63.94
235.583	77.94
235.817	83.94
236.051	75.94
236.285	68.94
236.519	80.94
236.753	78.94
236.987	84.94
237.221	82.94
237.455	74.94
237.689	75.94
237.922	88.94
238.156	85.94
238.39	85.94
238.624	84.94
238.858	74.94
239.091	82.94
239.325	80.94
239.559	80.94
239.793	74.94
240.027	79.94
240.26	74.94
240.494	80.94
240.728	81.94
240.961	66.94
241.195	88.94
241.429	58.94
241.662	77.94
241.896	70.94
242.13	77.94
242.363	76.94
242.597	80.94
242.83	69.94
243.064	66.94
243.298	64.94
243.531	73.94
243.765	81.94
243.998	71.94
244.232	89.94
244.465	86.94
244.699	83.94
244.932	66.94
245.166	84.94
245.399	77.94
245.633	69.94
245.866	97.94
246.099	75.94
246.333	80.94
246.566	73.94
246.8	76.94
247.033	80.94
247.266	81.94
247.5	96.94
247.733	64.94
247.966	78.94
248.2	89.94
248.433	78.94
248.666	81.94
248.899	96.94
249.133	67.94
249.366	71.94
249.599	89.94
249.832	86.94
250.066	92.94
250.299	92.94
250.532	80.94
250.765	84.94
250.998	72.94
251.231	85.94
251.465	71.94
251.698	64.94
251.931	72.94
252.164	85.94
252.397	81.94
252.63	72.94
252.863	87.94
253.096	83.94
253.329	67.94
253.562	75.94
253.795	74.94
254.028	79.94
254.261	79.94
254.494	74.94
254.727	86.94
254.96	82.94
255.193	79.94
255.426	87.94
255.659	80.94
255.892	84.94
256.124	67.94
256.357	82.94
256.59	77.94
256.823	80.94
257.056	78.94
257.289	89.94
257.521	83.94
257.754	77.94
257.987	81.94
258.22	88.94
258.452	79.94
258.685	75.94
258.918	73.94
259.151	77.94
259.383	76.94
259.616	76.94
259.849	89.94
260.081	79.94
260.314	90.94
260.547	73.94
260.779	82.94
261.012	75.94
261.244	73.94
261.477	77.94
261.71	97.94
261.942	86.94
262.175	88.94
262.407	85.94
262.64	94.94
262.872	73.94
263.105	84.94
263.337	81.94
263.57	89.94
263.802	67.94
264.035	83.94
264.267	79.94
264.499	82.94
264.732	82.94
264.964	84.94
265.197	75.94
265.429	89.94
265.661	74.94
265.894	85.94
266.126	86.94
266.358	87.94
266.591	87.94
266.823	84.94
267.055	82.94
267.287	74.94
267.52	91.94
267.752	83.94
267.984	82.94
268.216	82.94
268.448	88.94
268.681	87.94
268.913	77.94
269.145	70.94
269.377	86.94
269.609	76.94
269.841	92.94
270.073	70.94
270.306	81.94
270.538	82.94
270.77	68.94
271.002	83.94
271.234	93.94
271.466	84.94
271.698	73.94
271.93	75.94
272.162	78.94
272.394	86.94
272.626	81.94
272.858	76.94
273.09	89.94
273.322	87.94
273.553	96.94
273.785	66.94
274.017	80.94
274.249	80.94
274.481	93.94
274.713	95.94
274.945	90.94
275.176	74.94
275.408	84.94
275.64	68.94
275.872	91.94
276.104	75.94
276.335	83.94
276.567	92.94
276.799	97.94
277.031	87.94
277.262	86.94
277.494	84.94
277.726	85.94
277.957	85.94
278.189	89.94
278.421	76.94
278.652	75.94
278.884	89.94
279.115	91.94
279.347	102.94
279.579	88.94
279.81	75.94
280.042	90.94
280.273	88.94
280.505	85.94
280.736	82.94
280.968	81.94
281.199	88.94
281.431	79.94
281.662	93.94
281.894	66.94
282.125	83.94
282.356	105.94
282.588	117.94
282.819	103.94
283.051	84.94
283.282	73.94
283.513	81.94
283.745	91.94
283.976	84.94
284.207	88.94
284.439	84.94
284.67	90.94
284.901	82.94
285.132	80.94
285.364	75.94
285.595	77.94
285.826	82.94
286.057	87.94
286.288	87.94
286.52	75.94
286.751	89.94
286.982	84.94
287.213	95.94
287.444	103.94
287.675	95.94
287.906	93.94
288.138	98.94
288.369	85.94
288.6	76.94
288.831	82.94
289.062	70.94
289.293	76.94
289.524	94.94
289.755	89.94
289.986	82.94
290.217	92.94
290.448	93.94
290.679	87.94
290.91	84.94
291.141	84.94
291.371	83.94
291.602	77.94
291.833	83.94
292.064	90.94
292.295	83.94
292.526	89.94
292.757	100.94
292.987	91.94
293.218	81.94
293.449	78.94
293.68	80.94
293.91	88.94
294.141	93.94
294.372	104.94
294.603	87.94
294.833	97.94
295.064	83.94
295.295	85.94
295.525	96.94
295.756	96.94
295.987	99.94
296.217	115.94
296.448	107.94
296.679	100.94
296.909	71.94
297.14	69.94
297.37	94.94
297.601	74.94
297.831	91.94
298.062	88.94
298.292	90.94
298.523	98.94
298.753	83.94
298.984	92.94
299.214	85.94
299.445	96.94
299.675	102.94
299.905	85.94
300.136	78.94
300.366	92.94
300.597	90.94
300.827	84.94
301.057	86.94
301.288	99.94
301.518	97.94
301.748	99.94
301.979	99.94
302.209	94.94
302.439	93.94
302.669	81.94
302.9	97.94
303.13	102.94
303.36	92.94
303.59	87.94
303.82	95.94
304.051	103.94
304.281	90.94
304.511	88.94
304.741	93.94
304.971	96.94
305.201	80.94
305.431	83.94
305.661	95.94
305.891	91.94
306.121	104.94
306.352	103.94
306.582	99.94
306.812	87.94
307.042	86.94
307.272	97.94
307.502	103.94
307.731	96.94
307.961	83.94
308.191	93.94
308.421	85.94
308.651	89.94
308.881	104.94
309.111	86.94
309.341	93.94
309.571	108.94
309.8	100.94
310.03	91.94
310.26	83.94
310.49	75.94
310.72	89.94
310.949	82.94
311.179	107.94
311.409	87.94
311.639	87.94
311.868	97.94
312.098	95.94
312.328	97.94
312.557	87.94
312.787	91.94
313.017	88.94
313.246	83.94
313.476	91.94
313.706	96.94
313.935	90.94
314.165	88.94
314.394	100.94
314.624	98.94
314.853	97.94
315.083	100.94
315.312	97.94
315.542	82.94
315.771	89.94
316.001	77.94
316.23	104.94
316.46	87.94
316.689	82.94
316.919	74.94
317.148	88.94
317.377	76.94
317.607	74.94
317.836	95.94
318.065	95.94
318.295	80.94
318.524	89.94
318.753	96.94
318.983	77.94
319.212	98.94
319.441	90.94
319.67	92.94
319.9	87.94
320.129	96.94
320.358	89.94
320.587	99.94
320.816	95.94
321.046	88.94
321.275	109.94
321.504	98.94
321.733	85.94
321.962	91.94
322.191	95.94
322.42	98.94
322.649	100.94
322.878	101.94
323.108	106.94
323.337	104.94
323.566	107.94
323.795	128.94
324.024	159.94
324.253	292.94
324.482	624.94
324.71	1229.94
324.939	1636.94
325.168	618.94
325.397	215.94
325.626	127.94
325.855	120.94
326.084	114.94
326.313	111.94
326.542	144.94
326.77	198.94
326.999	379.94
327.228	733.94
327.457	1300.94
327.686	1051.94
327.914	302.94
328.143	159.94
328.372	124.94
328.6	111.94
328.829	98.94
329.058	112.94
329.287	121.94
329.515	96.94
329.744	85.94
329.972	81.94
330.201	98.94
330.43	100.94
330.658	97.94
330.887	118.94
331.115	100.94
331.344	79.94
331.572	92.94
331.801	93.94
332.03	84.94
332.258	81.94
332.486	94.94
332.715	93.94
332.943	88.94
333.172	85.94
333.4	101.94
333.629	99.94
333.857	90.94
334.085	91.94
334.314	91.94
334.542	97.94
334.771	94.94
334.999	91.94
335.227	97.94
335.455	88.94
335.684	95.94
335.912	99.94
336.14	81.94
336.369	97.94
336.597	83.94
336.825	89.94
337.053	76.94
337.281	89.94
337.51	95.94
337.738	90.94
337.966	86.94
338.194	99.94
338.422	91.94
338.65	95.94
338.878	93.94
339.106	88.94
339.334	100.94
339.562	91.94
339.79	68.94
340.018	71.94
340.246	83.94
340.474	82.94
340.702	85.94
340.93	80.94
341.158	75.94
341.386	82.94
341.614	90.94
341.842	95.94
342.07	97.94
342.298	78.94
342.526	81.94
342.754	98.94
342.981	104.94
343.209	90.94
343.437	90.94
343.665	84.94
343.893	92.94
344.12	93.94
344.348	94.94
344.576	104.94
344.804	81.94
345.031	84.94
345.259	88.94
345.487	104.94
345.714	87.94
345.942	90.94
346.17	95.94
346.397	93.94
346.625	100.94
346.853	100.94
347.08	101.94
347.308	89.94
347.535	103.94
347.763	88.94
347.99	83.94
348.218	100.94
348.445	95.94
348.673	88.94
348.9	84.94
349.128	87.94
349.355	96.94
349.583	102.94
349.81	102.94
350.037	99.94
350.265	101.94
350.492	96.94
350.72	95.94
350.947	107.94
351.174	97.94
351.402	105.94
351.629	104.94
351.856	89.94
352.083	75.94
352.311	99.94
352.538	96.94
352.765	112.94
352.992	100.94
353.22	108.94
353.447	107.94
353.674	109.94
353.901	116.94
354.128	93.94
354.355	112.94
354.583	108.94
354.81	108.94
355.037	98.94
355.264	100.94
355.491	99.94
355.718	98.94
355.945	106.94
356.172	96.94
356.399	100.94
356.626	96.94
356.853	88.94
357.08	106.94
357.307	91.94
357.534	99.94
357.761	108.94
357.988	95.94
358.215	135.94
358.441	135.94
358.668	124.94
358.895	119.94
359.122	93.94
359.349	96.94
359.576	93.94
359.802	91.94
360.029	94.94
360.256	113.94
360.483	97.94
360.709	95.94
360.936	105.94
361.163	92.94
361.39	99.94
361.616	92.94
361.843	87.94
362.07	97.94
362.296	88.94
362.523	87.94
362.749	77.94
362.976	102.94
363.203	84.94
363.429	87.94
363.656	67.94
363.882	97.94
364.109	85.94
364.335	95.94
364.562	85.94
364.788	96.94
365.015	89.94
365.241	103.94
365.468	89.94
365.694	107.94
365.92	95.94
366.147	90.94
366.373	91.94
366.599	84.94
366.826	95.94
367.052	86.94
367.278	100.94
367.505	94.94
367.731	89.94
367.957	75.94
368.184	102.94
368.41	94.94
368.636	93.94
368.862	97.94
369.089	95.94
369.315	92.94
369.541	79.94
369.767	86.94
369.993	98.94
370.219	75.94
370.445	87.94
370.672	94.94
370.898	101.94
371.124	105.94
371.35	98.94
371.576	81.94
371.802	97.94
372.028	85.94
372.254	88.94
372.48	83.94
372.706	92.94
372.932	92.94
373.158	96.94
373.384	92.94
373.61	97.94
373.835	104.94
374.061	80.94
374.287	81.94
374.513	95.94
374.739	100.94
374.965	80.94
375.191	87.94
375.416	97.94
375.642	105.94
375.868	99.94
376.094	115.94
376.319	115.94
376.545	100.94
376.771	100.94
376.997	101.94
377.222	112.94
377.448	108.94
377.674	100.94
377.899	114.94
378.125	100.94
378.35	116.94
378.576	106.94
378.802	101.94
379.027	100.94
379.253	104.94
379.478	135.94
379.704	123.94
379.929	108.94
380.155	127.94
380.38	123.94
380.606	116.94
380.831	117.94
381.057	131.94
381.282	124.94
381.507	133.94
381.733	128.94
381.958	133.94
382.184	132.94
382.409	153.94
382.634	126.94
382.86	156.94
383.085	140.94
383.31	160.94
383.535	145.94
383.761	137.94
383.986	150.94
384.211	144.94
384.436	140.94
384.662	177.94
384.887	199.94
385.112	195.94
385.337	203.94
385.562	189.94
385.787	211.94
386.013	194.94
386.238	188.94
386.463	194.94
386.688	168.94
386.913	198.94
387.138	198.94
387.363	179.94
387.588	159.94
387.813	165.94
388.038	199.94
388.263	243.94
388.488	231.94
388.713	125.94
388.938	114.94
389.163	92.94
389.387	102.94
389.612	91.94
389.837	90.94
390.062	91.94
390.287	83.94
390.512	93.94
390.736	84.94
390.961	96.94
391.186	86.94
391.411	90.94
391.636	90.94
391.86	95.94
392.085	81.94
392.31	84.94
392.534	101.94
392.759	92.94
392.984	99.94
393.208	140.94
393.433	164.94
393.658	119.94
393.882	99.94
394.107	88.94
394.331	75.94
394.556	85.94
394.78	100.94
395.005	87.94
395.229	76.94
395.454	89.94
395.678	91.94
395.903	95.94
396.127	99.94
396.352	88.94
396.576	96.94
396.801	106.94
397.025	110.94
397.249	95.94
397.474	83.94
397.698	94.94
397.922	89.94
398.147	78.94
398.371	88.94
398.595	89.94
398.82	118.94
399.044	92.94
399.268	95.94
399.492	93.94
399.717	95.94
399.941	77.94
400.165	99.94
400.389	76.94
400.613	65.94
400.837	85.94
401.062	83.94
401.286	87.94
401.51	101.94
401.734	85.94
401.958	98.94
402.182	92.94
402.406	104.94
402.63	103.94
402.854	100.94
403.078	101.94
403.302	76.94
403.526	77.94
403.75	85.94
403.974	85.94
404.198	84.94
404.422	94.94
404.645	85.94
404.869	85.94
405.093	87.94
405.317	91.94
405.541	96.94
405.765	90.94
405.988	118.94
406.212	123.94
406.436	183.94
406.66	123.94
406.883	108.94
407.107	94.94
407.331	105.94
407.555	92.94
407.778	86.94
408.002	82.94
408.226	92.94
408.449	102.94
408.673	89.94
408.896	77.94
409.12	90.94
409.344	113.94
409.567	89.94
409.791	91.94
410.014	108.94
410.238	98.94
410.461	84.94
410.685	101.94
410.908	97.94
411.132	102.94
411.355	83.94
411.578	101.94
411.802	75.94
412.025	95.94
412.249	114.94
412.472	89.94
412.695	97.94
412.919	92.94
413.142	103.94
413.365	100.94
413.589	100.94
413.812	86.94
414.035	115.94
414.258	95.94
414.482	90.94
414.705	99.94
414.928	95.94
415.151	93.94
415.374	108.94
415.597	98.94
415.821	100.94
416.044	96.94
416.267	92.94
416.49	99.94
416.713	96.94
416.936	99.94
417.159	92.94
417.382	90.94
417.605	107.94
417.828	92.94
418.051	103.94
418.274	111.94
418.497	88.94
418.72	83.94
418.943	95.94
419.166	97.94
419.389	85.94
419.611	105.94
419.834	106.94
420.057	76.94
420.28	75.94
420.503	90.94
420.726	81.94
420.948	85.94
421.171	86.94
421.394	80.94
421.617	90.94
421.839	92.94
422.062	102.94
422.285	96.94
422.507	104.94
422.73	152.94
422.953	117.94
423.175	92.94
423.398	84.94
423.621	81.94
423.843	73.94
424.066	75.94
424.288	71.94
424.511	99.94
424.733	87.94
424.956	102.94
425.178	86.94
425.401	105.94
425.623	106.94
425.846	92.94
426.068	81.94
426.291	88.94
426.513	103.94
426.735	90.94
426.958	94.94
427.18	111.94
427.402	113.94
427.625	129.94
427.847	102.94
428.069	104.94
428.292	76.94
428.514	87.94
428.736	72.94
428.958	76.94
429.181	103.94
429.403	90.94
429.625	76.94
429.847	87.94
430.069	93.94
430.292	104.94
430.514	75.94
430.736	63.94
430.958	80.94
431.18	87.94
431.402	85.94
431.624	77.94
431.846	92.94
432.068	79.94
432.29	90.94
432.512	96.94
432.734	93.94
432.956	83.94
433.178	106.94
433.4	86.94
433.622	85.94
433.844	76.94
434.066	91.94
434.287	97.94
434.509	107.94
434.731	92.94
434.953	78.94
435.175	85.94
435.397	92.94
435.618	90.94
435.84	108.94
436.062	104.94
436.284	104.94
436.505	95.94
436.727	96.94
436.949	92.94
437.17	92.94
437.392	113.94
437.614	87.94
437.835	103.94
438.057	91.94
438.278	101.94
438.5	92.94
438.721	114.94
438.943	88.94
439.165	83.94
439.386	82.94
439.608	96.94
439.829	101.94
440.05	94.94
440.272	117.94
440.493	82.94
440.715	87.94
440.936	92.94
441.158	85.94
441.379	85.94
441.6	82.94
441.822	105.94
442.043	85.94
442.264	103.94
442.486	86.94
442.707	71.94
442.928	90.94
443.149	116.94
443.371	113.94
443.592	107.94
443.813	97.94
444.034	92.94
444.255	90.94
444.476	81.94
444.698	89.94
444.919	86.94
445.14	136.94
445.361	120.94
445.582	90.94
445.803	115.94
446.024	111.94
446.245	116.94
446.466	99.94
446.687	84.94
446.908	100.94
447.129	91.94
447.35	90.94
447.571	86.94
447.792	97.94
448.013	97.94
448.234	90.94
448.455	89.94
448.675	100.94
448.896	93.94
449.117	85.94
449.338	93.94
449.559	101.94
449.779	131.94
450	87.94
450.221	99.94
450.442	69.94
450.662	87.94
450.883	100.94
451.104	99.94
451.324	79.94
451.545	89.94
451.766	100.94
451.986	83.94
452.207	87.94
452.428	89.94
452.648	89.94
452.869	98.94
453.089	109.94
453.31	100.94
453.53	86.94
453.751	76.94
453.971	97.94
454.192	89.94
454.412	77.94
454.633	90.94
454.853	83.94
455.073	81.94
455.294	96.94
455.514	84.94
455.734	69.94
455.955	84.94
456.175	89.94
456.395	81.94
456.616	83.94
456.836	97.94
457.056	85.94
457.276	82.94
457.497	89.94
457.717	68.94
457.937	95.94
458.157	97.94
458.377	83.94
458.598	99.94
458.818	129.94
459.038	124.94
459.258	104.94
459.478	88.94
459.698	91.94
459.918	86.94
460.138	81.94
460.358	92.94
460.578	84.94
460.798	90.94
461.018	90.94
461.238	89.94
461.458	68.94
461.678	71.94
461.898	77.94
462.118	79.94
462.338	84.94
462.558	87.94
462.777	95.94
462.997	99.94
463.217	88.94
463.437	72.94
463.657	80.94
463.876	81.94
464.096	79.94
464.316	79.94
464.536	88.94
464.755	90.94
464.975	90.94
465.195	122.94
465.414	132.94
465.634	85.94
465.854	86.94
466.073	97.94
466.293	73.94
466.512	69.94
466.732	81.94
466.951	85.94
467.171	82.94
467.391	100.94
467.61	102.94
467.829	85.94
468.049	81.94
468.268	80.94
468.488	80.94
468.707	81.94
468.927	83.94
469.146	76.94
469.365	81.94
469.585	96.94
469.804	91.94
470.023	82.94
470.243	93.94
470.462	92.94
470.681	96.94
470.901	92.94
471.12	72.94
471.339	88.94
471.558	85.94
471.777	93.94
471.997	83.94
472.216	85.94
472.435	91.94
472.654	82.94
472.873	91.94
473.092	89.94
473.311	74.94
473.53	87.94
473.749	88.94
473.968	93.94
474.187	97.94
474.406	94.94
474.625	91.94
474.844	87.94
475.063	96.94
475.282	91.94
475.501	85.94
475.72	76.94
475.939	85.94
476.158	78.94
476.377	88.94
476.596	94.94
476.814	88.94
477.033	94.94
477.252	102.94
477.471	89.94
477.69	85.94
477.908	87.94
478.127	79.94
478.346	99.94
478.564	85.94
478.783	91.94
479.002	87.94
479.22	96.94
479.439	79.94
479.658	99.94
479.876	83.94
480.095	84.94
480.313	85.94
480.532	77.94
480.751	81.94
480.969	87.94
481.188	80.94
481.406	106.94
481.624	92.94
481.843	88.94
482.061	90.94
482.28	94.94
482.498	80.94
482.717	82.94
482.935	92.94
483.153	89.94
483.372	87.94
483.59	88.94
483.808	91.94
484.027	75.94
484.245	81.94
484.463	72.94
484.681	105.94
484.9	98.94
485.118	85.94
485.336	104.94
485.554	101.94
485.772	118.94
485.99	104.94
486.209	117.94
486.427	115.94
486.645	126.94
486.863	114.94
487.081	103.94
487.299	96.94
487.517	100.94
487.735	85.94
487.953	98.94
488.171	89.94
488.389	100.94
488.607	80.94
488.825	91.94
489.043	90.94
489.261	68.94
489.479	71.94
489.696	89.94
489.914	82.94
490.132	89.94
490.35	98.94
490.568	94.94
490.786	90.94
491.003	90.94
491.221	92.94
491.439	96.94
491.657	100.94
491.874	97.94
492.092	106.94
492.31	101.94
492.527	83.94
492.745	86.94
492.963	89.94
493.18	82.94
493.398	93.94
493.615	83.94
493.833	98.94
494.05	81.94
494.268	87.94
494.485	87.94
494.703	81.94
494.92	93.94
495.138	86.94
495.355	84.94
495.573	99.94
495.79	101.94
496.008	99.94
496.225	81.94
496.442	77.94
496.66	82.94
496.877	76.94
497.094	100.94
497.312	80.94
497.529	77.94
497.746	89.94
497.963	92.94
498.181	84.94
498.398	96.94
498.615	86.94
498.832	81.94
499.049	94.94
499.267	97.94
499.484	89.94
499.701	99.94
499.918	79.94
500.135	79.94
500.352	104.94
500.569	84.94
500.786	99.94
501.003	88.94
501.22	99.94
501.437	91.94
501.654	106.94
501.871	104.94
502.088	99.94
502.305	85.94
502.522	81.94
502.739	88.94
502.956	102.94
503.172	84.94
503.389	102.94
503.606	107.94
503.823	88.94
504.04	84.94
504.256	95.94
504.473	79.94
504.69	88.94
504.907	82.94
505.123	96.94
505.34	85.94
505.557	96.94
505.773	104.94
505.99	93.94
506.207	76.94
506.423	81.94
506.64	86.94
506.856	88.94
507.073	90.94
507.289	99.94
507.506	92.94
507.722	96.94
507.939	93.94
508.155	81.94
508.372	91.94
508.588	86.94
508.805	100.94
509.021	111.94
509.238	77.94
509.454	91.94
509.67	105.94
509.887	101.94
510.103	122.94
510.319	163.94
510.536	511.94
510.752	1577.94
510.968	500.94
511.184	127.94
511.401	100.94
511.617	96.94
511.833	90.94
512.049	87.94
512.265	95.94
512.481	99.94
512.698	83.94
512.914	88.94
513.13	82.94
513.346	89.94
513.562	93.94
513.778	83.94
513.994	90.94
514.21	102.94
514.426	117.94
514.642	129.94
514.858	94.94
515.074	108.94
515.29	284.94
515.506	887.94
515.721	364.94
515.937	117.94
