Data from Circ_2016_H10_HRD10591_00046.txt Node
Date: Wed Jan 03 09:58:49 EST 2024
User: Yrep
Spectrometer: HR+D1059
Trigger mode: 1
Integration Time (sec): 1.000000E-1
Scans to average: 1
Electric dark correction enabled: true
Nonlinearity correction enabled: false
Boxcar width: 0
XAxis mode: Wavelengths
Number of Pixels in Spectrum: 2048
>>>>>Begin Spectral Data<<<<<
223.165	-22.88
223.4	-22.88
223.635	-22.88
223.869	-25.88
224.104	-19.88
224.338	-6.88
224.573	-15.88
224.808	-3.88
225.042	7.12
225.277	-7.88
225.511	-7.88
225.746	-7.88
225.98	-3.88
226.215	16.12
226.449	19.12
226.683	20.12
226.918	22.12
227.152	38.12
227.387	34.12
227.621	35.12
227.856	37.12
228.09	43.12
228.324	43.12
228.559	51.12
228.793	48.12
229.027	51.12
229.262	63.12
229.496	69.12
229.73	95.12
229.964	80.12
230.199	81.12
230.433	79.12
230.667	80.12
230.901	80.12
231.136	93.12
231.37	78.12
231.604	74.12
231.838	61.12
232.072	77.12
232.306	68.12
232.541	88.12
232.775	91.12
233.009	81.12
233.243	83.12
233.477	73.12
233.711	97.12
233.945	76.12
234.179	81.12
234.413	71.12
234.647	88.12
234.881	76.12
235.115	87.12
235.349	79.12
235.583	84.12
235.817	84.12
236.051	88.12
236.285	69.12
236.519	83.12
236.753	72.12
236.987	79.12
237.221	92.12
237.455	85.12
237.689	59.12
237.922	79.12
238.156	65.12
238.39	91.12
238.624	70.12
238.858	92.12
239.091	84.12
239.325	100.12
239.559	74.12
239.793	63.12
240.027	67.12
240.26	63.12
240.494	74.12
240.728	81.12
240.961	77.12
241.195	73.12
241.429	85.12
241.662	70.12
241.896	60.12
242.13	80.12
242.363	81.12
242.597	85.12
242.83	76.12
243.064	83.12
243.298	86.12
243.531	82.12
243.765	84.12
243.998	71.12
244.232	83.12
244.465	86.12
244.699	87.12
244.932	79.12
245.166	63.12
245.399	76.12
245.633	78.12
245.866	72.12
246.099	72.12
246.333	76.12
246.566	75.12
246.8	71.12
247.033	72.12
247.266	75.12
247.5	66.12
247.733	91.12
247.966	76.12
248.2	80.12
248.433	74.12
248.666	74.12
248.899	81.12
249.133	67.12
249.366	102.12
249.599	94.12
249.832	82.12
250.066	67.12
250.299	84.12
250.532	71.12
250.765	69.12
250.998	79.12
251.231	77.12
251.465	71.12
251.698	73.12
251.931	65.12
252.164	76.12
252.397	80.12
252.63	76.12
252.863	69.12
253.096	67.12
253.329	74.12
253.562	73.12
253.795	73.12
254.028	87.12
254.261	77.12
254.494	78.12
254.727	74.12
254.96	83.12
255.193	72.12
255.426	66.12
255.659	83.12
255.892	89.12
256.124	90.12
256.357	86.12
256.59	84.12
256.823	78.12
257.056	85.12
257.289	82.12
257.521	80.12
257.754	74.12
257.987	76.12
258.22	81.12
258.452	91.12
258.685	77.12
258.918	99.12
259.151	82.12
259.383	84.12
259.616	74.12
259.849	85.12
260.081	80.12
260.314	76.12
260.547	79.12
260.779	79.12
261.012	80.12
261.244	75.12
261.477	76.12
261.71	109.12
261.942	120.12
262.175	112.12
262.407	107.12
262.64	89.12
262.872	84.12
263.105	106.12
263.337	92.12
263.57	69.12
263.802	77.12
264.035	80.12
264.267	80.12
264.499	74.12
264.732	75.12
264.964	89.12
265.197	77.12
265.429	81.12
265.661	77.12
265.894	94.12
266.126	75.12
266.358	89.12
266.591	75.12
266.823	73.12
267.055	68.12
267.287	75.12
267.52	91.12
267.752	82.12
267.984	72.12
268.216	84.12
268.448	87.12
268.681	90.12
268.913	91.12
269.145	86.12
269.377	78.12
269.609	76.12
269.841	95.12
270.073	79.12
270.306	88.12
270.538	85.12
270.77	77.12
271.002	95.12
271.234	77.12
271.466	92.12
271.698	82.12
271.93	85.12
272.162	83.12
272.394	96.12
272.626	82.12
272.858	83.12
273.09	90.12
273.322	81.12
273.553	90.12
273.785	72.12
274.017	89.12
274.249	72.12
274.481	78.12
274.713	79.12
274.945	88.12
275.176	92.12
275.408	93.12
275.64	93.12
275.872	92.12
276.104	91.12
276.335	87.12
276.567	98.12
276.799	129.12
277.031	98.12
277.262	90.12
277.494	94.12
277.726	94.12
277.957	79.12
278.189	76.12
278.421	74.12
278.652	77.12
278.884	87.12
279.115	84.12
279.347	81.12
279.579	82.12
279.81	83.12
280.042	79.12
280.273	77.12
280.505	79.12
280.736	87.12
280.968	99.12
281.199	83.12
281.431	73.12
281.662	90.12
281.894	93.12
282.125	90.12
282.356	127.12
282.588	145.12
282.819	125.12
283.051	92.12
283.282	85.12
283.513	85.12
283.745	85.12
283.976	87.12
284.207	94.12
284.439	89.12
284.67	106.12
284.901	70.12
285.132	93.12
285.364	92.12
285.595	83.12
285.826	88.12
286.057	93.12
286.288	74.12
286.52	75.12
286.751	67.12
286.982	84.12
287.213	68.12
287.444	96.12
287.675	89.12
287.906	90.12
288.138	90.12
288.369	103.12
288.6	92.12
288.831	104.12
289.062	86.12
289.293	79.12
289.524	96.12
289.755	77.12
289.986	84.12
290.217	95.12
290.448	92.12
290.679	77.12
290.91	78.12
291.141	97.12
291.371	83.12
291.602	99.12
291.833	96.12
292.064	94.12
292.295	84.12
292.526	96.12
292.757	65.12
292.987	97.12
293.218	91.12
293.449	92.12
293.68	85.12
293.91	72.12
294.141	91.12
294.372	79.12
294.603	95.12
294.833	77.12
295.064	76.12
295.295	104.12
295.525	91.12
295.756	110.12
295.987	117.12
296.217	162.12
296.448	123.12
296.679	87.12
296.909	81.12
297.14	92.12
297.37	91.12
297.601	96.12
297.831	93.12
298.062	100.12
298.292	91.12
298.523	102.12
298.753	98.12
298.984	83.12
299.214	90.12
299.445	89.12
299.675	99.12
299.905	89.12
300.136	92.12
300.366	88.12
300.597	96.12
300.827	77.12
301.057	90.12
301.288	101.12
301.518	95.12
301.748	88.12
301.979	99.12
302.209	79.12
302.439	87.12
302.669	87.12
302.9	85.12
303.13	91.12
303.36	81.12
303.59	98.12
303.82	100.12
304.051	95.12
304.281	83.12
304.511	100.12
304.741	89.12
304.971	91.12
305.201	96.12
305.431	78.12
305.661	93.12
305.891	93.12
306.121	105.12
306.352	98.12
306.582	93.12
306.812	83.12
307.042	84.12
307.272	95.12
307.502	87.12
307.731	96.12
307.961	90.12
308.191	86.12
308.421	94.12
308.651	91.12
308.881	92.12
309.111	85.12
309.341	92.12
309.571	103.12
309.8	92.12
310.03	90.12
310.26	101.12
310.49	100.12
310.72	97.12
310.949	103.12
311.179	103.12
311.409	101.12
311.639	91.12
311.868	97.12
312.098	102.12
312.328	99.12
312.557	88.12
312.787	106.12
313.017	112.12
313.246	106.12
313.476	85.12
313.706	82.12
313.935	87.12
314.165	105.12
314.394	104.12
314.624	95.12
314.853	99.12
315.083	100.12
315.312	84.12
315.542	93.12
315.771	81.12
316.001	74.12
316.23	85.12
316.46	83.12
316.689	88.12
316.919	84.12
317.148	105.12
317.377	88.12
317.607	85.12
317.836	88.12
318.065	95.12
318.295	105.12
318.524	83.12
318.753	92.12
318.983	77.12
319.212	95.12
319.441	112.12
319.67	111.12
319.9	91.12
320.129	79.12
320.358	83.12
320.587	110.12
320.816	114.12
321.046	99.12
321.275	103.12
321.504	89.12
321.733	108.12
321.962	104.12
322.191	104.12
322.42	114.12
322.649	103.12
322.878	126.12
323.108	109.12
323.337	138.12
323.566	140.12
323.795	179.12
324.024	225.12
324.253	474.12
324.482	1023.12
324.71	2143.12
324.939	2820.12
325.168	1018.12
325.397	297.12
325.626	157.12
325.855	137.12
326.084	119.12
326.313	128.12
326.542	161.12
326.77	266.12
326.999	547.12
327.228	1167.12
327.457	2144.12
327.686	1680.12
327.914	447.12
328.143	226.12
328.372	170.12
328.6	131.12
328.829	107.12
329.058	127.12
329.287	132.12
329.515	114.12
329.744	104.12
329.972	118.12
330.201	113.12
330.43	127.12
330.658	136.12
330.887	137.12
331.115	141.12
331.344	105.12
331.572	92.12
331.801	100.12
332.03	124.12
332.258	94.12
332.486	89.12
332.715	77.12
332.943	102.12
333.172	102.12
333.4	87.12
333.629	114.12
333.857	116.12
334.085	113.12
334.314	129.12
334.542	140.12
334.771	138.12
334.999	104.12
335.227	101.12
335.455	107.12
335.684	105.12
335.912	92.12
336.14	95.12
336.369	102.12
336.597	107.12
336.825	96.12
337.053	100.12
337.281	99.12
337.51	101.12
337.738	89.12
337.966	101.12
338.194	100.12
338.422	101.12
338.65	93.12
338.878	96.12
339.106	78.12
339.334	80.12
339.562	88.12
339.79	91.12
340.018	89.12
340.246	84.12
340.474	88.12
340.702	82.12
340.93	104.12
341.158	89.12
341.386	96.12
341.614	98.12
341.842	89.12
342.07	90.12
342.298	90.12
342.526	78.12
342.754	89.12
342.981	108.12
343.209	92.12
343.437	94.12
343.665	84.12
343.893	99.12
344.12	88.12
344.348	92.12
344.576	82.12
344.804	90.12
345.031	104.12
345.259	85.12
345.487	87.12
345.714	86.12
345.942	100.12
346.17	89.12
346.397	92.12
346.625	103.12
346.853	95.12
347.08	85.12
347.308	111.12
347.535	98.12
347.763	79.12
347.99	83.12
348.218	107.12
348.445	92.12
348.673	97.12
348.9	80.12
349.128	93.12
349.355	100.12
349.583	92.12
349.81	90.12
350.037	87.12
350.265	89.12
350.492	96.12
350.72	90.12
350.947	94.12
351.174	122.12
351.402	105.12
351.629	110.12
351.856	106.12
352.083	105.12
352.311	125.12
352.538	107.12
352.765	99.12
352.992	110.12
353.22	117.12
353.447	96.12
353.674	107.12
353.901	101.12
354.128	84.12
354.355	95.12
354.583	102.12
354.81	104.12
355.037	102.12
355.264	95.12
355.491	93.12
355.718	93.12
355.945	97.12
356.172	103.12
356.399	90.12
356.626	106.12
356.853	87.12
357.08	99.12
357.307	98.12
357.534	87.12
357.761	102.12
357.988	104.12
358.215	100.12
358.441	76.12
358.668	101.12
358.895	96.12
359.122	82.12
359.349	92.12
359.576	101.12
359.802	99.12
360.029	121.12
360.256	115.12
360.483	98.12
360.709	90.12
360.936	99.12
361.163	104.12
361.39	108.12
361.616	92.12
361.843	90.12
362.07	91.12
362.296	96.12
362.523	88.12
362.749	87.12
362.976	84.12
363.203	93.12
363.429	90.12
363.656	77.12
363.882	83.12
364.109	91.12
364.335	81.12
364.562	88.12
364.788	97.12
365.015	95.12
365.241	104.12
365.468	100.12
365.694	105.12
365.92	91.12
366.147	92.12
366.373	92.12
366.599	87.12
366.826	92.12
367.052	71.12
367.278	81.12
367.505	97.12
367.731	97.12
367.957	90.12
368.184	85.12
368.41	100.12
368.636	109.12
368.862	128.12
369.089	128.12
369.315	96.12
369.541	94.12
369.767	98.12
369.993	91.12
370.219	81.12
370.445	96.12
370.672	90.12
370.898	89.12
371.124	96.12
371.35	84.12
371.576	79.12
371.802	76.12
372.028	83.12
372.254	91.12
372.48	83.12
372.706	74.12
372.932	77.12
373.158	81.12
373.384	89.12
373.61	76.12
373.835	88.12
374.061	80.12
374.287	91.12
374.513	76.12
374.739	80.12
374.965	84.12
375.191	95.12
375.416	91.12
375.642	106.12
375.868	88.12
376.094	91.12
376.319	96.12
376.545	87.12
376.771	97.12
376.997	96.12
377.222	97.12
377.448	91.12
377.674	96.12
377.899	100.12
378.125	92.12
378.35	96.12
378.576	103.12
378.802	85.12
379.027	101.12
379.253	95.12
379.478	96.12
379.704	88.12
379.929	100.12
380.155	98.12
380.38	105.12
380.606	94.12
380.831	96.12
381.057	107.12
381.282	98.12
381.507	99.12
381.733	106.12
381.958	107.12
382.184	97.12
382.409	111.12
382.634	124.12
382.86	103.12
383.085	114.12
383.31	106.12
383.535	107.12
383.761	83.12
383.986	107.12
384.211	104.12
384.436	112.12
384.662	108.12
384.887	131.12
385.112	116.12
385.337	118.12
385.562	102.12
385.787	100.12
386.013	124.12
386.238	123.12
386.463	138.12
386.688	127.12
386.913	111.12
387.138	115.12
387.363	122.12
387.588	111.12
387.813	106.12
388.038	115.12
388.263	140.12
388.488	128.12
388.713	99.12
388.938	100.12
389.163	105.12
389.387	95.12
389.612	99.12
389.837	84.12
390.062	83.12
390.287	79.12
390.512	95.12
390.736	90.12
390.961	82.12
391.186	80.12
391.411	84.12
391.636	88.12
391.86	72.12
392.085	85.12
392.31	89.12
392.534	79.12
392.759	92.12
392.984	75.12
393.208	102.12
393.433	114.12
393.658	107.12
393.882	92.12
394.107	97.12
394.331	95.12
394.556	84.12
394.78	90.12
395.005	92.12
395.229	95.12
395.454	74.12
395.678	77.12
395.903	94.12
396.127	101.12
396.352	90.12
396.576	93.12
396.801	101.12
397.025	95.12
397.249	74.12
397.474	86.12
397.698	77.12
397.922	77.12
398.147	95.12
398.371	70.12
398.595	84.12
398.82	79.12
399.044	94.12
399.268	99.12
399.492	89.12
399.717	85.12
399.941	87.12
400.165	88.12
400.389	97.12
400.613	84.12
400.837	76.12
401.062	100.12
401.286	95.12
401.51	87.12
401.734	80.12
401.958	89.12
402.182	122.12
402.406	155.12
402.63	120.12
402.854	82.12
403.078	96.12
403.302	86.12
403.526	90.12
403.75	85.12
403.974	112.12
404.198	92.12
404.422	76.12
404.645	67.12
404.869	90.12
405.093	93.12
405.317	95.12
405.541	107.12
405.765	107.12
405.988	116.12
406.212	181.12
406.436	239.12
406.66	155.12
406.883	103.12
407.107	106.12
407.331	100.12
407.555	112.12
407.778	97.12
408.002	90.12
408.226	83.12
408.449	101.12
408.673	101.12
408.896	102.12
409.12	105.12
409.344	99.12
409.567	81.12
409.791	82.12
410.014	102.12
410.238	109.12
410.461	91.12
410.685	91.12
410.908	100.12
411.132	90.12
411.355	98.12
411.578	92.12
411.802	84.12
412.025	86.12
412.249	103.12
412.472	103.12
412.695	96.12
412.919	98.12
413.142	79.12
413.365	106.12
413.589	92.12
413.812	78.12
414.035	94.12
414.258	84.12
414.482	98.12
414.705	88.12
414.928	96.12
415.151	91.12
415.374	99.12
415.597	100.12
415.821	108.12
416.044	90.12
416.267	94.12
416.49	100.12
416.713	90.12
416.936	89.12
417.159	92.12
417.382	96.12
417.605	100.12
417.828	81.12
418.051	81.12
418.274	91.12
418.497	101.12
418.72	92.12
418.943	96.12
419.166	89.12
419.389	81.12
419.611	87.12
419.834	88.12
420.057	111.12
420.28	80.12
420.503	89.12
420.726	80.12
420.948	86.12
421.171	99.12
421.394	82.12
421.617	98.12
421.839	74.12
422.062	87.12
422.285	92.12
422.507	115.12
422.73	116.12
422.953	104.12
423.175	86.12
423.398	63.12
423.621	95.12
423.843	89.12
424.066	82.12
424.288	85.12
424.511	112.12
424.733	113.12
424.956	118.12
425.178	106.12
425.401	103.12
425.623	94.12
425.846	93.12
426.068	86.12
426.291	99.12
426.513	96.12
426.735	100.12
426.958	92.12
427.18	111.12
427.402	134.12
427.625	169.12
427.847	139.12
428.069	123.12
428.292	92.12
428.514	88.12
428.736	93.12
428.958	88.12
429.181	89.12
429.403	84.12
429.625	81.12
429.847	84.12
430.069	107.12
430.292	89.12
430.514	98.12
430.736	77.12
430.958	83.12
431.18	90.12
431.402	74.12
431.624	77.12
431.846	69.12
432.068	69.12
432.29	86.12
432.512	92.12
432.734	92.12
432.956	79.12
433.178	106.12
433.4	95.12
433.622	96.12
433.844	102.12
434.066	91.12
434.287	93.12
434.509	81.12
434.731	81.12
434.953	79.12
435.175	98.12
435.397	90.12
435.618	107.12
435.84	97.12
436.062	134.12
436.284	121.12
436.505	103.12
436.727	98.12
436.949	105.12
437.17	91.12
437.392	92.12
437.614	82.12
437.835	104.12
438.057	134.12
438.278	114.12
438.5	112.12
438.721	117.12
438.943	97.12
439.165	85.12
439.386	74.12
439.608	96.12
439.829	114.12
440.05	128.12
440.272	145.12
440.493	114.12
440.715	89.12
440.936	79.12
441.158	81.12
441.379	106.12
441.6	92.12
441.822	99.12
442.043	94.12
442.264	86.12
442.486	106.12
442.707	107.12
442.928	101.12
443.149	114.12
443.371	138.12
443.592	116.12
443.813	128.12
444.034	101.12
444.255	102.12
444.476	90.12
444.698	93.12
444.919	77.12
445.14	138.12
445.361	122.12
445.582	128.12
445.803	147.12
446.024	140.12
446.245	153.12
446.466	119.12
446.687	82.12
446.908	104.12
447.129	84.12
447.35	98.12
447.571	104.12
447.792	77.12
448.013	88.12
448.234	105.12
448.455	94.12
448.675	111.12
448.896	105.12
449.117	106.12
449.338	111.12
449.559	123.12
449.779	147.12
450	96.12
450.221	99.12
450.442	98.12
450.662	84.12
450.883	104.12
451.104	118.12
451.324	94.12
451.545	104.12
451.766	77.12
451.986	85.12
452.207	94.12
452.428	103.12
452.648	93.12
452.869	120.12
453.089	117.12
453.31	117.12
453.53	101.12
453.751	81.12
453.971	93.12
454.192	106.12
454.412	97.12
454.633	93.12
454.853	86.12
455.073	93.12
455.294	87.12
455.514	96.12
455.734	83.12
455.955	84.12
456.175	100.12
456.395	85.12
456.616	88.12
456.836	77.12
457.056	87.12
457.276	80.12
457.497	90.12
457.717	104.12
457.937	91.12
458.157	83.12
458.377	82.12
458.598	112.12
458.818	162.12
459.038	170.12
459.258	115.12
459.478	91.12
459.698	97.12
459.918	86.12
460.138	86.12
460.358	73.12
460.578	86.12
460.798	83.12
461.018	83.12
461.238	83.12
461.458	73.12
461.678	80.12
461.898	83.12
462.118	84.12
462.338	92.12
462.558	88.12
462.777	75.12
462.997	97.12
463.217	88.12
463.437	85.12
463.657	75.12
463.876	90.12
464.096	88.12
464.316	91.12
464.536	93.12
464.755	103.12
464.975	115.12
465.195	183.12
465.414	160.12
465.634	111.12
465.854	78.12
466.073	89.12
466.293	90.12
466.512	107.12
466.732	81.12
466.951	77.12
467.171	92.12
467.391	87.12
467.61	82.12
467.829	100.12
468.049	95.12
468.268	103.12
468.488	82.12
468.707	94.12
468.927	80.12
469.146	93.12
469.365	96.12
469.585	95.12
469.804	89.12
470.023	86.12
470.243	105.12
470.462	91.12
470.681	101.12
470.901	78.12
471.12	86.12
471.339	94.12
471.558	90.12
471.777	94.12
471.997	81.12
472.216	117.12
472.435	146.12
472.654	97.12
472.873	78.12
473.092	91.12
473.311	91.12
473.53	97.12
473.749	89.12
473.968	86.12
474.187	96.12
474.406	90.12
474.625	80.12
474.844	83.12
475.063	84.12
475.282	96.12
475.501	84.12
475.72	88.12
475.939	104.12
476.158	88.12
476.377	81.12
476.596	87.12
476.814	96.12
477.033	94.12
477.252	100.12
477.471	91.12
477.69	77.12
477.908	87.12
478.127	80.12
478.346	88.12
478.564	76.12
478.783	77.12
479.002	99.12
479.22	104.12
479.439	100.12
479.658	88.12
479.876	103.12
480.095	89.12
480.313	88.12
480.532	90.12
480.751	90.12
480.969	104.12
481.188	194.12
481.406	143.12
481.624	106.12
481.843	95.12
482.061	85.12
482.28	101.12
482.498	93.12
482.717	107.12
482.935	87.12
483.153	83.12
483.372	76.12
483.59	81.12
483.808	82.12
484.027	97.12
484.245	94.12
484.463	76.12
484.681	96.12
484.9	86.12
485.118	98.12
485.336	98.12
485.554	87.12
485.772	88.12
485.99	105.12
486.209	94.12
486.427	117.12
486.645	125.12
486.863	119.12
487.081	102.12
487.299	107.12
487.517	105.12
487.735	87.12
487.953	100.12
488.171	85.12
488.389	93.12
488.607	98.12
488.825	86.12
489.043	91.12
489.261	88.12
489.479	76.12
489.696	84.12
489.914	75.12
490.132	94.12
490.35	99.12
490.568	89.12
490.786	83.12
491.003	100.12
491.221	94.12
491.439	81.12
491.657	96.12
491.874	94.12
492.092	96.12
492.31	100.12
492.527	81.12
492.745	89.12
492.963	86.12
493.18	88.12
493.398	94.12
493.615	99.12
493.833	85.12
494.05	90.12
494.268	89.12
494.485	92.12
494.703	84.12
494.92	85.12
495.138	67.12
495.355	86.12
495.573	83.12
495.79	98.12
496.008	88.12
496.225	79.12
496.442	85.12
496.66	87.12
496.877	72.12
497.094	83.12
497.312	90.12
497.529	92.12
497.746	90.12
497.963	88.12
498.181	86.12
498.398	101.12
498.615	111.12
498.832	97.12
499.049	81.12
499.267	80.12
499.484	103.12
499.701	76.12
499.918	86.12
500.135	92.12
500.352	91.12
500.569	85.12
500.786	98.12
501.003	89.12
501.22	86.12
501.437	93.12
501.654	97.12
501.871	120.12
502.088	102.12
502.305	95.12
502.522	104.12
502.739	87.12
502.956	87.12
503.172	98.12
503.389	84.12
503.606	117.12
503.823	100.12
504.04	95.12
504.256	91.12
504.473	79.12
504.69	83.12
504.907	94.12
505.123	97.12
505.34	89.12
505.557	89.12
505.773	87.12
505.99	81.12
506.207	94.12
506.423	84.12
506.64	83.12
506.856	95.12
507.073	90.12
507.289	94.12
507.506	98.12
507.722	114.12
507.939	123.12
508.155	95.12
508.372	85.12
508.588	96.12
508.805	105.12
509.021	100.12
509.238	85.12
509.454	92.12
509.67	111.12
509.887	102.12
510.103	119.12
510.319	218.12
510.536	825.12
510.752	2787.12
510.968	784.12
511.184	167.12
511.401	109.12
511.617	87.12
511.833	97.12
512.049	100.12
512.265	96.12
512.481	84.12
512.698	75.12
512.914	88.12
513.13	89.12
513.346	91.12
513.562	77.12
513.778	92.12
513.994	98.12
514.21	117.12
514.426	131.12
514.642	131.12
514.858	136.12
515.074	179.12
