Data from Circ_2016_H10_HRD10591_00057.txt Node
Date: Wed Jan 03 09:58:52 EST 2024
User: Yrep
Spectrometer: HR+D1059
Trigger mode: 1
Integration Time (sec): 1.000000E-1
Scans to average: 1
Electric dark correction enabled: true
Nonlinearity correction enabled: false
Boxcar width: 0
XAxis mode: Wavelengths
Number of Pixels in Spectrum: 2048
>>>>>Begin Spectral Data<<<<<
223.165	-5.75
223.4	-5.75
223.635	-5.75
223.869	-20.75
224.104	-26.75
224.338	-21.75
224.573	-21.75
224.808	-22.75
225.042	-2.75
225.277	-8.75
225.511	1.25
225.746	8.25
225.98	8.25
226.215	19.25
226.449	16.25
226.683	9.25
226.918	18.25
227.152	50.25
227.387	39.25
227.621	48.25
227.856	44.25
228.09	44.25
228.324	43.25
228.559	46.25
228.793	46.25
229.027	57.25
229.262	66.25
229.496	66.25
229.73	87.25
229.964	79.25
230.199	64.25
230.433	71.25
230.667	90.25
230.901	92.25
231.136	76.25
231.37	85.25
231.604	103.25
231.838	86.25
232.072	92.25
232.306	78.25
232.541	74.25
232.775	78.25
233.009	98.25
233.243	93.25
233.477	77.25
233.711	86.25
233.945	69.25
234.179	77.25
234.413	88.25
234.647	87.25
234.881	81.25
235.115	79.25
235.349	78.25
235.583	87.25
235.817	83.25
236.051	50.25
236.285	76.25
236.519	74.25
236.753	75.25
236.987	67.25
237.221	67.25
237.455	73.25
237.689	80.25
237.922	78.25
238.156	80.25
238.39	60.25
238.624	82.25
238.858	82.25
239.091	74.25
239.325	80.25
239.559	75.25
239.793	75.25
240.027	78.25
240.26	88.25
240.494	76.25
240.728	78.25
240.961	86.25
241.195	81.25
241.429	66.25
241.662	81.25
241.896	61.25
242.13	72.25
242.363	79.25
242.597	81.25
242.83	77.25
243.064	75.25
243.298	89.25
243.531	66.25
243.765	85.25
243.998	55.25
244.232	79.25
244.465	92.25
244.699	85.25
244.932	66.25
245.166	76.25
245.399	77.25
245.633	82.25
245.866	74.25
246.099	77.25
246.333	81.25
246.566	73.25
246.8	74.25
247.033	74.25
247.266	76.25
247.5	87.25
247.733	73.25
247.966	81.25
248.2	68.25
248.433	78.25
248.666	73.25
248.899	75.25
249.133	96.25
249.366	91.25
249.599	101.25
249.832	85.25
250.066	73.25
250.299	81.25
250.532	93.25
250.765	79.25
250.998	79.25
251.231	77.25
251.465	78.25
251.698	75.25
251.931	72.25
252.164	86.25
252.397	81.25
252.63	95.25
252.863	80.25
253.096	78.25
253.329	86.25
253.562	79.25
253.795	91.25
254.028	90.25
254.261	82.25
254.494	73.25
254.727	67.25
254.96	77.25
255.193	78.25
255.426	75.25
255.659	91.25
255.892	85.25
256.124	76.25
256.357	73.25
256.59	68.25
256.823	80.25
257.056	78.25
257.289	77.25
257.521	85.25
257.754	79.25
257.987	68.25
258.22	75.25
258.452	72.25
258.685	80.25
258.918	73.25
259.151	89.25
259.383	74.25
259.616	77.25
259.849	83.25
260.081	83.25
260.314	93.25
260.547	75.25
260.779	84.25
261.012	86.25
261.244	77.25
261.477	88.25
261.71	81.25
261.942	98.25
262.175	108.25
262.407	83.25
262.64	71.25
262.872	77.25
263.105	88.25
263.337	91.25
263.57	79.25
263.802	84.25
264.035	82.25
264.267	84.25
264.499	77.25
264.732	70.25
264.964	86.25
265.197	88.25
265.429	72.25
265.661	86.25
265.894	74.25
266.126	80.25
266.358	76.25
266.591	86.25
266.823	90.25
267.055	67.25
267.287	73.25
267.52	91.25
267.752	85.25
267.984	82.25
268.216	97.25
268.448	94.25
268.681	76.25
268.913	81.25
269.145	88.25
269.377	91.25
269.609	75.25
269.841	87.25
270.073	79.25
270.306	92.25
270.538	88.25
270.77	88.25
271.002	90.25
271.234	77.25
271.466	81.25
271.698	80.25
271.93	85.25
272.162	84.25
272.394	85.25
272.626	97.25
272.858	73.25
273.09	82.25
273.322	89.25
273.553	91.25
273.785	76.25
274.017	77.25
274.249	69.25
274.481	86.25
274.713	73.25
274.945	89.25
275.176	81.25
275.408	95.25
275.64	80.25
275.872	90.25
276.104	95.25
276.335	76.25
276.567	96.25
276.799	97.25
277.031	89.25
277.262	106.25
277.494	85.25
277.726	89.25
277.957	78.25
278.189	97.25
278.421	84.25
278.652	89.25
278.884	88.25
279.115	92.25
279.347	90.25
279.579	85.25
279.81	84.25
280.042	83.25
280.273	88.25
280.505	89.25
280.736	76.25
280.968	87.25
281.199	79.25
281.431	89.25
281.662	96.25
281.894	92.25
282.125	101.25
282.356	112.25
282.588	145.25
282.819	115.25
283.051	104.25
283.282	101.25
283.513	80.25
283.745	84.25
283.976	88.25
284.207	67.25
284.439	98.25
284.67	88.25
284.901	84.25
285.132	96.25
285.364	98.25
285.595	81.25
285.826	81.25
286.057	82.25
286.288	88.25
286.52	81.25
286.751	83.25
286.982	90.25
287.213	85.25
287.444	94.25
287.675	90.25
287.906	80.25
288.138	84.25
288.369	98.25
288.6	76.25
288.831	87.25
289.062	87.25
289.293	86.25
289.524	88.25
289.755	79.25
289.986	74.25
290.217	98.25
290.448	81.25
290.679	84.25
290.91	91.25
291.141	84.25
291.371	91.25
291.602	86.25
291.833	97.25
292.064	90.25
292.295	91.25
292.526	66.25
292.757	86.25
292.987	87.25
293.218	81.25
293.449	90.25
293.68	88.25
293.91	82.25
294.141	95.25
294.372	84.25
294.603	100.25
294.833	65.25
295.064	93.25
295.295	79.25
295.525	95.25
295.756	98.25
295.987	106.25
296.217	134.25
296.448	126.25
296.679	92.25
296.909	92.25
297.14	91.25
297.37	89.25
297.601	76.25
297.831	92.25
298.062	69.25
298.292	84.25
298.523	87.25
298.753	87.25
298.984	82.25
299.214	92.25
299.445	80.25
299.675	83.25
299.905	88.25
300.136	89.25
300.366	81.25
300.597	72.25
300.827	90.25
301.057	101.25
301.288	109.25
301.518	95.25
301.748	80.25
301.979	109.25
302.209	92.25
302.439	89.25
302.669	88.25
302.9	78.25
303.13	78.25
303.36	97.25
303.59	90.25
303.82	84.25
304.051	89.25
304.281	91.25
304.511	82.25
304.741	89.25
304.971	92.25
305.201	101.25
305.431	100.25
305.661	99.25
305.891	92.25
306.121	100.25
306.352	96.25
306.582	92.25
306.812	99.25
307.042	76.25
307.272	110.25
307.502	93.25
307.731	93.25
307.961	87.25
308.191	86.25
308.421	99.25
308.651	85.25
308.881	91.25
309.111	86.25
309.341	93.25
309.571	100.25
309.8	84.25
310.03	90.25
310.26	96.25
310.49	98.25
310.72	99.25
310.949	89.25
311.179	96.25
311.409	89.25
311.639	97.25
311.868	84.25
312.098	91.25
312.328	95.25
312.557	93.25
312.787	100.25
313.017	95.25
313.246	101.25
313.476	98.25
313.706	80.25
313.935	89.25
314.165	93.25
314.394	83.25
314.624	114.25
314.853	123.25
315.083	91.25
315.312	89.25
315.542	79.25
315.771	101.25
316.001	107.25
316.23	89.25
316.46	86.25
316.689	89.25
316.919	88.25
317.148	95.25
317.377	86.25
317.607	87.25
317.836	100.25
318.065	91.25
318.295	74.25
318.524	81.25
318.753	85.25
318.983	94.25
319.212	100.25
319.441	90.25
319.67	106.25
319.9	89.25
320.129	84.25
320.358	92.25
320.587	93.25
320.816	107.25
321.046	89.25
321.275	94.25
321.504	108.25
321.733	92.25
321.962	93.25
322.191	94.25
322.42	104.25
322.649	102.25
322.878	108.25
323.108	114.25
323.337	124.25
323.566	118.25
323.795	161.25
324.024	194.25
324.253	378.25
324.482	818.25
324.71	1645.25
324.939	2174.25
325.168	824.25
325.397	243.25
325.626	142.25
325.855	130.25
326.084	118.25
326.313	123.25
326.542	148.25
326.77	223.25
326.999	432.25
327.228	929.25
327.457	1649.25
327.686	1332.25
327.914	358.25
328.143	200.25
328.372	160.25
328.6	141.25
328.829	101.25
329.058	118.25
329.287	130.25
329.515	99.25
329.744	91.25
329.972	89.25
330.201	116.25
330.43	137.25
330.658	137.25
330.887	113.25
331.115	113.25
331.344	93.25
331.572	109.25
331.801	108.25
332.03	107.25
332.258	92.25
332.486	93.25
332.715	95.25
332.943	114.25
333.172	96.25
333.4	98.25
333.629	94.25
333.857	116.25
334.085	128.25
334.314	117.25
334.542	142.25
334.771	130.25
334.999	97.25
335.227	100.25
335.455	84.25
335.684	112.25
335.912	93.25
336.14	101.25
336.369	103.25
336.597	90.25
336.825	87.25
337.053	92.25
337.281	87.25
337.51	105.25
337.738	83.25
337.966	84.25
338.194	96.25
338.422	95.25
338.65	91.25
338.878	94.25
339.106	78.25
339.334	87.25
339.562	92.25
339.79	88.25
340.018	107.25
340.246	95.25
340.474	99.25
340.702	91.25
340.93	101.25
341.158	113.25
341.386	77.25
341.614	92.25
341.842	102.25
342.07	80.25
342.298	78.25
342.526	93.25
342.754	90.25
342.981	89.25
343.209	85.25
343.437	93.25
343.665	86.25
343.893	94.25
344.12	94.25
344.348	110.25
344.576	101.25
344.804	92.25
345.031	81.25
345.259	90.25
345.487	90.25
345.714	93.25
345.942	99.25
346.17	78.25
346.397	87.25
346.625	93.25
346.853	105.25
347.08	92.25
347.308	94.25
347.535	107.25
347.763	101.25
347.99	85.25
348.218	95.25
348.445	100.25
348.673	103.25
348.9	96.25
349.128	84.25
349.355	94.25
349.583	96.25
349.81	93.25
350.037	95.25
350.265	88.25
350.492	93.25
350.72	105.25
350.947	103.25
351.174	111.25
351.402	96.25
351.629	89.25
351.856	94.25
352.083	103.25
352.311	102.25
352.538	84.25
352.765	95.25
352.992	120.25
353.22	109.25
353.447	114.25
353.674	104.25
353.901	93.25
354.128	99.25
354.355	90.25
354.583	100.25
354.81	95.25
355.037	97.25
355.264	105.25
355.491	95.25
355.718	102.25
355.945	97.25
356.172	93.25
356.399	99.25
356.626	87.25
356.853	81.25
357.08	95.25
357.307	88.25
357.534	85.25
357.761	104.25
357.988	86.25
358.215	103.25
358.441	97.25
358.668	96.25
358.895	103.25
359.122	102.25
359.349	90.25
359.576	77.25
359.802	87.25
360.029	97.25
360.256	106.25
360.483	86.25
360.709	84.25
360.936	89.25
361.163	96.25
361.39	87.25
361.616	80.25
361.843	86.25
362.07	81.25
362.296	117.25
362.523	93.25
362.749	95.25
362.976	74.25
363.203	82.25
363.429	76.25
363.656	88.25
363.882	82.25
364.109	86.25
364.335	79.25
364.562	85.25
364.788	82.25
365.015	93.25
365.241	96.25
365.468	102.25
365.694	91.25
365.92	85.25
366.147	98.25
366.373	80.25
366.599	109.25
366.826	90.25
367.052	79.25
367.278	77.25
367.505	85.25
367.731	97.25
367.957	81.25
368.184	87.25
368.41	105.25
368.636	104.25
368.862	116.25
369.089	107.25
369.315	97.25
369.541	83.25
369.767	86.25
369.993	79.25
370.219	94.25
370.445	72.25
370.672	80.25
370.898	94.25
371.124	98.25
371.35	90.25
371.576	78.25
371.802	99.25
372.028	100.25
372.254	87.25
372.48	86.25
372.706	88.25
372.932	84.25
373.158	93.25
373.384	82.25
373.61	83.25
373.835	86.25
374.061	96.25
374.287	82.25
374.513	93.25
374.739	90.25
374.965	82.25
375.191	68.25
375.416	78.25
375.642	89.25
375.868	93.25
376.094	84.25
376.319	84.25
376.545	84.25
376.771	89.25
376.997	96.25
377.222	95.25
377.448	78.25
377.674	76.25
377.899	90.25
378.125	76.25
378.35	70.25
378.576	94.25
378.802	98.25
379.027	99.25
379.253	84.25
379.478	94.25
379.704	89.25
379.929	96.25
380.155	104.25
380.38	85.25
380.606	96.25
380.831	97.25
381.057	85.25
381.282	89.25
381.507	102.25
381.733	101.25
381.958	102.25
382.184	96.25
382.409	101.25
382.634	105.25
382.86	103.25
383.085	99.25
383.31	101.25
383.535	104.25
383.761	104.25
383.986	98.25
384.211	101.25
384.436	106.25
384.662	110.25
384.887	112.25
385.112	116.25
385.337	112.25
385.562	130.25
385.787	125.25
386.013	111.25
386.238	126.25
386.463	113.25
386.688	118.25
386.913	114.25
387.138	104.25
387.363	99.25
387.588	98.25
387.813	107.25
388.038	115.25
388.263	123.25
388.488	137.25
388.713	100.25
388.938	97.25
389.163	96.25
389.387	98.25
389.612	68.25
389.837	84.25
390.062	81.25
390.287	90.25
390.512	94.25
390.736	85.25
390.961	106.25
391.186	102.25
391.411	88.25
391.636	82.25
391.86	92.25
392.085	87.25
392.31	94.25
392.534	81.25
392.759	87.25
392.984	78.25
393.208	82.25
393.433	105.25
393.658	105.25
393.882	88.25
394.107	83.25
394.331	85.25
394.556	88.25
394.78	71.25
395.005	84.25
395.229	96.25
395.454	83.25
395.678	77.25
395.903	87.25
396.127	86.25
396.352	100.25
396.576	83.25
396.801	101.25
397.025	100.25
397.249	77.25
397.474	85.25
397.698	74.25
397.922	77.25
398.147	78.25
398.371	83.25
398.595	86.25
398.82	91.25
399.044	87.25
399.268	69.25
399.492	88.25
399.717	92.25
399.941	100.25
400.165	93.25
400.389	68.25
400.613	77.25
400.837	82.25
401.062	88.25
401.286	86.25
401.51	96.25
401.734	97.25
401.958	89.25
402.182	106.25
402.406	148.25
402.63	115.25
402.854	97.25
403.078	102.25
403.302	86.25
403.526	91.25
403.75	93.25
403.974	79.25
404.198	81.25
404.422	66.25
404.645	82.25
404.869	91.25
405.093	89.25
405.317	94.25
405.541	94.25
405.765	84.25
405.988	117.25
406.212	171.25
406.436	204.25
406.66	154.25
406.883	105.25
407.107	89.25
407.331	82.25
407.555	106.25
407.778	81.25
408.002	70.25
408.226	84.25
408.449	81.25
408.673	83.25
408.896	90.25
409.12	100.25
409.344	83.25
409.567	107.25
409.791	88.25
410.014	103.25
410.238	88.25
410.461	82.25
410.685	102.25
410.908	93.25
411.132	88.25
411.355	90.25
411.578	99.25
411.802	101.25
412.025	72.25
412.249	93.25
412.472	91.25
412.695	88.25
412.919	82.25
413.142	93.25
413.365	81.25
413.589	88.25
413.812	75.25
414.035	106.25
414.258	97.25
414.482	89.25
414.705	77.25
414.928	78.25
415.151	84.25
415.374	83.25
415.597	80.25
415.821	74.25
416.044	108.25
416.267	84.25
416.49	94.25
416.713	90.25
416.936	87.25
417.159	96.25
417.382	87.25
417.605	77.25
417.828	92.25
418.051	93.25
418.274	93.25
418.497	69.25
418.72	88.25
418.943	88.25
419.166	89.25
419.389	103.25
419.611	84.25
419.834	89.25
420.057	85.25
420.28	91.25
420.503	82.25
420.726	79.25
420.948	98.25
421.171	80.25
421.394	77.25
421.617	93.25
421.839	83.25
422.062	82.25
422.285	80.25
422.507	96.25
422.73	104.25
422.953	100.25
423.175	92.25
423.398	89.25
423.621	97.25
423.843	84.25
424.066	96.25
424.288	91.25
424.511	82.25
424.733	87.25
424.956	105.25
425.178	107.25
425.401	101.25
425.623	114.25
425.846	96.25
426.068	92.25
426.291	94.25
426.513	96.25
426.735	82.25
426.958	89.25
427.18	106.25
427.402	121.25
427.625	176.25
427.847	115.25
428.069	107.25
428.292	86.25
428.514	85.25
428.736	80.25
428.958	82.25
429.181	70.25
429.403	72.25
429.625	71.25
429.847	88.25
430.069	104.25
430.292	97.25
430.514	77.25
430.736	114.25
430.958	93.25
431.18	88.25
431.402	95.25
431.624	88.25
431.846	76.25
432.068	93.25
432.29	88.25
432.512	83.25
432.734	91.25
432.956	90.25
433.178	89.25
433.4	99.25
433.622	93.25
433.844	83.25
434.066	95.25
434.287	93.25
434.509	84.25
434.731	89.25
434.953	84.25
435.175	96.25
435.397	87.25
435.618	94.25
435.84	94.25
436.062	115.25
436.284	99.25
436.505	101.25
436.727	97.25
436.949	88.25
437.17	77.25
437.392	89.25
437.614	98.25
437.835	93.25
438.057	90.25
438.278	111.25
438.5	104.25
438.721	120.25
438.943	95.25
439.165	85.25
439.386	80.25
439.608	77.25
439.829	84.25
440.05	110.25
440.272	133.25
440.493	92.25
440.715	100.25
440.936	92.25
441.158	77.25
441.379	80.25
441.6	88.25
441.822	94.25
442.043	116.25
442.264	115.25
442.486	97.25
442.707	106.25
442.928	109.25
443.149	109.25
443.371	130.25
443.592	100.25
443.813	91.25
444.034	107.25
444.255	87.25
444.476	93.25
444.698	87.25
444.919	96.25
445.14	132.25
445.361	124.25
445.582	103.25
445.803	124.25
446.024	123.25
446.245	124.25
446.466	100.25
446.687	84.25
446.908	92.25
447.129	74.25
447.35	88.25
447.571	97.25
447.792	77.25
448.013	96.25
448.234	98.25
448.455	100.25
448.675	99.25
448.896	117.25
449.117	106.25
449.338	112.25
449.559	118.25
449.779	140.25
450	90.25
450.221	78.25
450.442	94.25
450.662	88.25
450.883	109.25
451.104	115.25
451.324	90.25
451.545	86.25
451.766	93.25
451.986	78.25
452.207	92.25
452.428	73.25
452.648	89.25
452.869	118.25
453.089	125.25
453.31	121.25
453.53	101.25
453.751	97.25
453.971	97.25
454.192	98.25
454.412	106.25
454.633	89.25
454.853	85.25
455.073	76.25
455.294	82.25
455.514	90.25
455.734	85.25
455.955	87.25
456.175	77.25
456.395	84.25
456.616	89.25
456.836	84.25
457.056	82.25
457.276	80.25
457.497	74.25
457.717	91.25
457.937	80.25
458.157	82.25
458.377	89.25
458.598	92.25
458.818	149.25
459.038	141.25
459.258	106.25
459.478	94.25
459.698	75.25
459.918	85.25
460.138	93.25
460.358	92.25
460.578	86.25
460.798	71.25
461.018	93.25
461.238	87.25
461.458	82.25
461.678	82.25
461.898	86.25
462.118	71.25
462.338	76.25
462.558	92.25
462.777	89.25
462.997	82.25
463.217	89.25
463.437	85.25
463.657	78.25
463.876	91.25
464.096	100.25
464.316	85.25
464.536	85.25
464.755	95.25
464.975	116.25
465.195	158.25
465.414	154.25
465.634	93.25
465.854	77.25
466.073	94.25
466.293	92.25
466.512	84.25
466.732	83.25
466.951	99.25
467.171	84.25
467.391	81.25
467.61	106.25
467.829	96.25
468.049	103.25
468.268	106.25
468.488	82.25
468.707	94.25
468.927	87.25
469.146	81.25
469.365	88.25
469.585	85.25
469.804	91.25
470.023	89.25
470.243	89.25
470.462	92.25
470.681	101.25
470.901	103.25
471.12	94.25
471.339	97.25
471.558	97.25
471.777	84.25
471.997	80.25
472.216	115.25
472.435	142.25
472.654	99.25
472.873	82.25
473.092	100.25
473.311	84.25
473.53	96.25
473.749	82.25
473.968	105.25
474.187	102.25
474.406	78.25
474.625	82.25
474.844	87.25
475.063	80.25
475.282	82.25
475.501	82.25
475.72	100.25
475.939	87.25
476.158	71.25
476.377	83.25
476.596	89.25
476.814	93.25
477.033	85.25
477.252	94.25
477.471	82.25
477.69	80.25
477.908	84.25
478.127	77.25
478.346	78.25
478.564	80.25
478.783	101.25
479.002	90.25
479.22	92.25
479.439	91.25
479.658	94.25
479.876	89.25
480.095	90.25
480.313	98.25
480.532	102.25
480.751	104.25
480.969	108.25
481.188	222.25
481.406	166.25
481.624	100.25
481.843	98.25
482.061	92.25
482.28	87.25
482.498	85.25
482.717	89.25
482.935	96.25
483.153	84.25
483.372	89.25
483.59	85.25
483.808	98.25
484.027	84.25
484.245	97.25
484.463	98.25
484.681	100.25
484.9	100.25
485.118	96.25
485.336	100.25
485.554	103.25
485.772	88.25
485.99	109.25
486.209	114.25
486.427	92.25
486.645	105.25
486.863	111.25
487.081	94.25
487.299	112.25
487.517	96.25
487.735	77.25
487.953	98.25
488.171	102.25
488.389	101.25
488.607	85.25
488.825	97.25
489.043	92.25
489.261	90.25
489.479	84.25
489.696	104.25
489.914	90.25
490.132	93.25
490.35	81.25
490.568	91.25
490.786	93.25
491.003	82.25
491.221	88.25
491.439	79.25
491.657	84.25
491.874	97.25
492.092	88.25
492.31	84.25
492.527	89.25
492.745	97.25
492.963	87.25
493.18	91.25
493.398	87.25
493.615	101.25
493.833	91.25
494.05	102.25
494.268	74.25
494.485	83.25
494.703	86.25
494.92	80.25
495.138	66.25
495.355	93.25
495.573	85.25
495.79	81.25
496.008	79.25
496.225	89.25
496.442	84.25
496.66	80.25
496.877	75.25
497.094	99.25
497.312	91.25
497.529	80.25
497.746	103.25
497.963	84.25
498.181	92.25
498.398	88.25
498.615	119.25
498.832	97.25
499.049	92.25
499.267	88.25
499.484	105.25
499.701	88.25
499.918	88.25
500.135	95.25
500.352	96.25
500.569	95.25
500.786	84.25
501.003	97.25
501.22	92.25
501.437	78.25
501.654	100.25
501.871	101.25
502.088	102.25
502.305	82.25
502.522	83.25
502.739	82.25
502.956	94.25
503.172	91.25
503.389	97.25
503.606	84.25
503.823	83.25
504.04	85.25
504.256	102.25
504.473	94.25
504.69	92.25
504.907	91.25
505.123	82.25
505.34	73.25
505.557	82.25
505.773	96.25
505.99	91.25
506.207	97.25
506.423	102.25
506.64	76.25
506.856	84.25
507.073	94.25
507.289	90.25
507.506	94.25
507.722	108.25
507.939	103.25
508.155	99.25
508.372	85.25
508.588	104.25
508.805	103.25
509.021	95.25
509.238	113.25
509.454	99.25
509.67	96.25
509.887	114.25
510.103	125.25
510.319	212.25
510.536	764.25
510.752	2523.25
510.968	723.25
511.184	157.25
511.401	114.25
511.617	92.25
511.833	100.25
512.049	95.25
512.265	84.25
512.481	83.25
512.698	92.25
512.914	101.25
513.13	93.25
513.346	103.25
513.562	88.25
513.778	92.25
513.994	88.25
514.21	86.25
514.426	105.25
514.642	129.25
514.858	131.25
515.074	168.25
515.29	425.25
515.506	1398.25
515.721	552.25
515.937	144.25
