Data from Circ_2016_H10_HRD10591_00100.txt Node
Date: Wed Jan 03 09:59:00 EST 2024
User: Yrep
Spectrometer: HR+D1059
Trigger mode: 1
Integration Time (sec): 1.000000E-1
Scans to average: 1
Electric dark correction enabled: true
Nonlinearity correction enabled: false
Boxcar width: 0
XAxis mode: Wavelengths
Number of Pixels in Spectrum: 2048
>>>>>Begin Spectral Data<<<<<
223.165	-18.94
223.4	-18.94
223.635	-18.94
223.869	-19.94
224.104	-26.94
224.338	-19.94
224.573	-14.94
224.808	-0.94
225.042	-7.94
225.277	-6.94
225.511	-3.94
225.746	-1.94
225.98	9.06
226.215	4.06
226.449	20.06
226.683	21.06
226.918	20.06
227.152	48.06
227.387	38.06
227.621	40.06
227.856	46.06
228.09	51.06
228.324	43.06
228.559	65.06
228.793	58.06
229.027	60.06
229.262	73.06
229.496	70.06
229.73	63.06
229.964	81.06
230.199	69.06
230.433	66.06
230.667	81.06
230.901	78.06
231.136	84.06
231.37	93.06
231.604	82.06
231.838	74.06
232.072	88.06
232.306	91.06
232.541	83.06
232.775	82.06
233.009	82.06
233.243	80.06
233.477	76.06
233.711	85.06
233.945	89.06
234.179	89.06
234.413	89.06
234.647	88.06
234.881	76.06
235.115	72.06
235.349	72.06
235.583	90.06
235.817	71.06
236.051	88.06
236.285	89.06
236.519	97.06
236.753	88.06
236.987	74.06
237.221	91.06
237.455	78.06
237.689	76.06
237.922	78.06
238.156	89.06
238.39	71.06
238.624	78.06
238.858	84.06
239.091	79.06
239.325	82.06
239.559	79.06
239.793	73.06
240.027	75.06
240.26	80.06
240.494	85.06
240.728	87.06
240.961	81.06
241.195	82.06
241.429	83.06
241.662	78.06
241.896	77.06
242.13	74.06
242.363	93.06
242.597	87.06
242.83	61.06
243.064	89.06
243.298	101.06
243.531	80.06
243.765	87.06
243.998	84.06
244.232	79.06
244.465	85.06
244.699	78.06
244.932	73.06
245.166	89.06
245.399	84.06
245.633	85.06
245.866	84.06
246.099	75.06
246.333	77.06
246.566	74.06
246.8	88.06
247.033	78.06
247.266	82.06
247.5	77.06
247.733	86.06
247.966	79.06
248.2	80.06
248.433	87.06
248.666	86.06
248.899	84.06
249.133	89.06
249.366	101.06
249.599	99.06
249.832	80.06
250.066	100.06
250.299	79.06
250.532	95.06
250.765	72.06
250.998	83.06
251.231	80.06
251.465	90.06
251.698	97.06
251.931	82.06
252.164	81.06
252.397	98.06
252.63	83.06
252.863	78.06
253.096	77.06
253.329	98.06
253.562	82.06
253.795	85.06
254.028	81.06
254.261	79.06
254.494	91.06
254.727	86.06
254.96	78.06
255.193	89.06
255.426	87.06
255.659	76.06
255.892	88.06
256.124	71.06
256.357	86.06
256.59	85.06
256.823	89.06
257.056	74.06
257.289	92.06
257.521	90.06
257.754	73.06
257.987	95.06
258.22	87.06
258.452	89.06
258.685	82.06
258.918	88.06
259.151	80.06
259.383	92.06
259.616	79.06
259.849	76.06
260.081	89.06
260.314	99.06
260.547	91.06
260.779	84.06
261.012	85.06
261.244	78.06
261.477	93.06
261.71	93.06
261.942	111.06
262.175	97.06
262.407	84.06
262.64	84.06
262.872	81.06
263.105	76.06
263.337	86.06
263.57	91.06
263.802	81.06
264.035	77.06
264.267	90.06
264.499	80.06
264.732	91.06
264.964	84.06
265.197	90.06
265.429	98.06
265.661	84.06
265.894	87.06
266.126	86.06
266.358	82.06
266.591	78.06
266.823	88.06
267.055	88.06
267.287	86.06
267.52	87.06
267.752	81.06
267.984	92.06
268.216	89.06
268.448	87.06
268.681	86.06
268.913	77.06
269.145	92.06
269.377	86.06
269.609	84.06
269.841	80.06
270.073	87.06
270.306	80.06
270.538	79.06
270.77	89.06
271.002	84.06
271.234	80.06
271.466	82.06
271.698	94.06
271.93	83.06
272.162	71.06
272.394	90.06
272.626	97.06
272.858	85.06
273.09	84.06
273.322	86.06
273.553	85.06
273.785	90.06
274.017	79.06
274.249	89.06
274.481	103.06
274.713	86.06
274.945	86.06
275.176	102.06
275.408	86.06
275.64	91.06
275.872	84.06
276.104	70.06
276.335	95.06
276.567	106.06
276.799	126.06
277.031	99.06
277.262	103.06
277.494	93.06
277.726	84.06
277.957	93.06
278.189	92.06
278.421	93.06
278.652	96.06
278.884	93.06
279.115	82.06
279.347	88.06
279.579	102.06
279.81	82.06
280.042	99.06
280.273	95.06
280.505	74.06
280.736	89.06
280.968	94.06
281.199	86.06
281.431	89.06
281.662	94.06
281.894	84.06
282.125	104.06
282.356	137.06
282.588	154.06
282.819	112.06
283.051	93.06
283.282	92.06
283.513	107.06
283.745	87.06
283.976	95.06
284.207	96.06
284.439	93.06
284.67	101.06
284.901	86.06
285.132	88.06
285.364	92.06
285.595	90.06
285.826	85.06
286.057	93.06
286.288	104.06
286.52	75.06
286.751	87.06
286.982	92.06
287.213	85.06
287.444	90.06
287.675	96.06
287.906	82.06
288.138	86.06
288.369	87.06
288.6	95.06
288.831	89.06
289.062	88.06
289.293	89.06
289.524	100.06
289.755	84.06
289.986	99.06
290.217	85.06
290.448	92.06
290.679	99.06
290.91	94.06
291.141	84.06
291.371	84.06
291.602	102.06
291.833	89.06
292.064	97.06
292.295	90.06
292.526	86.06
292.757	90.06
292.987	73.06
293.218	91.06
293.449	94.06
293.68	89.06
293.91	95.06
294.141	98.06
294.372	99.06
294.603	100.06
294.833	97.06
295.064	82.06
295.295	93.06
295.525	98.06
295.756	104.06
295.987	114.06
296.217	145.06
296.448	125.06
296.679	85.06
296.909	84.06
297.14	80.06
297.37	85.06
297.601	104.06
297.831	98.06
298.062	97.06
298.292	104.06
298.523	80.06
298.753	84.06
298.984	87.06
299.214	97.06
299.445	94.06
299.675	87.06
299.905	103.06
300.136	103.06
300.366	93.06
300.597	105.06
300.827	107.06
301.057	101.06
301.288	91.06
301.518	92.06
301.748	85.06
301.979	101.06
302.209	97.06
302.439	93.06
302.669	81.06
302.9	90.06
303.13	89.06
303.36	82.06
303.59	82.06
303.82	111.06
304.051	105.06
304.281	107.06
304.511	97.06
304.741	90.06
304.971	98.06
305.201	101.06
305.431	87.06
305.661	85.06
305.891	95.06
306.121	94.06
306.352	121.06
306.582	113.06
306.812	110.06
307.042	94.06
307.272	83.06
307.502	92.06
307.731	98.06
307.961	98.06
308.191	103.06
308.421	80.06
308.651	91.06
308.881	99.06
309.111	82.06
309.341	89.06
309.571	88.06
309.8	99.06
310.03	97.06
310.26	99.06
310.49	102.06
310.72	94.06
310.949	101.06
311.179	96.06
311.409	97.06
311.639	96.06
311.868	102.06
312.098	98.06
312.328	106.06
312.557	99.06
312.787	122.06
313.017	94.06
313.246	96.06
313.476	87.06
313.706	92.06
313.935	88.06
314.165	100.06
314.394	90.06
314.624	91.06
314.853	100.06
315.083	98.06
315.312	96.06
315.542	96.06
315.771	104.06
316.001	102.06
316.23	94.06
316.46	83.06
316.689	88.06
316.919	98.06
317.148	106.06
317.377	91.06
317.607	103.06
317.836	81.06
318.065	95.06
318.295	87.06
318.524	87.06
318.753	91.06
318.983	100.06
319.212	96.06
319.441	96.06
319.67	117.06
319.9	96.06
320.129	84.06
320.358	109.06
320.587	101.06
320.816	86.06
321.046	92.06
321.275	117.06
321.504	90.06
321.733	98.06
321.962	107.06
322.191	104.06
322.42	103.06
322.649	112.06
322.878	104.06
323.108	111.06
323.337	128.06
323.566	133.06
323.795	144.06
324.024	205.06
324.253	425.06
324.482	911.06
324.71	1845.06
324.939	2413.06
325.168	876.06
325.397	269.06
325.626	166.06
325.855	131.06
326.084	125.06
326.313	150.06
326.542	160.06
326.77	218.06
326.999	506.06
327.228	1039.06
327.457	1884.06
327.686	1473.06
327.914	399.06
328.143	191.06
328.372	159.06
328.6	136.06
328.829	125.06
329.058	134.06
329.287	127.06
329.515	121.06
329.744	109.06
329.972	106.06
330.201	156.06
330.43	184.06
330.658	145.06
330.887	146.06
331.115	126.06
331.344	109.06
331.572	121.06
331.801	117.06
332.03	106.06
332.258	102.06
332.486	85.06
332.715	101.06
332.943	88.06
333.172	106.06
333.4	101.06
333.629	106.06
333.857	123.06
334.085	144.06
334.314	169.06
334.542	223.06
334.771	215.06
334.999	124.06
335.227	107.06
335.455	106.06
335.684	96.06
335.912	103.06
336.14	101.06
336.369	102.06
336.597	118.06
336.825	90.06
337.053	112.06
337.281	95.06
337.51	98.06
337.738	91.06
337.966	85.06
338.194	98.06
338.422	80.06
338.65	95.06
338.878	105.06
339.106	100.06
339.334	80.06
339.562	111.06
339.79	94.06
340.018	101.06
340.246	102.06
340.474	102.06
340.702	89.06
340.93	88.06
341.158	94.06
341.386	92.06
341.614	90.06
341.842	96.06
342.07	90.06
342.298	90.06
342.526	86.06
342.754	98.06
342.981	99.06
343.209	101.06
343.437	101.06
343.665	82.06
343.893	103.06
344.12	88.06
344.348	95.06
344.576	102.06
344.804	96.06
345.031	109.06
345.259	98.06
345.487	107.06
345.714	101.06
345.942	99.06
346.17	97.06
346.397	93.06
346.625	102.06
346.853	88.06
347.08	93.06
347.308	99.06
347.535	96.06
347.763	98.06
347.99	97.06
348.218	102.06
348.445	104.06
348.673	97.06
348.9	109.06
349.128	92.06
349.355	104.06
349.583	102.06
349.81	103.06
350.037	98.06
350.265	85.06
350.492	93.06
350.72	98.06
350.947	105.06
351.174	121.06
351.402	113.06
351.629	113.06
351.856	95.06
352.083	111.06
352.311	103.06
352.538	104.06
352.765	118.06
352.992	121.06
353.22	109.06
353.447	111.06
353.674	100.06
353.901	111.06
354.128	92.06
354.355	86.06
354.583	106.06
354.81	94.06
355.037	94.06
355.264	106.06
355.491	99.06
355.718	91.06
355.945	91.06
356.172	92.06
356.399	111.06
356.626	98.06
356.853	94.06
357.08	103.06
357.307	83.06
357.534	93.06
357.761	89.06
357.988	101.06
358.215	86.06
358.441	92.06
358.668	95.06
358.895	93.06
359.122	97.06
359.349	105.06
359.576	99.06
359.802	82.06
360.029	109.06
360.256	87.06
360.483	94.06
360.709	85.06
360.936	101.06
361.163	104.06
361.39	104.06
361.616	100.06
361.843	89.06
362.07	90.06
362.296	87.06
362.523	84.06
362.749	97.06
362.976	103.06
363.203	109.06
363.429	100.06
363.656	98.06
363.882	81.06
364.109	95.06
364.335	83.06
364.562	94.06
364.788	101.06
365.015	90.06
365.241	102.06
365.468	121.06
365.694	103.06
365.92	92.06
366.147	92.06
366.373	92.06
366.599	84.06
366.826	93.06
367.052	93.06
367.278	94.06
367.505	91.06
367.731	90.06
367.957	86.06
368.184	107.06
368.41	95.06
368.636	117.06
368.862	118.06
369.089	92.06
369.315	92.06
369.541	89.06
369.767	90.06
369.993	91.06
370.219	96.06
370.445	89.06
370.672	84.06
370.898	81.06
371.124	98.06
371.35	93.06
371.576	82.06
371.802	95.06
372.028	89.06
372.254	98.06
372.48	105.06
372.706	101.06
372.932	94.06
373.158	82.06
373.384	93.06
373.61	98.06
373.835	98.06
374.061	90.06
374.287	97.06
374.513	95.06
374.739	104.06
374.965	86.06
375.191	101.06
375.416	76.06
375.642	76.06
375.868	94.06
376.094	101.06
376.319	97.06
376.545	94.06
376.771	90.06
376.997	90.06
377.222	105.06
377.448	93.06
377.674	86.06
377.899	92.06
378.125	96.06
378.35	87.06
378.576	92.06
378.802	96.06
379.027	116.06
379.253	97.06
379.478	103.06
379.704	95.06
379.929	106.06
380.155	87.06
380.38	86.06
380.606	94.06
380.831	87.06
381.057	104.06
381.282	89.06
381.507	91.06
381.733	93.06
381.958	94.06
382.184	90.06
382.409	101.06
382.634	94.06
382.86	117.06
383.085	113.06
383.31	114.06
383.535	112.06
383.761	93.06
383.986	104.06
384.211	91.06
384.436	92.06
384.662	109.06
384.887	102.06
385.112	112.06
385.337	110.06
385.562	112.06
385.787	101.06
386.013	112.06
386.238	122.06
386.463	105.06
386.688	97.06
386.913	109.06
387.138	110.06
387.363	120.06
387.588	110.06
387.813	102.06
388.038	117.06
388.263	118.06
388.488	121.06
388.713	93.06
388.938	100.06
389.163	92.06
389.387	94.06
389.612	95.06
389.837	112.06
390.062	111.06
390.287	101.06
390.512	102.06
390.736	107.06
390.961	92.06
391.186	91.06
391.411	95.06
391.636	87.06
391.86	89.06
392.085	86.06
392.31	74.06
392.534	91.06
392.759	86.06
392.984	95.06
393.208	93.06
393.433	101.06
393.658	101.06
393.882	104.06
394.107	94.06
394.331	93.06
394.556	96.06
394.78	94.06
395.005	84.06
395.229	90.06
395.454	100.06
395.678	93.06
395.903	96.06
396.127	103.06
396.352	97.06
396.576	80.06
396.801	78.06
397.025	95.06
397.249	76.06
397.474	82.06
397.698	89.06
397.922	94.06
398.147	86.06
398.371	87.06
398.595	91.06
398.82	84.06
399.044	99.06
399.268	92.06
399.492	96.06
399.717	88.06
399.941	95.06
400.165	105.06
400.389	97.06
400.613	85.06
400.837	80.06
401.062	98.06
401.286	81.06
401.51	77.06
401.734	93.06
401.958	110.06
402.182	113.06
402.406	132.06
402.63	124.06
402.854	98.06
403.078	100.06
403.302	90.06
403.526	98.06
403.75	96.06
403.974	78.06
404.198	90.06
404.422	82.06
404.645	83.06
404.869	87.06
405.093	97.06
405.317	97.06
405.541	108.06
405.765	100.06
405.988	111.06
406.212	161.06
406.436	208.06
406.66	143.06
406.883	111.06
407.107	93.06
407.331	120.06
407.555	107.06
407.778	114.06
408.002	96.06
408.226	110.06
408.449	94.06
408.673	97.06
408.896	101.06
409.12	105.06
409.344	109.06
409.567	92.06
409.791	98.06
410.014	109.06
410.238	77.06
410.461	97.06
410.685	95.06
410.908	95.06
411.132	118.06
411.355	106.06
411.578	111.06
411.802	89.06
412.025	105.06
412.249	90.06
412.472	100.06
412.695	88.06
412.919	90.06
413.142	87.06
413.365	92.06
413.589	96.06
413.812	87.06
414.035	93.06
414.258	104.06
414.482	97.06
414.705	84.06
414.928	93.06
415.151	87.06
415.374	104.06
415.597	93.06
415.821	96.06
416.044	86.06
416.267	93.06
416.49	96.06
416.713	100.06
416.936	96.06
417.159	84.06
417.382	88.06
417.605	98.06
417.828	84.06
418.051	84.06
418.274	90.06
418.497	91.06
418.72	100.06
418.943	105.06
419.166	99.06
419.389	91.06
419.611	88.06
419.834	85.06
420.057	91.06
420.28	77.06
420.503	101.06
420.726	104.06
420.948	84.06
421.171	95.06
421.394	101.06
421.617	102.06
421.839	95.06
422.062	88.06
422.285	92.06
422.507	88.06
422.73	108.06
422.953	94.06
423.175	90.06
423.398	91.06
423.621	99.06
423.843	97.06
424.066	88.06
424.288	94.06
424.511	94.06
424.733	117.06
424.956	104.06
425.178	98.06
425.401	104.06
425.623	105.06
425.846	106.06
426.068	101.06
426.291	102.06
426.513	88.06
426.735	87.06
426.958	89.06
427.18	118.06
427.402	134.06
427.625	159.06
427.847	141.06
428.069	132.06
428.292	116.06
428.514	88.06
428.736	96.06
428.958	90.06
429.181	86.06
429.403	96.06
429.625	101.06
429.847	78.06
430.069	110.06
430.292	104.06
430.514	88.06
430.736	85.06
430.958	88.06
431.18	86.06
431.402	89.06
431.624	101.06
431.846	94.06
432.068	79.06
432.29	83.06
432.512	105.06
432.734	89.06
432.956	87.06
433.178	104.06
433.4	91.06
433.622	103.06
433.844	86.06
434.066	88.06
434.287	89.06
434.509	101.06
434.731	79.06
434.953	93.06
435.175	86.06
435.397	86.06
435.618	96.06
435.84	117.06
436.062	130.06
436.284	114.06
436.505	109.06
436.727	91.06
436.949	93.06
437.17	97.06
437.392	95.06
437.614	91.06
437.835	111.06
438.057	122.06
438.278	105.06
438.5	106.06
438.721	118.06
438.943	110.06
439.165	79.06
439.386	96.06
439.608	98.06
439.829	100.06
440.05	130.06
440.272	116.06
440.493	89.06
440.715	98.06
440.936	101.06
441.158	91.06
441.379	105.06
441.6	100.06
441.822	90.06
442.043	116.06
442.264	106.06
442.486	104.06
442.707	90.06
442.928	94.06
443.149	126.06
443.371	130.06
443.592	119.06
443.813	122.06
444.034	125.06
444.255	79.06
444.476	87.06
444.698	82.06
444.919	86.06
445.14	127.06
445.361	136.06
445.582	113.06
445.803	117.06
446.024	118.06
446.245	126.06
446.466	121.06
446.687	94.06
446.908	102.06
447.129	95.06
447.35	111.06
447.571	93.06
447.792	85.06
448.013	97.06
448.234	120.06
448.455	102.06
448.675	116.06
448.896	129.06
449.117	97.06
449.338	119.06
449.559	132.06
449.779	133.06
450	93.06
450.221	104.06
450.442	109.06
450.662	82.06
450.883	110.06
451.104	111.06
451.324	110.06
451.545	101.06
451.766	95.06
451.986	97.06
452.207	97.06
452.428	93.06
452.648	88.06
452.869	94.06
453.089	111.06
453.31	109.06
453.53	94.06
453.751	88.06
453.971	101.06
454.192	112.06
454.412	84.06
454.633	90.06
454.853	89.06
455.073	87.06
455.294	86.06
455.514	105.06
455.734	88.06
455.955	95.06
456.175	83.06
456.395	79.06
456.616	70.06
456.836	95.06
457.056	82.06
457.276	80.06
457.497	94.06
457.717	71.06
457.937	80.06
458.157	89.06
458.377	86.06
458.598	102.06
458.818	138.06
459.038	152.06
459.258	125.06
459.478	101.06
459.698	87.06
459.918	85.06
460.138	79.06
460.358	86.06
460.578	99.06
460.798	85.06
461.018	92.06
461.238	94.06
461.458	92.06
461.678	97.06
461.898	93.06
462.118	82.06
462.338	88.06
462.558	97.06
462.777	100.06
462.997	88.06
463.217	86.06
463.437	94.06
463.657	85.06
463.876	77.06
464.096	87.06
464.316	99.06
464.536	91.06
464.755	97.06
464.975	97.06
465.195	162.06
465.414	165.06
465.634	105.06
465.854	98.06
466.073	98.06
466.293	103.06
466.512	98.06
466.732	94.06
466.951	85.06
467.171	93.06
467.391	85.06
467.61	96.06
467.829	105.06
468.049	129.06
468.268	144.06
468.488	90.06
468.707	83.06
468.927	95.06
469.146	98.06
469.365	102.06
469.585	102.06
469.804	107.06
470.023	93.06
470.243	97.06
470.462	97.06
470.681	109.06
470.901	91.06
471.12	91.06
471.339	93.06
471.558	88.06
471.777	91.06
471.997	94.06
472.216	153.06
472.435	235.06
472.654	125.06
472.873	79.06
473.092	87.06
473.311	95.06
473.53	101.06
473.749	100.06
473.968	91.06
474.187	105.06
474.406	94.06
474.625	90.06
474.844	92.06
475.063	93.06
475.282	92.06
475.501	87.06
475.72	74.06
475.939	81.06
476.158	93.06
476.377	94.06
476.596	99.06
476.814	91.06
477.033	96.06
477.252	95.06
477.471	95.06
477.69	107.06
477.908	102.06
478.127	103.06
478.346	92.06
478.564	88.06
478.783	89.06
479.002	104.06
479.22	99.06
479.439	109.06
479.658	105.06
479.876	92.06
480.095	85.06
480.313	92.06
480.532	92.06
480.751	102.06
480.969	181.06
481.188	423.06
481.406	278.06
481.624	111.06
481.843	108.06
482.061	89.06
482.28	87.06
482.498	90.06
482.717	101.06
482.935	90.06
483.153	100.06
483.372	80.06
483.59	84.06
483.808	94.06
484.027	95.06
484.245	92.06
484.463	91.06
484.681	92.06
484.9	96.06
485.118	92.06
485.336	101.06
485.554	106.06
485.772	107.06
485.99	103.06
486.209	115.06
486.427	121.06
486.645	108.06
486.863	112.06
487.081	119.06
487.299	107.06
487.517	96.06
487.735	85.06
487.953	89.06
488.171	89.06
488.389	91.06
488.607	103.06
488.825	94.06
489.043	107.06
489.261	92.06
489.479	116.06
489.696	87.06
489.914	82.06
490.132	101.06
490.35	101.06
490.568	93.06
490.786	87.06
491.003	88.06
491.221	92.06
491.439	97.06
491.657	87.06
491.874	77.06
492.092	106.06
492.31	93.06
492.527	89.06
492.745	79.06
492.963	85.06
493.18	87.06
493.398	86.06
493.615	95.06
493.833	86.06
494.05	99.06
494.268	100.06
494.485	104.06
494.703	97.06
494.92	93.06
495.138	107.06
495.355	88.06
495.573	88.06
495.79	90.06
496.008	99.06
496.225	98.06
496.442	88.06
496.66	104.06
496.877	95.06
497.094	81.06
497.312	90.06
497.529	102.06
497.746	100.06
497.963	85.06
498.181	113.06
498.398	95.06
498.615	107.06
498.832	99.06
499.049	75.06
499.267	102.06
499.484	85.06
499.701	85.06
499.918	99.06
500.135	86.06
500.352	104.06
500.569	84.06
500.786	88.06
501.003	81.06
501.22	90.06
501.437	103.06
501.654	97.06
501.871	122.06
502.088	107.06
502.305	89.06
502.522	81.06
502.739	72.06
502.956	97.06
503.172	97.06
503.389	107.06
503.606	100.06
503.823	105.06
504.04	98.06
504.256	86.06
504.473	100.06
504.69	95.06
504.907	101.06
505.123	92.06
505.34	95.06
505.557	92.06
505.773	86.06
505.99	90.06
506.207	86.06
506.423	83.06
506.64	91.06
506.856	102.06
507.073	100.06
507.289	95.06
507.506	103.06
507.722	105.06
507.939	118.06
508.155	89.06
508.372	97.06
508.588	103.06
508.805	92.06
509.021	102.06
509.238	92.06
509.454	107.06
509.67	108.06
509.887	113.06
510.103	133.06
510.319	212.06
510.536	770.06
510.752	2496.06
510.968	712.06
511.184	162.06
511.401	123.06
511.617	114.06
511.833	94.06
512.049	84.06
512.265	91.06
512.481	93.06
512.698	92.06
512.914	100.06
513.13	94.06
513.346	83.06
513.562	102.06
513.778	94.06
513.994	101.06
514.21	108.06
