Data from Circ_2016_H10_HRD10591_00039.txt Node
Date: Wed Jan 03 09:58:48 EST 2024
User: Yrep
Spectrometer: HR+D1059
Trigger mode: 1
Integration Time (sec): 1.000000E-1
Scans to average: 1
Electric dark correction enabled: true
Nonlinearity correction enabled: false
Boxcar width: 0
XAxis mode: Wavelengths
Number of Pixels in Spectrum: 2048
>>>>>Begin Spectral Data<<<<<
223.165	-14.44
223.4	-14.44
223.635	-14.44
223.869	-13.44
224.104	-15.44
224.338	-16.44
224.573	-20.44
224.808	-13.44
225.042	-7.44
225.277	-1.44
225.511	0.56
225.746	9.56
225.98	-14.44
226.215	18.56
226.449	21.56
226.683	21.56
226.918	19.56
227.152	25.56
227.387	41.56
227.621	36.56
227.856	41.56
228.09	46.56
228.324	52.56
228.559	49.56
228.793	65.56
229.027	60.56
229.262	65.56
229.496	51.56
229.73	76.56
229.964	75.56
230.199	64.56
230.433	70.56
230.667	64.56
230.901	62.56
231.136	77.56
231.37	78.56
231.604	70.56
231.838	78.56
232.072	85.56
232.306	79.56
232.541	79.56
232.775	101.56
233.009	82.56
233.243	70.56
233.477	85.56
233.711	72.56
233.945	75.56
234.179	83.56
234.413	79.56
234.647	75.56
234.881	82.56
235.115	71.56
235.349	81.56
235.583	78.56
235.817	71.56
236.051	63.56
236.285	82.56
236.519	85.56
236.753	77.56
236.987	85.56
237.221	76.56
237.455	78.56
237.689	74.56
237.922	52.56
238.156	81.56
238.39	88.56
238.624	77.56
238.858	77.56
239.091	80.56
239.325	56.56
239.559	63.56
239.793	83.56
240.027	72.56
240.26	68.56
240.494	88.56
240.728	61.56
240.961	69.56
241.195	65.56
241.429	63.56
241.662	69.56
241.896	72.56
242.13	73.56
242.363	75.56
242.597	78.56
242.83	71.56
243.064	62.56
243.298	81.56
243.531	70.56
243.765	75.56
243.998	87.56
244.232	80.56
244.465	76.56
244.699	72.56
244.932	67.56
245.166	69.56
245.399	65.56
245.633	77.56
245.866	78.56
246.099	81.56
246.333	76.56
246.566	59.56
246.8	64.56
247.033	73.56
247.266	79.56
247.5	71.56
247.733	89.56
247.966	68.56
248.2	82.56
248.433	71.56
248.666	77.56
248.899	80.56
249.133	83.56
249.366	88.56
249.599	82.56
249.832	66.56
250.066	66.56
250.299	83.56
250.532	69.56
250.765	68.56
250.998	85.56
251.231	82.56
251.465	84.56
251.698	83.56
251.931	78.56
252.164	71.56
252.397	58.56
252.63	69.56
252.863	76.56
253.096	78.56
253.329	86.56
253.562	82.56
253.795	74.56
254.028	83.56
254.261	70.56
254.494	75.56
254.727	78.56
254.96	85.56
255.193	78.56
255.426	93.56
255.659	76.56
255.892	67.56
256.124	68.56
256.357	92.56
256.59	72.56
256.823	74.56
257.056	75.56
257.289	72.56
257.521	69.56
257.754	74.56
257.987	81.56
258.22	79.56
258.452	70.56
258.685	82.56
258.918	73.56
259.151	75.56
259.383	70.56
259.616	82.56
259.849	89.56
260.081	64.56
260.314	77.56
260.547	74.56
260.779	82.56
261.012	85.56
261.244	86.56
261.477	88.56
261.71	94.56
261.942	104.56
262.175	126.56
262.407	82.56
262.64	80.56
262.872	85.56
263.105	76.56
263.337	84.56
263.57	86.56
263.802	74.56
264.035	96.56
264.267	86.56
264.499	72.56
264.732	69.56
264.964	82.56
265.197	88.56
265.429	79.56
265.661	68.56
265.894	94.56
266.126	85.56
266.358	78.56
266.591	89.56
266.823	67.56
267.055	81.56
267.287	83.56
267.52	84.56
267.752	83.56
267.984	75.56
268.216	80.56
268.448	87.56
268.681	79.56
268.913	78.56
269.145	86.56
269.377	65.56
269.609	67.56
269.841	67.56
270.073	78.56
270.306	88.56
270.538	82.56
270.77	75.56
271.002	81.56
271.234	79.56
271.466	82.56
271.698	85.56
271.93	78.56
272.162	99.56
272.394	98.56
272.626	77.56
272.858	83.56
273.09	82.56
273.322	83.56
273.553	87.56
273.785	81.56
274.017	83.56
274.249	80.56
274.481	67.56
274.713	86.56
274.945	90.56
275.176	85.56
275.408	83.56
275.64	87.56
275.872	79.56
276.104	86.56
276.335	78.56
276.567	94.56
276.799	116.56
277.031	98.56
277.262	83.56
277.494	95.56
277.726	74.56
277.957	87.56
278.189	77.56
278.421	85.56
278.652	81.56
278.884	77.56
279.115	89.56
279.347	85.56
279.579	84.56
279.81	81.56
280.042	78.56
280.273	74.56
280.505	75.56
280.736	82.56
280.968	85.56
281.199	78.56
281.431	89.56
281.662	98.56
281.894	95.56
282.125	103.56
282.356	120.56
282.588	144.56
282.819	120.56
283.051	87.56
283.282	83.56
283.513	88.56
283.745	84.56
283.976	98.56
284.207	96.56
284.439	87.56
284.67	97.56
284.901	85.56
285.132	94.56
285.364	80.56
285.595	75.56
285.826	94.56
286.057	91.56
286.288	90.56
286.52	81.56
286.751	84.56
286.982	90.56
287.213	96.56
287.444	76.56
287.675	82.56
287.906	80.56
288.138	84.56
288.369	93.56
288.6	96.56
288.831	82.56
289.062	95.56
289.293	81.56
289.524	87.56
289.755	77.56
289.986	88.56
290.217	100.56
290.448	77.56
290.679	75.56
290.91	93.56
291.141	82.56
291.371	87.56
291.602	82.56
291.833	77.56
292.064	80.56
292.295	91.56
292.526	84.56
292.757	97.56
292.987	85.56
293.218	91.56
293.449	79.56
293.68	87.56
293.91	94.56
294.141	93.56
294.372	96.56
294.603	86.56
294.833	88.56
295.064	89.56
295.295	90.56
295.525	104.56
295.756	90.56
295.987	118.56
296.217	150.56
296.448	128.56
296.679	84.56
296.909	94.56
297.14	78.56
297.37	92.56
297.601	85.56
297.831	83.56
298.062	82.56
298.292	82.56
298.523	85.56
298.753	93.56
298.984	83.56
299.214	98.56
299.445	69.56
299.675	83.56
299.905	98.56
300.136	89.56
300.366	79.56
300.597	89.56
300.827	89.56
301.057	92.56
301.288	99.56
301.518	91.56
301.748	81.56
301.979	109.56
302.209	83.56
302.439	95.56
302.669	94.56
302.9	84.56
303.13	93.56
303.36	85.56
303.59	89.56
303.82	117.56
304.051	78.56
304.281	81.56
304.511	87.56
304.741	95.56
304.971	82.56
305.201	96.56
305.431	85.56
305.661	82.56
305.891	97.56
306.121	96.56
306.352	102.56
306.582	112.56
306.812	96.56
307.042	96.56
307.272	87.56
307.502	89.56
307.731	87.56
307.961	84.56
308.191	88.56
308.421	103.56
308.651	76.56
308.881	84.56
309.111	93.56
309.341	96.56
309.571	95.56
309.8	88.56
310.03	106.56
310.26	97.56
310.49	89.56
310.72	98.56
310.949	86.56
311.179	98.56
311.409	96.56
311.639	88.56
311.868	89.56
312.098	98.56
312.328	93.56
312.557	99.56
312.787	113.56
313.017	100.56
313.246	94.56
313.476	85.56
313.706	84.56
313.935	79.56
314.165	94.56
314.394	98.56
314.624	98.56
314.853	83.56
315.083	78.56
315.312	74.56
315.542	89.56
315.771	91.56
316.001	81.56
316.23	78.56
316.46	85.56
316.689	83.56
316.919	91.56
317.148	90.56
317.377	101.56
317.607	89.56
317.836	85.56
318.065	92.56
318.295	96.56
318.524	82.56
318.753	84.56
318.983	95.56
319.212	103.56
319.441	99.56
319.67	109.56
319.9	90.56
320.129	87.56
320.358	88.56
320.587	94.56
320.816	91.56
321.046	111.56
321.275	112.56
321.504	97.56
321.733	98.56
321.962	105.56
322.191	94.56
322.42	108.56
322.649	96.56
322.878	113.56
323.108	121.56
323.337	130.56
323.566	131.56
323.795	157.56
324.024	209.56
324.253	468.56
324.482	976.56
324.71	1973.56
324.939	2579.56
325.168	956.56
325.397	269.56
325.626	147.56
325.855	127.56
326.084	135.56
326.313	147.56
326.542	169.56
326.77	239.56
326.999	505.56
327.228	1085.56
327.457	1962.56
327.686	1547.56
327.914	410.56
328.143	211.56
328.372	146.56
328.6	129.56
328.829	114.56
329.058	135.56
329.287	138.56
329.515	102.56
329.744	106.56
329.972	112.56
330.201	112.56
330.43	114.56
330.658	141.56
330.887	153.56
331.115	125.56
331.344	93.56
331.572	106.56
331.801	104.56
332.03	106.56
332.258	95.56
332.486	91.56
332.715	89.56
332.943	99.56
333.172	91.56
333.4	79.56
333.629	112.56
333.857	120.56
334.085	105.56
334.314	106.56
334.542	113.56
334.771	123.56
334.999	112.56
335.227	88.56
335.455	93.56
335.684	85.56
335.912	91.56
336.14	87.56
336.369	102.56
336.597	101.56
336.825	90.56
337.053	86.56
337.281	90.56
337.51	94.56
337.738	89.56
337.966	94.56
338.194	101.56
338.422	91.56
338.65	93.56
338.878	94.56
339.106	85.56
339.334	87.56
339.562	90.56
339.79	96.56
340.018	100.56
340.246	91.56
340.474	76.56
340.702	85.56
340.93	82.56
341.158	96.56
341.386	98.56
341.614	83.56
341.842	89.56
342.07	99.56
342.298	98.56
342.526	87.56
342.754	85.56
342.981	81.56
343.209	101.56
343.437	88.56
343.665	96.56
343.893	90.56
344.12	86.56
344.348	81.56
344.576	94.56
344.804	83.56
345.031	78.56
345.259	88.56
345.487	105.56
345.714	102.56
345.942	77.56
346.17	96.56
346.397	92.56
346.625	87.56
346.853	81.56
347.08	72.56
347.308	91.56
347.535	97.56
347.763	119.56
347.99	92.56
348.218	102.56
348.445	105.56
348.673	106.56
348.9	81.56
349.128	85.56
349.355	97.56
349.583	94.56
349.81	89.56
350.037	95.56
350.265	78.56
350.492	100.56
350.72	87.56
350.947	88.56
351.174	106.56
351.402	118.56
351.629	100.56
351.856	91.56
352.083	96.56
352.311	113.56
352.538	103.56
352.765	129.56
352.992	109.56
353.22	113.56
353.447	109.56
353.674	83.56
353.901	95.56
354.128	90.56
354.355	88.56
354.583	106.56
354.81	98.56
355.037	98.56
355.264	96.56
355.491	112.56
355.718	101.56
355.945	94.56
356.172	93.56
356.399	79.56
356.626	106.56
356.853	94.56
357.08	97.56
357.307	101.56
357.534	82.56
357.761	80.56
357.988	92.56
358.215	89.56
358.441	90.56
358.668	90.56
358.895	84.56
359.122	93.56
359.349	89.56
359.576	92.56
359.802	96.56
360.029	109.56
360.256	108.56
360.483	98.56
360.709	85.56
360.936	101.56
361.163	91.56
361.39	91.56
361.616	93.56
361.843	96.56
362.07	80.56
362.296	114.56
362.523	88.56
362.749	84.56
362.976	86.56
363.203	89.56
363.429	101.56
363.656	83.56
363.882	100.56
364.109	92.56
364.335	89.56
364.562	82.56
364.788	85.56
365.015	86.56
365.241	101.56
365.468	106.56
365.694	94.56
365.92	102.56
366.147	81.56
366.373	90.56
366.599	91.56
366.826	91.56
367.052	77.56
367.278	70.56
367.505	90.56
367.731	87.56
367.957	78.56
368.184	87.56
368.41	106.56
368.636	114.56
368.862	124.56
369.089	93.56
369.315	96.56
369.541	102.56
369.767	83.56
369.993	73.56
370.219	82.56
370.445	83.56
370.672	87.56
370.898	81.56
371.124	83.56
371.35	87.56
371.576	73.56
371.802	95.56
372.028	90.56
372.254	89.56
372.48	82.56
372.706	88.56
372.932	81.56
373.158	93.56
373.384	93.56
373.61	105.56
373.835	90.56
374.061	85.56
374.287	95.56
374.513	84.56
374.739	91.56
374.965	80.56
375.191	98.56
375.416	86.56
375.642	92.56
375.868	77.56
376.094	91.56
376.319	79.56
376.545	102.56
376.771	89.56
376.997	86.56
377.222	90.56
377.448	87.56
377.674	102.56
377.899	93.56
378.125	94.56
378.35	103.56
378.576	82.56
378.802	82.56
379.027	90.56
379.253	99.56
379.478	89.56
379.704	96.56
379.929	95.56
380.155	98.56
380.38	91.56
380.606	98.56
380.831	106.56
381.057	94.56
381.282	110.56
381.507	99.56
381.733	96.56
381.958	102.56
382.184	104.56
382.409	91.56
382.634	106.56
382.86	114.56
383.085	121.56
383.31	114.56
383.535	113.56
383.761	112.56
383.986	105.56
384.211	119.56
384.436	86.56
384.662	106.56
384.887	129.56
385.112	120.56
385.337	115.56
385.562	124.56
385.787	110.56
386.013	134.56
386.238	134.56
386.463	125.56
386.688	129.56
386.913	122.56
387.138	125.56
387.363	110.56
387.588	105.56
387.813	102.56
388.038	124.56
388.263	130.56
388.488	123.56
388.713	103.56
388.938	84.56
389.163	83.56
389.387	102.56
389.612	86.56
389.837	90.56
390.062	97.56
390.287	85.56
390.512	88.56
390.736	101.56
390.961	86.56
391.186	87.56
391.411	91.56
391.636	97.56
391.86	76.56
392.085	93.56
392.31	86.56
392.534	87.56
392.759	84.56
392.984	85.56
393.208	89.56
393.433	103.56
393.658	103.56
393.882	88.56
394.107	65.56
394.331	82.56
394.556	87.56
394.78	75.56
395.005	96.56
395.229	69.56
395.454	72.56
395.678	83.56
395.903	76.56
396.127	98.56
396.352	89.56
396.576	97.56
396.801	79.56
397.025	88.56
397.249	85.56
397.474	83.56
397.698	79.56
397.922	88.56
398.147	79.56
398.371	89.56
398.595	79.56
398.82	80.56
399.044	81.56
399.268	80.56
399.492	96.56
399.717	95.56
399.941	86.56
400.165	83.56
400.389	84.56
400.613	78.56
400.837	71.56
401.062	98.56
401.286	92.56
401.51	87.56
401.734	82.56
401.958	98.56
402.182	132.56
402.406	175.56
402.63	117.56
402.854	102.56
403.078	96.56
403.302	84.56
403.526	104.56
403.75	87.56
403.974	92.56
404.198	96.56
404.422	95.56
404.645	91.56
404.869	87.56
405.093	99.56
405.317	88.56
405.541	111.56
405.765	112.56
405.988	122.56
406.212	193.56
406.436	239.56
406.66	141.56
406.883	106.56
407.107	83.56
407.331	87.56
407.555	99.56
407.778	92.56
408.002	102.56
408.226	87.56
408.449	85.56
408.673	97.56
408.896	85.56
409.12	81.56
409.344	95.56
409.567	88.56
409.791	87.56
410.014	72.56
410.238	91.56
410.461	72.56
410.685	88.56
410.908	86.56
411.132	95.56
411.355	86.56
411.578	86.56
411.802	99.56
412.025	91.56
412.249	84.56
412.472	87.56
412.695	96.56
412.919	95.56
413.142	77.56
413.365	79.56
413.589	82.56
413.812	68.56
414.035	82.56
414.258	99.56
414.482	90.56
414.705	95.56
414.928	85.56
415.151	93.56
415.374	91.56
415.597	87.56
415.821	88.56
416.044	86.56
416.267	102.56
416.49	81.56
416.713	79.56
416.936	80.56
417.159	94.56
417.382	90.56
417.605	90.56
417.828	95.56
418.051	84.56
418.274	88.56
418.497	78.56
418.72	95.56
418.943	94.56
419.166	89.56
419.389	81.56
419.611	88.56
419.834	79.56
420.057	73.56
420.28	70.56
420.503	89.56
420.726	86.56
420.948	83.56
421.171	86.56
421.394	89.56
421.617	101.56
421.839	88.56
422.062	102.56
422.285	84.56
422.507	96.56
422.73	96.56
422.953	94.56
423.175	82.56
423.398	84.56
423.621	78.56
423.843	85.56
424.066	92.56
424.288	86.56
424.511	94.56
424.733	104.56
424.956	105.56
425.178	96.56
425.401	88.56
425.623	97.56
425.846	81.56
426.068	96.56
426.291	84.56
426.513	88.56
426.735	90.56
426.958	94.56
427.18	99.56
427.402	141.56
427.625	173.56
427.847	139.56
428.069	115.56
428.292	83.56
428.514	96.56
428.736	79.56
428.958	81.56
429.181	82.56
429.403	69.56
429.625	86.56
429.847	88.56
430.069	106.56
430.292	95.56
430.514	72.56
430.736	87.56
430.958	86.56
431.18	81.56
431.402	89.56
431.624	96.56
431.846	66.56
432.068	78.56
432.29	89.56
432.512	78.56
432.734	88.56
432.956	82.56
433.178	86.56
433.4	88.56
433.622	86.56
433.844	84.56
434.066	108.56
434.287	86.56
434.509	88.56
434.731	96.56
434.953	89.56
435.175	82.56
435.397	77.56
435.618	95.56
435.84	106.56
436.062	105.56
436.284	96.56
436.505	112.56
436.727	91.56
436.949	96.56
437.17	82.56
437.392	71.56
437.614	79.56
437.835	117.56
438.057	140.56
438.278	102.56
438.5	113.56
438.721	127.56
438.943	106.56
439.165	95.56
439.386	93.56
439.608	103.56
439.829	129.56
440.05	115.56
440.272	146.56
440.493	95.56
440.715	83.56
440.936	87.56
441.158	93.56
441.379	77.56
441.6	78.56
441.822	90.56
442.043	93.56
442.264	110.56
442.486	104.56
442.707	88.56
442.928	101.56
443.149	129.56
443.371	130.56
443.592	106.56
443.813	100.56
444.034	98.56
444.255	93.56
444.476	98.56
444.698	82.56
444.919	91.56
445.14	135.56
445.361	131.56
445.582	130.56
445.803	141.56
446.024	131.56
446.245	121.56
446.466	111.56
446.687	103.56
446.908	99.56
447.129	98.56
447.35	101.56
447.571	87.56
447.792	91.56
448.013	88.56
448.234	109.56
448.455	96.56
448.675	108.56
448.896	116.56
449.117	101.56
449.338	101.56
449.559	117.56
449.779	143.56
450	93.56
450.221	87.56
450.442	82.56
450.662	100.56
450.883	105.56
451.104	115.56
451.324	81.56
451.545	74.56
451.766	88.56
451.986	89.56
452.207	78.56
452.428	96.56
452.648	102.56
452.869	104.56
453.089	118.56
453.31	120.56
453.53	88.56
453.751	80.56
453.971	92.56
454.192	108.56
454.412	91.56
454.633	97.56
454.853	82.56
455.073	80.56
455.294	95.56
455.514	95.56
455.734	95.56
455.955	87.56
456.175	96.56
456.395	64.56
456.616	80.56
456.836	75.56
457.056	78.56
457.276	80.56
457.497	88.56
457.717	74.56
457.937	82.56
458.157	100.56
458.377	87.56
458.598	101.56
458.818	150.56
459.038	175.56
459.258	115.56
459.478	75.56
459.698	69.56
459.918	74.56
460.138	79.56
460.358	83.56
460.578	91.56
460.798	83.56
461.018	96.56
461.238	85.56
461.458	91.56
461.678	82.56
461.898	80.56
462.118	77.56
462.338	84.56
462.558	77.56
462.777	78.56
462.997	75.56
463.217	71.56
463.437	84.56
463.657	74.56
463.876	86.56
464.096	86.56
464.316	95.56
464.536	97.56
464.755	87.56
464.975	121.56
465.195	172.56
465.414	173.56
465.634	90.56
465.854	91.56
466.073	95.56
466.293	78.56
466.512	87.56
466.732	80.56
466.951	87.56
467.171	81.56
467.391	98.56
467.61	99.56
467.829	91.56
468.049	86.56
468.268	91.56
468.488	90.56
468.707	83.56
468.927	87.56
469.146	84.56
469.365	90.56
469.585	86.56
469.804	88.56
470.023	99.56
470.243	96.56
470.462	89.56
470.681	122.56
470.901	102.56
471.12	82.56
471.339	78.56
471.558	90.56
471.777	81.56
471.997	84.56
472.216	99.56
472.435	129.56
472.654	100.56
472.873	87.56
473.092	91.56
473.311	81.56
473.53	88.56
473.749	80.56
473.968	89.56
474.187	101.56
474.406	82.56
474.625	72.56
474.844	78.56
475.063	77.56
475.282	99.56
475.501	85.56
475.72	95.56
475.939	76.56
476.158	78.56
476.377	81.56
476.596	85.56
476.814	91.56
477.033	86.56
477.252	86.56
477.471	90.56
477.69	89.56
477.908	82.56
478.127	78.56
478.346	84.56
478.564	82.56
478.783	92.56
479.002	93.56
479.22	93.56
479.439	100.56
479.658	94.56
479.876	97.56
480.095	98.56
480.313	83.56
480.532	82.56
480.751	90.56
480.969	113.56
481.188	156.56
481.406	125.56
481.624	100.56
481.843	70.56
482.061	96.56
482.28	91.56
482.498	66.56
482.717	87.56
482.935	77.56
483.153	82.56
483.372	86.56
483.59	81.56
483.808	89.56
484.027	76.56
484.245	91.56
484.463	81.56
484.681	102.56
484.9	88.56
485.118	96.56
485.336	97.56
485.554	96.56
485.772	97.56
485.99	106.56
486.209	111.56
486.427	92.56
486.645	95.56
486.863	108.56
487.081	113.56
487.299	104.56
487.517	107.56
487.735	85.56
487.953	83.56
488.171	100.56
488.389	93.56
488.607	106.56
488.825	86.56
489.043	90.56
489.261	100.56
489.479	91.56
489.696	72.56
489.914	84.56
490.132	84.56
490.35	102.56
490.568	80.56
490.786	91.56
491.003	94.56
491.221	95.56
491.439	76.56
491.657	97.56
491.874	85.56
492.092	81.56
492.31	92.56
492.527	83.56
492.745	95.56
492.963	98.56
493.18	95.56
493.398	93.56
493.615	84.56
493.833	85.56
494.05	86.56
494.268	92.56
494.485	94.56
494.703	90.56
494.92	89.56
495.138	79.56
495.355	72.56
495.573	72.56
495.79	72.56
496.008	83.56
496.225	88.56
496.442	96.56
496.66	97.56
496.877	79.56
497.094	93.56
497.312	95.56
497.529	85.56
497.746	81.56
497.963	85.56
498.181	89.56
498.398	81.56
498.615	111.56
498.832	93.56
499.049	88.56
499.267	97.56
499.484	82.56
499.701	94.56
499.918	92.56
500.135	97.56
500.352	73.56
500.569	81.56
500.786	82.56
501.003	83.56
501.22	80.56
501.437	72.56
501.654	83.56
501.871	113.56
502.088	88.56
502.305	89.56
502.522	94.56
502.739	80.56
502.956	69.56
503.172	77.56
503.389	97.56
503.606	114.56
503.823	98.56
504.04	94.56
504.256	96.56
504.473	68.56
504.69	69.56
504.907	95.56
505.123	98.56
505.34	89.56
505.557	74.56
505.773	82.56
505.99	88.56
506.207	82.56
506.423	82.56
506.64	75.56
506.856	71.56
507.073	85.56
507.289	91.56
507.506	87.56
507.722	114.56
507.939	107.56
508.155	101.56
508.372	96.56
508.588	102.56
508.805	86.56
509.021	94.56
509.238	102.56
509.454	110.56
509.67	99.56
509.887	105.56
510.103	111.56
510.319	236.56
510.536	895.56
510.752	2991.56
510.968	852.56
511.184	171.56
511.401	101.56
511.617	99.56
511.833	90.56
512.049	87.56
512.265	78.56
512.481	95.56
512.698	95.56
512.914	90.56
513.13	91.56
513.346	102.56
513.562	80.56
513.778	90.56
513.994	93.56
514.21	100.56
514.426	124.56
514.642	156.56
514.858	141.56
515.074	179.56
515.29	517.56
515.506	1811.56
515.721	679.56
515.937	160.56
516.153	101.56
