Data from Circ_2016_H10_HRD10591_00071.txt Node
Date: Wed Jan 03 09:58:54 EST 2024
User: Yrep
Spectrometer: HR+D1059
Trigger mode: 1
Integration Time (sec): 1.000000E-1
Scans to average: 1
Electric dark correction enabled: true
Nonlinearity correction enabled: false
Boxcar width: 0
XAxis mode: Wavelengths
Number of Pixels in Spectrum: 2048
>>>>>Begin Spectral Data<<<<<
223.165	-21.06
223.4	-21.06
223.635	-21.06
223.869	-29.06
224.104	-16.06
224.338	-28.06
224.573	-13.06
224.808	-7.06
225.042	1.94
225.277	-9.06
225.511	-2.06
225.746	14.94
225.98	-0.06
226.215	10.94
226.449	17.94
226.683	24.94
226.918	20.94
227.152	33.94
227.387	37.94
227.621	36.94
227.856	40.94
228.09	49.94
228.324	41.94
228.559	51.94
228.793	60.94
229.027	63.94
229.262	70.94
229.496	66.94
229.73	85.94
229.964	76.94
230.199	65.94
230.433	67.94
230.667	89.94
230.901	65.94
231.136	72.94
231.37	86.94
231.604	69.94
231.838	64.94
232.072	75.94
232.306	80.94
232.541	80.94
232.775	73.94
233.009	72.94
233.243	86.94
233.477	81.94
233.711	79.94
233.945	68.94
234.179	73.94
234.413	69.94
234.647	79.94
234.881	85.94
235.115	65.94
235.349	77.94
235.583	70.94
235.817	66.94
236.051	77.94
236.285	71.94
236.519	83.94
236.753	63.94
236.987	59.94
237.221	84.94
237.455	80.94
237.689	70.94
237.922	79.94
238.156	70.94
238.39	70.94
238.624	90.94
238.858	73.94
239.091	67.94
239.325	71.94
239.559	83.94
239.793	73.94
240.027	75.94
240.26	61.94
240.494	77.94
240.728	86.94
240.961	71.94
241.195	85.94
241.429	77.94
241.662	67.94
241.896	69.94
242.13	79.94
242.363	79.94
242.597	57.94
242.83	63.94
243.064	85.94
243.298	74.94
243.531	69.94
243.765	70.94
243.998	68.94
244.232	87.94
244.465	82.94
244.699	69.94
244.932	79.94
245.166	72.94
245.399	75.94
245.633	67.94
245.866	82.94
246.099	85.94
246.333	68.94
246.566	86.94
246.8	60.94
247.033	66.94
247.266	74.94
247.5	78.94
247.733	73.94
247.966	79.94
248.2	82.94
248.433	83.94
248.666	79.94
248.899	76.94
249.133	87.94
249.366	88.94
249.599	88.94
249.832	77.94
250.066	89.94
250.299	88.94
250.532	74.94
250.765	78.94
250.998	85.94
251.231	66.94
251.465	81.94
251.698	71.94
251.931	68.94
252.164	72.94
252.397	80.94
252.63	72.94
252.863	67.94
253.096	67.94
253.329	78.94
253.562	77.94
253.795	78.94
254.028	75.94
254.261	76.94
254.494	82.94
254.727	97.94
254.96	73.94
255.193	83.94
255.426	65.94
255.659	70.94
255.892	80.94
256.124	81.94
256.357	72.94
256.59	87.94
256.823	67.94
257.056	80.94
257.289	73.94
257.521	68.94
257.754	78.94
257.987	74.94
258.22	75.94
258.452	80.94
258.685	81.94
258.918	93.94
259.151	73.94
259.383	88.94
259.616	61.94
259.849	67.94
260.081	89.94
260.314	96.94
260.547	79.94
260.779	95.94
261.012	75.94
261.244	74.94
261.477	61.94
261.71	84.94
261.942	94.94
262.175	98.94
262.407	73.94
262.64	67.94
262.872	85.94
263.105	80.94
263.337	95.94
263.57	80.94
263.802	75.94
264.035	78.94
264.267	74.94
264.499	82.94
264.732	91.94
264.964	76.94
265.197	82.94
265.429	78.94
265.661	84.94
265.894	80.94
266.126	79.94
266.358	86.94
266.591	87.94
266.823	87.94
267.055	83.94
267.287	75.94
267.52	88.94
267.752	85.94
267.984	82.94
268.216	75.94
268.448	81.94
268.681	79.94
268.913	84.94
269.145	77.94
269.377	99.94
269.609	79.94
269.841	78.94
270.073	76.94
270.306	69.94
270.538	74.94
270.77	83.94
271.002	78.94
271.234	82.94
271.466	75.94
271.698	77.94
271.93	86.94
272.162	85.94
272.394	86.94
272.626	81.94
272.858	82.94
273.09	72.94
273.322	80.94
273.553	71.94
273.785	72.94
274.017	86.94
274.249	79.94
274.481	80.94
274.713	98.94
274.945	76.94
275.176	80.94
275.408	93.94
275.64	80.94
275.872	79.94
276.104	78.94
276.335	78.94
276.567	81.94
276.799	96.94
277.031	94.94
277.262	79.94
277.494	88.94
277.726	90.94
277.957	85.94
278.189	78.94
278.421	92.94
278.652	75.94
278.884	89.94
279.115	77.94
279.347	74.94
279.579	88.94
279.81	81.94
280.042	84.94
280.273	85.94
280.505	78.94
280.736	77.94
280.968	91.94
281.199	82.94
281.431	81.94
281.662	82.94
281.894	79.94
282.125	96.94
282.356	113.94
282.588	158.94
282.819	119.94
283.051	87.94
283.282	82.94
283.513	94.94
283.745	79.94
283.976	96.94
284.207	77.94
284.439	85.94
284.67	88.94
284.901	77.94
285.132	77.94
285.364	86.94
285.595	82.94
285.826	69.94
286.057	81.94
286.288	85.94
286.52	80.94
286.751	86.94
286.982	82.94
287.213	73.94
287.444	81.94
287.675	74.94
287.906	78.94
288.138	87.94
288.369	81.94
288.6	86.94
288.831	88.94
289.062	81.94
289.293	80.94
289.524	88.94
289.755	88.94
289.986	98.94
290.217	73.94
290.448	85.94
290.679	82.94
290.91	81.94
291.141	82.94
291.371	88.94
291.602	73.94
291.833	83.94
292.064	86.94
292.295	95.94
292.526	87.94
292.757	75.94
292.987	83.94
293.218	89.94
293.449	90.94
293.68	95.94
293.91	95.94
294.141	87.94
294.372	95.94
294.603	88.94
294.833	93.94
295.064	74.94
295.295	73.94
295.525	87.94
295.756	103.94
295.987	122.94
296.217	135.94
296.448	115.94
296.679	77.94
296.909	67.94
297.14	83.94
297.37	79.94
297.601	86.94
297.831	84.94
298.062	75.94
298.292	80.94
298.523	93.94
298.753	83.94
298.984	69.94
299.214	75.94
299.445	97.94
299.675	89.94
299.905	98.94
300.136	85.94
300.366	92.94
300.597	87.94
300.827	103.94
301.057	90.94
301.288	97.94
301.518	84.94
301.748	82.94
301.979	102.94
302.209	81.94
302.439	86.94
302.669	83.94
302.9	79.94
303.13	90.94
303.36	87.94
303.59	101.94
303.82	90.94
304.051	89.94
304.281	87.94
304.511	88.94
304.741	91.94
304.971	90.94
305.201	102.94
305.431	79.94
305.661	98.94
305.891	93.94
306.121	104.94
306.352	113.94
306.582	87.94
306.812	73.94
307.042	87.94
307.272	92.94
307.502	100.94
307.731	90.94
307.961	90.94
308.191	86.94
308.421	94.94
308.651	93.94
308.881	77.94
309.111	100.94
309.341	94.94
309.571	90.94
309.8	91.94
310.03	78.94
310.26	109.94
310.49	86.94
310.72	97.94
310.949	102.94
311.179	89.94
311.409	81.94
311.639	87.94
311.868	95.94
312.098	98.94
312.328	82.94
312.557	111.94
312.787	88.94
313.017	98.94
313.246	86.94
313.476	80.94
313.706	81.94
313.935	81.94
314.165	108.94
314.394	114.94
314.624	101.94
314.853	87.94
315.083	88.94
315.312	89.94
315.542	93.94
315.771	91.94
316.001	89.94
316.23	110.94
316.46	92.94
316.689	89.94
316.919	89.94
317.148	87.94
317.377	98.94
317.607	85.94
317.836	85.94
318.065	78.94
318.295	90.94
318.524	88.94
318.753	91.94
318.983	100.94
319.212	101.94
319.441	105.94
319.67	110.94
319.9	92.94
320.129	89.94
320.358	92.94
320.587	86.94
320.816	93.94
321.046	95.94
321.275	96.94
321.504	101.94
321.733	100.94
321.962	100.94
322.191	93.94
322.42	100.94
322.649	82.94
322.878	109.94
323.108	113.94
323.337	113.94
323.566	118.94
323.795	133.94
324.024	234.94
324.253	402.94
324.482	847.94
324.71	1766.94
324.939	2327.94
325.168	834.94
325.397	250.94
325.626	149.94
325.855	133.94
326.084	121.94
326.313	146.94
326.542	151.94
326.77	242.94
326.999	476.94
327.228	1002.94
327.457	1804.94
327.686	1416.94
327.914	375.94
328.143	190.94
328.372	147.94
328.6	128.94
328.829	104.94
329.058	126.94
329.287	131.94
329.515	116.94
329.744	111.94
329.972	120.94
330.201	132.94
330.43	135.94
330.658	130.94
330.887	131.94
331.115	117.94
331.344	101.94
331.572	106.94
331.801	121.94
332.03	96.94
332.258	98.94
332.486	90.94
332.715	81.94
332.943	79.94
333.172	97.94
333.4	86.94
333.629	90.94
333.857	112.94
334.085	120.94
334.314	109.94
334.542	137.94
334.771	156.94
334.999	121.94
335.227	104.94
335.455	80.94
335.684	87.94
335.912	99.94
336.14	103.94
336.369	99.94
336.597	89.94
336.825	89.94
337.053	90.94
337.281	89.94
337.51	90.94
337.738	93.94
337.966	80.94
338.194	88.94
338.422	94.94
338.65	93.94
338.878	73.94
339.106	76.94
339.334	94.94
339.562	90.94
339.79	85.94
340.018	94.94
340.246	95.94
340.474	97.94
340.702	102.94
340.93	90.94
341.158	86.94
341.386	94.94
341.614	117.94
341.842	84.94
342.07	92.94
342.298	86.94
342.526	65.94
342.754	77.94
342.981	94.94
343.209	90.94
343.437	83.94
343.665	90.94
343.893	85.94
344.12	74.94
344.348	105.94
344.576	90.94
344.804	72.94
345.031	103.94
345.259	99.94
345.487	94.94
345.714	88.94
345.942	98.94
346.17	81.94
346.397	88.94
346.625	95.94
346.853	87.94
347.08	92.94
347.308	84.94
347.535	88.94
347.763	91.94
347.99	86.94
348.218	105.94
348.445	105.94
348.673	99.94
348.9	100.94
349.128	102.94
349.355	102.94
349.583	89.94
349.81	77.94
350.037	85.94
350.265	98.94
350.492	90.94
350.72	94.94
350.947	89.94
351.174	101.94
351.402	97.94
351.629	87.94
351.856	96.94
352.083	100.94
352.311	98.94
352.538	103.94
352.765	105.94
352.992	111.94
353.22	105.94
353.447	103.94
353.674	97.94
353.901	95.94
354.128	91.94
354.355	89.94
354.583	93.94
354.81	94.94
355.037	100.94
355.264	87.94
355.491	98.94
355.718	91.94
355.945	77.94
356.172	89.94
356.399	93.94
356.626	96.94
356.853	94.94
357.08	98.94
357.307	87.94
357.534	94.94
357.761	80.94
357.988	105.94
358.215	96.94
358.441	87.94
358.668	79.94
358.895	83.94
359.122	81.94
359.349	92.94
359.576	97.94
359.802	107.94
360.029	91.94
360.256	104.94
360.483	86.94
360.709	86.94
360.936	101.94
361.163	93.94
361.39	87.94
361.616	90.94
361.843	90.94
362.07	72.94
362.296	90.94
362.523	98.94
362.749	86.94
362.976	77.94
363.203	88.94
363.429	81.94
363.656	88.94
363.882	89.94
364.109	86.94
364.335	87.94
364.562	87.94
364.788	86.94
365.015	93.94
365.241	77.94
365.468	101.94
365.694	97.94
365.92	90.94
366.147	90.94
366.373	78.94
366.599	93.94
366.826	88.94
367.052	83.94
367.278	79.94
367.505	86.94
367.731	74.94
367.957	97.94
368.184	87.94
368.41	82.94
368.636	87.94
368.862	116.94
369.089	98.94
369.315	95.94
369.541	99.94
369.767	85.94
369.993	92.94
370.219	79.94
370.445	80.94
370.672	91.94
370.898	85.94
371.124	86.94
371.35	89.94
371.576	71.94
371.802	67.94
372.028	93.94
372.254	84.94
372.48	101.94
372.706	94.94
372.932	93.94
373.158	75.94
373.384	73.94
373.61	81.94
373.835	91.94
374.061	77.94
374.287	94.94
374.513	79.94
374.739	85.94
374.965	95.94
375.191	87.94
375.416	82.94
375.642	98.94
375.868	94.94
376.094	92.94
376.319	83.94
376.545	84.94
376.771	72.94
376.997	85.94
377.222	93.94
377.448	86.94
377.674	90.94
377.899	81.94
378.125	87.94
378.35	79.94
378.576	96.94
378.802	69.94
379.027	83.94
379.253	98.94
379.478	87.94
379.704	86.94
379.929	101.94
380.155	101.94
380.38	89.94
380.606	87.94
380.831	90.94
381.057	90.94
381.282	104.94
381.507	98.94
381.733	103.94
381.958	107.94
382.184	97.94
382.409	100.94
382.634	104.94
382.86	99.94
383.085	102.94
383.31	97.94
383.535	100.94
383.761	98.94
383.986	99.94
384.211	90.94
384.436	96.94
384.662	88.94
384.887	107.94
385.112	100.94
385.337	108.94
385.562	103.94
385.787	112.94
386.013	118.94
386.238	115.94
386.463	97.94
386.688	88.94
386.913	111.94
387.138	115.94
387.363	98.94
387.588	111.94
387.813	95.94
388.038	112.94
388.263	112.94
388.488	115.94
388.713	71.94
388.938	88.94
389.163	105.94
389.387	83.94
389.612	91.94
389.837	94.94
390.062	101.94
390.287	87.94
390.512	73.94
390.736	90.94
390.961	100.94
391.186	101.94
391.411	93.94
391.636	92.94
391.86	78.94
392.085	83.94
392.31	72.94
392.534	71.94
392.759	82.94
392.984	94.94
393.208	76.94
393.433	92.94
393.658	90.94
393.882	82.94
394.107	85.94
394.331	84.94
394.556	89.94
394.78	96.94
395.005	95.94
395.229	97.94
395.454	95.94
395.678	85.94
395.903	85.94
396.127	81.94
396.352	80.94
396.576	88.94
396.801	80.94
397.025	79.94
397.249	82.94
397.474	86.94
397.698	78.94
397.922	92.94
398.147	81.94
398.371	85.94
398.595	78.94
398.82	76.94
399.044	81.94
399.268	82.94
399.492	93.94
399.717	93.94
399.941	77.94
400.165	86.94
400.389	91.94
400.613	78.94
400.837	72.94
401.062	82.94
401.286	82.94
401.51	88.94
401.734	79.94
401.958	95.94
402.182	116.94
402.406	136.94
402.63	133.94
402.854	94.94
403.078	87.94
403.302	79.94
403.526	98.94
403.75	76.94
403.974	91.94
404.198	78.94
404.422	86.94
404.645	88.94
404.869	79.94
405.093	82.94
405.317	115.94
405.541	106.94
405.765	91.94
405.988	112.94
406.212	165.94
406.436	199.94
406.66	142.94
406.883	98.94
407.107	98.94
407.331	95.94
407.555	97.94
407.778	100.94
408.002	96.94
408.226	72.94
408.449	89.94
408.673	90.94
408.896	99.94
409.12	78.94
409.344	89.94
409.567	86.94
409.791	89.94
410.014	89.94
410.238	75.94
410.461	83.94
410.685	83.94
410.908	84.94
411.132	101.94
411.355	86.94
411.578	95.94
411.802	82.94
412.025	81.94
412.249	80.94
412.472	88.94
412.695	91.94
412.919	95.94
413.142	88.94
413.365	86.94
413.589	90.94
413.812	82.94
414.035	84.94
414.258	90.94
414.482	92.94
414.705	80.94
414.928	85.94
415.151	92.94
415.374	71.94
415.597	67.94
415.821	95.94
416.044	84.94
416.267	77.94
416.49	104.94
416.713	90.94
416.936	82.94
417.159	95.94
417.382	97.94
417.605	91.94
417.828	93.94
418.051	98.94
418.274	93.94
418.497	65.94
418.72	89.94
418.943	79.94
419.166	79.94
419.389	83.94
419.611	89.94
419.834	107.94
420.057	81.94
420.28	85.94
420.503	89.94
420.726	78.94
420.948	89.94
421.171	94.94
421.394	93.94
421.617	76.94
421.839	89.94
422.062	83.94
422.285	83.94
422.507	93.94
422.73	89.94
422.953	94.94
423.175	78.94
423.398	82.94
423.621	86.94
423.843	91.94
424.066	92.94
424.288	94.94
424.511	97.94
424.733	113.94
424.956	86.94
425.178	86.94
425.401	90.94
425.623	89.94
425.846	87.94
426.068	91.94
426.291	87.94
426.513	101.94
426.735	82.94
426.958	95.94
427.18	101.94
427.402	142.94
427.625	153.94
427.847	134.94
428.069	114.94
428.292	95.94
428.514	90.94
428.736	73.94
428.958	83.94
429.181	75.94
429.403	81.94
429.625	80.94
429.847	78.94
430.069	104.94
430.292	75.94
430.514	84.94
430.736	92.94
430.958	88.94
431.18	80.94
431.402	79.94
431.624	82.94
431.846	92.94
432.068	97.94
432.29	97.94
432.512	86.94
432.734	80.94
432.956	73.94
433.178	98.94
433.4	94.94
433.622	105.94
433.844	101.94
434.066	98.94
434.287	95.94
434.509	80.94
434.731	79.94
434.953	83.94
435.175	90.94
435.397	91.94
435.618	93.94
435.84	109.94
436.062	117.94
436.284	98.94
436.505	91.94
436.727	86.94
436.949	103.94
437.17	76.94
437.392	82.94
437.614	89.94
437.835	110.94
438.057	112.94
438.278	106.94
438.5	104.94
438.721	110.94
438.943	113.94
439.165	73.94
439.386	85.94
439.608	95.94
439.829	80.94
440.05	111.94
440.272	139.94
440.493	96.94
440.715	78.94
440.936	91.94
441.158	94.94
441.379	78.94
441.6	78.94
441.822	89.94
442.043	89.94
442.264	92.94
442.486	94.94
442.707	89.94
442.928	93.94
443.149	117.94
443.371	133.94
443.592	90.94
443.813	101.94
444.034	103.94
444.255	81.94
444.476	86.94
444.698	80.94
444.919	81.94
445.14	127.94
445.361	129.94
445.582	109.94
445.803	132.94
446.024	129.94
446.245	130.94
446.466	113.94
446.687	85.94
446.908	81.94
447.129	85.94
447.35	89.94
447.571	82.94
447.792	84.94
448.013	86.94
448.234	102.94
448.455	100.94
448.675	97.94
448.896	98.94
449.117	104.94
449.338	109.94
449.559	117.94
449.779	114.94
450	96.94
450.221	90.94
450.442	90.94
450.662	84.94
450.883	83.94
451.104	104.94
451.324	90.94
451.545	81.94
451.766	71.94
451.986	82.94
452.207	105.94
452.428	87.94
452.648	75.94
452.869	94.94
453.089	101.94
453.31	79.94
453.53	97.94
453.751	79.94
453.971	99.94
454.192	98.94
454.412	80.94
454.633	82.94
454.853	91.94
455.073	73.94
455.294	80.94
455.514	102.94
455.734	87.94
455.955	92.94
456.175	82.94
456.395	78.94
456.616	82.94
456.836	79.94
457.056	80.94
457.276	67.94
457.497	94.94
457.717	85.94
457.937	82.94
458.157	75.94
458.377	68.94
458.598	96.94
458.818	143.94
459.038	154.94
459.258	104.94
459.478	98.94
459.698	95.94
459.918	78.94
460.138	83.94
460.358	82.94
460.578	82.94
460.798	88.94
461.018	92.94
461.238	88.94
461.458	101.94
461.678	72.94
461.898	67.94
462.118	74.94
462.338	89.94
462.558	94.94
462.777	70.94
462.997	77.94
463.217	83.94
463.437	89.94
463.657	83.94
463.876	88.94
464.096	85.94
464.316	85.94
464.536	87.94
464.755	82.94
464.975	105.94
465.195	145.94
465.414	138.94
465.634	113.94
465.854	86.94
466.073	81.94
466.293	90.94
466.512	91.94
466.732	88.94
466.951	90.94
467.171	85.94
467.391	85.94
467.61	100.94
467.829	97.94
468.049	102.94
468.268	116.94
468.488	82.94
468.707	91.94
468.927	85.94
469.146	84.94
469.365	77.94
469.585	70.94
469.804	100.94
470.023	87.94
470.243	88.94
470.462	93.94
470.681	89.94
470.901	106.94
471.12	90.94
471.339	84.94
471.558	88.94
471.777	87.94
471.997	85.94
472.216	128.94
472.435	183.94
472.654	100.94
472.873	96.94
473.092	81.94
473.311	97.94
473.53	85.94
473.749	80.94
473.968	83.94
474.187	96.94
474.406	101.94
474.625	91.94
474.844	90.94
475.063	90.94
475.282	77.94
475.501	79.94
475.72	78.94
475.939	93.94
476.158	89.94
476.377	86.94
476.596	95.94
476.814	95.94
477.033	94.94
477.252	82.94
477.471	67.94
477.69	86.94
477.908	85.94
478.127	75.94
478.346	93.94
478.564	80.94
478.783	82.94
479.002	86.94
479.22	89.94
479.439	82.94
479.658	105.94
479.876	78.94
480.095	99.94
480.313	97.94
480.532	98.94
480.751	87.94
480.969	146.94
481.188	260.94
481.406	197.94
481.624	97.94
481.843	75.94
482.061	72.94
482.28	82.94
482.498	81.94
482.717	82.94
482.935	87.94
483.153	95.94
483.372	92.94
483.59	92.94
483.808	87.94
484.027	98.94
484.245	94.94
484.463	84.94
484.681	91.94
484.9	85.94
485.118	94.94
485.336	94.94
485.554	96.94
485.772	97.94
485.99	104.94
486.209	118.94
486.427	101.94
486.645	104.94
486.863	117.94
487.081	90.94
487.299	91.94
487.517	78.94
487.735	90.94
487.953	85.94
488.171	93.94
488.389	83.94
488.607	88.94
488.825	94.94
489.043	101.94
489.261	93.94
489.479	94.94
489.696	80.94
489.914	90.94
490.132	102.94
490.35	90.94
490.568	83.94
490.786	88.94
491.003	91.94
491.221	90.94
491.439	91.94
491.657	101.94
491.874	99.94
492.092	82.94
492.31	80.94
492.527	75.94
492.745	95.94
492.963	79.94
493.18	96.94
493.398	97.94
493.615	100.94
493.833	87.94
494.05	83.94
494.268	79.94
494.485	94.94
494.703	90.94
494.92	92.94
495.138	90.94
495.355	89.94
495.573	97.94
495.79	78.94
496.008	107.94
496.225	93.94
496.442	86.94
496.66	93.94
496.877	82.94
497.094	89.94
497.312	82.94
497.529	90.94
497.746	83.94
497.963	87.94
498.181	82.94
498.398	90.94
498.615	103.94
498.832	101.94
499.049	85.94
499.267	96.94
499.484	93.94
499.701	82.94
499.918	79.94
500.135	90.94
500.352	93.94
500.569	101.94
500.786	106.94
501.003	93.94
501.22	94.94
501.437	79.94
501.654	90.94
501.871	105.94
502.088	92.94
502.305	91.94
502.522	93.94
502.739	93.94
502.956	89.94
503.172	100.94
503.389	79.94
503.606	102.94
503.823	98.94
504.04	106.94
504.256	104.94
504.473	84.94
504.69	81.94
504.907	83.94
505.123	91.94
505.34	91.94
505.557	94.94
505.773	85.94
505.99	81.94
506.207	86.94
506.423	74.94
506.64	87.94
506.856	98.94
507.073	103.94
507.289	86.94
507.506	98.94
507.722	121.94
507.939	117.94
508.155	106.94
508.372	101.94
508.588	76.94
508.805	101.94
509.021	88.94
509.238	89.94
509.454	82.94
509.67	104.94
509.887	115.94
510.103	117.94
510.319	201.94
510.536	763.94
510.752	2481.94
510.968	719.94
511.184	177.94
511.401	100.94
511.617	83.94
511.833	106.94
512.049	100.94
512.265	85.94
512.481	97.94
512.698	99.94
512.914	81.94
513.13	102.94
513.346	93.94
513.562	99.94
513.778	95.94
513.994	101.94
514.21	93.94
514.426	122.94
514.642	127.94
514.858	115.94
515.074	149.94
515.29	425.94
515.506	1434.94
515.721	533.94
515.937	159.94
516.153	95.94
516.369	101.94
516.585	103.94
