Data from Circ_2016_H10_HRD10591_00098.txt Node
Date: Wed Jan 03 09:59:00 EST 2024
User: Yrep
Spectrometer: HR+D1059
Trigger mode: 1
Integration Time (sec): 1.000000E-1
Scans to average: 1
Electric dark correction enabled: true
Nonlinearity correction enabled: false
Boxcar width: 0
XAxis mode: Wavelengths
Number of Pixels in Spectrum: 2048
>>>>>Begin Spectral Data<<<<<
223.165	-15.5
223.4	-15.5
223.635	-15.5
223.869	-4.5
224.104	-10.5
224.338	-12.5
224.573	-2.5
224.808	-4.5
225.042	-19.5
225.277	-5.5
225.511	-2.5
225.746	-4.5
225.98	8.5
226.215	12.5
226.449	7.5
226.683	10.5
226.918	6.5
227.152	36.5
227.387	21.5
227.621	39.5
227.856	38.5
228.09	55.5
228.324	55.5
228.559	62.5
228.793	68.5
229.027	69.5
229.262	66.5
229.496	82.5
229.73	79.5
229.964	81.5
230.199	80.5
230.433	80.5
230.667	72.5
230.901	81.5
231.136	72.5
231.37	80.5
231.604	79.5
231.838	71.5
232.072	86.5
232.306	90.5
232.541	78.5
232.775	92.5
233.009	76.5
233.243	72.5
233.477	94.5
233.711	86.5
233.945	87.5
234.179	78.5
234.413	88.5
234.647	74.5
234.881	77.5
235.115	74.5
235.349	86.5
235.583	86.5
235.817	79.5
236.051	79.5
236.285	74.5
236.519	85.5
236.753	84.5
236.987	76.5
237.221	75.5
237.455	78.5
237.689	70.5
237.922	102.5
238.156	72.5
238.39	83.5
238.624	80.5
238.858	78.5
239.091	71.5
239.325	86.5
239.559	77.5
239.793	83.5
240.027	88.5
240.26	78.5
240.494	66.5
240.728	72.5
240.961	74.5
241.195	91.5
241.429	66.5
241.662	85.5
241.896	92.5
242.13	70.5
242.363	72.5
242.597	75.5
242.83	88.5
243.064	90.5
243.298	85.5
243.531	80.5
243.765	66.5
243.998	77.5
244.232	84.5
244.465	84.5
244.699	66.5
244.932	80.5
245.166	63.5
245.399	79.5
245.633	76.5
245.866	83.5
246.099	85.5
246.333	74.5
246.566	70.5
246.8	82.5
247.033	82.5
247.266	81.5
247.5	79.5
247.733	85.5
247.966	76.5
248.2	76.5
248.433	77.5
248.666	89.5
248.899	90.5
249.133	64.5
249.366	86.5
249.599	99.5
249.832	91.5
250.066	80.5
250.299	78.5
250.532	74.5
250.765	76.5
250.998	87.5
251.231	77.5
251.465	87.5
251.698	90.5
251.931	78.5
252.164	88.5
252.397	98.5
252.63	107.5
252.863	79.5
253.096	82.5
253.329	61.5
253.562	84.5
253.795	82.5
254.028	84.5
254.261	80.5
254.494	84.5
254.727	91.5
254.96	86.5
255.193	78.5
255.426	81.5
255.659	80.5
255.892	80.5
256.124	86.5
256.357	81.5
256.59	74.5
256.823	69.5
257.056	96.5
257.289	79.5
257.521	73.5
257.754	84.5
257.987	91.5
258.22	81.5
258.452	76.5
258.685	92.5
258.918	78.5
259.151	77.5
259.383	73.5
259.616	79.5
259.849	76.5
260.081	75.5
260.314	72.5
260.547	81.5
260.779	71.5
261.012	87.5
261.244	102.5
261.477	79.5
261.71	88.5
261.942	109.5
262.175	101.5
262.407	94.5
262.64	86.5
262.872	83.5
263.105	92.5
263.337	92.5
263.57	80.5
263.802	87.5
264.035	94.5
264.267	79.5
264.499	74.5
264.732	79.5
264.964	82.5
265.197	89.5
265.429	81.5
265.661	109.5
265.894	86.5
266.126	85.5
266.358	92.5
266.591	76.5
266.823	80.5
267.055	87.5
267.287	106.5
267.52	83.5
267.752	96.5
267.984	92.5
268.216	87.5
268.448	90.5
268.681	84.5
268.913	93.5
269.145	90.5
269.377	78.5
269.609	67.5
269.841	68.5
270.073	80.5
270.306	85.5
270.538	93.5
270.77	86.5
271.002	83.5
271.234	85.5
271.466	78.5
271.698	89.5
271.93	100.5
272.162	88.5
272.394	99.5
272.626	85.5
272.858	91.5
273.09	90.5
273.322	100.5
273.553	89.5
273.785	82.5
274.017	75.5
274.249	84.5
274.481	93.5
274.713	93.5
274.945	79.5
275.176	83.5
275.408	91.5
275.64	82.5
275.872	94.5
276.104	87.5
276.335	98.5
276.567	90.5
276.799	97.5
277.031	100.5
277.262	87.5
277.494	94.5
277.726	78.5
277.957	75.5
278.189	87.5
278.421	85.5
278.652	83.5
278.884	83.5
279.115	90.5
279.347	87.5
279.579	91.5
279.81	82.5
280.042	92.5
280.273	90.5
280.505	88.5
280.736	92.5
280.968	86.5
281.199	90.5
281.431	85.5
281.662	97.5
281.894	80.5
282.125	76.5
282.356	108.5
282.588	143.5
282.819	116.5
283.051	86.5
283.282	94.5
283.513	83.5
283.745	98.5
283.976	89.5
284.207	91.5
284.439	93.5
284.67	92.5
284.901	92.5
285.132	94.5
285.364	84.5
285.595	92.5
285.826	94.5
286.057	87.5
286.288	92.5
286.52	99.5
286.751	78.5
286.982	87.5
287.213	87.5
287.444	90.5
287.675	91.5
287.906	77.5
288.138	78.5
288.369	84.5
288.6	98.5
288.831	75.5
289.062	93.5
289.293	90.5
289.524	84.5
289.755	97.5
289.986	96.5
290.217	79.5
290.448	90.5
290.679	82.5
290.91	101.5
291.141	70.5
291.371	78.5
291.602	87.5
291.833	84.5
292.064	81.5
292.295	94.5
292.526	106.5
292.757	83.5
292.987	90.5
293.218	90.5
293.449	86.5
293.68	88.5
293.91	84.5
294.141	89.5
294.372	85.5
294.603	87.5
294.833	76.5
295.064	77.5
295.295	94.5
295.525	88.5
295.756	101.5
295.987	120.5
296.217	142.5
296.448	130.5
296.679	93.5
296.909	96.5
297.14	80.5
297.37	91.5
297.601	89.5
297.831	103.5
298.062	88.5
298.292	93.5
298.523	85.5
298.753	89.5
298.984	83.5
299.214	86.5
299.445	98.5
299.675	83.5
299.905	111.5
300.136	89.5
300.366	78.5
300.597	98.5
300.827	101.5
301.057	102.5
301.288	93.5
301.518	93.5
301.748	97.5
301.979	93.5
302.209	84.5
302.439	89.5
302.669	82.5
302.9	96.5
303.13	93.5
303.36	83.5
303.59	109.5
303.82	113.5
304.051	89.5
304.281	82.5
304.511	83.5
304.741	79.5
304.971	89.5
305.201	85.5
305.431	79.5
305.661	78.5
305.891	89.5
306.121	91.5
306.352	90.5
306.582	100.5
306.812	94.5
307.042	105.5
307.272	113.5
307.502	94.5
307.731	112.5
307.961	91.5
308.191	96.5
308.421	96.5
308.651	94.5
308.881	102.5
309.111	79.5
309.341	91.5
309.571	97.5
309.8	100.5
310.03	95.5
310.26	98.5
310.49	83.5
310.72	94.5
310.949	96.5
311.179	94.5
311.409	110.5
311.639	94.5
311.868	102.5
312.098	94.5
312.328	76.5
312.557	96.5
312.787	106.5
313.017	114.5
313.246	91.5
313.476	90.5
313.706	90.5
313.935	96.5
314.165	101.5
314.394	92.5
314.624	102.5
314.853	105.5
315.083	109.5
315.312	95.5
315.542	90.5
315.771	98.5
316.001	84.5
316.23	91.5
316.46	85.5
316.689	92.5
316.919	72.5
317.148	100.5
317.377	95.5
317.607	89.5
317.836	89.5
318.065	88.5
318.295	91.5
318.524	105.5
318.753	86.5
318.983	104.5
319.212	107.5
319.441	104.5
319.67	106.5
319.9	97.5
320.129	102.5
320.358	96.5
320.587	84.5
320.816	111.5
321.046	110.5
321.275	83.5
321.504	107.5
321.733	94.5
321.962	108.5
322.191	99.5
322.42	99.5
322.649	100.5
322.878	107.5
323.108	102.5
323.337	150.5
323.566	128.5
323.795	152.5
324.024	218.5
324.253	438.5
324.482	913.5
324.71	1872.5
324.939	2500.5
325.168	928.5
325.397	264.5
325.626	153.5
325.855	132.5
326.084	124.5
326.313	137.5
326.542	170.5
326.77	247.5
326.999	512.5
327.228	1077.5
327.457	1958.5
327.686	1542.5
327.914	397.5
328.143	212.5
328.372	174.5
328.6	135.5
328.829	115.5
329.058	127.5
329.287	129.5
329.515	110.5
329.744	114.5
329.972	123.5
330.201	143.5
330.43	187.5
330.658	152.5
330.887	138.5
331.115	105.5
331.344	118.5
331.572	116.5
331.801	104.5
332.03	106.5
332.258	106.5
332.486	98.5
332.715	90.5
332.943	97.5
333.172	105.5
333.4	106.5
333.629	102.5
333.857	130.5
334.085	130.5
334.314	157.5
334.542	184.5
334.771	205.5
334.999	135.5
335.227	94.5
335.455	96.5
335.684	97.5
335.912	103.5
336.14	111.5
336.369	110.5
336.597	100.5
336.825	97.5
337.053	95.5
337.281	92.5
337.51	88.5
337.738	93.5
337.966	88.5
338.194	96.5
338.422	120.5
338.65	84.5
338.878	90.5
339.106	79.5
339.334	86.5
339.562	85.5
339.79	84.5
340.018	89.5
340.246	90.5
340.474	96.5
340.702	96.5
340.93	92.5
341.158	92.5
341.386	92.5
341.614	96.5
341.842	86.5
342.07	95.5
342.298	91.5
342.526	84.5
342.754	88.5
342.981	87.5
343.209	72.5
343.437	90.5
343.665	96.5
343.893	93.5
344.12	101.5
344.348	86.5
344.576	94.5
344.804	101.5
345.031	93.5
345.259	93.5
345.487	99.5
345.714	84.5
345.942	111.5
346.17	93.5
346.397	87.5
346.625	96.5
346.853	84.5
347.08	83.5
347.308	89.5
347.535	122.5
347.763	101.5
347.99	105.5
348.218	109.5
348.445	89.5
348.673	92.5
348.9	94.5
349.128	95.5
349.355	96.5
349.583	104.5
349.81	92.5
350.037	97.5
350.265	100.5
350.492	95.5
350.72	102.5
350.947	95.5
351.174	107.5
351.402	106.5
351.629	107.5
351.856	101.5
352.083	95.5
352.311	106.5
352.538	113.5
352.765	102.5
352.992	131.5
353.22	121.5
353.447	109.5
353.674	102.5
353.901	106.5
354.128	92.5
354.355	100.5
354.583	111.5
354.81	95.5
355.037	95.5
355.264	89.5
355.491	95.5
355.718	87.5
355.945	80.5
356.172	93.5
356.399	105.5
356.626	88.5
356.853	81.5
357.08	87.5
357.307	104.5
357.534	94.5
357.761	98.5
357.988	106.5
358.215	92.5
358.441	98.5
358.668	87.5
358.895	86.5
359.122	92.5
359.349	94.5
359.576	85.5
359.802	104.5
360.029	103.5
360.256	104.5
360.483	100.5
360.709	92.5
360.936	78.5
361.163	81.5
361.39	91.5
361.616	94.5
361.843	98.5
362.07	103.5
362.296	84.5
362.523	96.5
362.749	87.5
362.976	88.5
363.203	98.5
363.429	88.5
363.656	73.5
363.882	74.5
364.109	88.5
364.335	82.5
364.562	94.5
364.788	91.5
365.015	91.5
365.241	105.5
365.468	99.5
365.694	108.5
365.92	104.5
366.147	90.5
366.373	94.5
366.599	91.5
366.826	88.5
367.052	102.5
367.278	90.5
367.505	90.5
367.731	86.5
367.957	93.5
368.184	77.5
368.41	102.5
368.636	105.5
368.862	118.5
369.089	100.5
369.315	91.5
369.541	92.5
369.767	92.5
369.993	90.5
370.219	88.5
370.445	87.5
370.672	97.5
370.898	88.5
371.124	102.5
371.35	79.5
371.576	95.5
371.802	76.5
372.028	87.5
372.254	96.5
372.48	101.5
372.706	87.5
372.932	96.5
373.158	91.5
373.384	91.5
373.61	89.5
373.835	85.5
374.061	84.5
374.287	97.5
374.513	93.5
374.739	85.5
374.965	86.5
375.191	91.5
375.416	92.5
375.642	92.5
375.868	102.5
376.094	98.5
376.319	90.5
376.545	101.5
376.771	104.5
376.997	77.5
377.222	91.5
377.448	74.5
377.674	90.5
377.899	98.5
378.125	86.5
378.35	92.5
378.576	98.5
378.802	96.5
379.027	99.5
379.253	90.5
379.478	99.5
379.704	97.5
379.929	102.5
380.155	98.5
380.38	99.5
380.606	90.5
380.831	92.5
381.057	91.5
381.282	95.5
381.507	103.5
381.733	99.5
381.958	96.5
382.184	87.5
382.409	106.5
382.634	115.5
382.86	102.5
383.085	105.5
383.31	97.5
383.535	111.5
383.761	108.5
383.986	104.5
384.211	101.5
384.436	91.5
384.662	91.5
384.887	102.5
385.112	103.5
385.337	110.5
385.562	110.5
385.787	89.5
386.013	110.5
386.238	115.5
386.463	109.5
386.688	115.5
386.913	126.5
387.138	102.5
387.363	103.5
387.588	99.5
387.813	85.5
388.038	93.5
388.263	100.5
388.488	128.5
388.713	97.5
388.938	86.5
389.163	95.5
389.387	96.5
389.612	91.5
389.837	99.5
390.062	102.5
390.287	91.5
390.512	94.5
390.736	86.5
390.961	89.5
391.186	84.5
391.411	91.5
391.636	93.5
391.86	104.5
392.085	91.5
392.31	79.5
392.534	75.5
392.759	93.5
392.984	87.5
393.208	75.5
393.433	95.5
393.658	98.5
393.882	87.5
394.107	92.5
394.331	92.5
394.556	92.5
394.78	98.5
395.005	83.5
395.229	84.5
395.454	86.5
395.678	79.5
395.903	93.5
396.127	83.5
396.352	85.5
396.576	93.5
396.801	89.5
397.025	87.5
397.249	84.5
397.474	92.5
397.698	95.5
397.922	88.5
398.147	92.5
398.371	85.5
398.595	87.5
398.82	82.5
399.044	93.5
399.268	88.5
399.492	92.5
399.717	78.5
399.941	92.5
400.165	86.5
400.389	104.5
400.613	86.5
400.837	101.5
401.062	80.5
401.286	103.5
401.51	93.5
401.734	97.5
401.958	103.5
402.182	121.5
402.406	163.5
402.63	115.5
402.854	99.5
403.078	79.5
403.302	94.5
403.526	98.5
403.75	87.5
403.974	77.5
404.198	89.5
404.422	87.5
404.645	87.5
404.869	84.5
405.093	101.5
405.317	102.5
405.541	102.5
405.765	101.5
405.988	115.5
406.212	162.5
406.436	212.5
406.66	149.5
406.883	76.5
407.107	100.5
407.331	107.5
407.555	103.5
407.778	96.5
408.002	91.5
408.226	78.5
408.449	88.5
408.673	86.5
408.896	92.5
409.12	110.5
409.344	102.5
409.567	97.5
409.791	92.5
410.014	94.5
410.238	87.5
410.461	91.5
410.685	99.5
410.908	106.5
411.132	96.5
411.355	110.5
411.578	99.5
411.802	88.5
412.025	77.5
412.249	82.5
412.472	89.5
412.695	101.5
412.919	91.5
413.142	106.5
413.365	85.5
413.589	93.5
413.812	91.5
414.035	84.5
414.258	95.5
414.482	103.5
414.705	97.5
414.928	92.5
415.151	88.5
415.374	103.5
415.597	82.5
415.821	75.5
416.044	90.5
416.267	87.5
416.49	92.5
416.713	82.5
416.936	95.5
417.159	93.5
417.382	77.5
417.605	79.5
417.828	97.5
418.051	87.5
418.274	97.5
418.497	91.5
418.72	94.5
418.943	90.5
419.166	77.5
419.389	86.5
419.611	95.5
419.834	94.5
420.057	95.5
420.28	91.5
420.503	102.5
420.726	94.5
420.948	91.5
421.171	78.5
421.394	98.5
421.617	89.5
421.839	84.5
422.062	96.5
422.285	93.5
422.507	91.5
422.73	110.5
422.953	100.5
423.175	83.5
423.398	83.5
423.621	94.5
423.843	87.5
424.066	76.5
424.288	88.5
424.511	92.5
424.733	100.5
424.956	100.5
425.178	87.5
425.401	96.5
425.623	100.5
425.846	82.5
426.068	104.5
426.291	99.5
426.513	95.5
426.735	94.5
426.958	91.5
427.18	110.5
427.402	126.5
427.625	170.5
427.847	156.5
428.069	124.5
428.292	114.5
428.514	79.5
428.736	90.5
428.958	62.5
429.181	89.5
429.403	80.5
429.625	88.5
429.847	91.5
430.069	104.5
430.292	102.5
430.514	75.5
430.736	80.5
430.958	98.5
431.18	83.5
431.402	87.5
431.624	90.5
431.846	96.5
432.068	86.5
432.29	80.5
432.512	100.5
432.734	91.5
432.956	84.5
433.178	87.5
433.4	100.5
433.622	99.5
433.844	73.5
434.066	103.5
434.287	92.5
434.509	88.5
434.731	93.5
434.953	84.5
435.175	92.5
435.397	99.5
435.618	81.5
435.84	102.5
436.062	129.5
436.284	118.5
436.505	110.5
436.727	100.5
436.949	99.5
437.17	87.5
437.392	86.5
437.614	96.5
437.835	112.5
438.057	130.5
438.278	96.5
438.5	98.5
438.721	133.5
438.943	103.5
439.165	79.5
439.386	91.5
439.608	96.5
439.829	88.5
440.05	128.5
440.272	126.5
440.493	103.5
440.715	85.5
440.936	80.5
441.158	103.5
441.379	84.5
441.6	104.5
441.822	99.5
442.043	101.5
442.264	102.5
442.486	102.5
442.707	97.5
442.928	105.5
443.149	126.5
443.371	125.5
443.592	110.5
443.813	106.5
444.034	100.5
444.255	98.5
444.476	87.5
444.698	88.5
444.919	89.5
445.14	139.5
445.361	127.5
445.582	118.5
445.803	141.5
446.024	132.5
446.245	145.5
446.466	111.5
446.687	91.5
446.908	94.5
447.129	79.5
447.35	83.5
447.571	102.5
447.792	98.5
448.013	91.5
448.234	89.5
448.455	97.5
448.675	112.5
448.896	111.5
449.117	105.5
449.338	112.5
449.559	139.5
449.779	130.5
450	103.5
450.221	98.5
450.442	96.5
450.662	100.5
450.883	96.5
451.104	103.5
451.324	103.5
451.545	83.5
451.766	90.5
451.986	67.5
452.207	76.5
452.428	101.5
452.648	96.5
452.869	117.5
453.089	110.5
453.31	129.5
453.53	96.5
453.751	97.5
453.971	93.5
454.192	112.5
454.412	100.5
454.633	94.5
454.853	78.5
455.073	88.5
455.294	94.5
455.514	111.5
455.734	90.5
455.955	83.5
456.175	95.5
456.395	83.5
456.616	97.5
456.836	87.5
457.056	95.5
457.276	72.5
457.497	90.5
457.717	73.5
457.937	79.5
458.157	95.5
458.377	99.5
458.598	111.5
458.818	148.5
459.038	158.5
459.258	112.5
459.478	79.5
459.698	82.5
459.918	95.5
460.138	77.5
460.358	77.5
460.578	100.5
460.798	86.5
461.018	105.5
461.238	99.5
461.458	64.5
461.678	85.5
461.898	93.5
462.118	89.5
462.338	76.5
462.558	97.5
462.777	85.5
462.997	88.5
463.217	101.5
463.437	93.5
463.657	87.5
463.876	91.5
464.096	95.5
464.316	103.5
464.536	89.5
464.755	98.5
464.975	98.5
465.195	157.5
465.414	154.5
465.634	91.5
465.854	95.5
466.073	86.5
466.293	95.5
466.512	88.5
466.732	86.5
466.951	86.5
467.171	88.5
467.391	89.5
467.61	107.5
467.829	92.5
468.049	125.5
468.268	123.5
468.488	85.5
468.707	108.5
468.927	82.5
469.146	90.5
469.365	84.5
469.585	78.5
469.804	94.5
470.023	101.5
470.243	95.5
470.462	99.5
470.681	102.5
470.901	88.5
471.12	85.5
471.339	79.5
471.558	92.5
471.777	88.5
471.997	110.5
472.216	158.5
472.435	254.5
472.654	129.5
472.873	85.5
473.092	93.5
473.311	92.5
473.53	84.5
473.749	78.5
473.968	100.5
474.187	85.5
474.406	94.5
474.625	93.5
474.844	77.5
475.063	91.5
475.282	91.5
475.501	100.5
475.72	102.5
475.939	108.5
476.158	88.5
476.377	66.5
476.596	95.5
476.814	99.5
477.033	97.5
477.252	84.5
477.471	93.5
477.69	92.5
477.908	86.5
478.127	86.5
478.346	86.5
478.564	91.5
478.783	101.5
479.002	107.5
479.22	85.5
479.439	118.5
479.658	109.5
479.876	86.5
480.095	91.5
480.313	88.5
480.532	111.5
480.751	103.5
480.969	160.5
481.188	412.5
481.406	287.5
481.624	95.5
481.843	91.5
482.061	97.5
482.28	105.5
482.498	97.5
482.717	88.5
482.935	77.5
483.153	72.5
483.372	86.5
483.59	87.5
483.808	91.5
484.027	100.5
484.245	84.5
484.463	103.5
484.681	95.5
484.9	95.5
485.118	88.5
485.336	96.5
485.554	114.5
485.772	88.5
485.99	102.5
486.209	103.5
486.427	113.5
486.645	115.5
486.863	125.5
487.081	99.5
487.299	77.5
487.517	94.5
487.735	87.5
487.953	86.5
488.171	103.5
488.389	107.5
488.607	107.5
488.825	98.5
489.043	93.5
489.261	97.5
489.479	85.5
489.696	88.5
489.914	79.5
490.132	99.5
490.35	87.5
490.568	86.5
490.786	97.5
491.003	103.5
491.221	82.5
491.439	87.5
491.657	98.5
491.874	99.5
492.092	95.5
492.31	94.5
492.527	85.5
492.745	95.5
492.963	104.5
493.18	94.5
493.398	95.5
493.615	103.5
493.833	94.5
494.05	100.5
494.268	95.5
494.485	89.5
494.703	91.5
494.92	97.5
495.138	103.5
495.355	105.5
495.573	75.5
495.79	97.5
496.008	83.5
496.225	99.5
496.442	98.5
496.66	86.5
496.877	90.5
497.094	101.5
497.312	84.5
497.529	94.5
497.746	85.5
497.963	93.5
498.181	92.5
498.398	99.5
498.615	113.5
498.832	109.5
499.049	98.5
499.267	95.5
499.484	85.5
499.701	91.5
499.918	88.5
500.135	78.5
500.352	86.5
500.569	91.5
500.786	90.5
501.003	94.5
501.22	93.5
501.437	90.5
501.654	102.5
501.871	106.5
502.088	93.5
502.305	85.5
502.522	94.5
502.739	84.5
502.956	102.5
503.172	89.5
503.389	88.5
503.606	106.5
503.823	89.5
504.04	99.5
504.256	84.5
504.473	92.5
504.69	93.5
504.907	106.5
505.123	103.5
505.34	107.5
505.557	94.5
505.773	100.5
505.99	92.5
506.207	92.5
506.423	77.5
506.64	109.5
506.856	92.5
507.073	99.5
507.289	99.5
507.506	91.5
507.722	99.5
507.939	109.5
508.155	97.5
508.372	92.5
508.588	93.5
508.805	98.5
509.021	102.5
509.238	121.5
509.454	86.5
509.67	101.5
509.887	99.5
510.103	140.5
510.319	214.5
510.536	727.5
510.752	2326.5
510.968	690.5
511.184	158.5
511.401	105.5
511.617	101.5
511.833	85.5
512.049	79.5
512.265	94.5
512.481	89.5
512.698	87.5
512.914	103.5
513.13	84.5
513.346	81.5
513.562	99.5
513.778	96.5
513.994	105.5
514.21	94.5
514.426	108.5
514.642	134.5
514.858	136.5
515.074	168.5
515.29	420.5
515.506	1380.5
515.721	548.5
515.937	142.5
516.153	114.5
516.369	118.5
516.585	99.5
516.801	96.5
517.016	91.5
517.232	102.5
517.448	94.5
517.664	93.5
517.879	92.5
518.095	99.5
518.311	98.5
518.527	103.5
518.742	92.5
518.958	99.5
519.173	85.5
519.389	102.5
519.605	93.5
519.82	95.5
520.036	103.5
520.251	127.5
520.467	113.5
520.682	111.5
520.898	110.5
521.113	116.5
521.329	125.5
521.544	183.5
521.76	522.5
521.975	2284.5
522.19	1444.5
522.406	313.5
522.621	136.5
522.836	97.5
523.052	101.5
523.267	102.5
523.482	92.5
523.698	111.5
523.913	114.5
524.128	98.5
524.343	95.5
524.559	90.5
524.774	99.5
524.989	96.5
525.204	80.5
525.419	99.5
525.634	86.5
525.849	92.5
526.064	85.5
526.28	103.5
526.495	88.5
526.71	93.5
526.925	83.5
527.14	90.5
527.355	80.5
527.57	107.5
527.785	100.5
527.999	89.5
528.214	111.5
528.429	89.5
528.644	101.5
528.859	98.5
529.074	102.5
529.289	117.5
529.503	171.5
529.718	102.5
529.933	104.5
530.148	95.5
530.363	92.5
530.577	83.5
530.792	99.5
531.007	91.5
531.221	91.5
531.436	95.5
531.651	91.5
531.865	92.5
532.08	93.5
532.295	97.5
532.509	93.5
532.724	86.5
532.938	92.5
533.153	103.5
533.367	83.5
533.582	77.5
533.796	87.5
534.011	86.5
534.225	108.5
534.44	94.5
