Data from Circ_2016_H10_HRD10591_00019.txt Node
Date: Wed Jan 03 09:58:44 EST 2024
User: Yrep
Spectrometer: HR+D1059
Trigger mode: 1
Integration Time (sec): 1.000000E-1
Scans to average: 1
Electric dark correction enabled: true
Nonlinearity correction enabled: false
Boxcar width: 0
XAxis mode: Wavelengths
Number of Pixels in Spectrum: 2048
>>>>>Begin Spectral Data<<<<<
223.165	-13.69
223.4	-13.69
223.635	-13.69
223.869	-19.69
224.104	-9.69
224.338	-27.69
224.573	-20.69
224.808	-13.69
225.042	-12.69
225.277	0.31
225.511	-4.69
225.746	6.31
225.98	10.31
226.215	7.31
226.449	9.31
226.683	23.31
226.918	29.31
227.152	36.31
227.387	38.31
227.621	39.31
227.856	47.31
228.09	56.31
228.324	63.31
228.559	54.31
228.793	61.31
229.027	63.31
229.262	67.31
229.496	86.31
229.73	75.31
229.964	91.31
230.199	70.31
230.433	77.31
230.667	60.31
230.901	81.31
231.136	83.31
231.37	86.31
231.604	85.31
231.838	86.31
232.072	85.31
232.306	86.31
232.541	69.31
232.775	76.31
233.009	90.31
233.243	87.31
233.477	82.31
233.711	90.31
233.945	71.31
234.179	81.31
234.413	85.31
234.647	92.31
234.881	89.31
235.115	87.31
235.349	74.31
235.583	75.31
235.817	87.31
236.051	87.31
236.285	86.31
236.519	83.31
236.753	85.31
236.987	79.31
237.221	78.31
237.455	93.31
237.689	67.31
237.922	72.31
238.156	85.31
238.39	79.31
238.624	92.31
238.858	81.31
239.091	87.31
239.325	78.31
239.559	82.31
239.793	91.31
240.027	91.31
240.26	76.31
240.494	96.31
240.728	65.31
240.961	67.31
241.195	64.31
241.429	80.31
241.662	68.31
241.896	85.31
242.13	75.31
242.363	84.31
242.597	86.31
242.83	77.31
243.064	65.31
243.298	85.31
243.531	73.31
243.765	84.31
243.998	86.31
244.232	85.31
244.465	89.31
244.699	68.31
244.932	75.31
245.166	68.31
245.399	70.31
245.633	86.31
245.866	90.31
246.099	88.31
246.333	78.31
246.566	85.31
246.8	67.31
247.033	84.31
247.266	82.31
247.5	74.31
247.733	79.31
247.966	87.31
248.2	75.31
248.433	86.31
248.666	83.31
248.899	62.31
249.133	74.31
249.366	109.31
249.599	94.31
249.832	88.31
250.066	77.31
250.299	80.31
250.532	65.31
250.765	78.31
250.998	66.31
251.231	89.31
251.465	91.31
251.698	81.31
251.931	99.31
252.164	92.31
252.397	93.31
252.63	73.31
252.863	88.31
253.096	77.31
253.329	83.31
253.562	84.31
253.795	73.31
254.028	75.31
254.261	80.31
254.494	87.31
254.727	86.31
254.96	72.31
255.193	83.31
255.426	85.31
255.659	81.31
255.892	76.31
256.124	89.31
256.357	94.31
256.59	90.31
256.823	81.31
257.056	70.31
257.289	69.31
257.521	80.31
257.754	88.31
257.987	91.31
258.22	75.31
258.452	82.31
258.685	88.31
258.918	85.31
259.151	80.31
259.383	75.31
259.616	91.31
259.849	89.31
260.081	95.31
260.314	80.31
260.547	100.31
260.779	74.31
261.012	83.31
261.244	70.31
261.477	81.31
261.71	92.31
261.942	130.31
262.175	132.31
262.407	84.31
262.64	99.31
262.872	111.31
263.105	66.31
263.337	71.31
263.57	66.31
263.802	88.31
264.035	74.31
264.267	88.31
264.499	75.31
264.732	89.31
264.964	82.31
265.197	100.31
265.429	88.31
265.661	91.31
265.894	97.31
266.126	88.31
266.358	84.31
266.591	81.31
266.823	70.31
267.055	81.31
267.287	79.31
267.52	95.31
267.752	89.31
267.984	99.31
268.216	89.31
268.448	79.31
268.681	90.31
268.913	82.31
269.145	97.31
269.377	86.31
269.609	77.31
269.841	85.31
270.073	88.31
270.306	90.31
270.538	75.31
270.77	77.31
271.002	84.31
271.234	80.31
271.466	90.31
271.698	85.31
271.93	91.31
272.162	88.31
272.394	85.31
272.626	84.31
272.858	83.31
273.09	75.31
273.322	79.31
273.553	84.31
273.785	70.31
274.017	77.31
274.249	89.31
274.481	92.31
274.713	71.31
274.945	93.31
275.176	101.31
275.408	108.31
275.64	95.31
275.872	94.31
276.104	78.31
276.335	99.31
276.567	107.31
276.799	103.31
277.031	110.31
277.262	89.31
277.494	101.31
277.726	99.31
277.957	88.31
278.189	76.31
278.421	84.31
278.652	87.31
278.884	78.31
279.115	89.31
279.347	90.31
279.579	89.31
279.81	78.31
280.042	96.31
280.273	85.31
280.505	80.31
280.736	85.31
280.968	96.31
281.199	87.31
281.431	107.31
281.662	87.31
281.894	104.31
282.125	110.31
282.356	120.31
282.588	141.31
282.819	115.31
283.051	90.31
283.282	80.31
283.513	81.31
283.745	82.31
283.976	76.31
284.207	99.31
284.439	104.31
284.67	89.31
284.901	97.31
285.132	90.31
285.364	97.31
285.595	87.31
285.826	87.31
286.057	87.31
286.288	90.31
286.52	97.31
286.751	74.31
286.982	90.31
287.213	94.31
287.444	92.31
287.675	97.31
287.906	101.31
288.138	97.31
288.369	99.31
288.6	92.31
288.831	93.31
289.062	91.31
289.293	85.31
289.524	85.31
289.755	85.31
289.986	85.31
290.217	91.31
290.448	76.31
290.679	108.31
290.91	98.31
291.141	76.31
291.371	78.31
291.602	91.31
291.833	85.31
292.064	96.31
292.295	93.31
292.526	92.31
292.757	90.31
292.987	82.31
293.218	87.31
293.449	81.31
293.68	89.31
293.91	83.31
294.141	83.31
294.372	86.31
294.603	86.31
294.833	93.31
295.064	94.31
295.295	82.31
295.525	88.31
295.756	94.31
295.987	116.31
296.217	145.31
296.448	130.31
296.679	105.31
296.909	101.31
297.14	93.31
297.37	99.31
297.601	97.31
297.831	105.31
298.062	93.31
298.292	79.31
298.523	92.31
298.753	81.31
298.984	87.31
299.214	87.31
299.445	96.31
299.675	93.31
299.905	91.31
300.136	103.31
300.366	92.31
300.597	84.31
300.827	98.31
301.057	108.31
301.288	113.31
301.518	93.31
301.748	97.31
301.979	95.31
302.209	92.31
302.439	78.31
302.669	83.31
302.9	92.31
303.13	94.31
303.36	87.31
303.59	106.31
303.82	113.31
304.051	94.31
304.281	98.31
304.511	93.31
304.741	90.31
304.971	90.31
305.201	94.31
305.431	90.31
305.661	84.31
305.891	101.31
306.121	93.31
306.352	106.31
306.582	100.31
306.812	105.31
307.042	99.31
307.272	92.31
307.502	104.31
307.731	101.31
307.961	97.31
308.191	82.31
308.421	97.31
308.651	105.31
308.881	100.31
309.111	88.31
309.341	91.31
309.571	77.31
309.8	101.31
310.03	101.31
310.26	90.31
310.49	95.31
310.72	121.31
310.949	99.31
311.179	110.31
311.409	104.31
311.639	97.31
311.868	116.31
312.098	100.31
312.328	84.31
312.557	101.31
312.787	102.31
313.017	91.31
313.246	100.31
313.476	98.31
313.706	99.31
313.935	88.31
314.165	109.31
314.394	106.31
314.624	96.31
314.853	105.31
315.083	105.31
315.312	100.31
315.542	97.31
315.771	87.31
316.001	98.31
316.23	96.31
316.46	96.31
316.689	96.31
316.919	113.31
317.148	115.31
317.377	85.31
317.607	93.31
317.836	91.31
318.065	90.31
318.295	84.31
318.524	70.31
318.753	101.31
318.983	99.31
319.212	101.31
319.441	128.31
319.67	111.31
319.9	86.31
320.129	90.31
320.358	90.31
320.587	99.31
320.816	89.31
321.046	98.31
321.275	104.31
321.504	109.31
321.733	86.31
321.962	100.31
322.191	90.31
322.42	100.31
322.649	116.31
322.878	142.31
323.108	127.31
323.337	142.31
323.566	142.31
323.795	165.31
324.024	231.31
324.253	501.31
324.482	1074.31
324.71	2271.31
324.939	3057.31
325.168	1096.31
325.397	310.31
325.626	180.31
325.855	158.31
326.084	129.31
326.313	141.31
326.542	186.31
326.77	280.31
326.999	593.31
327.228	1220.31
327.457	2298.31
327.686	1794.31
327.914	460.31
328.143	212.31
328.372	156.31
328.6	122.31
328.829	132.31
329.058	145.31
329.287	138.31
329.515	120.31
329.744	121.31
329.972	114.31
330.201	103.31
330.43	113.31
330.658	112.31
330.887	157.31
331.115	134.31
331.344	110.31
331.572	100.31
331.801	107.31
332.03	97.31
332.258	87.31
332.486	94.31
332.715	91.31
332.943	98.31
333.172	104.31
333.4	97.31
333.629	112.31
333.857	130.31
334.085	93.31
334.314	113.31
334.542	111.31
334.771	104.31
334.999	104.31
335.227	107.31
335.455	102.31
335.684	90.31
335.912	93.31
336.14	102.31
336.369	105.31
336.597	110.31
336.825	101.31
337.053	91.31
337.281	92.31
337.51	88.31
337.738	91.31
337.966	89.31
338.194	82.31
338.422	94.31
338.65	89.31
338.878	90.31
339.106	77.31
339.334	98.31
339.562	91.31
339.79	81.31
340.018	106.31
340.246	94.31
340.474	93.31
340.702	106.31
340.93	88.31
341.158	98.31
341.386	88.31
341.614	100.31
341.842	88.31
342.07	89.31
342.298	99.31
342.526	87.31
342.754	89.31
342.981	98.31
343.209	98.31
343.437	80.31
343.665	91.31
343.893	99.31
344.12	91.31
344.348	90.31
344.576	110.31
344.804	73.31
345.031	106.31
345.259	104.31
345.487	106.31
345.714	98.31
345.942	98.31
346.17	104.31
346.397	92.31
346.625	85.31
346.853	98.31
347.08	86.31
347.308	87.31
347.535	88.31
347.763	98.31
347.99	94.31
348.218	96.31
348.445	102.31
348.673	98.31
348.9	109.31
349.128	100.31
349.355	81.31
349.583	78.31
349.81	92.31
350.037	101.31
350.265	108.31
350.492	96.31
350.72	97.31
350.947	113.31
351.174	109.31
351.402	118.31
351.629	107.31
351.856	87.31
352.083	107.31
352.311	112.31
352.538	120.31
352.765	136.31
352.992	128.31
353.22	125.31
353.447	113.31
353.674	100.31
353.901	88.31
354.128	89.31
354.355	98.31
354.583	89.31
354.81	110.31
355.037	109.31
355.264	90.31
355.491	103.31
355.718	104.31
355.945	102.31
356.172	90.31
356.399	101.31
356.626	110.31
356.853	104.31
357.08	103.31
357.307	91.31
357.534	90.31
357.761	100.31
357.988	107.31
358.215	109.31
358.441	122.31
358.668	113.31
358.895	103.31
359.122	90.31
359.349	95.31
359.576	102.31
359.802	109.31
360.029	128.31
360.256	123.31
360.483	105.31
360.709	89.31
360.936	82.31
361.163	108.31
361.39	99.31
361.616	102.31
361.843	92.31
362.07	106.31
362.296	91.31
362.523	85.31
362.749	86.31
362.976	85.31
363.203	90.31
363.429	94.31
363.656	80.31
363.882	91.31
364.109	83.31
364.335	99.31
364.562	93.31
364.788	96.31
365.015	106.31
365.241	100.31
365.468	105.31
365.694	108.31
365.92	106.31
366.147	97.31
366.373	82.31
366.599	98.31
366.826	90.31
367.052	73.31
367.278	83.31
367.505	97.31
367.731	98.31
367.957	97.31
368.184	93.31
368.41	92.31
368.636	118.31
368.862	107.31
369.089	113.31
369.315	98.31
369.541	101.31
369.767	92.31
369.993	85.31
370.219	94.31
370.445	85.31
370.672	101.31
370.898	88.31
371.124	91.31
371.35	98.31
371.576	90.31
371.802	86.31
372.028	91.31
372.254	88.31
372.48	86.31
372.706	80.31
372.932	89.31
373.158	94.31
373.384	99.31
373.61	95.31
373.835	93.31
374.061	99.31
374.287	85.31
374.513	90.31
374.739	84.31
374.965	105.31
375.191	85.31
375.416	86.31
375.642	90.31
375.868	100.31
376.094	104.31
376.319	99.31
376.545	99.31
376.771	87.31
376.997	97.31
377.222	99.31
377.448	104.31
377.674	97.31
377.899	97.31
378.125	98.31
378.35	97.31
378.576	108.31
378.802	102.31
379.027	109.31
379.253	101.31
379.478	105.31
379.704	96.31
379.929	106.31
380.155	118.31
380.38	100.31
380.606	91.31
380.831	104.31
381.057	114.31
381.282	109.31
381.507	104.31
381.733	107.31
381.958	122.31
382.184	118.31
382.409	116.31
382.634	136.31
382.86	121.31
383.085	117.31
383.31	133.31
383.535	130.31
383.761	132.31
383.986	117.31
384.211	135.31
384.436	132.31
384.662	148.31
384.887	153.31
385.112	153.31
385.337	149.31
385.562	144.31
385.787	144.31
386.013	152.31
386.238	160.31
386.463	127.31
386.688	149.31
386.913	138.31
387.138	146.31
387.363	145.31
387.588	116.31
387.813	128.31
388.038	133.31
388.263	168.31
388.488	163.31
388.713	117.31
388.938	109.31
389.163	102.31
389.387	84.31
389.612	100.31
389.837	88.31
390.062	96.31
390.287	99.31
390.512	81.31
390.736	90.31
390.961	85.31
391.186	97.31
391.411	93.31
391.636	105.31
391.86	93.31
392.085	87.31
392.31	85.31
392.534	89.31
392.759	90.31
392.984	100.31
393.208	88.31
393.433	118.31
393.658	98.31
393.882	80.31
394.107	82.31
394.331	81.31
394.556	94.31
394.78	93.31
395.005	87.31
395.229	81.31
395.454	78.31
395.678	82.31
395.903	78.31
396.127	79.31
396.352	77.31
396.576	89.31
396.801	82.31
397.025	101.31
397.249	89.31
397.474	89.31
397.698	78.31
397.922	84.31
398.147	85.31
398.371	99.31
398.595	85.31
398.82	87.31
399.044	90.31
399.268	90.31
399.492	78.31
399.717	95.31
399.941	99.31
400.165	87.31
400.389	97.31
400.613	99.31
400.837	85.31
401.062	85.31
401.286	91.31
401.51	106.31
401.734	76.31
401.958	99.31
402.182	119.31
402.406	186.31
402.63	147.31
402.854	98.31
403.078	86.31
403.302	81.31
403.526	91.31
403.75	96.31
403.974	98.31
404.198	88.31
404.422	86.31
404.645	88.31
404.869	88.31
405.093	109.31
405.317	99.31
405.541	109.31
405.765	95.31
405.988	129.31
406.212	187.31
406.436	258.31
406.66	180.31
406.883	130.31
407.107	92.31
407.331	98.31
407.555	97.31
407.778	102.31
408.002	89.31
408.226	93.31
408.449	91.31
408.673	72.31
408.896	109.31
409.12	104.31
409.344	77.31
409.567	101.31
409.791	98.31
410.014	92.31
410.238	82.31
410.461	98.31
410.685	88.31
410.908	101.31
411.132	91.31
411.355	96.31
411.578	105.31
411.802	95.31
412.025	91.31
412.249	101.31
412.472	94.31
412.695	92.31
412.919	86.31
413.142	94.31
413.365	89.31
413.589	90.31
413.812	94.31
414.035	85.31
414.258	108.31
414.482	89.31
414.705	109.31
414.928	101.31
415.151	108.31
415.374	101.31
415.597	109.31
415.821	102.31
416.044	106.31
416.267	107.31
416.49	112.31
416.713	91.31
416.936	85.31
417.159	85.31
417.382	95.31
417.605	97.31
417.828	98.31
418.051	110.31
418.274	100.31
418.497	88.31
418.72	82.31
418.943	78.31
419.166	84.31
419.389	103.31
419.611	97.31
419.834	94.31
420.057	92.31
420.28	94.31
420.503	81.31
420.726	86.31
420.948	85.31
421.171	100.31
421.394	101.31
421.617	86.31
421.839	107.31
422.062	94.31
422.285	94.31
422.507	106.31
422.73	132.31
422.953	110.31
423.175	76.31
423.398	86.31
423.621	89.31
423.843	91.31
424.066	91.31
424.288	99.31
424.511	93.31
424.733	95.31
424.956	101.31
425.178	90.31
425.401	94.31
425.623	98.31
425.846	93.31
426.068	97.31
426.291	98.31
426.513	83.31
426.735	91.31
426.958	99.31
427.18	104.31
427.402	153.31
427.625	165.31
427.847	148.31
428.069	98.31
428.292	85.31
428.514	78.31
428.736	101.31
428.958	103.31
429.181	98.31
429.403	92.31
429.625	91.31
429.847	86.31
430.069	102.31
430.292	102.31
430.514	81.31
430.736	87.31
430.958	88.31
431.18	83.31
431.402	84.31
431.624	91.31
431.846	88.31
432.068	88.31
432.29	83.31
432.512	92.31
432.734	97.31
432.956	75.31
433.178	103.31
433.4	112.31
433.622	88.31
433.844	95.31
434.066	89.31
434.287	91.31
434.509	89.31
434.731	95.31
434.953	85.31
435.175	82.31
435.397	86.31
435.618	98.31
435.84	93.31
436.062	134.31
436.284	117.31
436.505	116.31
436.727	112.31
436.949	100.31
437.17	97.31
437.392	94.31
437.614	93.31
437.835	107.31
438.057	122.31
438.278	120.31
438.5	112.31
438.721	108.31
438.943	109.31
439.165	91.31
439.386	84.31
439.608	101.31
439.829	100.31
440.05	124.31
440.272	158.31
440.493	103.31
440.715	86.31
440.936	98.31
441.158	88.31
441.379	92.31
441.6	97.31
441.822	91.31
442.043	89.31
442.264	106.31
442.486	113.31
442.707	101.31
442.928	110.31
443.149	133.31
443.371	142.31
443.592	109.31
443.813	114.31
444.034	96.31
444.255	90.31
444.476	96.31
444.698	97.31
444.919	91.31
445.14	129.31
445.361	121.31
445.582	124.31
445.803	127.31
446.024	145.31
446.245	140.31
446.466	109.31
446.687	103.31
446.908	77.31
447.129	97.31
447.35	94.31
447.571	92.31
447.792	94.31
448.013	106.31
448.234	102.31
448.455	109.31
448.675	116.31
448.896	108.31
449.117	99.31
449.338	108.31
449.559	130.31
449.779	140.31
450	104.31
450.221	88.31
450.442	97.31
450.662	99.31
450.883	116.31
451.104	114.31
451.324	93.31
451.545	83.31
451.766	88.31
451.986	88.31
452.207	90.31
452.428	93.31
452.648	111.31
452.869	118.31
453.089	119.31
453.31	122.31
453.53	95.31
453.751	83.31
453.971	102.31
454.192	120.31
454.412	97.31
454.633	100.31
454.853	96.31
455.073	91.31
455.294	82.31
455.514	83.31
455.734	100.31
455.955	91.31
456.175	94.31
456.395	77.31
456.616	90.31
456.836	88.31
457.056	85.31
457.276	91.31
457.497	98.31
457.717	84.31
457.937	84.31
458.157	91.31
458.377	94.31
458.598	120.31
458.818	160.31
459.038	175.31
459.258	131.31
459.478	105.31
459.698	97.31
459.918	90.31
460.138	94.31
460.358	89.31
460.578	84.31
460.798	91.31
461.018	95.31
461.238	103.31
461.458	95.31
461.678	87.31
461.898	76.31
462.118	86.31
462.338	90.31
462.558	89.31
462.777	83.31
462.997	94.31
463.217	77.31
463.437	89.31
463.657	94.31
463.876	96.31
464.096	85.31
464.316	85.31
464.536	91.31
464.755	101.31
464.975	112.31
465.195	192.31
465.414	179.31
465.634	113.31
465.854	68.31
466.073	91.31
466.293	89.31
466.512	92.31
466.732	86.31
466.951	81.31
467.171	82.31
467.391	88.31
467.61	99.31
467.829	96.31
468.049	88.31
468.268	87.31
468.488	77.31
468.707	90.31
468.927	85.31
469.146	93.31
469.365	91.31
469.585	99.31
469.804	82.31
470.023	84.31
470.243	89.31
470.462	104.31
470.681	116.31
470.901	88.31
471.12	87.31
471.339	97.31
471.558	80.31
471.777	96.31
471.997	81.31
472.216	82.31
472.435	90.31
472.654	80.31
472.873	75.31
473.092	91.31
473.311	100.31
473.53	68.31
473.749	91.31
473.968	75.31
474.187	112.31
474.406	109.31
474.625	94.31
474.844	89.31
475.063	92.31
475.282	83.31
475.501	85.31
475.72	101.31
475.939	78.31
476.158	69.31
476.377	86.31
476.596	88.31
476.814	94.31
477.033	105.31
477.252	93.31
477.471	91.31
477.69	96.31
477.908	87.31
478.127	81.31
478.346	92.31
478.564	93.31
478.783	88.31
479.002	91.31
479.22	90.31
479.439	81.31
479.658	102.31
479.876	85.31
480.095	107.31
480.313	86.31
480.532	89.31
480.751	93.31
480.969	101.31
481.188	106.31
481.406	90.31
481.624	101.31
481.843	90.31
482.061	105.31
482.28	92.31
482.498	90.31
482.717	90.31
482.935	90.31
483.153	81.31
483.372	91.31
483.59	96.31
483.808	86.31
484.027	101.31
484.245	99.31
484.463	92.31
484.681	93.31
484.9	89.31
485.118	106.31
485.336	89.31
485.554	103.31
485.772	108.31
485.99	116.31
486.209	107.31
486.427	118.31
486.645	120.31
486.863	119.31
487.081	114.31
487.299	99.31
487.517	95.31
487.735	105.31
487.953	95.31
488.171	92.31
488.389	102.31
488.607	105.31
488.825	105.31
489.043	93.31
489.261	93.31
489.479	88.31
489.696	102.31
489.914	96.31
490.132	90.31
490.35	91.31
490.568	92.31
490.786	100.31
491.003	103.31
491.221	82.31
491.439	96.31
491.657	82.31
491.874	82.31
492.092	90.31
492.31	105.31
492.527	104.31
492.745	88.31
492.963	100.31
493.18	85.31
493.398	90.31
493.615	91.31
493.833	107.31
494.05	92.31
494.268	87.31
494.485	89.31
494.703	90.31
494.92	97.31
495.138	91.31
495.355	86.31
495.573	85.31
495.79	97.31
496.008	99.31
496.225	99.31
496.442	88.31
496.66	90.31
496.877	103.31
497.094	100.31
497.312	85.31
497.529	88.31
497.746	87.31
497.963	78.31
498.181	92.31
498.398	88.31
498.615	130.31
498.832	105.31
499.049	100.31
499.267	89.31
499.484	93.31
499.701	86.31
499.918	77.31
500.135	93.31
500.352	98.31
500.569	86.31
500.786	83.31
501.003	89.31
501.22	96.31
501.437	114.31
501.654	95.31
501.871	131.31
502.088	92.31
502.305	82.31
502.522	84.31
502.739	91.31
502.956	96.31
503.172	90.31
503.389	104.31
503.606	111.31
503.823	99.31
504.04	91.31
504.256	83.31
504.473	90.31
504.69	86.31
504.907	82.31
505.123	93.31
505.34	92.31
505.557	97.31
505.773	92.31
505.99	100.31
506.207	89.31
506.423	80.31
506.64	93.31
506.856	98.31
507.073	88.31
507.289	90.31
507.506	92.31
507.722	108.31
507.939	100.31
508.155	105.31
508.372	103.31
508.588	100.31
508.805	95.31
509.021	89.31
509.238	106.31
509.454	102.31
509.67	123.31
509.887	113.31
510.103	150.31
510.319	245.31
510.536	907.31
510.752	3186.31
510.968	890.31
511.184	183.31
511.401	125.31
511.617	116.31
511.833	97.31
512.049	100.31
512.265	86.31
512.481	101.31
512.698	88.31
512.914	100.31
513.13	99.31
513.346	102.31
513.562	96.31
513.778	100.31
513.994	107.31
514.21	99.31
