Data from Circ_2016_H10_HRD10591_00086.txt Node
Date: Wed Jan 03 09:58:57 EST 2024
User: Yrep
Spectrometer: HR+D1059
Trigger mode: 1
Integration Time (sec): 1.000000E-1
Scans to average: 1
Electric dark correction enabled: true
Nonlinearity correction enabled: false
Boxcar width: 0
XAxis mode: Wavelengths
Number of Pixels in Spectrum: 2048
>>>>>Begin Spectral Data<<<<<
223.165	-9.5
223.4	-9.5
223.635	-9.5
223.869	-20.5
224.104	-22.5
224.338	-8.5
224.573	-10.5
224.808	-14.5
225.042	-16.5
225.277	1.5
225.511	-1.5
225.746	5.5
225.98	-1.5
226.215	4.5
226.449	20.5
226.683	15.5
226.918	26.5
227.152	31.5
227.387	38.5
227.621	42.5
227.856	29.5
228.09	39.5
228.324	55.5
228.559	66.5
228.793	53.5
229.027	68.5
229.262	64.5
229.496	77.5
229.73	84.5
229.964	67.5
230.199	67.5
230.433	81.5
230.667	76.5
230.901	86.5
231.136	75.5
231.37	73.5
231.604	74.5
231.838	87.5
232.072	84.5
232.306	83.5
232.541	85.5
232.775	87.5
233.009	88.5
233.243	73.5
233.477	78.5
233.711	81.5
233.945	81.5
234.179	70.5
234.413	76.5
234.647	91.5
234.881	66.5
235.115	70.5
235.349	84.5
235.583	84.5
235.817	76.5
236.051	62.5
236.285	75.5
236.519	73.5
236.753	80.5
236.987	72.5
237.221	72.5
237.455	85.5
237.689	62.5
237.922	75.5
238.156	84.5
238.39	64.5
238.624	81.5
238.858	66.5
239.091	86.5
239.325	89.5
239.559	79.5
239.793	77.5
240.027	77.5
240.26	88.5
240.494	79.5
240.728	76.5
240.961	74.5
241.195	68.5
241.429	71.5
241.662	73.5
241.896	74.5
242.13	69.5
242.363	83.5
242.597	79.5
242.83	76.5
243.064	83.5
243.298	68.5
243.531	86.5
243.765	72.5
243.998	77.5
244.232	71.5
244.465	85.5
244.699	74.5
244.932	71.5
245.166	77.5
245.399	81.5
245.633	70.5
245.866	90.5
246.099	77.5
246.333	87.5
246.566	71.5
246.8	66.5
247.033	77.5
247.266	83.5
247.5	74.5
247.733	75.5
247.966	74.5
248.2	82.5
248.433	71.5
248.666	87.5
248.899	73.5
249.133	81.5
249.366	83.5
249.599	82.5
249.832	85.5
250.066	84.5
250.299	77.5
250.532	74.5
250.765	89.5
250.998	81.5
251.231	65.5
251.465	80.5
251.698	66.5
251.931	83.5
252.164	74.5
252.397	71.5
252.63	87.5
252.863	66.5
253.096	75.5
253.329	73.5
253.562	86.5
253.795	77.5
254.028	77.5
254.261	77.5
254.494	82.5
254.727	79.5
254.96	84.5
255.193	96.5
255.426	91.5
255.659	85.5
255.892	72.5
256.124	83.5
256.357	86.5
256.59	84.5
256.823	74.5
257.056	82.5
257.289	84.5
257.521	84.5
257.754	78.5
257.987	77.5
258.22	85.5
258.452	80.5
258.685	73.5
258.918	77.5
259.151	82.5
259.383	81.5
259.616	82.5
259.849	85.5
260.081	88.5
260.314	88.5
260.547	93.5
260.779	85.5
261.012	88.5
261.244	79.5
261.477	87.5
261.71	81.5
261.942	96.5
262.175	101.5
262.407	91.5
262.64	75.5
262.872	89.5
263.105	75.5
263.337	83.5
263.57	82.5
263.802	81.5
264.035	90.5
264.267	73.5
264.499	93.5
264.732	77.5
264.964	81.5
265.197	102.5
265.429	83.5
265.661	87.5
265.894	81.5
266.126	73.5
266.358	82.5
266.591	78.5
266.823	68.5
267.055	99.5
267.287	88.5
267.52	79.5
267.752	86.5
267.984	81.5
268.216	95.5
268.448	89.5
268.681	85.5
268.913	92.5
269.145	83.5
269.377	93.5
269.609	79.5
269.841	85.5
270.073	74.5
270.306	90.5
270.538	80.5
270.77	83.5
271.002	89.5
271.234	69.5
271.466	83.5
271.698	91.5
271.93	83.5
272.162	92.5
272.394	71.5
272.626	79.5
272.858	71.5
273.09	91.5
273.322	73.5
273.553	80.5
273.785	82.5
274.017	81.5
274.249	101.5
274.481	75.5
274.713	81.5
274.945	90.5
275.176	95.5
275.408	86.5
275.64	87.5
275.872	72.5
276.104	91.5
276.335	89.5
276.567	92.5
276.799	101.5
277.031	90.5
277.262	77.5
277.494	67.5
277.726	73.5
277.957	74.5
278.189	79.5
278.421	90.5
278.652	80.5
278.884	74.5
279.115	77.5
279.347	84.5
279.579	65.5
279.81	78.5
280.042	82.5
280.273	83.5
280.505	74.5
280.736	85.5
280.968	92.5
281.199	96.5
281.431	76.5
281.662	82.5
281.894	93.5
282.125	97.5
282.356	114.5
282.588	131.5
282.819	107.5
283.051	89.5
283.282	86.5
283.513	90.5
283.745	85.5
283.976	79.5
284.207	85.5
284.439	100.5
284.67	73.5
284.901	68.5
285.132	73.5
285.364	89.5
285.595	82.5
285.826	80.5
286.057	85.5
286.288	84.5
286.52	91.5
286.751	93.5
286.982	88.5
287.213	68.5
287.444	81.5
287.675	95.5
287.906	98.5
288.138	94.5
288.369	95.5
288.6	88.5
288.831	89.5
289.062	80.5
289.293	82.5
289.524	80.5
289.755	83.5
289.986	92.5
290.217	85.5
290.448	80.5
290.679	86.5
290.91	82.5
291.141	84.5
291.371	97.5
291.602	87.5
291.833	84.5
292.064	83.5
292.295	95.5
292.526	78.5
292.757	94.5
292.987	89.5
293.218	89.5
293.449	92.5
293.68	72.5
293.91	81.5
294.141	94.5
294.372	90.5
294.603	94.5
294.833	98.5
295.064	72.5
295.295	91.5
295.525	85.5
295.756	91.5
295.987	119.5
296.217	139.5
296.448	125.5
296.679	92.5
296.909	93.5
297.14	99.5
297.37	76.5
297.601	92.5
297.831	97.5
298.062	87.5
298.292	103.5
298.523	95.5
298.753	76.5
298.984	87.5
299.214	89.5
299.445	77.5
299.675	85.5
299.905	98.5
300.136	83.5
300.366	80.5
300.597	83.5
300.827	86.5
301.057	88.5
301.288	112.5
301.518	86.5
301.748	81.5
301.979	106.5
302.209	87.5
302.439	84.5
302.669	81.5
302.9	91.5
303.13	81.5
303.36	95.5
303.59	93.5
303.82	105.5
304.051	93.5
304.281	102.5
304.511	104.5
304.741	84.5
304.971	86.5
305.201	88.5
305.431	98.5
305.661	85.5
305.891	105.5
306.121	88.5
306.352	100.5
306.582	98.5
306.812	77.5
307.042	86.5
307.272	87.5
307.502	80.5
307.731	82.5
307.961	96.5
308.191	87.5
308.421	99.5
308.651	91.5
308.881	97.5
309.111	85.5
309.341	90.5
309.571	100.5
309.8	86.5
310.03	83.5
310.26	96.5
310.49	89.5
310.72	99.5
310.949	110.5
311.179	86.5
311.409	92.5
311.639	106.5
311.868	97.5
312.098	98.5
312.328	105.5
312.557	94.5
312.787	93.5
313.017	101.5
313.246	96.5
313.476	99.5
313.706	103.5
313.935	99.5
314.165	89.5
314.394	88.5
314.624	97.5
314.853	102.5
315.083	89.5
315.312	101.5
315.542	100.5
315.771	90.5
316.001	90.5
316.23	97.5
316.46	97.5
316.689	91.5
316.919	95.5
317.148	87.5
317.377	76.5
317.607	98.5
317.836	106.5
318.065	99.5
318.295	87.5
318.524	80.5
318.753	88.5
318.983	86.5
319.212	93.5
319.441	87.5
319.67	94.5
319.9	89.5
320.129	82.5
320.358	98.5
320.587	85.5
320.816	97.5
321.046	96.5
321.275	88.5
321.504	94.5
321.733	100.5
321.962	94.5
322.191	104.5
322.42	117.5
322.649	98.5
322.878	111.5
323.108	104.5
323.337	129.5
323.566	123.5
323.795	135.5
324.024	195.5
324.253	383.5
324.482	803.5
324.71	1631.5
324.939	2089.5
325.168	789.5
325.397	251.5
325.626	147.5
325.855	133.5
326.084	131.5
326.313	124.5
326.542	135.5
326.77	214.5
326.999	445.5
327.228	909.5
327.457	1634.5
327.686	1283.5
327.914	347.5
328.143	192.5
328.372	169.5
328.6	130.5
328.829	127.5
329.058	130.5
329.287	126.5
329.515	114.5
329.744	106.5
329.972	123.5
330.201	144.5
330.43	168.5
330.658	121.5
330.887	138.5
331.115	110.5
331.344	98.5
331.572	89.5
331.801	127.5
332.03	104.5
332.258	101.5
332.486	108.5
332.715	82.5
332.943	96.5
333.172	98.5
333.4	86.5
333.629	107.5
333.857	109.5
334.085	122.5
334.314	136.5
334.542	189.5
334.771	161.5
334.999	120.5
335.227	116.5
335.455	91.5
335.684	90.5
335.912	109.5
336.14	103.5
336.369	94.5
336.597	99.5
336.825	98.5
337.053	102.5
337.281	83.5
337.51	86.5
337.738	98.5
337.966	104.5
338.194	104.5
338.422	88.5
338.65	87.5
338.878	84.5
339.106	100.5
339.334	103.5
339.562	83.5
339.79	85.5
340.018	104.5
340.246	91.5
340.474	92.5
340.702	81.5
340.93	89.5
341.158	88.5
341.386	86.5
341.614	88.5
341.842	87.5
342.07	90.5
342.298	98.5
342.526	89.5
342.754	83.5
342.981	100.5
343.209	76.5
343.437	89.5
343.665	92.5
343.893	85.5
344.12	98.5
344.348	83.5
344.576	97.5
344.804	97.5
345.031	89.5
345.259	92.5
345.487	86.5
345.714	81.5
345.942	86.5
346.17	102.5
346.397	97.5
346.625	100.5
346.853	92.5
347.08	93.5
347.308	87.5
347.535	87.5
347.763	89.5
347.99	105.5
348.218	96.5
348.445	93.5
348.673	104.5
348.9	89.5
349.128	92.5
349.355	95.5
349.583	98.5
349.81	77.5
350.037	90.5
350.265	89.5
350.492	90.5
350.72	89.5
350.947	87.5
351.174	116.5
351.402	102.5
351.629	94.5
351.856	95.5
352.083	101.5
352.311	108.5
352.538	94.5
352.765	100.5
352.992	110.5
353.22	104.5
353.447	107.5
353.674	104.5
353.901	85.5
354.128	99.5
354.355	89.5
354.583	97.5
354.81	97.5
355.037	99.5
355.264	98.5
355.491	102.5
355.718	90.5
355.945	90.5
356.172	83.5
356.399	85.5
356.626	100.5
356.853	104.5
357.08	95.5
357.307	115.5
357.534	98.5
357.761	83.5
357.988	100.5
358.215	106.5
358.441	79.5
358.668	99.5
358.895	106.5
359.122	81.5
359.349	88.5
359.576	97.5
359.802	95.5
360.029	95.5
360.256	104.5
360.483	82.5
360.709	89.5
360.936	99.5
361.163	83.5
361.39	85.5
361.616	88.5
361.843	93.5
362.07	95.5
362.296	102.5
362.523	91.5
362.749	96.5
362.976	102.5
363.203	114.5
363.429	83.5
363.656	95.5
363.882	89.5
364.109	89.5
364.335	84.5
364.562	103.5
364.788	97.5
365.015	82.5
365.241	93.5
365.468	113.5
365.694	105.5
365.92	87.5
366.147	86.5
366.373	85.5
366.599	93.5
366.826	80.5
367.052	92.5
367.278	88.5
367.505	94.5
367.731	90.5
367.957	93.5
368.184	95.5
368.41	90.5
368.636	99.5
368.862	118.5
369.089	106.5
369.315	90.5
369.541	93.5
369.767	88.5
369.993	84.5
370.219	96.5
370.445	89.5
370.672	93.5
370.898	73.5
371.124	82.5
371.35	83.5
371.576	81.5
371.802	99.5
372.028	87.5
372.254	83.5
372.48	91.5
372.706	96.5
372.932	100.5
373.158	85.5
373.384	86.5
373.61	68.5
373.835	79.5
374.061	86.5
374.287	100.5
374.513	85.5
374.739	88.5
374.965	96.5
375.191	87.5
375.416	70.5
375.642	87.5
375.868	106.5
376.094	92.5
376.319	81.5
376.545	74.5
376.771	89.5
376.997	78.5
377.222	86.5
377.448	77.5
377.674	81.5
377.899	91.5
378.125	92.5
378.35	95.5
378.576	87.5
378.802	89.5
379.027	81.5
379.253	89.5
379.478	86.5
379.704	85.5
379.929	94.5
380.155	84.5
380.38	92.5
380.606	100.5
380.831	95.5
381.057	94.5
381.282	93.5
381.507	91.5
381.733	95.5
381.958	100.5
382.184	111.5
382.409	91.5
382.634	109.5
382.86	99.5
383.085	100.5
383.31	113.5
383.535	104.5
383.761	102.5
383.986	103.5
384.211	96.5
384.436	95.5
384.662	106.5
384.887	97.5
385.112	113.5
385.337	88.5
385.562	113.5
385.787	103.5
386.013	109.5
386.238	118.5
386.463	108.5
386.688	114.5
386.913	117.5
387.138	125.5
387.363	113.5
387.588	99.5
387.813	104.5
388.038	101.5
388.263	107.5
388.488	99.5
388.713	109.5
388.938	95.5
389.163	89.5
389.387	104.5
389.612	89.5
389.837	82.5
390.062	87.5
390.287	86.5
390.512	81.5
390.736	81.5
390.961	83.5
391.186	77.5
391.411	98.5
391.636	92.5
391.86	92.5
392.085	82.5
392.31	90.5
392.534	92.5
392.759	87.5
392.984	79.5
393.208	89.5
393.433	77.5
393.658	89.5
393.882	85.5
394.107	75.5
394.331	83.5
394.556	87.5
394.78	77.5
395.005	68.5
395.229	81.5
395.454	85.5
395.678	94.5
395.903	68.5
396.127	88.5
396.352	91.5
396.576	75.5
396.801	71.5
397.025	84.5
397.249	83.5
397.474	87.5
397.698	81.5
397.922	75.5
398.147	86.5
398.371	92.5
398.595	90.5
398.82	83.5
399.044	84.5
399.268	95.5
399.492	86.5
399.717	82.5
399.941	75.5
400.165	88.5
400.389	74.5
400.613	85.5
400.837	83.5
401.062	85.5
401.286	89.5
401.51	95.5
401.734	89.5
401.958	95.5
402.182	116.5
402.406	143.5
402.63	105.5
402.854	81.5
403.078	84.5
403.302	85.5
403.526	98.5
403.75	86.5
403.974	104.5
404.198	105.5
404.422	80.5
404.645	88.5
404.869	89.5
405.093	95.5
405.317	76.5
405.541	106.5
405.765	91.5
405.988	106.5
406.212	168.5
406.436	209.5
406.66	137.5
406.883	101.5
407.107	85.5
407.331	105.5
407.555	102.5
407.778	89.5
408.002	95.5
408.226	91.5
408.449	81.5
408.673	86.5
408.896	89.5
409.12	112.5
409.344	88.5
409.567	89.5
409.791	99.5
410.014	82.5
410.238	105.5
410.461	98.5
410.685	89.5
410.908	107.5
411.132	101.5
411.355	98.5
411.578	79.5
411.802	83.5
412.025	82.5
412.249	99.5
412.472	100.5
412.695	100.5
412.919	90.5
413.142	91.5
413.365	71.5
413.589	82.5
413.812	102.5
414.035	97.5
414.258	98.5
414.482	93.5
414.705	100.5
414.928	93.5
415.151	96.5
415.374	74.5
415.597	101.5
415.821	90.5
416.044	91.5
416.267	89.5
416.49	95.5
416.713	80.5
416.936	80.5
417.159	84.5
417.382	79.5
417.605	88.5
417.828	95.5
418.051	94.5
418.274	85.5
418.497	105.5
418.72	68.5
418.943	71.5
419.166	92.5
419.389	81.5
419.611	84.5
419.834	88.5
420.057	83.5
420.28	84.5
420.503	68.5
420.726	88.5
420.948	89.5
421.171	93.5
421.394	83.5
421.617	67.5
421.839	80.5
422.062	80.5
422.285	79.5
422.507	89.5
422.73	102.5
422.953	80.5
423.175	87.5
423.398	98.5
423.621	79.5
423.843	80.5
424.066	76.5
424.288	97.5
424.511	87.5
424.733	90.5
424.956	97.5
425.178	96.5
425.401	94.5
425.623	84.5
425.846	88.5
426.068	99.5
426.291	84.5
426.513	93.5
426.735	92.5
426.958	91.5
427.18	107.5
427.402	127.5
427.625	145.5
427.847	132.5
428.069	114.5
428.292	88.5
428.514	79.5
428.736	93.5
428.958	89.5
429.181	74.5
429.403	83.5
429.625	98.5
429.847	88.5
430.069	92.5
430.292	90.5
430.514	80.5
430.736	91.5
430.958	77.5
431.18	76.5
431.402	91.5
431.624	71.5
431.846	78.5
432.068	86.5
432.29	100.5
432.512	99.5
432.734	72.5
432.956	92.5
433.178	98.5
433.4	96.5
433.622	86.5
433.844	87.5
434.066	91.5
434.287	70.5
434.509	90.5
434.731	91.5
434.953	98.5
435.175	81.5
435.397	74.5
435.618	98.5
435.84	90.5
436.062	95.5
436.284	119.5
436.505	103.5
436.727	95.5
436.949	79.5
437.17	97.5
437.392	91.5
437.614	87.5
437.835	92.5
438.057	100.5
438.278	116.5
438.5	97.5
438.721	124.5
438.943	86.5
439.165	87.5
439.386	84.5
439.608	88.5
439.829	83.5
440.05	111.5
440.272	146.5
440.493	76.5
440.715	91.5
440.936	74.5
441.158	81.5
441.379	93.5
441.6	87.5
441.822	89.5
442.043	89.5
442.264	91.5
442.486	101.5
442.707	101.5
442.928	100.5
443.149	127.5
443.371	122.5
443.592	93.5
443.813	112.5
444.034	117.5
444.255	81.5
444.476	92.5
444.698	76.5
444.919	98.5
445.14	140.5
445.361	115.5
445.582	130.5
445.803	147.5
446.024	129.5
446.245	121.5
446.466	111.5
446.687	79.5
446.908	94.5
447.129	88.5
447.35	101.5
447.571	89.5
447.792	80.5
448.013	92.5
448.234	88.5
448.455	104.5
448.675	105.5
448.896	111.5
449.117	102.5
449.338	94.5
449.559	123.5
449.779	133.5
450	93.5
450.221	81.5
450.442	89.5
450.662	90.5
450.883	97.5
451.104	96.5
451.324	112.5
451.545	96.5
451.766	85.5
451.986	81.5
452.207	94.5
452.428	82.5
452.648	103.5
452.869	87.5
453.089	125.5
453.31	112.5
453.53	93.5
453.751	102.5
453.971	101.5
454.192	101.5
454.412	75.5
454.633	80.5
454.853	91.5
455.073	90.5
455.294	91.5
455.514	100.5
455.734	91.5
455.955	81.5
456.175	85.5
456.395	84.5
456.616	81.5
456.836	86.5
457.056	86.5
457.276	85.5
457.497	84.5
457.717	83.5
457.937	74.5
458.157	73.5
458.377	86.5
458.598	104.5
458.818	133.5
459.038	138.5
459.258	112.5
459.478	76.5
459.698	83.5
459.918	85.5
460.138	88.5
460.358	82.5
460.578	85.5
460.798	90.5
461.018	87.5
461.238	74.5
461.458	94.5
461.678	75.5
461.898	86.5
462.118	85.5
462.338	84.5
462.558	84.5
462.777	95.5
462.997	81.5
463.217	89.5
463.437	77.5
463.657	79.5
463.876	92.5
464.096	80.5
464.316	92.5
464.536	85.5
464.755	88.5
464.975	93.5
465.195	137.5
465.414	136.5
465.634	92.5
465.854	97.5
466.073	87.5
466.293	90.5
466.512	93.5
466.732	74.5
466.951	86.5
467.171	69.5
467.391	82.5
467.61	92.5
467.829	90.5
468.049	111.5
468.268	113.5
468.488	76.5
468.707	86.5
468.927	71.5
469.146	83.5
469.365	78.5
469.585	85.5
469.804	87.5
470.023	93.5
470.243	95.5
470.462	93.5
470.681	102.5
470.901	86.5
471.12	78.5
471.339	84.5
471.558	85.5
471.777	90.5
471.997	90.5
472.216	137.5
472.435	193.5
472.654	103.5
472.873	92.5
473.092	74.5
473.311	96.5
473.53	80.5
473.749	77.5
473.968	105.5
474.187	105.5
474.406	93.5
474.625	67.5
474.844	74.5
475.063	87.5
475.282	90.5
475.501	82.5
475.72	77.5
475.939	76.5
476.158	80.5
476.377	83.5
476.596	78.5
476.814	88.5
477.033	92.5
477.252	74.5
477.471	82.5
477.69	80.5
477.908	95.5
478.127	87.5
478.346	89.5
478.564	108.5
478.783	110.5
479.002	78.5
479.22	90.5
479.439	92.5
479.658	102.5
479.876	97.5
480.095	89.5
480.313	99.5
480.532	95.5
480.751	101.5
480.969	135.5
481.188	304.5
481.406	227.5
481.624	101.5
481.843	99.5
482.061	88.5
482.28	83.5
482.498	88.5
482.717	106.5
482.935	95.5
483.153	86.5
483.372	107.5
483.59	75.5
483.808	90.5
484.027	72.5
484.245	84.5
484.463	83.5
484.681	99.5
484.9	88.5
485.118	98.5
485.336	76.5
485.554	104.5
485.772	105.5
485.99	105.5
486.209	106.5
486.427	101.5
486.645	98.5
486.863	96.5
487.081	104.5
487.299	92.5
487.517	90.5
487.735	80.5
487.953	95.5
488.171	93.5
488.389	93.5
488.607	93.5
488.825	88.5
489.043	101.5
489.261	87.5
489.479	91.5
489.696	90.5
489.914	92.5
490.132	92.5
490.35	82.5
490.568	86.5
490.786	85.5
491.003	84.5
491.221	94.5
491.439	84.5
491.657	89.5
491.874	82.5
492.092	86.5
492.31	80.5
492.527	87.5
492.745	81.5
492.963	95.5
493.18	92.5
493.398	97.5
493.615	97.5
493.833	72.5
494.05	91.5
494.268	92.5
494.485	82.5
494.703	83.5
494.92	82.5
495.138	83.5
495.355	81.5
495.573	81.5
495.79	84.5
496.008	93.5
496.225	88.5
496.442	82.5
496.66	89.5
496.877	94.5
497.094	85.5
497.312	86.5
497.529	87.5
497.746	88.5
497.963	116.5
498.181	81.5
498.398	89.5
498.615	108.5
498.832	101.5
499.049	89.5
499.267	86.5
499.484	85.5
499.701	104.5
499.918	94.5
500.135	96.5
500.352	85.5
500.569	87.5
500.786	91.5
501.003	91.5
501.22	97.5
501.437	92.5
501.654	90.5
501.871	99.5
502.088	95.5
502.305	101.5
502.522	85.5
502.739	92.5
502.956	98.5
503.172	81.5
503.389	90.5
503.606	104.5
503.823	109.5
504.04	111.5
504.256	86.5
504.473	82.5
504.69	91.5
504.907	100.5
505.123	98.5
505.34	85.5
505.557	91.5
505.773	104.5
505.99	90.5
506.207	83.5
506.423	75.5
506.64	95.5
506.856	84.5
507.073	90.5
507.289	90.5
507.506	86.5
507.722	105.5
507.939	110.5
508.155	89.5
508.372	83.5
508.588	77.5
508.805	91.5
509.021	84.5
509.238	98.5
509.454	77.5
509.67	109.5
509.887	116.5
510.103	134.5
510.319	208.5
510.536	709.5
510.752	2295.5
510.968	673.5
511.184	166.5
511.401	108.5
511.617	108.5
511.833	93.5
512.049	84.5
512.265	87.5
512.481	94.5
512.698	84.5
512.914	86.5
513.13	83.5
513.346	81.5
513.562	103.5
513.778	95.5
513.994	82.5
514.21	100.5
514.426	116.5
514.642	127.5
514.858	114.5
515.074	140.5
515.29	393.5
515.506	1363.5
515.721	539.5
515.937	157.5
516.153	108.5
516.369	103.5
516.585	87.5
516.801	90.5
517.016	95.5
517.232	92.5
517.448	88.5
517.664	85.5
517.879	93.5
518.095	96.5
518.311	92.5
518.527	84.5
518.742	104.5
518.958	99.5
519.173	89.5
519.389	89.5
519.605	93.5
519.82	88.5
520.036	95.5
520.251	108.5
520.467	104.5
520.682	101.5
520.898	118.5
521.113	112.5
521.329	154.5
521.544	194.5
521.76	517.5
521.975	2220.5
522.19	1410.5
522.406	314.5
522.621	140.5
522.836	83.5
523.052	98.5
523.267	83.5
523.482	94.5
523.698	104.5
523.913	119.5
524.128	103.5
524.343	96.5
524.559	84.5
524.774	98.5
524.989	88.5
525.204	107.5
525.419	102.5
525.634	85.5
525.849	88.5
526.064	91.5
526.28	89.5
526.495	84.5
526.71	79.5
526.925	82.5
527.14	87.5
527.355	94.5
527.57	91.5
527.785	102.5
527.999	93.5
528.214	84.5
528.429	91.5
528.644	92.5
528.859	83.5
529.074	88.5
529.289	111.5
529.503	170.5
529.718	103.5
529.933	96.5
530.148	89.5
530.363	93.5
530.577	72.5
530.792	83.5
531.007	98.5
531.221	100.5
531.436	94.5
531.651	107.5
531.865	92.5
532.08	91.5
532.295	87.5
532.509	92.5
532.724	83.5
532.938	92.5
533.153	105.5
533.367	92.5
533.582	91.5
533.796	99.5
534.011	84.5
534.225	88.5
534.44	93.5
534.654	85.5
534.868	97.5
535.083	89.5
535.297	90.5
535.511	113.5
535.726	100.5
535.94	96.5
