Data from Circ_2016_H10_HRD10591_00020.txt Node
Date: Wed Jan 03 09:58:44 EST 2024
User: Yrep
Spectrometer: HR+D1059
Trigger mode: 1
Integration Time (sec): 1.000000E-1
Scans to average: 1
Electric dark correction enabled: true
Nonlinearity correction enabled: false
Boxcar width: 0
XAxis mode: Wavelengths
Number of Pixels in Spectrum: 2048
>>>>>Begin Spectral Data<<<<<
223.165	-4.81
223.4	-4.81
223.635	-4.81
223.869	-27.81
224.104	-6.81
224.338	-11.81
224.573	-12.81
224.808	-14.81
225.042	-3.81
225.277	-6.81
225.511	2.19
225.746	-4.81
225.98	5.19
226.215	7.19
226.449	13.19
226.683	27.19
226.918	19.19
227.152	20.19
227.387	31.19
227.621	38.19
227.856	41.19
228.09	51.19
228.324	47.19
228.559	63.19
228.793	51.19
229.027	62.19
229.262	60.19
229.496	70.19
229.73	78.19
229.964	80.19
230.199	72.19
230.433	72.19
230.667	75.19
230.901	71.19
231.136	83.19
231.37	67.19
231.604	81.19
231.838	91.19
232.072	74.19
232.306	76.19
232.541	85.19
232.775	77.19
233.009	76.19
233.243	82.19
233.477	66.19
233.711	75.19
233.945	63.19
234.179	80.19
234.413	92.19
234.647	84.19
234.881	73.19
235.115	76.19
235.349	89.19
235.583	82.19
235.817	77.19
236.051	82.19
236.285	80.19
236.519	70.19
236.753	73.19
236.987	81.19
237.221	81.19
237.455	67.19
237.689	80.19
237.922	80.19
238.156	83.19
238.39	71.19
238.624	83.19
238.858	79.19
239.091	87.19
239.325	79.19
239.559	80.19
239.793	81.19
240.027	71.19
240.26	88.19
240.494	89.19
240.728	77.19
240.961	84.19
241.195	79.19
241.429	79.19
241.662	73.19
241.896	74.19
242.13	67.19
242.363	79.19
242.597	81.19
242.83	70.19
243.064	79.19
243.298	72.19
243.531	57.19
243.765	77.19
243.998	73.19
244.232	69.19
244.465	84.19
244.699	78.19
244.932	77.19
245.166	81.19
245.399	69.19
245.633	83.19
245.866	78.19
246.099	65.19
246.333	69.19
246.566	73.19
246.8	75.19
247.033	81.19
247.266	81.19
247.5	79.19
247.733	79.19
247.966	69.19
248.2	89.19
248.433	87.19
248.666	70.19
248.899	92.19
249.133	85.19
249.366	90.19
249.599	90.19
249.832	91.19
250.066	65.19
250.299	80.19
250.532	69.19
250.765	75.19
250.998	89.19
251.231	81.19
251.465	82.19
251.698	67.19
251.931	81.19
252.164	79.19
252.397	74.19
252.63	80.19
252.863	74.19
253.096	77.19
253.329	79.19
253.562	73.19
253.795	81.19
254.028	77.19
254.261	85.19
254.494	70.19
254.727	65.19
254.96	86.19
255.193	70.19
255.426	69.19
255.659	75.19
255.892	84.19
256.124	80.19
256.357	66.19
256.59	68.19
256.823	81.19
257.056	77.19
257.289	86.19
257.521	74.19
257.754	74.19
257.987	90.19
258.22	79.19
258.452	83.19
258.685	67.19
258.918	81.19
259.151	89.19
259.383	76.19
259.616	69.19
259.849	91.19
260.081	88.19
260.314	87.19
260.547	77.19
260.779	72.19
261.012	84.19
261.244	84.19
261.477	78.19
261.71	87.19
261.942	101.19
262.175	129.19
262.407	80.19
262.64	76.19
262.872	90.19
263.105	83.19
263.337	65.19
263.57	84.19
263.802	87.19
264.035	88.19
264.267	82.19
264.499	83.19
264.732	84.19
264.964	75.19
265.197	71.19
265.429	91.19
265.661	88.19
265.894	101.19
266.126	89.19
266.358	76.19
266.591	74.19
266.823	74.19
267.055	82.19
267.287	77.19
267.52	75.19
267.752	66.19
267.984	81.19
268.216	84.19
268.448	92.19
268.681	73.19
268.913	81.19
269.145	81.19
269.377	86.19
269.609	89.19
269.841	77.19
270.073	89.19
270.306	74.19
270.538	95.19
270.77	78.19
271.002	84.19
271.234	79.19
271.466	92.19
271.698	62.19
271.93	90.19
272.162	87.19
272.394	92.19
272.626	85.19
272.858	74.19
273.09	88.19
273.322	76.19
273.553	72.19
273.785	83.19
274.017	81.19
274.249	76.19
274.481	87.19
274.713	91.19
274.945	75.19
275.176	67.19
275.408	84.19
275.64	83.19
275.872	84.19
276.104	91.19
276.335	91.19
276.567	86.19
276.799	105.19
277.031	102.19
277.262	96.19
277.494	87.19
277.726	90.19
277.957	81.19
278.189	79.19
278.421	82.19
278.652	83.19
278.884	97.19
279.115	88.19
279.347	69.19
279.579	82.19
279.81	74.19
280.042	95.19
280.273	81.19
280.505	80.19
280.736	82.19
280.968	78.19
281.199	81.19
281.431	80.19
281.662	95.19
281.894	90.19
282.125	92.19
282.356	129.19
282.588	151.19
282.819	123.19
283.051	80.19
283.282	98.19
283.513	76.19
283.745	85.19
283.976	90.19
284.207	91.19
284.439	92.19
284.67	96.19
284.901	80.19
285.132	95.19
285.364	99.19
285.595	82.19
285.826	79.19
286.057	82.19
286.288	85.19
286.52	92.19
286.751	71.19
286.982	85.19
287.213	88.19
287.444	90.19
287.675	90.19
287.906	72.19
288.138	100.19
288.369	98.19
288.6	82.19
288.831	95.19
289.062	79.19
289.293	72.19
289.524	89.19
289.755	88.19
289.986	100.19
290.217	81.19
290.448	92.19
290.679	76.19
290.91	80.19
291.141	93.19
291.371	85.19
291.602	78.19
291.833	72.19
292.064	102.19
292.295	82.19
292.526	95.19
292.757	84.19
292.987	84.19
293.218	83.19
293.449	101.19
293.68	85.19
293.91	84.19
294.141	76.19
294.372	92.19
294.603	96.19
294.833	81.19
295.064	75.19
295.295	83.19
295.525	88.19
295.756	103.19
295.987	118.19
296.217	140.19
296.448	113.19
296.679	89.19
296.909	96.19
297.14	83.19
297.37	100.19
297.601	90.19
297.831	96.19
298.062	111.19
298.292	93.19
298.523	92.19
298.753	83.19
298.984	95.19
299.214	84.19
299.445	79.19
299.675	103.19
299.905	71.19
300.136	88.19
300.366	85.19
300.597	104.19
300.827	75.19
301.057	94.19
301.288	92.19
301.518	83.19
301.748	84.19
301.979	82.19
302.209	84.19
302.439	91.19
302.669	73.19
302.9	66.19
303.13	83.19
303.36	79.19
303.59	92.19
303.82	96.19
304.051	87.19
304.281	98.19
304.511	88.19
304.741	82.19
304.971	81.19
305.201	86.19
305.431	96.19
305.661	82.19
305.891	99.19
306.121	94.19
306.352	92.19
306.582	114.19
306.812	89.19
307.042	79.19
307.272	90.19
307.502	84.19
307.731	87.19
307.961	100.19
308.191	92.19
308.421	75.19
308.651	95.19
308.881	85.19
309.111	87.19
309.341	91.19
309.571	91.19
309.8	102.19
310.03	111.19
310.26	105.19
310.49	96.19
310.72	84.19
310.949	112.19
311.179	95.19
311.409	85.19
311.639	105.19
311.868	91.19
312.098	98.19
312.328	97.19
312.557	95.19
312.787	114.19
313.017	92.19
313.246	83.19
313.476	88.19
313.706	89.19
313.935	90.19
314.165	89.19
314.394	106.19
314.624	103.19
314.853	112.19
315.083	100.19
315.312	110.19
315.542	84.19
315.771	97.19
316.001	94.19
316.23	92.19
316.46	77.19
316.689	88.19
316.919	81.19
317.148	87.19
317.377	90.19
317.607	88.19
317.836	108.19
318.065	73.19
318.295	97.19
318.524	86.19
318.753	87.19
318.983	98.19
319.212	104.19
319.441	116.19
319.67	94.19
319.9	100.19
320.129	80.19
320.358	99.19
320.587	107.19
320.816	107.19
321.046	87.19
321.275	89.19
321.504	104.19
321.733	105.19
321.962	85.19
322.191	111.19
322.42	101.19
322.649	105.19
322.878	112.19
323.108	130.19
323.337	133.19
323.566	149.19
323.795	169.19
324.024	239.19
324.253	460.19
324.482	1030.19
324.71	2100.19
324.939	2744.19
325.168	991.19
325.397	270.19
325.626	163.19
325.855	129.19
326.084	131.19
326.313	149.19
326.542	156.19
326.77	264.19
326.999	528.19
327.228	1160.19
327.457	2113.19
327.686	1628.19
327.914	425.19
328.143	197.19
328.372	167.19
328.6	127.19
328.829	111.19
329.058	136.19
329.287	126.19
329.515	120.19
329.744	92.19
329.972	96.19
330.201	100.19
330.43	115.19
330.658	130.19
330.887	141.19
331.115	116.19
331.344	104.19
331.572	88.19
331.801	99.19
332.03	100.19
332.258	104.19
332.486	99.19
332.715	82.19
332.943	95.19
333.172	101.19
333.4	97.19
333.629	103.19
333.857	123.19
334.085	105.19
334.314	92.19
334.542	88.19
334.771	91.19
334.999	99.19
335.227	95.19
335.455	93.19
335.684	92.19
335.912	91.19
336.14	103.19
336.369	108.19
336.597	96.19
336.825	97.19
337.053	98.19
337.281	90.19
337.51	101.19
337.738	88.19
337.966	105.19
338.194	94.19
338.422	96.19
338.65	96.19
338.878	84.19
339.106	100.19
339.334	83.19
339.562	87.19
339.79	95.19
340.018	96.19
340.246	92.19
340.474	97.19
340.702	96.19
340.93	96.19
341.158	99.19
341.386	108.19
341.614	96.19
341.842	94.19
342.07	82.19
342.298	86.19
342.526	92.19
342.754	88.19
342.981	83.19
343.209	92.19
343.437	97.19
343.665	67.19
343.893	87.19
344.12	90.19
344.348	107.19
344.576	88.19
344.804	90.19
345.031	95.19
345.259	112.19
345.487	106.19
345.714	98.19
345.942	92.19
346.17	84.19
346.397	89.19
346.625	89.19
346.853	89.19
347.08	82.19
347.308	96.19
347.535	87.19
347.763	83.19
347.99	92.19
348.218	107.19
348.445	101.19
348.673	97.19
348.9	100.19
349.128	102.19
349.355	101.19
349.583	87.19
349.81	83.19
350.037	95.19
350.265	91.19
350.492	100.19
350.72	95.19
350.947	104.19
351.174	106.19
351.402	107.19
351.629	111.19
351.856	99.19
352.083	111.19
352.311	99.19
352.538	109.19
352.765	101.19
352.992	108.19
353.22	107.19
353.447	115.19
353.674	120.19
353.901	91.19
354.128	108.19
354.355	96.19
354.583	116.19
354.81	91.19
355.037	107.19
355.264	91.19
355.491	95.19
355.718	87.19
355.945	87.19
356.172	88.19
356.399	101.19
356.626	92.19
356.853	96.19
357.08	95.19
357.307	101.19
357.534	93.19
357.761	94.19
357.988	112.19
358.215	103.19
358.441	103.19
358.668	128.19
358.895	106.19
359.122	104.19
359.349	100.19
359.576	94.19
359.802	97.19
360.029	116.19
360.256	109.19
360.483	105.19
360.709	93.19
360.936	98.19
361.163	94.19
361.39	101.19
361.616	99.19
361.843	102.19
362.07	94.19
362.296	97.19
362.523	90.19
362.749	82.19
362.976	84.19
363.203	88.19
363.429	100.19
363.656	87.19
363.882	86.19
364.109	92.19
364.335	90.19
364.562	106.19
364.788	92.19
365.015	86.19
365.241	96.19
365.468	111.19
365.694	111.19
365.92	92.19
366.147	95.19
366.373	87.19
366.599	101.19
366.826	81.19
367.052	89.19
367.278	90.19
367.505	92.19
367.731	96.19
367.957	84.19
368.184	102.19
368.41	95.19
368.636	109.19
368.862	127.19
369.089	106.19
369.315	93.19
369.541	86.19
369.767	87.19
369.993	89.19
370.219	83.19
370.445	89.19
370.672	89.19
370.898	87.19
371.124	89.19
371.35	98.19
371.576	84.19
371.802	81.19
372.028	90.19
372.254	95.19
372.48	96.19
372.706	90.19
372.932	117.19
373.158	87.19
373.384	105.19
373.61	94.19
373.835	97.19
374.061	84.19
374.287	108.19
374.513	110.19
374.739	78.19
374.965	90.19
375.191	97.19
375.416	95.19
375.642	87.19
375.868	92.19
376.094	97.19
376.319	83.19
376.545	98.19
376.771	98.19
376.997	109.19
377.222	96.19
377.448	82.19
377.674	101.19
377.899	108.19
378.125	107.19
378.35	108.19
378.576	99.19
378.802	96.19
379.027	99.19
379.253	96.19
379.478	111.19
379.704	96.19
379.929	103.19
380.155	123.19
380.38	101.19
380.606	106.19
380.831	121.19
381.057	106.19
381.282	94.19
381.507	117.19
381.733	119.19
381.958	119.19
382.184	127.19
382.409	115.19
382.634	129.19
382.86	118.19
383.085	117.19
383.31	118.19
383.535	128.19
383.761	124.19
383.986	127.19
384.211	117.19
384.436	121.19
384.662	129.19
384.887	131.19
385.112	145.19
385.337	156.19
385.562	141.19
385.787	145.19
386.013	161.19
386.238	157.19
386.463	142.19
386.688	135.19
386.913	129.19
387.138	163.19
387.363	148.19
387.588	121.19
387.813	125.19
388.038	152.19
388.263	168.19
388.488	155.19
388.713	111.19
388.938	89.19
389.163	88.19
389.387	104.19
389.612	84.19
389.837	92.19
390.062	92.19
390.287	91.19
390.512	90.19
390.736	93.19
390.961	98.19
391.186	91.19
391.411	96.19
391.636	85.19
391.86	83.19
392.085	90.19
392.31	74.19
392.534	100.19
392.759	99.19
392.984	99.19
393.208	103.19
393.433	129.19
393.658	121.19
393.882	92.19
394.107	91.19
394.331	80.19
394.556	88.19
394.78	100.19
395.005	87.19
395.229	90.19
395.454	85.19
395.678	87.19
395.903	91.19
396.127	93.19
396.352	91.19
396.576	101.19
396.801	97.19
397.025	118.19
397.249	73.19
397.474	97.19
397.698	90.19
397.922	93.19
398.147	95.19
398.371	95.19
398.595	81.19
398.82	79.19
399.044	93.19
399.268	80.19
399.492	77.19
399.717	83.19
399.941	100.19
400.165	84.19
400.389	93.19
400.613	96.19
400.837	88.19
401.062	91.19
401.286	73.19
401.51	93.19
401.734	113.19
401.958	107.19
402.182	127.19
402.406	163.19
402.63	112.19
402.854	103.19
403.078	87.19
403.302	86.19
403.526	88.19
403.75	92.19
403.974	104.19
404.198	80.19
404.422	77.19
404.645	99.19
404.869	94.19
405.093	98.19
405.317	92.19
405.541	90.19
405.765	99.19
405.988	118.19
406.212	177.19
406.436	235.19
406.66	155.19
406.883	99.19
407.107	84.19
407.331	88.19
407.555	100.19
407.778	104.19
408.002	93.19
408.226	89.19
408.449	93.19
408.673	89.19
408.896	95.19
409.12	115.19
409.344	101.19
409.567	85.19
409.791	103.19
410.014	92.19
410.238	111.19
410.461	96.19
410.685	95.19
410.908	98.19
411.132	101.19
411.355	102.19
411.578	91.19
411.802	91.19
412.025	103.19
412.249	99.19
412.472	96.19
412.695	93.19
412.919	83.19
413.142	89.19
413.365	80.19
413.589	87.19
413.812	95.19
414.035	98.19
414.258	88.19
414.482	92.19
414.705	103.19
414.928	95.19
415.151	101.19
415.374	104.19
415.597	101.19
415.821	89.19
416.044	93.19
416.267	93.19
416.49	90.19
416.713	102.19
416.936	88.19
417.159	93.19
417.382	97.19
417.605	86.19
417.828	96.19
418.051	95.19
418.274	84.19
418.497	80.19
418.72	107.19
418.943	90.19
419.166	92.19
419.389	81.19
419.611	90.19
419.834	96.19
420.057	96.19
420.28	110.19
420.503	95.19
420.726	91.19
420.948	93.19
421.171	99.19
421.394	96.19
421.617	104.19
421.839	93.19
422.062	90.19
422.285	90.19
422.507	93.19
422.73	137.19
422.953	116.19
423.175	92.19
423.398	80.19
423.621	89.19
423.843	91.19
424.066	83.19
424.288	78.19
424.511	93.19
424.733	98.19
424.956	115.19
425.178	100.19
425.401	104.19
425.623	99.19
425.846	95.19
426.068	100.19
426.291	99.19
426.513	86.19
426.735	95.19
426.958	103.19
427.18	104.19
427.402	140.19
427.625	178.19
427.847	143.19
428.069	96.19
428.292	111.19
428.514	91.19
428.736	95.19
428.958	76.19
429.181	100.19
429.403	95.19
429.625	89.19
429.847	90.19
430.069	103.19
430.292	103.19
430.514	92.19
430.736	92.19
430.958	103.19
431.18	92.19
431.402	87.19
431.624	81.19
431.846	98.19
432.068	97.19
432.29	94.19
432.512	84.19
432.734	87.19
432.956	100.19
433.178	114.19
433.4	122.19
433.622	96.19
433.844	87.19
434.066	95.19
434.287	92.19
434.509	99.19
434.731	91.19
434.953	100.19
435.175	79.19
435.397	97.19
435.618	93.19
435.84	106.19
436.062	128.19
436.284	119.19
436.505	102.19
436.727	112.19
436.949	101.19
437.17	101.19
437.392	90.19
437.614	98.19
437.835	108.19
438.057	115.19
438.278	108.19
438.5	114.19
438.721	131.19
438.943	104.19
439.165	111.19
439.386	97.19
439.608	84.19
439.829	105.19
440.05	117.19
440.272	141.19
440.493	113.19
440.715	92.19
440.936	87.19
441.158	77.19
441.379	85.19
441.6	105.19
441.822	103.19
442.043	90.19
442.264	115.19
442.486	100.19
442.707	96.19
442.928	109.19
443.149	128.19
443.371	118.19
443.592	121.19
443.813	107.19
444.034	92.19
444.255	106.19
444.476	91.19
444.698	87.19
444.919	91.19
445.14	145.19
445.361	109.19
445.582	131.19
445.803	141.19
446.024	135.19
446.245	155.19
446.466	119.19
446.687	101.19
446.908	95.19
447.129	89.19
447.35	85.19
447.571	88.19
447.792	104.19
448.013	104.19
448.234	107.19
448.455	91.19
448.675	112.19
448.896	120.19
449.117	91.19
449.338	113.19
449.559	137.19
449.779	149.19
450	85.19
450.221	98.19
450.442	93.19
450.662	89.19
450.883	112.19
451.104	114.19
451.324	90.19
451.545	87.19
451.766	82.19
451.986	77.19
452.207	90.19
452.428	111.19
452.648	91.19
452.869	115.19
453.089	119.19
453.31	107.19
453.53	94.19
453.751	85.19
453.971	105.19
454.192	112.19
454.412	80.19
454.633	81.19
454.853	91.19
455.073	88.19
455.294	90.19
455.514	98.19
455.734	85.19
455.955	84.19
456.175	89.19
456.395	91.19
456.616	94.19
456.836	80.19
457.056	85.19
457.276	88.19
457.497	61.19
457.717	73.19
457.937	92.19
458.157	84.19
458.377	106.19
458.598	113.19
458.818	144.19
459.038	157.19
459.258	119.19
459.478	91.19
459.698	81.19
459.918	81.19
460.138	80.19
460.358	74.19
460.578	84.19
460.798	90.19
461.018	80.19
461.238	76.19
461.458	84.19
461.678	65.19
461.898	95.19
462.118	89.19
462.338	96.19
462.558	87.19
462.777	92.19
462.997	81.19
463.217	87.19
463.437	85.19
463.657	84.19
463.876	82.19
464.096	71.19
464.316	88.19
464.536	98.19
464.755	85.19
464.975	106.19
465.195	175.19
465.414	175.19
465.634	91.19
465.854	98.19
466.073	98.19
466.293	86.19
466.512	83.19
466.732	91.19
466.951	92.19
467.171	81.19
467.391	94.19
467.61	106.19
467.829	96.19
468.049	89.19
468.268	88.19
468.488	82.19
468.707	84.19
468.927	93.19
469.146	84.19
469.365	92.19
469.585	91.19
469.804	89.19
470.023	101.19
470.243	99.19
470.462	95.19
470.681	100.19
470.901	88.19
471.12	102.19
471.339	98.19
471.558	96.19
471.777	93.19
471.997	93.19
472.216	92.19
472.435	89.19
472.654	91.19
472.873	88.19
473.092	89.19
473.311	82.19
473.53	73.19
473.749	87.19
473.968	105.19
474.187	121.19
474.406	101.19
474.625	84.19
474.844	86.19
475.063	74.19
475.282	85.19
475.501	87.19
475.72	95.19
475.939	81.19
476.158	87.19
476.377	66.19
476.596	91.19
476.814	95.19
477.033	89.19
477.252	102.19
477.471	85.19
477.69	77.19
477.908	94.19
478.127	97.19
478.346	85.19
478.564	68.19
478.783	91.19
479.002	88.19
479.22	90.19
479.439	104.19
479.658	115.19
479.876	90.19
480.095	97.19
480.313	89.19
480.532	89.19
480.751	98.19
480.969	91.19
481.188	108.19
481.406	102.19
481.624	82.19
481.843	81.19
482.061	88.19
482.28	91.19
482.498	83.19
482.717	89.19
482.935	85.19
483.153	86.19
483.372	104.19
483.59	91.19
483.808	81.19
484.027	91.19
484.245	90.19
484.463	100.19
484.681	89.19
484.9	96.19
485.118	84.19
485.336	93.19
485.554	106.19
485.772	100.19
485.99	103.19
486.209	108.19
486.427	108.19
486.645	116.19
486.863	113.19
487.081	102.19
487.299	99.19
487.517	80.19
487.735	92.19
487.953	78.19
488.171	75.19
488.389	94.19
488.607	95.19
488.825	105.19
489.043	90.19
489.261	87.19
489.479	87.19
489.696	96.19
489.914	91.19
490.132	95.19
490.35	88.19
490.568	82.19
490.786	91.19
491.003	78.19
491.221	76.19
491.439	79.19
491.657	91.19
491.874	105.19
492.092	99.19
492.31	90.19
492.527	87.19
492.745	80.19
492.963	92.19
493.18	89.19
493.398	90.19
493.615	82.19
493.833	81.19
494.05	79.19
494.268	94.19
494.485	90.19
494.703	84.19
494.92	86.19
495.138	84.19
495.355	91.19
495.573	95.19
495.79	91.19
496.008	99.19
496.225	82.19
496.442	93.19
496.66	91.19
496.877	77.19
497.094	106.19
497.312	98.19
497.529	75.19
497.746	89.19
497.963	98.19
498.181	89.19
498.398	98.19
498.615	120.19
498.832	97.19
499.049	85.19
499.267	79.19
499.484	91.19
499.701	87.19
499.918	77.19
500.135	90.19
500.352	93.19
500.569	90.19
500.786	87.19
501.003	96.19
501.22	86.19
501.437	104.19
501.654	97.19
501.871	103.19
502.088	87.19
502.305	97.19
502.522	96.19
502.739	81.19
502.956	93.19
503.172	90.19
503.389	90.19
503.606	116.19
503.823	109.19
504.04	96.19
504.256	100.19
504.473	95.19
504.69	86.19
504.907	92.19
505.123	96.19
505.34	91.19
505.557	80.19
505.773	83.19
505.99	83.19
506.207	82.19
506.423	79.19
506.64	97.19
506.856	104.19
507.073	80.19
507.289	73.19
507.506	92.19
507.722	103.19
507.939	113.19
508.155	102.19
508.372	89.19
508.588	97.19
508.805	94.19
509.021	103.19
509.238	99.19
509.454	101.19
509.67	104.19
509.887	102.19
510.103	127.19
510.319	214.19
510.536	819.19
510.752	2823.19
510.968	789.19
511.184	159.19
511.401	117.19
511.617	92.19
511.833	88.19
512.049	93.19
512.265	83.19
512.481	86.19
512.698	89.19
512.914	96.19
513.13	100.19
513.346	87.19
513.562	101.19
513.778	102.19
513.994	94.19
514.21	98.19
514.426	107.19
514.642	135.19
514.858	138.19
515.074	163.19
