Data from Circ_2016_H10_HRD10591_00053.txt Node
Date: Wed Jan 03 09:58:51 EST 2024
User: Yrep
Spectrometer: HR+D1059
Trigger mode: 1
Integration Time (sec): 1.000000E-1
Scans to average: 1
Electric dark correction enabled: true
Nonlinearity correction enabled: false
Boxcar width: 0
XAxis mode: Wavelengths
Number of Pixels in Spectrum: 2048
>>>>>Begin Spectral Data<<<<<
223.165	-12.56
223.4	-12.56
223.635	-12.56
223.869	-21.56
224.104	-4.56
224.338	-8.56
224.573	-22.56
224.808	-16.56
225.042	-20.56
225.277	-20.56
225.511	-0.56
225.746	-3.56
225.98	14.44
226.215	16.44
226.449	25.44
226.683	20.44
226.918	23.44
227.152	31.44
227.387	32.44
227.621	41.44
227.856	44.44
228.09	54.44
228.324	57.44
228.559	58.44
228.793	69.44
229.027	70.44
229.262	75.44
229.496	69.44
229.73	73.44
229.964	77.44
230.199	74.44
230.433	79.44
230.667	75.44
230.901	74.44
231.136	76.44
231.37	73.44
231.604	79.44
231.838	81.44
232.072	83.44
232.306	92.44
232.541	76.44
232.775	82.44
233.009	87.44
233.243	75.44
233.477	80.44
233.711	85.44
233.945	86.44
234.179	79.44
234.413	80.44
234.647	68.44
234.881	67.44
235.115	71.44
235.349	79.44
235.583	86.44
235.817	78.44
236.051	84.44
236.285	70.44
236.519	77.44
236.753	76.44
236.987	85.44
237.221	73.44
237.455	82.44
237.689	73.44
237.922	78.44
238.156	82.44
238.39	87.44
238.624	78.44
238.858	68.44
239.091	77.44
239.325	68.44
239.559	73.44
239.793	82.44
240.027	86.44
240.26	84.44
240.494	86.44
240.728	85.44
240.961	83.44
241.195	85.44
241.429	90.44
241.662	87.44
241.896	69.44
242.13	73.44
242.363	89.44
242.597	73.44
242.83	71.44
243.064	84.44
243.298	89.44
243.531	80.44
243.765	78.44
243.998	72.44
244.232	72.44
244.465	82.44
244.699	90.44
244.932	70.44
245.166	74.44
245.399	71.44
245.633	76.44
245.866	88.44
246.099	68.44
246.333	84.44
246.566	75.44
246.8	79.44
247.033	88.44
247.266	77.44
247.5	92.44
247.733	79.44
247.966	74.44
248.2	76.44
248.433	76.44
248.666	80.44
248.899	75.44
249.133	77.44
249.366	89.44
249.599	98.44
249.832	88.44
250.066	81.44
250.299	82.44
250.532	78.44
250.765	82.44
250.998	75.44
251.231	91.44
251.465	80.44
251.698	74.44
251.931	98.44
252.164	74.44
252.397	89.44
252.63	86.44
252.863	70.44
253.096	85.44
253.329	88.44
253.562	79.44
253.795	80.44
254.028	80.44
254.261	82.44
254.494	91.44
254.727	80.44
254.96	76.44
255.193	82.44
255.426	75.44
255.659	82.44
255.892	69.44
256.124	86.44
256.357	85.44
256.59	79.44
256.823	80.44
257.056	72.44
257.289	91.44
257.521	80.44
257.754	82.44
257.987	89.44
258.22	77.44
258.452	87.44
258.685	95.44
258.918	92.44
259.151	86.44
259.383	89.44
259.616	79.44
259.849	88.44
260.081	94.44
260.314	84.44
260.547	100.44
260.779	91.44
261.012	83.44
261.244	91.44
261.477	91.44
261.71	86.44
261.942	109.44
262.175	109.44
262.407	94.44
262.64	85.44
262.872	90.44
263.105	90.44
263.337	80.44
263.57	70.44
263.802	86.44
264.035	84.44
264.267	78.44
264.499	91.44
264.732	87.44
264.964	91.44
265.197	98.44
265.429	85.44
265.661	81.44
265.894	97.44
266.126	64.44
266.358	68.44
266.591	79.44
266.823	89.44
267.055	91.44
267.287	90.44
267.52	78.44
267.752	80.44
267.984	93.44
268.216	91.44
268.448	86.44
268.681	76.44
268.913	90.44
269.145	90.44
269.377	87.44
269.609	80.44
269.841	69.44
270.073	79.44
270.306	76.44
270.538	73.44
270.77	70.44
271.002	92.44
271.234	82.44
271.466	99.44
271.698	70.44
271.93	85.44
272.162	77.44
272.394	99.44
272.626	100.44
272.858	94.44
273.09	93.44
273.322	99.44
273.553	79.44
273.785	78.44
274.017	85.44
274.249	89.44
274.481	96.44
274.713	96.44
274.945	85.44
275.176	87.44
275.408	95.44
275.64	102.44
275.872	92.44
276.104	91.44
276.335	86.44
276.567	98.44
276.799	97.44
277.031	89.44
277.262	100.44
277.494	76.44
277.726	100.44
277.957	79.44
278.189	88.44
278.421	88.44
278.652	75.44
278.884	82.44
279.115	90.44
279.347	83.44
279.579	86.44
279.81	85.44
280.042	89.44
280.273	94.44
280.505	89.44
280.736	83.44
280.968	84.44
281.199	73.44
281.431	79.44
281.662	90.44
281.894	94.44
282.125	94.44
282.356	106.44
282.588	145.44
282.819	118.44
283.051	89.44
283.282	108.44
283.513	105.44
283.745	90.44
283.976	80.44
284.207	77.44
284.439	101.44
284.67	87.44
284.901	87.44
285.132	87.44
285.364	79.44
285.595	92.44
285.826	84.44
286.057	90.44
286.288	79.44
286.52	78.44
286.751	87.44
286.982	82.44
287.213	98.44
287.444	87.44
287.675	87.44
287.906	89.44
288.138	82.44
288.369	89.44
288.6	98.44
288.831	89.44
289.062	86.44
289.293	84.44
289.524	92.44
289.755	93.44
289.986	99.44
290.217	85.44
290.448	90.44
290.679	73.44
290.91	79.44
291.141	79.44
291.371	83.44
291.602	95.44
291.833	109.44
292.064	90.44
292.295	80.44
292.526	96.44
292.757	87.44
292.987	90.44
293.218	90.44
293.449	82.44
293.68	93.44
293.91	98.44
294.141	78.44
294.372	76.44
294.603	84.44
294.833	93.44
295.064	95.44
295.295	84.44
295.525	91.44
295.756	114.44
295.987	134.44
296.217	135.44
296.448	108.44
296.679	98.44
296.909	85.44
297.14	87.44
297.37	101.44
297.601	93.44
297.831	91.44
298.062	94.44
298.292	82.44
298.523	91.44
298.753	100.44
298.984	94.44
299.214	88.44
299.445	108.44
299.675	98.44
299.905	105.44
300.136	89.44
300.366	93.44
300.597	88.44
300.827	98.44
301.057	102.44
301.288	100.44
301.518	93.44
301.748	95.44
301.979	103.44
302.209	99.44
302.439	92.44
302.669	74.44
302.9	93.44
303.13	87.44
303.36	92.44
303.59	91.44
303.82	102.44
304.051	90.44
304.281	93.44
304.511	89.44
304.741	84.44
304.971	84.44
305.201	99.44
305.431	98.44
305.661	97.44
305.891	90.44
306.121	103.44
306.352	98.44
306.582	110.44
306.812	104.44
307.042	96.44
307.272	90.44
307.502	93.44
307.731	94.44
307.961	92.44
308.191	100.44
308.421	99.44
308.651	99.44
308.881	101.44
309.111	88.44
309.341	97.44
309.571	97.44
309.8	94.44
310.03	98.44
310.26	117.44
310.49	94.44
310.72	86.44
310.949	107.44
311.179	104.44
311.409	98.44
311.639	100.44
311.868	83.44
312.098	85.44
312.328	82.44
312.557	107.44
312.787	108.44
313.017	109.44
313.246	98.44
313.476	100.44
313.706	95.44
313.935	82.44
314.165	93.44
314.394	96.44
314.624	82.44
314.853	96.44
315.083	118.44
315.312	93.44
315.542	89.44
315.771	114.44
316.001	77.44
316.23	94.44
316.46	86.44
316.689	99.44
316.919	84.44
317.148	93.44
317.377	105.44
317.607	83.44
317.836	102.44
318.065	76.44
318.295	84.44
318.524	85.44
318.753	76.44
318.983	94.44
319.212	99.44
319.441	114.44
319.67	107.44
319.9	93.44
320.129	104.44
320.358	102.44
320.587	86.44
320.816	100.44
321.046	92.44
321.275	112.44
321.504	102.44
321.733	94.44
321.962	80.44
322.191	92.44
322.42	107.44
322.649	105.44
322.878	114.44
323.108	124.44
323.337	126.44
323.566	144.44
323.795	152.44
324.024	214.44
324.253	391.44
324.482	907.44
324.71	1774.44
324.939	2412.44
325.168	885.44
325.397	269.44
325.626	146.44
325.855	137.44
326.084	117.44
326.313	119.44
326.542	156.44
326.77	239.44
326.999	495.44
327.228	1027.44
327.457	1871.44
327.686	1453.44
327.914	399.44
328.143	210.44
328.372	164.44
328.6	117.44
328.829	118.44
329.058	122.44
329.287	129.44
329.515	106.44
329.744	103.44
329.972	108.44
330.201	128.44
330.43	132.44
330.658	119.44
330.887	139.44
331.115	115.44
331.344	107.44
331.572	105.44
331.801	87.44
332.03	99.44
332.258	104.44
332.486	101.44
332.715	101.44
332.943	93.44
333.172	91.44
333.4	111.44
333.629	112.44
333.857	117.44
334.085	109.44
334.314	117.44
334.542	150.44
334.771	142.44
334.999	114.44
335.227	101.44
335.455	89.44
335.684	84.44
335.912	105.44
336.14	103.44
336.369	98.44
336.597	94.44
336.825	84.44
337.053	95.44
337.281	103.44
337.51	92.44
337.738	94.44
337.966	90.44
338.194	104.44
338.422	94.44
338.65	80.44
338.878	94.44
339.106	84.44
339.334	88.44
339.562	91.44
339.79	87.44
340.018	88.44
340.246	97.44
340.474	101.44
340.702	98.44
340.93	102.44
341.158	86.44
341.386	94.44
341.614	97.44
341.842	104.44
342.07	89.44
342.298	90.44
342.526	96.44
342.754	87.44
342.981	94.44
343.209	92.44
343.437	111.44
343.665	92.44
343.893	103.44
344.12	82.44
344.348	77.44
344.576	96.44
344.804	84.44
345.031	101.44
345.259	103.44
345.487	99.44
345.714	106.44
345.942	82.44
346.17	105.44
346.397	83.44
346.625	95.44
346.853	90.44
347.08	79.44
347.308	99.44
347.535	97.44
347.763	95.44
347.99	92.44
348.218	101.44
348.445	107.44
348.673	96.44
348.9	84.44
349.128	84.44
349.355	88.44
349.583	94.44
349.81	101.44
350.037	93.44
350.265	99.44
350.492	100.44
350.72	101.44
350.947	101.44
351.174	94.44
351.402	103.44
351.629	94.44
351.856	94.44
352.083	93.44
352.311	111.44
352.538	97.44
352.765	99.44
352.992	104.44
353.22	102.44
353.447	96.44
353.674	92.44
353.901	90.44
354.128	107.44
354.355	114.44
354.583	97.44
354.81	91.44
355.037	94.44
355.264	90.44
355.491	116.44
355.718	90.44
355.945	97.44
356.172	100.44
356.399	101.44
356.626	110.44
356.853	86.44
357.08	104.44
357.307	90.44
357.534	87.44
357.761	86.44
357.988	101.44
358.215	95.44
358.441	88.44
358.668	96.44
358.895	90.44
359.122	91.44
359.349	95.44
359.576	90.44
359.802	87.44
360.029	116.44
360.256	101.44
360.483	95.44
360.709	67.44
360.936	88.44
361.163	84.44
361.39	85.44
361.616	90.44
361.843	91.44
362.07	78.44
362.296	97.44
362.523	116.44
362.749	100.44
362.976	84.44
363.203	98.44
363.429	85.44
363.656	98.44
363.882	84.44
364.109	94.44
364.335	100.44
364.562	86.44
364.788	86.44
365.015	96.44
365.241	88.44
365.468	97.44
365.694	101.44
365.92	111.44
366.147	91.44
366.373	83.44
366.599	77.44
366.826	72.44
367.052	87.44
367.278	99.44
367.505	103.44
367.731	90.44
367.957	92.44
368.184	89.44
368.41	102.44
368.636	118.44
368.862	120.44
369.089	94.44
369.315	111.44
369.541	93.44
369.767	93.44
369.993	81.44
370.219	94.44
370.445	93.44
370.672	108.44
370.898	95.44
371.124	83.44
371.35	102.44
371.576	91.44
371.802	95.44
372.028	92.44
372.254	76.44
372.48	80.44
372.706	96.44
372.932	91.44
373.158	83.44
373.384	94.44
373.61	80.44
373.835	88.44
374.061	110.44
374.287	91.44
374.513	86.44
374.739	97.44
374.965	77.44
375.191	93.44
375.416	93.44
375.642	103.44
375.868	97.44
376.094	103.44
376.319	79.44
376.545	95.44
376.771	97.44
376.997	97.44
377.222	92.44
377.448	95.44
377.674	88.44
377.899	99.44
378.125	84.44
378.35	93.44
378.576	91.44
378.802	104.44
379.027	95.44
379.253	104.44
379.478	81.44
379.704	95.44
379.929	94.44
380.155	100.44
380.38	85.44
380.606	96.44
380.831	107.44
381.057	117.44
381.282	90.44
381.507	105.44
381.733	93.44
381.958	101.44
382.184	106.44
382.409	96.44
382.634	105.44
382.86	109.44
383.085	110.44
383.31	94.44
383.535	107.44
383.761	98.44
383.986	109.44
384.211	88.44
384.436	107.44
384.662	103.44
384.887	99.44
385.112	130.44
385.337	103.44
385.562	119.44
385.787	115.44
386.013	121.44
386.238	128.44
386.463	117.44
386.688	117.44
386.913	117.44
387.138	127.44
387.363	105.44
387.588	92.44
387.813	98.44
388.038	100.44
388.263	115.44
388.488	117.44
388.713	108.44
388.938	86.44
389.163	100.44
389.387	98.44
389.612	95.44
389.837	98.44
390.062	93.44
390.287	89.44
390.512	88.44
390.736	92.44
390.961	101.44
391.186	92.44
391.411	94.44
391.636	102.44
391.86	91.44
392.085	66.44
392.31	92.44
392.534	90.44
392.759	92.44
392.984	103.44
393.208	88.44
393.433	104.44
393.658	88.44
393.882	93.44
394.107	85.44
394.331	89.44
394.556	89.44
394.78	97.44
395.005	91.44
395.229	87.44
395.454	79.44
395.678	91.44
395.903	68.44
396.127	80.44
396.352	86.44
396.576	84.44
396.801	79.44
397.025	89.44
397.249	93.44
397.474	88.44
397.698	94.44
397.922	77.44
398.147	84.44
398.371	79.44
398.595	87.44
398.82	88.44
399.044	94.44
399.268	94.44
399.492	83.44
399.717	94.44
399.941	81.44
400.165	108.44
400.389	100.44
400.613	107.44
400.837	88.44
401.062	85.44
401.286	78.44
401.51	92.44
401.734	101.44
401.958	104.44
402.182	105.44
402.406	160.44
402.63	117.44
402.854	78.44
403.078	97.44
403.302	83.44
403.526	87.44
403.75	85.44
403.974	99.44
404.198	84.44
404.422	80.44
404.645	70.44
404.869	82.44
405.093	95.44
405.317	86.44
405.541	96.44
405.765	99.44
405.988	119.44
406.212	164.44
406.436	219.44
406.66	121.44
406.883	90.44
407.107	84.44
407.331	84.44
407.555	106.44
407.778	82.44
408.002	81.44
408.226	78.44
408.449	74.44
408.673	92.44
408.896	95.44
409.12	98.44
409.344	92.44
409.567	84.44
409.791	100.44
410.014	98.44
410.238	92.44
410.461	92.44
410.685	110.44
410.908	96.44
411.132	108.44
411.355	96.44
411.578	85.44
411.802	84.44
412.025	95.44
412.249	100.44
412.472	79.44
412.695	79.44
412.919	100.44
413.142	88.44
413.365	92.44
413.589	87.44
413.812	92.44
414.035	94.44
414.258	84.44
414.482	103.44
414.705	92.44
414.928	99.44
415.151	76.44
415.374	91.44
415.597	107.44
415.821	88.44
416.044	85.44
416.267	97.44
416.49	91.44
416.713	101.44
416.936	83.44
417.159	86.44
417.382	88.44
417.605	86.44
417.828	86.44
418.051	92.44
418.274	94.44
418.497	87.44
418.72	91.44
418.943	99.44
419.166	92.44
419.389	103.44
419.611	102.44
419.834	98.44
420.057	97.44
420.28	93.44
420.503	98.44
420.726	83.44
420.948	91.44
421.171	101.44
421.394	91.44
421.617	100.44
421.839	87.44
422.062	100.44
422.285	103.44
422.507	97.44
422.73	103.44
422.953	106.44
423.175	99.44
423.398	98.44
423.621	88.44
423.843	99.44
424.066	78.44
424.288	91.44
424.511	108.44
424.733	98.44
424.956	100.44
425.178	86.44
425.401	96.44
425.623	108.44
425.846	97.44
426.068	96.44
426.291	88.44
426.513	95.44
426.735	95.44
426.958	110.44
427.18	98.44
427.402	141.44
427.625	170.44
427.847	134.44
428.069	105.44
428.292	90.44
428.514	100.44
428.736	92.44
428.958	86.44
429.181	104.44
429.403	103.44
429.625	83.44
429.847	106.44
430.069	107.44
430.292	76.44
430.514	88.44
430.736	76.44
430.958	83.44
431.18	78.44
431.402	83.44
431.624	87.44
431.846	92.44
432.068	86.44
432.29	95.44
432.512	97.44
432.734	90.44
432.956	82.44
433.178	101.44
433.4	95.44
433.622	109.44
433.844	95.44
434.066	97.44
434.287	86.44
434.509	103.44
434.731	88.44
434.953	80.44
435.175	95.44
435.397	87.44
435.618	98.44
435.84	90.44
436.062	108.44
436.284	130.44
436.505	111.44
436.727	110.44
436.949	83.44
437.17	101.44
437.392	87.44
437.614	95.44
437.835	85.44
438.057	117.44
438.278	116.44
438.5	90.44
438.721	130.44
438.943	101.44
439.165	92.44
439.386	102.44
439.608	104.44
439.829	89.44
440.05	110.44
440.272	138.44
440.493	105.44
440.715	109.44
440.936	98.44
441.158	110.44
441.379	95.44
441.6	93.44
441.822	85.44
442.043	90.44
442.264	103.44
442.486	99.44
442.707	95.44
442.928	109.44
443.149	119.44
443.371	117.44
443.592	99.44
443.813	119.44
444.034	114.44
444.255	81.44
444.476	85.44
444.698	97.44
444.919	96.44
445.14	137.44
445.361	130.44
445.582	114.44
445.803	120.44
446.024	117.44
446.245	138.44
446.466	117.44
446.687	94.44
446.908	98.44
447.129	97.44
447.35	97.44
447.571	99.44
447.792	91.44
448.013	96.44
448.234	103.44
448.455	100.44
448.675	119.44
448.896	108.44
449.117	105.44
449.338	96.44
449.559	131.44
449.779	124.44
450	91.44
450.221	83.44
450.442	87.44
450.662	93.44
450.883	96.44
451.104	104.44
451.324	89.44
451.545	87.44
451.766	101.44
451.986	107.44
452.207	95.44
452.428	100.44
452.648	90.44
452.869	101.44
453.089	118.44
453.31	123.44
453.53	101.44
453.751	92.44
453.971	103.44
454.192	110.44
454.412	103.44
454.633	79.44
454.853	91.44
455.073	90.44
455.294	98.44
455.514	91.44
455.734	86.44
455.955	77.44
456.175	81.44
456.395	93.44
456.616	86.44
456.836	89.44
457.056	87.44
457.276	92.44
457.497	79.44
457.717	77.44
457.937	86.44
458.157	93.44
458.377	91.44
458.598	111.44
458.818	134.44
459.038	160.44
459.258	119.44
459.478	96.44
459.698	84.44
459.918	95.44
460.138	89.44
460.358	88.44
460.578	89.44
460.798	90.44
461.018	98.44
461.238	83.44
461.458	87.44
461.678	88.44
461.898	79.44
462.118	104.44
462.338	85.44
462.558	100.44
462.777	75.44
462.997	86.44
463.217	99.44
463.437	91.44
463.657	84.44
463.876	70.44
464.096	100.44
464.316	81.44
464.536	97.44
464.755	96.44
464.975	108.44
465.195	172.44
465.414	175.44
465.634	101.44
465.854	84.44
466.073	88.44
466.293	90.44
466.512	83.44
466.732	85.44
466.951	79.44
467.171	100.44
467.391	94.44
467.61	106.44
467.829	113.44
468.049	107.44
468.268	114.44
468.488	86.44
468.707	84.44
468.927	102.44
469.146	73.44
469.365	93.44
469.585	80.44
469.804	93.44
470.023	94.44
470.243	76.44
470.462	100.44
470.681	122.44
470.901	96.44
471.12	99.44
471.339	81.44
471.558	92.44
471.777	79.44
471.997	98.44
472.216	122.44
472.435	168.44
472.654	95.44
472.873	101.44
473.092	111.44
473.311	79.44
473.53	85.44
473.749	90.44
473.968	105.44
474.187	95.44
474.406	92.44
474.625	83.44
474.844	78.44
475.063	77.44
475.282	87.44
475.501	100.44
475.72	93.44
475.939	95.44
476.158	87.44
476.377	101.44
476.596	95.44
476.814	105.44
477.033	101.44
477.252	83.44
477.471	103.44
477.69	94.44
477.908	100.44
478.127	91.44
478.346	82.44
478.564	99.44
478.783	97.44
479.002	91.44
479.22	93.44
479.439	92.44
479.658	103.44
479.876	95.44
480.095	90.44
480.313	101.44
480.532	92.44
480.751	100.44
480.969	116.44
481.188	199.44
481.406	166.44
481.624	101.44
481.843	80.44
482.061	101.44
482.28	104.44
482.498	87.44
482.717	92.44
482.935	97.44
483.153	85.44
483.372	92.44
483.59	90.44
483.808	91.44
484.027	95.44
484.245	88.44
484.463	75.44
484.681	103.44
484.9	95.44
485.118	96.44
485.336	92.44
485.554	104.44
485.772	82.44
485.99	102.44
486.209	117.44
486.427	118.44
486.645	101.44
486.863	124.44
487.081	105.44
487.299	103.44
487.517	93.44
487.735	99.44
487.953	92.44
488.171	84.44
488.389	89.44
488.607	85.44
488.825	101.44
489.043	80.44
489.261	93.44
489.479	92.44
489.696	88.44
489.914	84.44
490.132	90.44
490.35	79.44
490.568	91.44
490.786	97.44
491.003	101.44
491.221	92.44
491.439	86.44
491.657	84.44
491.874	100.44
492.092	87.44
492.31	101.44
492.527	92.44
492.745	91.44
492.963	87.44
493.18	98.44
493.398	97.44
493.615	91.44
493.833	98.44
494.05	89.44
494.268	107.44
494.485	96.44
494.703	91.44
494.92	99.44
495.138	99.44
495.355	78.44
495.573	88.44
495.79	105.44
496.008	89.44
496.225	110.44
496.442	100.44
496.66	79.44
496.877	82.44
497.094	92.44
497.312	83.44
497.529	86.44
497.746	90.44
497.963	85.44
498.181	77.44
498.398	94.44
498.615	106.44
498.832	110.44
499.049	95.44
499.267	91.44
499.484	95.44
499.701	97.44
499.918	94.44
500.135	89.44
500.352	97.44
500.569	90.44
500.786	86.44
501.003	84.44
501.22	98.44
501.437	83.44
501.654	94.44
501.871	111.44
502.088	99.44
502.305	94.44
502.522	110.44
502.739	83.44
502.956	85.44
503.172	84.44
503.389	86.44
503.606	112.44
503.823	90.44
504.04	98.44
504.256	110.44
504.473	99.44
504.69	87.44
504.907	94.44
505.123	106.44
505.34	87.44
505.557	92.44
505.773	95.44
505.99	83.44
506.207	94.44
506.423	89.44
506.64	89.44
506.856	102.44
507.073	91.44
507.289	100.44
507.506	105.44
507.722	115.44
507.939	106.44
508.155	90.44
508.372	99.44
508.588	99.44
508.805	92.44
509.021	98.44
509.238	101.44
509.454	102.44
509.67	118.44
509.887	109.44
510.103	137.44
510.319	226.44
510.536	798.44
510.752	2574.44
510.968	730.44
511.184	154.44
511.401	128.44
511.617	108.44
511.833	92.44
512.049	79.44
512.265	99.44
512.481	100.44
512.698	87.44
512.914	98.44
513.13	99.44
513.346	86.44
513.562	109.44
513.778	107.44
513.994	99.44
514.21	107.44
514.426	117.44
514.642	124.44
514.858	134.44
