Data from Circ_2016_H10_HRD10591_00087.txt Node
Date: Wed Jan 03 09:58:58 EST 2024
User: Yrep
Spectrometer: HR+D1059
Trigger mode: 1
Integration Time (sec): 1.000000E-1
Scans to average: 1
Electric dark correction enabled: true
Nonlinearity correction enabled: false
Boxcar width: 0
XAxis mode: Wavelengths
Number of Pixels in Spectrum: 2048
>>>>>Begin Spectral Data<<<<<
223.165	-18.25
223.4	-18.25
223.635	-18.25
223.869	-21.25
224.104	-28.25
224.338	-25.25
224.573	-4.25
224.808	-11.25
225.042	-8.25
225.277	1.75
225.511	3.75
225.746	6.75
225.98	13.75
226.215	11.75
226.449	8.75
226.683	18.75
226.918	32.75
227.152	18.75
227.387	33.75
227.621	35.75
227.856	35.75
228.09	35.75
228.324	54.75
228.559	49.75
228.793	56.75
229.027	65.75
229.262	53.75
229.496	81.75
229.73	77.75
229.964	77.75
230.199	68.75
230.433	78.75
230.667	65.75
230.901	81.75
231.136	74.75
231.37	76.75
231.604	82.75
231.838	83.75
232.072	91.75
232.306	76.75
232.541	80.75
232.775	69.75
233.009	75.75
233.243	76.75
233.477	86.75
233.711	84.75
233.945	75.75
234.179	76.75
234.413	78.75
234.647	81.75
234.881	71.75
235.115	65.75
235.349	81.75
235.583	60.75
235.817	79.75
236.051	88.75
236.285	77.75
236.519	89.75
236.753	64.75
236.987	69.75
237.221	78.75
237.455	88.75
237.689	82.75
237.922	76.75
238.156	53.75
238.39	66.75
238.624	79.75
238.858	89.75
239.091	74.75
239.325	65.75
239.559	91.75
239.793	78.75
240.027	85.75
240.26	70.75
240.494	76.75
240.728	88.75
240.961	87.75
241.195	86.75
241.429	82.75
241.662	80.75
241.896	90.75
242.13	76.75
242.363	74.75
242.597	74.75
242.83	74.75
243.064	75.75
243.298	84.75
243.531	81.75
243.765	78.75
243.998	80.75
244.232	75.75
244.465	86.75
244.699	76.75
244.932	84.75
245.166	71.75
245.399	80.75
245.633	75.75
245.866	82.75
246.099	73.75
246.333	71.75
246.566	76.75
246.8	86.75
247.033	89.75
247.266	73.75
247.5	76.75
247.733	86.75
247.966	91.75
248.2	76.75
248.433	76.75
248.666	83.75
248.899	91.75
249.133	83.75
249.366	79.75
249.599	96.75
249.832	67.75
250.066	77.75
250.299	80.75
250.532	60.75
250.765	84.75
250.998	78.75
251.231	82.75
251.465	85.75
251.698	86.75
251.931	83.75
252.164	89.75
252.397	81.75
252.63	85.75
252.863	82.75
253.096	73.75
253.329	87.75
253.562	90.75
253.795	85.75
254.028	77.75
254.261	76.75
254.494	82.75
254.727	76.75
254.96	81.75
255.193	69.75
255.426	66.75
255.659	70.75
255.892	91.75
256.124	88.75
256.357	82.75
256.59	88.75
256.823	75.75
257.056	82.75
257.289	91.75
257.521	71.75
257.754	68.75
257.987	81.75
258.22	88.75
258.452	67.75
258.685	66.75
258.918	74.75
259.151	77.75
259.383	84.75
259.616	93.75
259.849	82.75
260.081	79.75
260.314	83.75
260.547	69.75
260.779	96.75
261.012	85.75
261.244	84.75
261.477	89.75
261.71	93.75
261.942	116.75
262.175	105.75
262.407	99.75
262.64	80.75
262.872	90.75
263.105	84.75
263.337	82.75
263.57	74.75
263.802	66.75
264.035	64.75
264.267	70.75
264.499	85.75
264.732	76.75
264.964	75.75
265.197	72.75
265.429	76.75
265.661	73.75
265.894	76.75
266.126	75.75
266.358	85.75
266.591	88.75
266.823	81.75
267.055	76.75
267.287	86.75
267.52	73.75
267.752	93.75
267.984	81.75
268.216	79.75
268.448	87.75
268.681	96.75
268.913	89.75
269.145	84.75
269.377	89.75
269.609	83.75
269.841	80.75
270.073	77.75
270.306	78.75
270.538	73.75
270.77	83.75
271.002	89.75
271.234	88.75
271.466	90.75
271.698	81.75
271.93	69.75
272.162	77.75
272.394	91.75
272.626	75.75
272.858	84.75
273.09	88.75
273.322	80.75
273.553	88.75
273.785	88.75
274.017	58.75
274.249	55.75
274.481	80.75
274.713	78.75
274.945	77.75
275.176	80.75
275.408	70.75
275.64	66.75
275.872	84.75
276.104	81.75
276.335	80.75
276.567	92.75
276.799	101.75
277.031	86.75
277.262	101.75
277.494	92.75
277.726	82.75
277.957	83.75
278.189	79.75
278.421	85.75
278.652	84.75
278.884	78.75
279.115	93.75
279.347	78.75
279.579	87.75
279.81	85.75
280.042	85.75
280.273	89.75
280.505	82.75
280.736	76.75
280.968	89.75
281.199	93.75
281.431	90.75
281.662	93.75
281.894	91.75
282.125	98.75
282.356	101.75
282.588	132.75
282.819	105.75
283.051	83.75
283.282	80.75
283.513	88.75
283.745	69.75
283.976	84.75
284.207	78.75
284.439	86.75
284.67	91.75
284.901	80.75
285.132	69.75
285.364	85.75
285.595	90.75
285.826	77.75
286.057	76.75
286.288	82.75
286.52	88.75
286.751	84.75
286.982	83.75
287.213	90.75
287.444	85.75
287.675	78.75
287.906	94.75
288.138	85.75
288.369	92.75
288.6	90.75
288.831	84.75
289.062	89.75
289.293	82.75
289.524	83.75
289.755	81.75
289.986	90.75
290.217	99.75
290.448	84.75
290.679	88.75
290.91	89.75
291.141	83.75
291.371	82.75
291.602	88.75
291.833	78.75
292.064	98.75
292.295	85.75
292.526	82.75
292.757	88.75
292.987	88.75
293.218	87.75
293.449	72.75
293.68	91.75
293.91	85.75
294.141	100.75
294.372	90.75
294.603	72.75
294.833	93.75
295.064	101.75
295.295	91.75
295.525	84.75
295.756	100.75
295.987	114.75
296.217	160.75
296.448	127.75
296.679	88.75
296.909	93.75
297.14	64.75
297.37	82.75
297.601	90.75
297.831	89.75
298.062	75.75
298.292	86.75
298.523	88.75
298.753	94.75
298.984	85.75
299.214	99.75
299.445	88.75
299.675	79.75
299.905	95.75
300.136	80.75
300.366	97.75
300.597	92.75
300.827	104.75
301.057	93.75
301.288	105.75
301.518	81.75
301.748	85.75
301.979	97.75
302.209	92.75
302.439	89.75
302.669	101.75
302.9	86.75
303.13	85.75
303.36	91.75
303.59	100.75
303.82	95.75
304.051	80.75
304.281	88.75
304.511	89.75
304.741	106.75
304.971	89.75
305.201	92.75
305.431	89.75
305.661	79.75
305.891	84.75
306.121	95.75
306.352	105.75
306.582	101.75
306.812	80.75
307.042	94.75
307.272	77.75
307.502	95.75
307.731	85.75
307.961	80.75
308.191	94.75
308.421	95.75
308.651	87.75
308.881	78.75
309.111	99.75
309.341	91.75
309.571	112.75
309.8	96.75
310.03	89.75
310.26	92.75
310.49	91.75
310.72	98.75
310.949	97.75
311.179	101.75
311.409	105.75
311.639	70.75
311.868	102.75
312.098	92.75
312.328	98.75
312.557	93.75
312.787	104.75
313.017	98.75
313.246	98.75
313.476	91.75
313.706	85.75
313.935	87.75
314.165	93.75
314.394	90.75
314.624	100.75
314.853	93.75
315.083	83.75
315.312	93.75
315.542	89.75
315.771	98.75
316.001	94.75
316.23	101.75
316.46	94.75
316.689	96.75
316.919	97.75
317.148	107.75
317.377	85.75
317.607	103.75
317.836	103.75
318.065	82.75
318.295	87.75
318.524	101.75
318.753	92.75
318.983	90.75
319.212	99.75
319.441	99.75
319.67	91.75
319.9	96.75
320.129	98.75
320.358	77.75
320.587	93.75
320.816	96.75
321.046	94.75
321.275	108.75
321.504	85.75
321.733	86.75
321.962	101.75
322.191	95.75
322.42	84.75
322.649	88.75
322.878	110.75
323.108	117.75
323.337	109.75
323.566	124.75
323.795	155.75
324.024	200.75
324.253	376.75
324.482	825.75
324.71	1668.75
324.939	2201.75
325.168	829.75
325.397	230.75
325.626	141.75
325.855	124.75
326.084	132.75
326.313	149.75
326.542	153.75
326.77	248.75
326.999	446.75
327.228	930.75
327.457	1676.75
327.686	1356.75
327.914	376.75
328.143	198.75
328.372	165.75
328.6	122.75
328.829	114.75
329.058	105.75
329.287	110.75
329.515	120.75
329.744	106.75
329.972	109.75
330.201	133.75
330.43	158.75
330.658	148.75
330.887	135.75
331.115	130.75
331.344	101.75
331.572	90.75
331.801	110.75
332.03	94.75
332.258	84.75
332.486	96.75
332.715	102.75
332.943	104.75
333.172	94.75
333.4	87.75
333.629	95.75
333.857	114.75
334.085	124.75
334.314	142.75
334.542	185.75
334.771	168.75
334.999	115.75
335.227	92.75
335.455	96.75
335.684	109.75
335.912	98.75
336.14	110.75
336.369	84.75
336.597	93.75
336.825	94.75
337.053	88.75
337.281	86.75
337.51	93.75
337.738	90.75
337.966	87.75
338.194	97.75
338.422	94.75
338.65	98.75
338.878	101.75
339.106	79.75
339.334	97.75
339.562	88.75
339.79	77.75
340.018	93.75
340.246	86.75
340.474	93.75
340.702	99.75
340.93	88.75
341.158	87.75
341.386	97.75
341.614	84.75
341.842	90.75
342.07	93.75
342.298	85.75
342.526	91.75
342.754	84.75
342.981	85.75
343.209	81.75
343.437	96.75
343.665	87.75
343.893	91.75
344.12	88.75
344.348	81.75
344.576	100.75
344.804	94.75
345.031	77.75
345.259	84.75
345.487	89.75
345.714	91.75
345.942	99.75
346.17	94.75
346.397	88.75
346.625	96.75
346.853	85.75
347.08	93.75
347.308	99.75
347.535	88.75
347.763	101.75
347.99	98.75
348.218	104.75
348.445	101.75
348.673	97.75
348.9	92.75
349.128	97.75
349.355	94.75
349.583	90.75
349.81	99.75
350.037	87.75
350.265	101.75
350.492	101.75
350.72	90.75
350.947	99.75
351.174	97.75
351.402	99.75
351.629	104.75
351.856	94.75
352.083	107.75
352.311	99.75
352.538	99.75
352.765	99.75
352.992	100.75
353.22	97.75
353.447	97.75
353.674	100.75
353.901	93.75
354.128	101.75
354.355	85.75
354.583	66.75
354.81	92.75
355.037	88.75
355.264	101.75
355.491	101.75
355.718	93.75
355.945	91.75
356.172	79.75
356.399	97.75
356.626	91.75
356.853	86.75
357.08	92.75
357.307	92.75
357.534	87.75
357.761	91.75
357.988	70.75
358.215	98.75
358.441	95.75
358.668	104.75
358.895	98.75
359.122	81.75
359.349	87.75
359.576	85.75
359.802	98.75
360.029	107.75
360.256	107.75
360.483	96.75
360.709	75.75
360.936	89.75
361.163	98.75
361.39	108.75
361.616	80.75
361.843	85.75
362.07	89.75
362.296	85.75
362.523	89.75
362.749	96.75
362.976	87.75
363.203	94.75
363.429	87.75
363.656	93.75
363.882	88.75
364.109	83.75
364.335	97.75
364.562	91.75
364.788	93.75
365.015	96.75
365.241	106.75
365.468	105.75
365.694	103.75
365.92	108.75
366.147	87.75
366.373	89.75
366.599	78.75
366.826	89.75
367.052	78.75
367.278	85.75
367.505	98.75
367.731	94.75
367.957	94.75
368.184	88.75
368.41	95.75
368.636	103.75
368.862	108.75
369.089	104.75
369.315	92.75
369.541	86.75
369.767	84.75
369.993	91.75
370.219	85.75
370.445	86.75
370.672	89.75
370.898	99.75
371.124	81.75
371.35	76.75
371.576	96.75
371.802	82.75
372.028	93.75
372.254	97.75
372.48	87.75
372.706	89.75
372.932	103.75
373.158	93.75
373.384	94.75
373.61	92.75
373.835	86.75
374.061	76.75
374.287	100.75
374.513	100.75
374.739	99.75
374.965	90.75
375.191	86.75
375.416	74.75
375.642	83.75
375.868	102.75
376.094	89.75
376.319	85.75
376.545	95.75
376.771	88.75
376.997	97.75
377.222	82.75
377.448	93.75
377.674	86.75
377.899	96.75
378.125	89.75
378.35	91.75
378.576	89.75
378.802	94.75
379.027	92.75
379.253	78.75
379.478	84.75
379.704	91.75
379.929	97.75
380.155	91.75
380.38	85.75
380.606	89.75
380.831	93.75
381.057	94.75
381.282	88.75
381.507	103.75
381.733	82.75
381.958	99.75
382.184	96.75
382.409	85.75
382.634	89.75
382.86	93.75
383.085	108.75
383.31	97.75
383.535	110.75
383.761	89.75
383.986	103.75
384.211	92.75
384.436	112.75
384.662	106.75
384.887	97.75
385.112	92.75
385.337	120.75
385.562	120.75
385.787	99.75
386.013	98.75
386.238	116.75
386.463	110.75
386.688	103.75
386.913	82.75
387.138	110.75
387.363	93.75
387.588	108.75
387.813	92.75
388.038	86.75
388.263	110.75
388.488	105.75
388.713	105.75
388.938	108.75
389.163	97.75
389.387	84.75
389.612	85.75
389.837	101.75
390.062	87.75
390.287	76.75
390.512	92.75
390.736	86.75
390.961	97.75
391.186	96.75
391.411	97.75
391.636	82.75
391.86	84.75
392.085	68.75
392.31	82.75
392.534	80.75
392.759	87.75
392.984	92.75
393.208	90.75
393.433	91.75
393.658	96.75
393.882	81.75
394.107	76.75
394.331	81.75
394.556	91.75
394.78	85.75
395.005	89.75
395.229	85.75
395.454	87.75
395.678	81.75
395.903	100.75
396.127	85.75
396.352	76.75
396.576	86.75
396.801	91.75
397.025	75.75
397.249	83.75
397.474	78.75
397.698	90.75
397.922	80.75
398.147	86.75
398.371	93.75
398.595	99.75
398.82	89.75
399.044	81.75
399.268	77.75
399.492	76.75
399.717	96.75
399.941	90.75
400.165	93.75
400.389	91.75
400.613	89.75
400.837	97.75
401.062	86.75
401.286	102.75
401.51	94.75
401.734	89.75
401.958	90.75
402.182	122.75
402.406	150.75
402.63	130.75
402.854	90.75
403.078	72.75
403.302	97.75
403.526	86.75
403.75	99.75
403.974	91.75
404.198	79.75
404.422	85.75
404.645	92.75
404.869	93.75
405.093	88.75
405.317	98.75
405.541	85.75
405.765	99.75
405.988	113.75
406.212	164.75
406.436	213.75
406.66	140.75
406.883	101.75
407.107	81.75
407.331	102.75
407.555	113.75
407.778	90.75
408.002	91.75
408.226	94.75
408.449	75.75
408.673	83.75
408.896	86.75
409.12	110.75
409.344	92.75
409.567	93.75
409.791	88.75
410.014	94.75
410.238	91.75
410.461	98.75
410.685	93.75
410.908	97.75
411.132	105.75
411.355	104.75
411.578	77.75
411.802	88.75
412.025	82.75
412.249	97.75
412.472	105.75
412.695	104.75
412.919	95.75
413.142	91.75
413.365	95.75
413.589	89.75
413.812	94.75
414.035	89.75
414.258	86.75
414.482	75.75
414.705	79.75
414.928	95.75
415.151	107.75
415.374	83.75
415.597	95.75
415.821	81.75
416.044	76.75
416.267	71.75
416.49	73.75
416.713	84.75
416.936	76.75
417.159	94.75
417.382	89.75
417.605	92.75
417.828	101.75
418.051	84.75
418.274	81.75
418.497	88.75
418.72	89.75
418.943	84.75
419.166	82.75
419.389	81.75
419.611	78.75
419.834	98.75
420.057	86.75
420.28	96.75
420.503	99.75
420.726	103.75
420.948	96.75
421.171	104.75
421.394	107.75
421.617	86.75
421.839	92.75
422.062	81.75
422.285	94.75
422.507	93.75
422.73	86.75
422.953	98.75
423.175	103.75
423.398	114.75
423.621	98.75
423.843	74.75
424.066	76.75
424.288	83.75
424.511	85.75
424.733	84.75
424.956	115.75
425.178	83.75
425.401	107.75
425.623	100.75
425.846	92.75
426.068	91.75
426.291	85.75
426.513	79.75
426.735	96.75
426.958	96.75
427.18	105.75
427.402	140.75
427.625	153.75
427.847	133.75
428.069	109.75
428.292	86.75
428.514	84.75
428.736	78.75
428.958	93.75
429.181	89.75
429.403	82.75
429.625	84.75
429.847	87.75
430.069	90.75
430.292	102.75
430.514	75.75
430.736	70.75
430.958	106.75
431.18	79.75
431.402	64.75
431.624	88.75
431.846	80.75
432.068	81.75
432.29	76.75
432.512	80.75
432.734	82.75
432.956	81.75
433.178	102.75
433.4	98.75
433.622	105.75
433.844	99.75
434.066	92.75
434.287	88.75
434.509	93.75
434.731	85.75
434.953	88.75
435.175	80.75
435.397	86.75
435.618	85.75
435.84	83.75
436.062	116.75
436.284	96.75
436.505	90.75
436.727	99.75
436.949	94.75
437.17	87.75
437.392	61.75
437.614	96.75
437.835	92.75
438.057	102.75
438.278	99.75
438.5	90.75
438.721	107.75
438.943	83.75
439.165	75.75
439.386	84.75
439.608	90.75
439.829	117.75
440.05	116.75
440.272	122.75
440.493	93.75
440.715	101.75
440.936	77.75
441.158	90.75
441.379	89.75
441.6	86.75
441.822	82.75
442.043	87.75
442.264	91.75
442.486	89.75
442.707	88.75
442.928	100.75
443.149	111.75
443.371	120.75
443.592	102.75
443.813	103.75
444.034	118.75
444.255	88.75
444.476	83.75
444.698	94.75
444.919	77.75
445.14	132.75
445.361	113.75
445.582	97.75
445.803	122.75
446.024	130.75
446.245	128.75
446.466	104.75
446.687	88.75
446.908	86.75
447.129	85.75
447.35	85.75
447.571	92.75
447.792	106.75
448.013	107.75
448.234	100.75
448.455	100.75
448.675	113.75
448.896	104.75
449.117	91.75
449.338	92.75
449.559	133.75
449.779	122.75
450	102.75
450.221	82.75
450.442	86.75
450.662	96.75
450.883	91.75
451.104	92.75
451.324	100.75
451.545	88.75
451.766	81.75
451.986	84.75
452.207	99.75
452.428	95.75
452.648	81.75
452.869	100.75
453.089	102.75
453.31	105.75
453.53	101.75
453.751	109.75
453.971	99.75
454.192	96.75
454.412	89.75
454.633	80.75
454.853	78.75
455.073	90.75
455.294	78.75
455.514	99.75
455.734	89.75
455.955	87.75
456.175	83.75
456.395	99.75
456.616	90.75
456.836	86.75
457.056	74.75
457.276	94.75
457.497	89.75
457.717	76.75
457.937	83.75
458.157	93.75
458.377	81.75
458.598	105.75
458.818	140.75
459.038	148.75
459.258	100.75
459.478	99.75
459.698	85.75
459.918	88.75
460.138	77.75
460.358	91.75
460.578	83.75
460.798	85.75
461.018	80.75
461.238	93.75
461.458	84.75
461.678	75.75
461.898	70.75
462.118	83.75
462.338	83.75
462.558	89.75
462.777	77.75
462.997	98.75
463.217	90.75
463.437	97.75
463.657	87.75
463.876	85.75
464.096	88.75
464.316	84.75
464.536	89.75
464.755	85.75
464.975	99.75
465.195	146.75
465.414	153.75
465.634	92.75
465.854	103.75
466.073	93.75
466.293	77.75
466.512	73.75
466.732	80.75
466.951	98.75
467.171	85.75
467.391	90.75
467.61	89.75
467.829	99.75
468.049	110.75
468.268	135.75
468.488	84.75
468.707	76.75
468.927	82.75
469.146	79.75
469.365	88.75
469.585	93.75
469.804	103.75
470.023	95.75
470.243	116.75
470.462	101.75
470.681	102.75
470.901	83.75
471.12	74.75
471.339	91.75
471.558	75.75
471.777	86.75
471.997	92.75
472.216	169.75
472.435	228.75
472.654	116.75
472.873	77.75
473.092	67.75
473.311	77.75
473.53	83.75
473.749	82.75
473.968	89.75
474.187	98.75
474.406	101.75
474.625	96.75
474.844	87.75
475.063	81.75
475.282	99.75
475.501	82.75
475.72	93.75
475.939	91.75
476.158	87.75
476.377	86.75
476.596	86.75
476.814	86.75
477.033	86.75
477.252	86.75
477.471	78.75
477.69	74.75
477.908	90.75
478.127	97.75
478.346	88.75
478.564	96.75
478.783	91.75
479.002	93.75
479.22	99.75
479.439	104.75
479.658	94.75
479.876	90.75
480.095	103.75
480.313	89.75
480.532	99.75
480.751	98.75
480.969	140.75
481.188	335.75
481.406	228.75
481.624	107.75
481.843	87.75
482.061	78.75
482.28	92.75
482.498	83.75
482.717	86.75
482.935	100.75
483.153	96.75
483.372	107.75
483.59	89.75
483.808	85.75
484.027	100.75
484.245	90.75
484.463	91.75
484.681	92.75
484.9	78.75
485.118	80.75
485.336	75.75
485.554	108.75
485.772	102.75
485.99	99.75
486.209	106.75
486.427	94.75
486.645	117.75
486.863	98.75
487.081	83.75
487.299	107.75
487.517	82.75
487.735	100.75
487.953	88.75
488.171	93.75
488.389	97.75
488.607	99.75
488.825	85.75
489.043	80.75
489.261	87.75
489.479	78.75
489.696	100.75
489.914	83.75
490.132	83.75
490.35	85.75
490.568	89.75
490.786	84.75
491.003	85.75
491.221	87.75
491.439	84.75
491.657	87.75
491.874	86.75
492.092	97.75
492.31	94.75
492.527	89.75
492.745	80.75
492.963	85.75
493.18	94.75
493.398	98.75
493.615	80.75
493.833	88.75
494.05	95.75
494.268	95.75
494.485	74.75
494.703	88.75
494.92	94.75
495.138	91.75
495.355	93.75
495.573	91.75
495.79	98.75
496.008	89.75
496.225	92.75
496.442	85.75
496.66	107.75
496.877	86.75
497.094	90.75
497.312	77.75
497.529	102.75
497.746	94.75
497.963	90.75
498.181	85.75
498.398	81.75
498.615	108.75
498.832	117.75
499.049	89.75
499.267	80.75
499.484	85.75
499.701	88.75
499.918	93.75
500.135	93.75
500.352	93.75
500.569	106.75
500.786	88.75
501.003	89.75
501.22	94.75
501.437	82.75
501.654	91.75
501.871	97.75
502.088	73.75
502.305	93.75
502.522	84.75
502.739	82.75
502.956	97.75
503.172	95.75
503.389	88.75
503.606	105.75
503.823	89.75
504.04	76.75
504.256	90.75
504.473	84.75
504.69	70.75
504.907	86.75
505.123	75.75
505.34	84.75
505.557	75.75
505.773	97.75
505.99	94.75
506.207	84.75
506.423	94.75
506.64	93.75
506.856	84.75
507.073	84.75
507.289	106.75
507.506	89.75
507.722	108.75
507.939	115.75
508.155	112.75
508.372	85.75
508.588	98.75
508.805	75.75
509.021	92.75
509.238	96.75
509.454	108.75
509.67	101.75
509.887	102.75
510.103	110.75
510.319	199.75
510.536	750.75
510.752	2470.75
510.968	714.75
511.184	169.75
511.401	119.75
511.617	106.75
511.833	101.75
512.049	88.75
512.265	84.75
512.481	91.75
512.698	89.75
512.914	92.75
513.13	93.75
513.346	93.75
513.562	89.75
513.778	92.75
513.994	95.75
514.21	83.75
514.426	126.75
514.642	124.75
514.858	118.75
515.074	157.75
515.29	421.75
515.506	1426.75
515.721	530.75
515.937	160.75
516.153	93.75
516.369	86.75
