Data from Circ_2016_H10_HRD10591_00070.txt Node
Date: Wed Jan 03 09:58:54 EST 2024
User: Yrep
Spectrometer: HR+D1059
Trigger mode: 1
Integration Time (sec): 1.000000E-1
Scans to average: 1
Electric dark correction enabled: true
Nonlinearity correction enabled: false
Boxcar width: 0
XAxis mode: Wavelengths
Number of Pixels in Spectrum: 2048
>>>>>Begin Spectral Data<<<<<
223.165	-22.25
223.4	-22.25
223.635	-22.25
223.869	-23.25
224.104	-15.25
224.338	-12.25
224.573	-16.25
224.808	-10.25
225.042	-8.25
225.277	-12.25
225.511	3.75
225.746	15.75
225.98	3.75
226.215	8.75
226.449	13.75
226.683	12.75
226.918	26.75
227.152	34.75
227.387	30.75
227.621	38.75
227.856	27.75
228.09	47.75
228.324	55.75
228.559	62.75
228.793	42.75
229.027	71.75
229.262	72.75
229.496	77.75
229.73	88.75
229.964	87.75
230.199	76.75
230.433	73.75
230.667	86.75
230.901	75.75
231.136	71.75
231.37	77.75
231.604	78.75
231.838	75.75
232.072	74.75
232.306	85.75
232.541	77.75
232.775	83.75
233.009	73.75
233.243	79.75
233.477	96.75
233.711	77.75
233.945	84.75
234.179	84.75
234.413	76.75
234.647	79.75
234.881	84.75
235.115	87.75
235.349	77.75
235.583	75.75
235.817	91.75
236.051	75.75
236.285	74.75
236.519	86.75
236.753	86.75
236.987	75.75
237.221	82.75
237.455	93.75
237.689	81.75
237.922	72.75
238.156	73.75
238.39	77.75
238.624	80.75
238.858	69.75
239.091	68.75
239.325	85.75
239.559	81.75
239.793	74.75
240.027	85.75
240.26	82.75
240.494	89.75
240.728	65.75
240.961	75.75
241.195	90.75
241.429	92.75
241.662	72.75
241.896	73.75
242.13	91.75
242.363	77.75
242.597	71.75
242.83	76.75
243.064	73.75
243.298	67.75
243.531	77.75
243.765	88.75
243.998	82.75
244.232	73.75
244.465	81.75
244.699	76.75
244.932	78.75
245.166	65.75
245.399	86.75
245.633	68.75
245.866	78.75
246.099	77.75
246.333	85.75
246.566	83.75
246.8	80.75
247.033	64.75
247.266	76.75
247.5	76.75
247.733	87.75
247.966	87.75
248.2	81.75
248.433	76.75
248.666	80.75
248.899	85.75
249.133	85.75
249.366	97.75
249.599	86.75
249.832	89.75
250.066	75.75
250.299	83.75
250.532	73.75
250.765	82.75
250.998	68.75
251.231	62.75
251.465	72.75
251.698	92.75
251.931	76.75
252.164	88.75
252.397	68.75
252.63	69.75
252.863	76.75
253.096	90.75
253.329	70.75
253.562	85.75
253.795	77.75
254.028	75.75
254.261	76.75
254.494	73.75
254.727	102.75
254.96	83.75
255.193	68.75
255.426	70.75
255.659	72.75
255.892	81.75
256.124	68.75
256.357	79.75
256.59	87.75
256.823	72.75
257.056	81.75
257.289	79.75
257.521	74.75
257.754	82.75
257.987	85.75
258.22	83.75
258.452	75.75
258.685	76.75
258.918	80.75
259.151	73.75
259.383	80.75
259.616	84.75
259.849	71.75
260.081	92.75
260.314	74.75
260.547	65.75
260.779	79.75
261.012	87.75
261.244	86.75
261.477	83.75
261.71	86.75
261.942	104.75
262.175	103.75
262.407	85.75
262.64	96.75
262.872	82.75
263.105	81.75
263.337	70.75
263.57	76.75
263.802	87.75
264.035	85.75
264.267	83.75
264.499	73.75
264.732	72.75
264.964	64.75
265.197	86.75
265.429	85.75
265.661	70.75
265.894	87.75
266.126	73.75
266.358	82.75
266.591	71.75
266.823	80.75
267.055	88.75
267.287	92.75
267.52	85.75
267.752	86.75
267.984	86.75
268.216	90.75
268.448	83.75
268.681	75.75
268.913	89.75
269.145	93.75
269.377	86.75
269.609	81.75
269.841	84.75
270.073	93.75
270.306	75.75
270.538	76.75
270.77	73.75
271.002	96.75
271.234	87.75
271.466	85.75
271.698	91.75
271.93	89.75
272.162	87.75
272.394	80.75
272.626	78.75
272.858	83.75
273.09	82.75
273.322	95.75
273.553	72.75
273.785	81.75
274.017	91.75
274.249	79.75
274.481	87.75
274.713	80.75
274.945	80.75
275.176	95.75
275.408	95.75
275.64	90.75
275.872	90.75
276.104	81.75
276.335	96.75
276.567	101.75
276.799	116.75
277.031	90.75
277.262	93.75
277.494	91.75
277.726	101.75
277.957	107.75
278.189	83.75
278.421	85.75
278.652	93.75
278.884	84.75
279.115	85.75
279.347	90.75
279.579	74.75
279.81	86.75
280.042	78.75
280.273	97.75
280.505	81.75
280.736	87.75
280.968	83.75
281.199	76.75
281.431	98.75
281.662	74.75
281.894	72.75
282.125	104.75
282.356	98.75
282.588	117.75
282.819	117.75
283.051	84.75
283.282	86.75
283.513	87.75
283.745	93.75
283.976	64.75
284.207	94.75
284.439	106.75
284.67	70.75
284.901	95.75
285.132	89.75
285.364	80.75
285.595	85.75
285.826	105.75
286.057	86.75
286.288	87.75
286.52	77.75
286.751	78.75
286.982	78.75
287.213	90.75
287.444	91.75
287.675	85.75
287.906	81.75
288.138	84.75
288.369	93.75
288.6	90.75
288.831	98.75
289.062	96.75
289.293	90.75
289.524	92.75
289.755	95.75
289.986	91.75
290.217	78.75
290.448	81.75
290.679	92.75
290.91	84.75
291.141	91.75
291.371	88.75
291.602	77.75
291.833	78.75
292.064	75.75
292.295	89.75
292.526	92.75
292.757	92.75
292.987	84.75
293.218	96.75
293.449	84.75
293.68	95.75
293.91	86.75
294.141	83.75
294.372	106.75
294.603	91.75
294.833	102.75
295.064	97.75
295.295	85.75
295.525	90.75
295.756	109.75
295.987	124.75
296.217	119.75
296.448	122.75
296.679	90.75
296.909	92.75
297.14	85.75
297.37	95.75
297.601	84.75
297.831	99.75
298.062	92.75
298.292	92.75
298.523	91.75
298.753	84.75
298.984	91.75
299.214	92.75
299.445	98.75
299.675	102.75
299.905	95.75
300.136	87.75
300.366	84.75
300.597	84.75
300.827	90.75
301.057	99.75
301.288	94.75
301.518	103.75
301.748	100.75
301.979	97.75
302.209	104.75
302.439	111.75
302.669	93.75
302.9	90.75
303.13	94.75
303.36	97.75
303.59	103.75
303.82	96.75
304.051	92.75
304.281	97.75
304.511	86.75
304.741	91.75
304.971	89.75
305.201	99.75
305.431	99.75
305.661	102.75
305.891	101.75
306.121	87.75
306.352	99.75
306.582	103.75
306.812	100.75
307.042	99.75
307.272	97.75
307.502	93.75
307.731	105.75
307.961	100.75
308.191	87.75
308.421	87.75
308.651	92.75
308.881	75.75
309.111	90.75
309.341	92.75
309.571	87.75
309.8	95.75
310.03	104.75
310.26	106.75
310.49	102.75
310.72	91.75
310.949	103.75
311.179	92.75
311.409	106.75
311.639	75.75
311.868	85.75
312.098	89.75
312.328	96.75
312.557	107.75
312.787	97.75
313.017	95.75
313.246	90.75
313.476	99.75
313.706	94.75
313.935	89.75
314.165	91.75
314.394	91.75
314.624	98.75
314.853	92.75
315.083	89.75
315.312	91.75
315.542	87.75
315.771	82.75
316.001	81.75
316.23	94.75
316.46	86.75
316.689	88.75
316.919	84.75
317.148	86.75
317.377	98.75
317.607	89.75
317.836	82.75
318.065	96.75
318.295	99.75
318.524	99.75
318.753	97.75
318.983	93.75
319.212	88.75
319.441	91.75
319.67	105.75
319.9	94.75
320.129	84.75
320.358	82.75
320.587	105.75
320.816	103.75
321.046	106.75
321.275	95.75
321.504	93.75
321.733	93.75
321.962	108.75
322.191	87.75
322.42	98.75
322.649	119.75
322.878	108.75
323.108	110.75
323.337	124.75
323.566	139.75
323.795	153.75
324.024	201.75
324.253	404.75
324.482	859.75
324.71	1748.75
324.939	2251.75
325.168	841.75
325.397	244.75
325.626	159.75
325.855	122.75
326.084	131.75
326.313	136.75
326.542	136.75
326.77	246.75
326.999	485.75
327.228	983.75
327.457	1789.75
327.686	1425.75
327.914	366.75
328.143	178.75
328.372	147.75
328.6	131.75
328.829	126.75
329.058	130.75
329.287	128.75
329.515	121.75
329.744	124.75
329.972	103.75
330.201	139.75
330.43	150.75
330.658	141.75
330.887	143.75
331.115	122.75
331.344	85.75
331.572	104.75
331.801	93.75
332.03	97.75
332.258	100.75
332.486	109.75
332.715	92.75
332.943	108.75
333.172	98.75
333.4	95.75
333.629	100.75
333.857	109.75
334.085	121.75
334.314	129.75
334.542	169.75
334.771	153.75
334.999	93.75
335.227	97.75
335.455	100.75
335.684	95.75
335.912	94.75
336.14	101.75
336.369	117.75
336.597	106.75
336.825	111.75
337.053	85.75
337.281	93.75
337.51	78.75
337.738	90.75
337.966	87.75
338.194	90.75
338.422	100.75
338.65	83.75
338.878	87.75
339.106	86.75
339.334	80.75
339.562	82.75
339.79	80.75
340.018	100.75
340.246	101.75
340.474	93.75
340.702	83.75
340.93	88.75
341.158	89.75
341.386	89.75
341.614	96.75
341.842	91.75
342.07	88.75
342.298	78.75
342.526	101.75
342.754	99.75
342.981	91.75
343.209	92.75
343.437	84.75
343.665	86.75
343.893	109.75
344.12	87.75
344.348	81.75
344.576	83.75
344.804	88.75
345.031	92.75
345.259	96.75
345.487	85.75
345.714	83.75
345.942	74.75
346.17	88.75
346.397	89.75
346.625	84.75
346.853	99.75
347.08	91.75
347.308	104.75
347.535	106.75
347.763	101.75
347.99	104.75
348.218	92.75
348.445	93.75
348.673	101.75
348.9	85.75
349.128	99.75
349.355	88.75
349.583	103.75
349.81	91.75
350.037	102.75
350.265	95.75
350.492	98.75
350.72	95.75
350.947	86.75
351.174	86.75
351.402	108.75
351.629	82.75
351.856	94.75
352.083	93.75
352.311	113.75
352.538	100.75
352.765	106.75
352.992	113.75
353.22	104.75
353.447	101.75
353.674	106.75
353.901	104.75
354.128	106.75
354.355	93.75
354.583	97.75
354.81	105.75
355.037	98.75
355.264	88.75
355.491	87.75
355.718	109.75
355.945	102.75
356.172	93.75
356.399	101.75
356.626	110.75
356.853	105.75
357.08	89.75
357.307	102.75
357.534	103.75
357.761	88.75
357.988	99.75
358.215	107.75
358.441	99.75
358.668	95.75
358.895	84.75
359.122	84.75
359.349	96.75
359.576	108.75
359.802	88.75
360.029	103.75
360.256	111.75
360.483	93.75
360.709	91.75
360.936	92.75
361.163	92.75
361.39	101.75
361.616	95.75
361.843	91.75
362.07	79.75
362.296	83.75
362.523	89.75
362.749	100.75
362.976	93.75
363.203	88.75
363.429	91.75
363.656	83.75
363.882	91.75
364.109	95.75
364.335	102.75
364.562	89.75
364.788	100.75
365.015	99.75
365.241	101.75
365.468	92.75
365.694	86.75
365.92	90.75
366.147	83.75
366.373	78.75
366.599	87.75
366.826	96.75
367.052	85.75
367.278	88.75
367.505	88.75
367.731	96.75
367.957	85.75
368.184	91.75
368.41	100.75
368.636	113.75
368.862	116.75
369.089	112.75
369.315	88.75
369.541	96.75
369.767	85.75
369.993	96.75
370.219	92.75
370.445	83.75
370.672	68.75
370.898	93.75
371.124	81.75
371.35	75.75
371.576	76.75
371.802	88.75
372.028	97.75
372.254	85.75
372.48	92.75
372.706	86.75
372.932	87.75
373.158	89.75
373.384	106.75
373.61	99.75
373.835	85.75
374.061	81.75
374.287	87.75
374.513	82.75
374.739	82.75
374.965	90.75
375.191	92.75
375.416	85.75
375.642	80.75
375.868	94.75
376.094	92.75
376.319	100.75
376.545	95.75
376.771	95.75
376.997	80.75
377.222	90.75
377.448	98.75
377.674	86.75
377.899	100.75
378.125	107.75
378.35	76.75
378.576	93.75
378.802	95.75
379.027	107.75
379.253	97.75
379.478	100.75
379.704	84.75
379.929	97.75
380.155	98.75
380.38	96.75
380.606	94.75
380.831	87.75
381.057	98.75
381.282	100.75
381.507	97.75
381.733	95.75
381.958	106.75
382.184	104.75
382.409	95.75
382.634	92.75
382.86	109.75
383.085	98.75
383.31	111.75
383.535	106.75
383.761	116.75
383.986	104.75
384.211	82.75
384.436	97.75
384.662	107.75
384.887	101.75
385.112	111.75
385.337	116.75
385.562	103.75
385.787	108.75
386.013	102.75
386.238	123.75
386.463	118.75
386.688	115.75
386.913	115.75
387.138	117.75
387.363	112.75
387.588	112.75
387.813	108.75
388.038	117.75
388.263	137.75
388.488	114.75
388.713	102.75
388.938	92.75
389.163	102.75
389.387	97.75
389.612	102.75
389.837	97.75
390.062	73.75
390.287	81.75
390.512	76.75
390.736	101.75
390.961	92.75
391.186	100.75
391.411	101.75
391.636	84.75
391.86	83.75
392.085	72.75
392.31	88.75
392.534	81.75
392.759	86.75
392.984	97.75
393.208	81.75
393.433	109.75
393.658	92.75
393.882	91.75
394.107	73.75
394.331	90.75
394.556	92.75
394.78	101.75
395.005	94.75
395.229	82.75
395.454	83.75
395.678	81.75
395.903	82.75
396.127	106.75
396.352	83.75
396.576	77.75
396.801	96.75
397.025	89.75
397.249	103.75
397.474	81.75
397.698	98.75
397.922	79.75
398.147	93.75
398.371	82.75
398.595	84.75
398.82	85.75
399.044	79.75
399.268	89.75
399.492	89.75
399.717	77.75
399.941	83.75
400.165	97.75
400.389	98.75
400.613	83.75
400.837	74.75
401.062	88.75
401.286	80.75
401.51	85.75
401.734	106.75
401.958	104.75
402.182	117.75
402.406	148.75
402.63	114.75
402.854	84.75
403.078	88.75
403.302	85.75
403.526	92.75
403.75	77.75
403.974	90.75
404.198	65.75
404.422	84.75
404.645	102.75
404.869	92.75
405.093	90.75
405.317	100.75
405.541	103.75
405.765	85.75
405.988	111.75
406.212	154.75
406.436	217.75
406.66	147.75
406.883	104.75
407.107	100.75
407.331	87.75
407.555	91.75
407.778	96.75
408.002	88.75
408.226	91.75
408.449	90.75
408.673	84.75
408.896	96.75
409.12	94.75
409.344	83.75
409.567	85.75
409.791	112.75
410.014	98.75
410.238	89.75
410.461	98.75
410.685	104.75
410.908	92.75
411.132	104.75
411.355	98.75
411.578	103.75
411.802	71.75
412.025	80.75
412.249	98.75
412.472	83.75
412.695	104.75
412.919	81.75
413.142	98.75
413.365	90.75
413.589	84.75
413.812	93.75
414.035	87.75
414.258	101.75
414.482	92.75
414.705	95.75
414.928	77.75
415.151	87.75
415.374	90.75
415.597	82.75
415.821	88.75
416.044	86.75
416.267	76.75
416.49	92.75
416.713	95.75
416.936	93.75
417.159	97.75
417.382	78.75
417.605	85.75
417.828	88.75
418.051	111.75
418.274	86.75
418.497	98.75
418.72	84.75
418.943	83.75
419.166	85.75
419.389	84.75
419.611	91.75
419.834	86.75
420.057	90.75
420.28	91.75
420.503	79.75
420.726	80.75
420.948	89.75
421.171	91.75
421.394	82.75
421.617	88.75
421.839	100.75
422.062	98.75
422.285	84.75
422.507	104.75
422.73	106.75
422.953	89.75
423.175	83.75
423.398	88.75
423.621	94.75
423.843	97.75
424.066	88.75
424.288	90.75
424.511	87.75
424.733	93.75
424.956	99.75
425.178	90.75
425.401	105.75
425.623	96.75
425.846	81.75
426.068	93.75
426.291	85.75
426.513	81.75
426.735	92.75
426.958	102.75
427.18	95.75
427.402	133.75
427.625	154.75
427.847	124.75
428.069	113.75
428.292	90.75
428.514	96.75
428.736	72.75
428.958	88.75
429.181	80.75
429.403	88.75
429.625	92.75
429.847	84.75
430.069	94.75
430.292	92.75
430.514	74.75
430.736	93.75
430.958	93.75
431.18	74.75
431.402	78.75
431.624	87.75
431.846	83.75
432.068	84.75
432.29	98.75
432.512	72.75
432.734	85.75
432.956	87.75
433.178	93.75
433.4	100.75
433.622	102.75
433.844	94.75
434.066	77.75
434.287	100.75
434.509	101.75
434.731	86.75
434.953	99.75
435.175	85.75
435.397	80.75
435.618	81.75
435.84	96.75
436.062	131.75
436.284	113.75
436.505	99.75
436.727	101.75
436.949	84.75
437.17	83.75
437.392	84.75
437.614	97.75
437.835	99.75
438.057	109.75
438.278	115.75
438.5	102.75
438.721	114.75
438.943	115.75
439.165	87.75
439.386	93.75
439.608	98.75
439.829	113.75
440.05	115.75
440.272	137.75
440.493	87.75
440.715	88.75
440.936	88.75
441.158	89.75
441.379	84.75
441.6	94.75
441.822	95.75
442.043	88.75
442.264	100.75
442.486	93.75
442.707	86.75
442.928	92.75
443.149	120.75
443.371	124.75
443.592	98.75
443.813	115.75
444.034	101.75
444.255	84.75
444.476	100.75
444.698	79.75
444.919	85.75
445.14	138.75
445.361	121.75
445.582	105.75
445.803	135.75
446.024	130.75
446.245	132.75
446.466	113.75
446.687	99.75
446.908	98.75
447.129	81.75
447.35	92.75
447.571	92.75
447.792	94.75
448.013	97.75
448.234	109.75
448.455	114.75
448.675	108.75
448.896	130.75
449.117	81.75
449.338	101.75
449.559	117.75
449.779	132.75
450	102.75
450.221	99.75
450.442	81.75
450.662	87.75
450.883	92.75
451.104	108.75
451.324	101.75
451.545	90.75
451.766	71.75
451.986	81.75
452.207	94.75
452.428	94.75
452.648	82.75
452.869	107.75
453.089	106.75
453.31	94.75
453.53	109.75
453.751	83.75
453.971	106.75
454.192	113.75
454.412	88.75
454.633	90.75
454.853	85.75
455.073	72.75
455.294	102.75
455.514	97.75
455.734	82.75
455.955	82.75
456.175	100.75
456.395	84.75
456.616	89.75
456.836	75.75
457.056	84.75
457.276	74.75
457.497	80.75
457.717	78.75
457.937	89.75
458.157	91.75
458.377	91.75
458.598	86.75
458.818	129.75
459.038	161.75
459.258	113.75
459.478	72.75
459.698	94.75
459.918	79.75
460.138	82.75
460.358	64.75
460.578	70.75
460.798	79.75
461.018	91.75
461.238	83.75
461.458	97.75
461.678	88.75
461.898	85.75
462.118	87.75
462.338	71.75
462.558	75.75
462.777	87.75
462.997	97.75
463.217	86.75
463.437	79.75
463.657	86.75
463.876	82.75
464.096	92.75
464.316	91.75
464.536	89.75
464.755	89.75
464.975	112.75
465.195	153.75
465.414	139.75
465.634	95.75
465.854	84.75
466.073	83.75
466.293	94.75
466.512	76.75
466.732	89.75
466.951	84.75
467.171	81.75
467.391	86.75
467.61	99.75
467.829	99.75
468.049	96.75
468.268	119.75
468.488	89.75
468.707	80.75
468.927	92.75
469.146	100.75
469.365	91.75
469.585	85.75
469.804	77.75
470.023	89.75
470.243	95.75
470.462	99.75
470.681	111.75
470.901	95.75
471.12	97.75
471.339	94.75
471.558	93.75
471.777	94.75
471.997	96.75
472.216	114.75
472.435	185.75
472.654	112.75
472.873	100.75
473.092	88.75
473.311	92.75
473.53	100.75
473.749	95.75
473.968	103.75
474.187	103.75
474.406	90.75
474.625	92.75
474.844	98.75
475.063	100.75
475.282	92.75
475.501	92.75
475.72	94.75
475.939	71.75
476.158	91.75
476.377	67.75
476.596	83.75
476.814	93.75
477.033	83.75
477.252	96.75
477.471	79.75
477.69	101.75
477.908	95.75
478.127	90.75
478.346	103.75
478.564	101.75
478.783	93.75
479.002	89.75
479.22	91.75
479.439	105.75
479.658	104.75
479.876	84.75
480.095	66.75
480.313	87.75
480.532	96.75
480.751	103.75
480.969	132.75
481.188	263.75
481.406	187.75
481.624	114.75
481.843	85.75
482.061	82.75
482.28	82.75
482.498	92.75
482.717	88.75
482.935	82.75
483.153	93.75
483.372	89.75
483.59	85.75
483.808	102.75
484.027	94.75
484.245	88.75
484.463	91.75
484.681	80.75
484.9	107.75
485.118	94.75
485.336	91.75
485.554	94.75
485.772	96.75
485.99	96.75
486.209	121.75
486.427	105.75
486.645	106.75
486.863	112.75
487.081	112.75
487.299	103.75
487.517	84.75
487.735	87.75
487.953	92.75
488.171	84.75
488.389	98.75
488.607	101.75
488.825	83.75
489.043	87.75
489.261	102.75
489.479	103.75
489.696	76.75
489.914	95.75
490.132	90.75
490.35	103.75
490.568	84.75
490.786	91.75
491.003	78.75
491.221	82.75
491.439	98.75
491.657	99.75
491.874	86.75
492.092	81.75
492.31	98.75
492.527	80.75
492.745	75.75
492.963	91.75
493.18	86.75
493.398	98.75
493.615	90.75
493.833	94.75
494.05	100.75
494.268	99.75
494.485	101.75
494.703	85.75
494.92	91.75
495.138	88.75
495.355	86.75
495.573	82.75
495.79	89.75
496.008	104.75
496.225	84.75
496.442	73.75
496.66	94.75
496.877	78.75
497.094	91.75
497.312	96.75
497.529	79.75
497.746	96.75
497.963	100.75
498.181	86.75
498.398	103.75
498.615	106.75
498.832	117.75
499.049	82.75
499.267	102.75
499.484	90.75
499.701	75.75
499.918	90.75
500.135	89.75
500.352	82.75
500.569	95.75
500.786	101.75
501.003	78.75
501.22	96.75
501.437	95.75
501.654	74.75
501.871	103.75
502.088	90.75
502.305	87.75
502.522	87.75
502.739	100.75
502.956	94.75
503.172	90.75
503.389	94.75
503.606	105.75
503.823	98.75
504.04	89.75
504.256	101.75
504.473	81.75
504.69	82.75
504.907	97.75
505.123	101.75
505.34	93.75
505.557	80.75
505.773	99.75
505.99	76.75
506.207	91.75
506.423	83.75
506.64	93.75
506.856	90.75
507.073	70.75
507.289	85.75
507.506	99.75
507.722	120.75
507.939	112.75
508.155	94.75
508.372	90.75
508.588	91.75
508.805	111.75
509.021	98.75
509.238	95.75
509.454	92.75
509.67	89.75
509.887	118.75
510.103	122.75
510.319	217.75
510.536	720.75
510.752	2351.75
510.968	673.75
511.184	175.75
511.401	105.75
511.617	95.75
511.833	85.75
512.049	96.75
512.265	93.75
512.481	86.75
512.698	87.75
512.914	92.75
513.13	95.75
513.346	92.75
513.562	111.75
513.778	103.75
513.994	90.75
514.21	109.75
514.426	122.75
514.642	119.75
514.858	134.75
515.074	156.75
515.29	412.75
515.506	1376.75
