Data from Circ_2016_H10_HRD10591_00044.txt Node
Date: Wed Jan 03 09:58:49 EST 2024
User: Yrep
Spectrometer: HR+D1059
Trigger mode: 1
Integration Time (sec): 1.000000E-1
Scans to average: 1
Electric dark correction enabled: true
Nonlinearity correction enabled: false
Boxcar width: 0
XAxis mode: Wavelengths
Number of Pixels in Spectrum: 2048
>>>>>Begin Spectral Data<<<<<
223.165	-16.12
223.4	-16.12
223.635	-16.12
223.869	-20.12
224.104	-14.12
224.338	-13.12
224.573	-20.12
224.808	-16.12
225.042	-10.12
225.277	-6.12
225.511	-5.12
225.746	6.88
225.98	4.88
226.215	6.88
226.449	22.88
226.683	11.88
226.918	27.88
227.152	39.88
227.387	30.88
227.621	35.88
227.856	50.88
228.09	40.88
228.324	59.88
228.559	50.88
228.793	59.88
229.027	50.88
229.262	76.88
229.496	72.88
229.73	75.88
229.964	73.88
230.199	81.88
230.433	73.88
230.667	75.88
230.901	77.88
231.136	92.88
231.37	82.88
231.604	77.88
231.838	76.88
232.072	72.88
232.306	74.88
232.541	89.88
232.775	71.88
233.009	84.88
233.243	79.88
233.477	76.88
233.711	82.88
233.945	87.88
234.179	68.88
234.413	77.88
234.647	89.88
234.881	81.88
235.115	92.88
235.349	59.88
235.583	75.88
235.817	90.88
236.051	73.88
236.285	73.88
236.519	76.88
236.753	84.88
236.987	92.88
237.221	72.88
237.455	76.88
237.689	68.88
237.922	75.88
238.156	84.88
238.39	84.88
238.624	80.88
238.858	80.88
239.091	64.88
239.325	98.88
239.559	71.88
239.793	60.88
240.027	81.88
240.26	72.88
240.494	71.88
240.728	63.88
240.961	77.88
241.195	74.88
241.429	67.88
241.662	82.88
241.896	81.88
242.13	78.88
242.363	63.88
242.597	71.88
242.83	71.88
243.064	69.88
243.298	67.88
243.531	67.88
243.765	95.88
243.998	81.88
244.232	74.88
244.465	80.88
244.699	77.88
244.932	87.88
245.166	72.88
245.399	76.88
245.633	76.88
245.866	77.88
246.099	74.88
246.333	68.88
246.566	68.88
246.8	72.88
247.033	77.88
247.266	73.88
247.5	82.88
247.733	72.88
247.966	84.88
248.2	81.88
248.433	76.88
248.666	91.88
248.899	87.88
249.133	77.88
249.366	90.88
249.599	81.88
249.832	94.88
250.066	76.88
250.299	79.88
250.532	74.88
250.765	87.88
250.998	77.88
251.231	81.88
251.465	80.88
251.698	81.88
251.931	80.88
252.164	80.88
252.397	59.88
252.63	72.88
252.863	87.88
253.096	75.88
253.329	76.88
253.562	85.88
253.795	76.88
254.028	91.88
254.261	73.88
254.494	90.88
254.727	85.88
254.96	82.88
255.193	92.88
255.426	73.88
255.659	86.88
255.892	95.88
256.124	76.88
256.357	68.88
256.59	81.88
256.823	74.88
257.056	85.88
257.289	87.88
257.521	71.88
257.754	71.88
257.987	70.88
258.22	88.88
258.452	63.88
258.685	70.88
258.918	84.88
259.151	86.88
259.383	80.88
259.616	81.88
259.849	81.88
260.081	80.88
260.314	76.88
260.547	74.88
260.779	80.88
261.012	84.88
261.244	78.88
261.477	91.88
261.71	89.88
261.942	99.88
262.175	116.88
262.407	92.88
262.64	74.88
262.872	78.88
263.105	83.88
263.337	66.88
263.57	81.88
263.802	79.88
264.035	88.88
264.267	75.88
264.499	88.88
264.732	93.88
264.964	77.88
265.197	81.88
265.429	81.88
265.661	86.88
265.894	69.88
266.126	96.88
266.358	77.88
266.591	93.88
266.823	88.88
267.055	76.88
267.287	91.88
267.52	83.88
267.752	82.88
267.984	78.88
268.216	93.88
268.448	70.88
268.681	87.88
268.913	95.88
269.145	81.88
269.377	84.88
269.609	85.88
269.841	72.88
270.073	73.88
270.306	75.88
270.538	76.88
270.77	71.88
271.002	68.88
271.234	83.88
271.466	83.88
271.698	74.88
271.93	82.88
272.162	85.88
272.394	86.88
272.626	89.88
272.858	72.88
273.09	76.88
273.322	76.88
273.553	85.88
273.785	81.88
274.017	84.88
274.249	85.88
274.481	74.88
274.713	91.88
274.945	68.88
275.176	77.88
275.408	83.88
275.64	95.88
275.872	91.88
276.104	80.88
276.335	91.88
276.567	84.88
276.799	91.88
277.031	101.88
277.262	88.88
277.494	86.88
277.726	78.88
277.957	89.88
278.189	91.88
278.421	81.88
278.652	87.88
278.884	80.88
279.115	76.88
279.347	73.88
279.579	77.88
279.81	75.88
280.042	95.88
280.273	84.88
280.505	77.88
280.736	82.88
280.968	90.88
281.199	76.88
281.431	91.88
281.662	90.88
281.894	81.88
282.125	100.88
282.356	121.88
282.588	144.88
282.819	97.88
283.051	97.88
283.282	85.88
283.513	78.88
283.745	91.88
283.976	76.88
284.207	90.88
284.439	74.88
284.67	87.88
284.901	81.88
285.132	89.88
285.364	96.88
285.595	83.88
285.826	77.88
286.057	84.88
286.288	75.88
286.52	84.88
286.751	87.88
286.982	77.88
287.213	86.88
287.444	96.88
287.675	86.88
287.906	87.88
288.138	79.88
288.369	92.88
288.6	93.88
288.831	83.88
289.062	84.88
289.293	67.88
289.524	80.88
289.755	82.88
289.986	86.88
290.217	90.88
290.448	80.88
290.679	94.88
290.91	89.88
291.141	93.88
291.371	76.88
291.602	92.88
291.833	80.88
292.064	80.88
292.295	80.88
292.526	73.88
292.757	102.88
292.987	94.88
293.218	87.88
293.449	85.88
293.68	81.88
293.91	79.88
294.141	87.88
294.372	82.88
294.603	91.88
294.833	87.88
295.064	86.88
295.295	88.88
295.525	83.88
295.756	85.88
295.987	99.88
296.217	127.88
296.448	120.88
296.679	97.88
296.909	94.88
297.14	82.88
297.37	96.88
297.601	83.88
297.831	74.88
298.062	81.88
298.292	78.88
298.523	88.88
298.753	87.88
298.984	85.88
299.214	83.88
299.445	83.88
299.675	83.88
299.905	84.88
300.136	92.88
300.366	92.88
300.597	88.88
300.827	96.88
301.057	93.88
301.288	104.88
301.518	91.88
301.748	78.88
301.979	96.88
302.209	80.88
302.439	85.88
302.669	97.88
302.9	89.88
303.13	84.88
303.36	94.88
303.59	112.88
303.82	103.88
304.051	90.88
304.281	76.88
304.511	96.88
304.741	76.88
304.971	78.88
305.201	92.88
305.431	94.88
305.661	86.88
305.891	84.88
306.121	97.88
306.352	92.88
306.582	94.88
306.812	80.88
307.042	96.88
307.272	78.88
307.502	75.88
307.731	87.88
307.961	86.88
308.191	95.88
308.421	98.88
308.651	84.88
308.881	95.88
309.111	73.88
309.341	87.88
309.571	117.88
309.8	93.88
310.03	96.88
310.26	96.88
310.49	92.88
310.72	92.88
310.949	114.88
311.179	100.88
311.409	92.88
311.639	100.88
311.868	80.88
312.098	91.88
312.328	87.88
312.557	99.88
312.787	94.88
313.017	92.88
313.246	100.88
313.476	88.88
313.706	96.88
313.935	96.88
314.165	88.88
314.394	85.88
314.624	95.88
314.853	82.88
315.083	96.88
315.312	89.88
315.542	88.88
315.771	85.88
316.001	93.88
316.23	95.88
316.46	80.88
316.689	99.88
316.919	96.88
317.148	99.88
317.377	89.88
317.607	101.88
317.836	90.88
318.065	76.88
318.295	81.88
318.524	90.88
318.753	94.88
318.983	96.88
319.212	97.88
319.441	98.88
319.67	117.88
319.9	87.88
320.129	98.88
320.358	88.88
320.587	98.88
320.816	120.88
321.046	96.88
321.275	96.88
321.504	95.88
321.733	81.88
321.962	95.88
322.191	87.88
322.42	99.88
322.649	110.88
322.878	124.88
323.108	110.88
323.337	115.88
323.566	133.88
323.795	147.88
324.024	208.88
324.253	346.88
324.482	788.88
324.71	1616.88
324.939	2143.88
325.168	792.88
325.397	245.88
325.626	139.88
325.855	117.88
326.084	127.88
326.313	141.88
326.542	152.88
326.77	227.88
326.999	450.88
327.228	919.88
327.457	1691.88
327.686	1349.88
327.914	371.88
328.143	176.88
328.372	137.88
328.6	124.88
328.829	108.88
329.058	135.88
329.287	114.88
329.515	115.88
329.744	103.88
329.972	90.88
330.201	105.88
330.43	120.88
330.658	145.88
330.887	133.88
331.115	121.88
331.344	99.88
331.572	85.88
331.801	92.88
332.03	91.88
332.258	93.88
332.486	88.88
332.715	98.88
332.943	81.88
333.172	96.88
333.4	86.88
333.629	95.88
333.857	107.88
334.085	101.88
334.314	112.88
334.542	132.88
334.771	117.88
334.999	107.88
335.227	105.88
335.455	100.88
335.684	92.88
335.912	103.88
336.14	100.88
336.369	112.88
336.597	106.88
336.825	94.88
337.053	97.88
337.281	94.88
337.51	95.88
337.738	90.88
337.966	87.88
338.194	102.88
338.422	97.88
338.65	88.88
338.878	98.88
339.106	90.88
339.334	92.88
339.562	95.88
339.79	90.88
340.018	86.88
340.246	84.88
340.474	94.88
340.702	79.88
340.93	105.88
341.158	110.88
341.386	98.88
341.614	92.88
341.842	100.88
342.07	96.88
342.298	87.88
342.526	90.88
342.754	77.88
342.981	90.88
343.209	89.88
343.437	103.88
343.665	98.88
343.893	85.88
344.12	88.88
344.348	83.88
344.576	94.88
344.804	91.88
345.031	89.88
345.259	97.88
345.487	102.88
345.714	84.88
345.942	87.88
346.17	92.88
346.397	77.88
346.625	102.88
346.853	88.88
347.08	86.88
347.308	87.88
347.535	92.88
347.763	99.88
347.99	95.88
348.218	104.88
348.445	95.88
348.673	112.88
348.9	88.88
349.128	98.88
349.355	92.88
349.583	104.88
349.81	88.88
350.037	104.88
350.265	104.88
350.492	97.88
350.72	90.88
350.947	99.88
351.174	107.88
351.402	99.88
351.629	98.88
351.856	96.88
352.083	105.88
352.311	119.88
352.538	109.88
352.765	115.88
352.992	114.88
353.22	114.88
353.447	98.88
353.674	111.88
353.901	99.88
354.128	92.88
354.355	102.88
354.583	100.88
354.81	99.88
355.037	97.88
355.264	85.88
355.491	92.88
355.718	100.88
355.945	98.88
356.172	99.88
356.399	97.88
356.626	90.88
356.853	103.88
357.08	93.88
357.307	77.88
357.534	102.88
357.761	87.88
357.988	104.88
358.215	103.88
358.441	100.88
358.668	98.88
358.895	95.88
359.122	99.88
359.349	96.88
359.576	97.88
359.802	99.88
360.029	112.88
360.256	113.88
360.483	107.88
360.709	87.88
360.936	92.88
361.163	80.88
361.39	89.88
361.616	98.88
361.843	85.88
362.07	96.88
362.296	80.88
362.523	89.88
362.749	100.88
362.976	99.88
363.203	87.88
363.429	85.88
363.656	95.88
363.882	92.88
364.109	86.88
364.335	92.88
364.562	90.88
364.788	96.88
365.015	90.88
365.241	101.88
365.468	109.88
365.694	103.88
365.92	96.88
366.147	96.88
366.373	99.88
366.599	80.88
366.826	91.88
367.052	73.88
367.278	86.88
367.505	104.88
367.731	92.88
367.957	92.88
368.184	91.88
368.41	111.88
368.636	114.88
368.862	113.88
369.089	118.88
369.315	87.88
369.541	96.88
369.767	94.88
369.993	87.88
370.219	81.88
370.445	95.88
370.672	98.88
370.898	92.88
371.124	68.88
371.35	85.88
371.576	101.88
371.802	86.88
372.028	89.88
372.254	75.88
372.48	71.88
372.706	90.88
372.932	85.88
373.158	88.88
373.384	77.88
373.61	77.88
373.835	94.88
374.061	88.88
374.287	77.88
374.513	93.88
374.739	83.88
374.965	88.88
375.191	90.88
375.416	80.88
375.642	96.88
375.868	86.88
376.094	87.88
376.319	78.88
376.545	94.88
376.771	97.88
376.997	90.88
377.222	93.88
377.448	102.88
377.674	89.88
377.899	99.88
378.125	101.88
378.35	92.88
378.576	96.88
378.802	93.88
379.027	96.88
379.253	87.88
379.478	109.88
379.704	104.88
379.929	108.88
380.155	91.88
380.38	98.88
380.606	102.88
380.831	96.88
381.057	102.88
381.282	96.88
381.507	105.88
381.733	88.88
381.958	91.88
382.184	94.88
382.409	102.88
382.634	106.88
382.86	110.88
383.085	106.88
383.31	99.88
383.535	106.88
383.761	92.88
383.986	99.88
384.211	102.88
384.436	125.88
384.662	117.88
384.887	105.88
385.112	115.88
385.337	137.88
385.562	104.88
385.787	119.88
386.013	103.88
386.238	129.88
386.463	127.88
386.688	140.88
386.913	113.88
387.138	116.88
387.363	110.88
387.588	104.88
387.813	109.88
388.038	116.88
388.263	136.88
388.488	115.88
388.713	84.88
388.938	99.88
389.163	100.88
389.387	100.88
389.612	93.88
389.837	96.88
390.062	76.88
390.287	81.88
390.512	76.88
390.736	90.88
390.961	97.88
391.186	96.88
391.411	93.88
391.636	82.88
391.86	87.88
392.085	75.88
392.31	82.88
392.534	84.88
392.759	96.88
392.984	75.88
393.208	88.88
393.433	108.88
393.658	104.88
393.882	92.88
394.107	90.88
394.331	80.88
394.556	77.88
394.78	85.88
395.005	89.88
395.229	82.88
395.454	87.88
395.678	76.88
395.903	74.88
396.127	84.88
396.352	93.88
396.576	104.88
396.801	103.88
397.025	83.88
397.249	82.88
397.474	90.88
397.698	86.88
397.922	83.88
398.147	99.88
398.371	79.88
398.595	84.88
398.82	97.88
399.044	78.88
399.268	87.88
399.492	99.88
399.717	97.88
399.941	81.88
400.165	88.88
400.389	95.88
400.613	101.88
400.837	81.88
401.062	74.88
401.286	92.88
401.51	84.88
401.734	89.88
401.958	92.88
402.182	109.88
402.406	140.88
402.63	102.88
402.854	85.88
403.078	100.88
403.302	93.88
403.526	96.88
403.75	92.88
403.974	86.88
404.198	86.88
404.422	77.88
404.645	94.88
404.869	87.88
405.093	91.88
405.317	99.88
405.541	87.88
405.765	91.88
405.988	108.88
406.212	184.88
406.436	207.88
406.66	123.88
406.883	97.88
407.107	84.88
407.331	80.88
407.555	88.88
407.778	94.88
408.002	99.88
408.226	91.88
408.449	80.88
408.673	90.88
408.896	83.88
409.12	103.88
409.344	83.88
409.567	82.88
409.791	86.88
410.014	103.88
410.238	96.88
410.461	93.88
410.685	87.88
410.908	94.88
411.132	98.88
411.355	95.88
411.578	84.88
411.802	88.88
412.025	98.88
412.249	90.88
412.472	92.88
412.695	100.88
412.919	96.88
413.142	93.88
413.365	80.88
413.589	85.88
413.812	89.88
414.035	85.88
414.258	88.88
414.482	90.88
414.705	75.88
414.928	98.88
415.151	99.88
415.374	88.88
415.597	83.88
415.821	88.88
416.044	83.88
416.267	90.88
416.49	101.88
416.713	100.88
416.936	94.88
417.159	89.88
417.382	94.88
417.605	89.88
417.828	97.88
418.051	92.88
418.274	85.88
418.497	95.88
418.72	75.88
418.943	96.88
419.166	84.88
419.389	76.88
419.611	80.88
419.834	95.88
420.057	91.88
420.28	78.88
420.503	79.88
420.726	77.88
420.948	83.88
421.171	87.88
421.394	106.88
421.617	85.88
421.839	72.88
422.062	92.88
422.285	102.88
422.507	87.88
422.73	109.88
422.953	84.88
423.175	93.88
423.398	87.88
423.621	90.88
423.843	81.88
424.066	75.88
424.288	92.88
424.511	94.88
424.733	87.88
424.956	109.88
425.178	95.88
425.401	82.88
425.623	84.88
425.846	96.88
426.068	80.88
426.291	88.88
426.513	83.88
426.735	80.88
426.958	83.88
427.18	107.88
427.402	148.88
427.625	157.88
427.847	123.88
428.069	106.88
428.292	98.88
428.514	88.88
428.736	87.88
428.958	86.88
429.181	85.88
429.403	87.88
429.625	72.88
429.847	84.88
430.069	104.88
430.292	74.88
430.514	81.88
430.736	91.88
430.958	90.88
431.18	86.88
431.402	93.88
431.624	88.88
431.846	91.88
432.068	88.88
432.29	78.88
432.512	89.88
432.734	92.88
432.956	80.88
433.178	103.88
433.4	106.88
433.622	87.88
433.844	87.88
434.066	94.88
434.287	85.88
434.509	78.88
434.731	92.88
434.953	87.88
435.175	81.88
435.397	94.88
435.618	82.88
435.84	101.88
436.062	102.88
436.284	105.88
436.505	99.88
436.727	78.88
436.949	84.88
437.17	81.88
437.392	89.88
437.614	88.88
437.835	100.88
438.057	105.88
438.278	125.88
438.5	111.88
438.721	114.88
438.943	98.88
439.165	95.88
439.386	77.88
439.608	93.88
439.829	103.88
440.05	116.88
440.272	134.88
440.493	106.88
440.715	96.88
440.936	77.88
441.158	88.88
441.379	91.88
441.6	81.88
441.822	90.88
442.043	101.88
442.264	104.88
442.486	90.88
442.707	104.88
442.928	113.88
443.149	121.88
443.371	128.88
443.592	100.88
443.813	106.88
444.034	101.88
444.255	90.88
444.476	78.88
444.698	89.88
444.919	84.88
445.14	113.88
445.361	135.88
445.582	121.88
445.803	133.88
446.024	144.88
446.245	124.88
446.466	108.88
446.687	99.88
446.908	89.88
447.129	92.88
447.35	91.88
447.571	97.88
447.792	103.88
448.013	92.88
448.234	98.88
448.455	113.88
448.675	119.88
448.896	124.88
449.117	97.88
449.338	116.88
449.559	115.88
449.779	135.88
450	98.88
450.221	87.88
450.442	84.88
450.662	76.88
450.883	101.88
451.104	111.88
451.324	100.88
451.545	89.88
451.766	81.88
451.986	85.88
452.207	79.88
452.428	87.88
452.648	86.88
452.869	125.88
453.089	112.88
453.31	107.88
453.53	93.88
453.751	90.88
453.971	124.88
454.192	88.88
454.412	97.88
454.633	93.88
454.853	83.88
455.073	81.88
455.294	81.88
455.514	92.88
455.734	85.88
455.955	81.88
456.175	92.88
456.395	85.88
456.616	86.88
456.836	77.88
457.056	93.88
457.276	74.88
457.497	83.88
457.717	97.88
457.937	100.88
458.157	95.88
458.377	88.88
458.598	96.88
458.818	154.88
459.038	159.88
459.258	110.88
459.478	80.88
459.698	88.88
459.918	82.88
460.138	91.88
460.358	80.88
460.578	86.88
460.798	78.88
461.018	95.88
461.238	86.88
461.458	96.88
461.678	84.88
461.898	92.88
462.118	75.88
462.338	97.88
462.558	95.88
462.777	77.88
462.997	100.88
463.217	85.88
463.437	83.88
463.657	77.88
463.876	84.88
464.096	76.88
464.316	87.88
464.536	93.88
464.755	92.88
464.975	101.88
465.195	158.88
465.414	157.88
465.634	92.88
465.854	84.88
466.073	93.88
466.293	82.88
466.512	87.88
466.732	89.88
466.951	84.88
467.171	84.88
467.391	90.88
467.61	99.88
467.829	84.88
468.049	97.88
468.268	99.88
468.488	96.88
468.707	75.88
468.927	77.88
469.146	86.88
469.365	88.88
469.585	88.88
469.804	81.88
470.023	94.88
470.243	84.88
470.462	101.88
470.681	102.88
470.901	81.88
471.12	89.88
471.339	82.88
471.558	87.88
471.777	72.88
471.997	80.88
472.216	113.88
472.435	122.88
472.654	96.88
472.873	95.88
473.092	93.88
473.311	90.88
473.53	89.88
473.749	84.88
473.968	85.88
474.187	104.88
474.406	93.88
474.625	84.88
474.844	81.88
475.063	75.88
475.282	89.88
475.501	84.88
475.72	104.88
475.939	87.88
476.158	90.88
476.377	91.88
476.596	92.88
476.814	80.88
477.033	91.88
477.252	93.88
477.471	88.88
477.69	75.88
477.908	97.88
478.127	79.88
478.346	87.88
478.564	88.88
478.783	85.88
479.002	71.88
479.22	82.88
479.439	95.88
479.658	105.88
479.876	82.88
480.095	87.88
480.313	90.88
480.532	87.88
480.751	90.88
480.969	106.88
481.188	162.88
481.406	147.88
481.624	87.88
481.843	84.88
482.061	86.88
482.28	96.88
482.498	96.88
482.717	101.88
482.935	82.88
483.153	94.88
483.372	74.88
483.59	97.88
483.808	83.88
484.027	93.88
484.245	99.88
484.463	90.88
484.681	86.88
484.9	93.88
485.118	97.88
485.336	89.88
485.554	95.88
485.772	100.88
485.99	103.88
486.209	104.88
486.427	84.88
486.645	116.88
486.863	130.88
487.081	104.88
487.299	108.88
487.517	85.88
487.735	85.88
487.953	98.88
488.171	101.88
488.389	92.88
488.607	89.88
488.825	98.88
489.043	85.88
489.261	87.88
489.479	95.88
489.696	85.88
489.914	76.88
490.132	95.88
490.35	98.88
490.568	87.88
490.786	89.88
491.003	102.88
491.221	78.88
491.439	83.88
491.657	100.88
491.874	84.88
492.092	84.88
492.31	96.88
492.527	73.88
492.745	94.88
492.963	96.88
493.18	87.88
493.398	103.88
493.615	92.88
493.833	93.88
494.05	98.88
494.268	79.88
494.485	84.88
494.703	92.88
494.92	88.88
495.138	94.88
495.355	94.88
495.573	99.88
495.79	111.88
496.008	84.88
496.225	93.88
496.442	88.88
496.66	100.88
496.877	74.88
497.094	92.88
497.312	84.88
497.529	101.88
497.746	81.88
497.963	90.88
498.181	80.88
498.398	82.88
498.615	102.88
498.832	104.88
499.049	94.88
499.267	81.88
499.484	84.88
499.701	85.88
499.918	84.88
500.135	89.88
500.352	83.88
500.569	73.88
500.786	93.88
501.003	84.88
501.22	95.88
501.437	99.88
501.654	97.88
501.871	99.88
502.088	103.88
502.305	80.88
502.522	102.88
502.739	98.88
502.956	88.88
503.172	90.88
503.389	94.88
503.606	88.88
503.823	81.88
504.04	93.88
504.256	91.88
504.473	84.88
504.69	92.88
504.907	87.88
505.123	81.88
505.34	97.88
505.557	87.88
505.773	79.88
505.99	95.88
506.207	102.88
506.423	87.88
506.64	87.88
506.856	91.88
507.073	91.88
507.289	64.88
507.506	96.88
507.722	119.88
507.939	108.88
508.155	103.88
508.372	98.88
508.588	84.88
508.805	96.88
509.021	91.88
509.238	96.88
509.454	95.88
509.67	86.88
509.887	93.88
510.103	131.88
510.319	209.88
510.536	712.88
510.752	2418.88
510.968	697.88
511.184	163.88
511.401	120.88
511.617	102.88
511.833	89.88
512.049	88.88
512.265	85.88
512.481	90.88
512.698	86.88
512.914	96.88
513.13	101.88
513.346	112.88
513.562	87.88
513.778	97.88
513.994	99.88
514.21	100.88
514.426	131.88
514.642	125.88
514.858	105.88
515.074	157.88
515.29	434.88
515.506	1411.88
515.721	573.88
515.937	147.88
516.153	117.88
