Data from Circ_2016_H10_HRD10591_00052.txt Node
Date: Wed Jan 03 09:58:51 EST 2024
User: Yrep
Spectrometer: HR+D1059
Trigger mode: 1
Integration Time (sec): 1.000000E-1
Scans to average: 1
Electric dark correction enabled: true
Nonlinearity correction enabled: false
Boxcar width: 0
XAxis mode: Wavelengths
Number of Pixels in Spectrum: 2048
>>>>>Begin Spectral Data<<<<<
223.165	-10.5
223.4	-10.5
223.635	-10.5
223.869	-16.5
224.104	-21.5
224.338	-15.5
224.573	-19.5
224.808	-18.5
225.042	-25.5
225.277	-9.5
225.511	7.5
225.746	20.5
225.98	-0.5
226.215	11.5
226.449	7.5
226.683	16.5
226.918	28.5
227.152	45.5
227.387	40.5
227.621	51.5
227.856	57.5
228.09	58.5
228.324	61.5
228.559	68.5
228.793	46.5
229.027	82.5
229.262	66.5
229.496	97.5
229.73	94.5
229.964	88.5
230.199	80.5
230.433	67.5
230.667	71.5
230.901	67.5
231.136	84.5
231.37	81.5
231.604	93.5
231.838	91.5
232.072	99.5
232.306	73.5
232.541	86.5
232.775	81.5
233.009	88.5
233.243	94.5
233.477	81.5
233.711	79.5
233.945	88.5
234.179	94.5
234.413	102.5
234.647	85.5
234.881	86.5
235.115	95.5
235.349	90.5
235.583	75.5
235.817	84.5
236.051	87.5
236.285	81.5
236.519	77.5
236.753	83.5
236.987	89.5
237.221	89.5
237.455	86.5
237.689	85.5
237.922	81.5
238.156	86.5
238.39	81.5
238.624	90.5
238.858	84.5
239.091	72.5
239.325	87.5
239.559	88.5
239.793	80.5
240.027	79.5
240.26	71.5
240.494	79.5
240.728	74.5
240.961	79.5
241.195	85.5
241.429	83.5
241.662	77.5
241.896	88.5
242.13	90.5
242.363	81.5
242.597	81.5
242.83	77.5
243.064	87.5
243.298	101.5
243.531	77.5
243.765	88.5
243.998	78.5
244.232	91.5
244.465	89.5
244.699	74.5
244.932	79.5
245.166	100.5
245.399	90.5
245.633	88.5
245.866	79.5
246.099	70.5
246.333	76.5
246.566	96.5
246.8	85.5
247.033	80.5
247.266	91.5
247.5	79.5
247.733	68.5
247.966	79.5
248.2	87.5
248.433	84.5
248.666	80.5
248.899	82.5
249.133	83.5
249.366	107.5
249.599	116.5
249.832	96.5
250.066	80.5
250.299	79.5
250.532	78.5
250.765	76.5
250.998	83.5
251.231	81.5
251.465	83.5
251.698	101.5
251.931	88.5
252.164	90.5
252.397	83.5
252.63	87.5
252.863	88.5
253.096	99.5
253.329	87.5
253.562	71.5
253.795	94.5
254.028	77.5
254.261	88.5
254.494	88.5
254.727	99.5
254.96	94.5
255.193	82.5
255.426	88.5
255.659	94.5
255.892	72.5
256.124	83.5
256.357	91.5
256.59	88.5
256.823	73.5
257.056	96.5
257.289	99.5
257.521	89.5
257.754	92.5
257.987	89.5
258.22	82.5
258.452	94.5
258.685	91.5
258.918	92.5
259.151	89.5
259.383	81.5
259.616	88.5
259.849	91.5
260.081	95.5
260.314	81.5
260.547	86.5
260.779	84.5
261.012	97.5
261.244	70.5
261.477	101.5
261.71	118.5
261.942	124.5
262.175	125.5
262.407	88.5
262.64	80.5
262.872	84.5
263.105	97.5
263.337	92.5
263.57	100.5
263.802	94.5
264.035	79.5
264.267	89.5
264.499	84.5
264.732	86.5
264.964	106.5
265.197	81.5
265.429	88.5
265.661	92.5
265.894	72.5
266.126	85.5
266.358	84.5
266.591	96.5
266.823	84.5
267.055	78.5
267.287	85.5
267.52	87.5
267.752	94.5
267.984	81.5
268.216	94.5
268.448	79.5
268.681	84.5
268.913	99.5
269.145	93.5
269.377	88.5
269.609	89.5
269.841	96.5
270.073	103.5
270.306	101.5
270.538	100.5
270.77	90.5
271.002	94.5
271.234	84.5
271.466	76.5
271.698	95.5
271.93	94.5
272.162	100.5
272.394	102.5
272.626	87.5
272.858	88.5
273.09	83.5
273.322	100.5
273.553	95.5
273.785	82.5
274.017	81.5
274.249	87.5
274.481	89.5
274.713	96.5
274.945	88.5
275.176	108.5
275.408	96.5
275.64	92.5
275.872	88.5
276.104	104.5
276.335	89.5
276.567	115.5
276.799	113.5
277.031	110.5
277.262	96.5
277.494	81.5
277.726	86.5
277.957	78.5
278.189	85.5
278.421	78.5
278.652	90.5
278.884	87.5
279.115	94.5
279.347	86.5
279.579	98.5
279.81	90.5
280.042	78.5
280.273	94.5
280.505	90.5
280.736	80.5
280.968	93.5
281.199	83.5
281.431	88.5
281.662	95.5
281.894	98.5
282.125	103.5
282.356	141.5
282.588	161.5
282.819	153.5
283.051	94.5
283.282	104.5
283.513	86.5
283.745	89.5
283.976	86.5
284.207	92.5
284.439	103.5
284.67	103.5
284.901	92.5
285.132	86.5
285.364	89.5
285.595	100.5
285.826	89.5
286.057	99.5
286.288	95.5
286.52	97.5
286.751	106.5
286.982	87.5
287.213	78.5
287.444	95.5
287.675	86.5
287.906	80.5
288.138	88.5
288.369	100.5
288.6	92.5
288.831	92.5
289.062	99.5
289.293	97.5
289.524	88.5
289.755	66.5
289.986	81.5
290.217	93.5
290.448	83.5
290.679	93.5
290.91	93.5
291.141	87.5
291.371	77.5
291.602	94.5
291.833	85.5
292.064	99.5
292.295	70.5
292.526	73.5
292.757	94.5
292.987	102.5
293.218	91.5
293.449	98.5
293.68	81.5
293.91	86.5
294.141	93.5
294.372	99.5
294.603	101.5
294.833	92.5
295.064	86.5
295.295	84.5
295.525	94.5
295.756	113.5
295.987	132.5
296.217	172.5
296.448	155.5
296.679	99.5
296.909	96.5
297.14	87.5
297.37	98.5
297.601	99.5
297.831	121.5
298.062	92.5
298.292	94.5
298.523	87.5
298.753	98.5
298.984	88.5
299.214	89.5
299.445	91.5
299.675	100.5
299.905	104.5
300.136	95.5
300.366	100.5
300.597	89.5
300.827	94.5
301.057	108.5
301.288	121.5
301.518	106.5
301.748	85.5
301.979	101.5
302.209	103.5
302.439	91.5
302.669	87.5
302.9	88.5
303.13	87.5
303.36	96.5
303.59	99.5
303.82	119.5
304.051	92.5
304.281	87.5
304.511	97.5
304.741	104.5
304.971	92.5
305.201	92.5
305.431	87.5
305.661	74.5
305.891	89.5
306.121	95.5
306.352	119.5
306.582	128.5
306.812	106.5
307.042	93.5
307.272	99.5
307.502	102.5
307.731	104.5
307.961	100.5
308.191	93.5
308.421	87.5
308.651	97.5
308.881	93.5
309.111	99.5
309.341	108.5
309.571	110.5
309.8	106.5
310.03	104.5
310.26	103.5
310.49	102.5
310.72	109.5
310.949	110.5
311.179	111.5
311.409	112.5
311.639	107.5
311.868	99.5
312.098	92.5
312.328	108.5
312.557	107.5
312.787	110.5
313.017	120.5
313.246	99.5
313.476	95.5
313.706	88.5
313.935	93.5
314.165	108.5
314.394	109.5
314.624	95.5
314.853	103.5
315.083	104.5
315.312	107.5
315.542	87.5
315.771	98.5
316.001	92.5
316.23	98.5
316.46	94.5
316.689	103.5
316.919	106.5
317.148	102.5
317.377	103.5
317.607	111.5
317.836	92.5
318.065	88.5
318.295	92.5
318.524	104.5
318.753	102.5
318.983	109.5
319.212	101.5
319.441	115.5
319.67	112.5
319.9	103.5
320.129	104.5
320.358	103.5
320.587	96.5
320.816	102.5
321.046	111.5
321.275	106.5
321.504	104.5
321.733	98.5
321.962	120.5
322.191	112.5
322.42	105.5
322.649	103.5
322.878	135.5
323.108	126.5
323.337	126.5
323.566	144.5
323.795	190.5
324.024	261.5
324.253	507.5
324.482	1107.5
324.71	2277.5
324.939	3029.5
325.168	1100.5
325.397	295.5
325.626	182.5
325.855	155.5
326.084	154.5
326.313	152.5
326.542	186.5
326.77	283.5
326.999	576.5
327.228	1229.5
327.457	2235.5
327.686	1759.5
327.914	469.5
328.143	236.5
328.372	191.5
328.6	144.5
328.829	133.5
329.058	140.5
329.287	144.5
329.515	123.5
329.744	106.5
329.972	112.5
330.201	138.5
330.43	152.5
330.658	143.5
330.887	167.5
331.115	142.5
331.344	110.5
331.572	103.5
331.801	107.5
332.03	118.5
332.258	100.5
332.486	83.5
332.715	104.5
332.943	96.5
333.172	91.5
333.4	95.5
333.629	110.5
333.857	134.5
334.085	127.5
334.314	137.5
334.542	152.5
334.771	144.5
334.999	115.5
335.227	95.5
335.455	104.5
335.684	110.5
335.912	103.5
336.14	112.5
336.369	103.5
336.597	109.5
336.825	107.5
337.053	99.5
337.281	92.5
337.51	85.5
337.738	103.5
337.966	91.5
338.194	93.5
338.422	101.5
338.65	103.5
338.878	107.5
339.106	88.5
339.334	100.5
339.562	85.5
339.79	91.5
340.018	94.5
340.246	106.5
340.474	97.5
340.702	102.5
340.93	66.5
341.158	85.5
341.386	111.5
341.614	113.5
341.842	96.5
342.07	103.5
342.298	90.5
342.526	80.5
342.754	92.5
342.981	92.5
343.209	87.5
343.437	102.5
343.665	97.5
343.893	106.5
344.12	90.5
344.348	94.5
344.576	95.5
344.804	87.5
345.031	102.5
345.259	100.5
345.487	98.5
345.714	96.5
345.942	95.5
346.17	92.5
346.397	100.5
346.625	90.5
346.853	105.5
347.08	85.5
347.308	97.5
347.535	108.5
347.763	112.5
347.99	102.5
348.218	105.5
348.445	130.5
348.673	100.5
348.9	90.5
349.128	103.5
349.355	97.5
349.583	99.5
349.81	91.5
350.037	94.5
350.265	107.5
350.492	102.5
350.72	96.5
350.947	101.5
351.174	103.5
351.402	128.5
351.629	102.5
351.856	103.5
352.083	105.5
352.311	110.5
352.538	120.5
352.765	109.5
352.992	108.5
353.22	107.5
353.447	108.5
353.674	110.5
353.901	89.5
354.128	101.5
354.355	93.5
354.583	99.5
354.81	105.5
355.037	89.5
355.264	96.5
355.491	105.5
355.718	99.5
355.945	87.5
356.172	96.5
356.399	95.5
356.626	103.5
356.853	76.5
357.08	99.5
357.307	81.5
357.534	92.5
357.761	99.5
357.988	100.5
358.215	106.5
358.441	95.5
358.668	96.5
358.895	98.5
359.122	95.5
359.349	92.5
359.576	98.5
359.802	111.5
360.029	135.5
360.256	126.5
360.483	102.5
360.709	96.5
360.936	103.5
361.163	99.5
361.39	100.5
361.616	109.5
361.843	98.5
362.07	88.5
362.296	95.5
362.523	110.5
362.749	92.5
362.976	98.5
363.203	89.5
363.429	100.5
363.656	106.5
363.882	107.5
364.109	87.5
364.335	86.5
364.562	100.5
364.788	90.5
365.015	109.5
365.241	118.5
365.468	112.5
365.694	114.5
365.92	108.5
366.147	95.5
366.373	92.5
366.599	90.5
366.826	101.5
367.052	96.5
367.278	72.5
367.505	100.5
367.731	97.5
367.957	111.5
368.184	102.5
368.41	105.5
368.636	117.5
368.862	121.5
369.089	116.5
369.315	111.5
369.541	87.5
369.767	101.5
369.993	91.5
370.219	81.5
370.445	92.5
370.672	95.5
370.898	94.5
371.124	89.5
371.35	94.5
371.576	94.5
371.802	85.5
372.028	93.5
372.254	98.5
372.48	100.5
372.706	91.5
372.932	90.5
373.158	86.5
373.384	97.5
373.61	98.5
373.835	88.5
374.061	98.5
374.287	95.5
374.513	85.5
374.739	84.5
374.965	91.5
375.191	79.5
375.416	97.5
375.642	88.5
375.868	93.5
376.094	101.5
376.319	87.5
376.545	95.5
376.771	83.5
376.997	89.5
377.222	101.5
377.448	104.5
377.674	100.5
377.899	95.5
378.125	92.5
378.35	96.5
378.576	100.5
378.802	98.5
379.027	102.5
379.253	109.5
379.478	95.5
379.704	99.5
379.929	105.5
380.155	102.5
380.38	88.5
380.606	104.5
380.831	96.5
381.057	93.5
381.282	104.5
381.507	96.5
381.733	106.5
381.958	115.5
382.184	108.5
382.409	109.5
382.634	112.5
382.86	107.5
383.085	126.5
383.31	122.5
383.535	100.5
383.761	94.5
383.986	108.5
384.211	106.5
384.436	109.5
384.662	116.5
384.887	117.5
385.112	110.5
385.337	136.5
385.562	123.5
385.787	124.5
386.013	127.5
386.238	119.5
386.463	119.5
386.688	125.5
386.913	116.5
387.138	139.5
387.363	115.5
387.588	111.5
387.813	117.5
388.038	133.5
388.263	122.5
388.488	119.5
388.713	99.5
388.938	108.5
389.163	99.5
389.387	101.5
389.612	92.5
389.837	77.5
390.062	105.5
390.287	100.5
390.512	101.5
390.736	107.5
390.961	94.5
391.186	89.5
391.411	75.5
391.636	92.5
391.86	73.5
392.085	91.5
392.31	87.5
392.534	76.5
392.759	86.5
392.984	87.5
393.208	100.5
393.433	101.5
393.658	99.5
393.882	103.5
394.107	90.5
394.331	86.5
394.556	92.5
394.78	100.5
395.005	96.5
395.229	81.5
395.454	89.5
395.678	87.5
395.903	109.5
396.127	92.5
396.352	96.5
396.576	92.5
396.801	78.5
397.025	104.5
397.249	92.5
397.474	102.5
397.698	95.5
397.922	95.5
398.147	82.5
398.371	88.5
398.595	79.5
398.82	96.5
399.044	95.5
399.268	87.5
399.492	84.5
399.717	97.5
399.941	89.5
400.165	94.5
400.389	100.5
400.613	82.5
400.837	85.5
401.062	91.5
401.286	89.5
401.51	96.5
401.734	96.5
401.958	108.5
402.182	150.5
402.406	198.5
402.63	136.5
402.854	102.5
403.078	98.5
403.302	92.5
403.526	91.5
403.75	89.5
403.974	88.5
404.198	77.5
404.422	81.5
404.645	84.5
404.869	87.5
405.093	99.5
405.317	105.5
405.541	110.5
405.765	116.5
405.988	137.5
406.212	200.5
406.436	284.5
406.66	190.5
406.883	118.5
407.107	101.5
407.331	97.5
407.555	81.5
407.778	101.5
408.002	82.5
408.226	102.5
408.449	82.5
408.673	102.5
408.896	88.5
409.12	96.5
409.344	103.5
409.567	91.5
409.791	92.5
410.014	94.5
410.238	93.5
410.461	108.5
410.685	94.5
410.908	120.5
411.132	115.5
411.355	100.5
411.578	99.5
411.802	98.5
412.025	93.5
412.249	100.5
412.472	94.5
412.695	100.5
412.919	92.5
413.142	99.5
413.365	95.5
413.589	106.5
413.812	81.5
414.035	98.5
414.258	103.5
414.482	99.5
414.705	96.5
414.928	112.5
415.151	94.5
415.374	99.5
415.597	87.5
415.821	93.5
416.044	89.5
416.267	98.5
416.49	93.5
416.713	102.5
416.936	89.5
417.159	101.5
417.382	93.5
417.605	105.5
417.828	96.5
418.051	101.5
418.274	91.5
418.497	93.5
418.72	108.5
418.943	100.5
419.166	95.5
419.389	96.5
419.611	81.5
419.834	96.5
420.057	92.5
420.28	108.5
420.503	86.5
420.726	91.5
420.948	97.5
421.171	95.5
421.394	104.5
421.617	98.5
421.839	84.5
422.062	100.5
422.285	89.5
422.507	103.5
422.73	96.5
422.953	103.5
423.175	81.5
423.398	91.5
423.621	99.5
423.843	102.5
424.066	78.5
424.288	89.5
424.511	85.5
424.733	94.5
424.956	125.5
425.178	104.5
425.401	90.5
425.623	109.5
425.846	99.5
426.068	96.5
426.291	103.5
426.513	93.5
426.735	90.5
426.958	93.5
427.18	88.5
427.402	165.5
427.625	212.5
427.847	141.5
428.069	121.5
428.292	86.5
428.514	99.5
428.736	79.5
428.958	92.5
429.181	89.5
429.403	100.5
429.625	81.5
429.847	89.5
430.069	117.5
430.292	102.5
430.514	83.5
430.736	95.5
430.958	81.5
431.18	93.5
431.402	81.5
431.624	95.5
431.846	93.5
432.068	91.5
432.29	97.5
432.512	90.5
432.734	93.5
432.956	100.5
433.178	104.5
433.4	104.5
433.622	88.5
433.844	106.5
434.066	83.5
434.287	95.5
434.509	94.5
434.731	92.5
434.953	99.5
435.175	90.5
435.397	68.5
435.618	106.5
435.84	106.5
436.062	130.5
436.284	105.5
436.505	110.5
436.727	108.5
436.949	92.5
437.17	95.5
437.392	88.5
437.614	96.5
437.835	113.5
438.057	142.5
438.278	121.5
438.5	107.5
438.721	126.5
438.943	110.5
439.165	97.5
439.386	85.5
439.608	101.5
439.829	103.5
440.05	127.5
440.272	162.5
440.493	101.5
440.715	94.5
440.936	100.5
441.158	88.5
441.379	91.5
441.6	112.5
441.822	102.5
442.043	103.5
442.264	105.5
442.486	104.5
442.707	91.5
442.928	116.5
443.149	137.5
443.371	149.5
443.592	129.5
443.813	118.5
444.034	109.5
444.255	95.5
444.476	87.5
444.698	75.5
444.919	91.5
445.14	146.5
445.361	129.5
445.582	125.5
445.803	153.5
446.024	144.5
446.245	153.5
446.466	124.5
446.687	119.5
446.908	103.5
447.129	74.5
447.35	87.5
447.571	96.5
447.792	91.5
448.013	103.5
448.234	112.5
448.455	102.5
448.675	124.5
448.896	131.5
449.117	116.5
449.338	113.5
449.559	139.5
449.779	137.5
450	101.5
450.221	85.5
450.442	100.5
450.662	95.5
450.883	112.5
451.104	127.5
451.324	104.5
451.545	92.5
451.766	92.5
451.986	87.5
452.207	105.5
452.428	78.5
452.648	99.5
452.869	134.5
453.089	133.5
453.31	140.5
453.53	118.5
453.751	97.5
453.971	104.5
454.192	139.5
454.412	98.5
454.633	84.5
454.853	86.5
455.073	80.5
455.294	97.5
455.514	106.5
455.734	103.5
455.955	89.5
456.175	85.5
456.395	96.5
456.616	87.5
456.836	88.5
457.056	76.5
457.276	87.5
457.497	99.5
457.717	74.5
457.937	93.5
458.157	88.5
458.377	80.5
458.598	108.5
458.818	187.5
459.038	194.5
459.258	117.5
459.478	93.5
459.698	92.5
459.918	93.5
460.138	83.5
460.358	84.5
460.578	102.5
460.798	90.5
461.018	96.5
461.238	88.5
461.458	68.5
461.678	84.5
461.898	88.5
462.118	93.5
462.338	84.5
462.558	81.5
462.777	87.5
462.997	80.5
463.217	87.5
463.437	87.5
463.657	79.5
463.876	99.5
464.096	95.5
464.316	96.5
464.536	93.5
464.755	120.5
464.975	139.5
465.195	212.5
465.414	190.5
465.634	94.5
465.854	94.5
466.073	83.5
466.293	96.5
466.512	94.5
466.732	84.5
466.951	95.5
467.171	100.5
467.391	96.5
467.61	119.5
467.829	111.5
468.049	111.5
468.268	100.5
468.488	103.5
468.707	90.5
468.927	75.5
469.146	84.5
469.365	76.5
469.585	93.5
469.804	99.5
470.023	116.5
470.243	101.5
470.462	102.5
470.681	126.5
470.901	79.5
471.12	88.5
471.339	99.5
471.558	98.5
471.777	90.5
471.997	99.5
472.216	119.5
472.435	159.5
472.654	120.5
472.873	86.5
473.092	87.5
473.311	86.5
473.53	91.5
473.749	100.5
473.968	104.5
474.187	126.5
474.406	96.5
474.625	85.5
474.844	92.5
475.063	99.5
475.282	101.5
475.501	89.5
475.72	105.5
475.939	88.5
476.158	84.5
476.377	98.5
476.596	79.5
476.814	107.5
477.033	92.5
477.252	97.5
477.471	93.5
477.69	88.5
477.908	99.5
478.127	97.5
478.346	94.5
478.564	97.5
478.783	103.5
479.002	106.5
479.22	96.5
479.439	108.5
479.658	128.5
479.876	91.5
480.095	102.5
480.313	103.5
480.532	89.5
480.751	107.5
480.969	138.5
481.188	247.5
481.406	176.5
481.624	93.5
481.843	102.5
482.061	91.5
482.28	106.5
482.498	98.5
482.717	91.5
482.935	83.5
483.153	97.5
483.372	101.5
483.59	115.5
483.808	88.5
484.027	92.5
484.245	107.5
484.463	97.5
484.681	99.5
484.9	89.5
485.118	92.5
485.336	96.5
485.554	98.5
485.772	103.5
485.99	93.5
486.209	93.5
486.427	116.5
486.645	109.5
486.863	130.5
487.081	91.5
487.299	94.5
487.517	105.5
487.735	94.5
487.953	99.5
488.171	108.5
488.389	101.5
488.607	107.5
488.825	104.5
489.043	98.5
489.261	86.5
489.479	95.5
489.696	86.5
489.914	78.5
490.132	92.5
490.35	94.5
490.568	99.5
490.786	92.5
491.003	87.5
491.221	89.5
491.439	92.5
491.657	95.5
491.874	106.5
492.092	93.5
492.31	89.5
492.527	99.5
492.745	89.5
492.963	96.5
493.18	89.5
493.398	87.5
493.615	95.5
493.833	74.5
494.05	93.5
494.268	85.5
494.485	86.5
494.703	102.5
494.92	103.5
495.138	92.5
495.355	97.5
495.573	95.5
495.79	95.5
496.008	99.5
496.225	80.5
496.442	97.5
496.66	108.5
496.877	87.5
497.094	89.5
497.312	84.5
497.529	88.5
497.746	87.5
497.963	87.5
498.181	111.5
498.398	102.5
498.615	108.5
498.832	115.5
499.049	84.5
499.267	70.5
499.484	89.5
499.701	94.5
499.918	84.5
500.135	95.5
500.352	96.5
500.569	93.5
500.786	100.5
501.003	93.5
501.22	90.5
501.437	101.5
501.654	96.5
501.871	117.5
502.088	100.5
502.305	104.5
502.522	100.5
502.739	86.5
502.956	97.5
503.172	88.5
503.389	98.5
503.606	119.5
503.823	106.5
504.04	96.5
504.256	79.5
504.473	86.5
504.69	77.5
504.907	90.5
505.123	85.5
505.34	84.5
505.557	93.5
505.773	91.5
505.99	110.5
506.207	102.5
506.423	104.5
506.64	82.5
506.856	90.5
507.073	92.5
507.289	107.5
507.506	110.5
507.722	124.5
507.939	119.5
508.155	111.5
508.372	87.5
508.588	96.5
508.805	111.5
509.021	88.5
509.238	98.5
509.454	104.5
509.67	108.5
509.887	133.5
510.103	163.5
510.319	265.5
510.536	1027.5
510.752	3591.5
510.968	1016.5
511.184	190.5
511.401	129.5
511.617	112.5
511.833	89.5
512.049	91.5
512.265	93.5
512.481	81.5
512.698	85.5
512.914	99.5
513.13	106.5
513.346	94.5
513.562	106.5
513.778	111.5
513.994	100.5
514.21	119.5
514.426	137.5
514.642	156.5
514.858	144.5
515.074	205.5
515.29	620.5
515.506	2249.5
515.721	791.5
515.937	193.5
516.153	133.5
516.369	98.5
516.585	91.5
516.801	91.5
517.016	102.5
517.232	89.5
517.448	78.5
517.664	98.5
517.879	88.5
518.095	100.5
518.311	98.5
518.527	108.5
518.742	105.5
518.958	91.5
519.173	99.5
519.389	98.5
519.605	108.5
519.82	96.5
520.036	107.5
520.251	125.5
520.467	122.5
520.682	115.5
520.898	109.5
521.113	122.5
521.329	150.5
521.544	271.5
521.76	789.5
521.975	3631.5
522.19	2252.5
522.406	439.5
522.621	142.5
522.836	116.5
523.052	104.5
523.267	93.5
523.482	113.5
523.698	118.5
523.913	145.5
524.128	117.5
524.343	96.5
524.559	95.5
524.774	99.5
524.989	104.5
525.204	126.5
525.419	110.5
525.634	111.5
525.849	89.5
526.064	95.5
526.28	98.5
526.495	79.5
526.71	83.5
526.925	105.5
527.14	89.5
527.355	99.5
527.57	112.5
527.785	93.5
527.999	78.5
528.214	102.5
528.429	99.5
528.644	85.5
528.859	103.5
529.074	100.5
529.289	149.5
529.503	222.5
529.718	123.5
529.933	89.5
530.148	95.5
530.363	101.5
530.577	75.5
530.792	96.5
531.007	100.5
531.221	93.5
531.436	86.5
531.651	102.5
531.865	92.5
532.08	77.5
