Data from Circ_2016_H10_HRD10591_00072.txt Node
Date: Wed Jan 03 09:58:55 EST 2024
User: Yrep
Spectrometer: HR+D1059
Trigger mode: 1
Integration Time (sec): 1.000000E-1
Scans to average: 1
Electric dark correction enabled: true
Nonlinearity correction enabled: false
Boxcar width: 0
XAxis mode: Wavelengths
Number of Pixels in Spectrum: 2048
>>>>>Begin Spectral Data<<<<<
223.165	-20.62
223.4	-20.62
223.635	-20.62
223.869	-29.62
224.104	-23.62
224.338	-17.62
224.573	-7.62
224.808	-5.62
225.042	-0.62
225.277	-5.62
225.511	-2.62
225.746	3.38
225.98	4.38
226.215	14.38
226.449	-3.62
226.683	26.38
226.918	37.38
227.152	31.38
227.387	31.38
227.621	28.38
227.856	48.38
228.09	57.38
228.324	45.38
228.559	56.38
228.793	165.38
229.027	447.38
229.262	497.38
229.496	608.38
229.73	806.38
229.964	807.38
230.199	532.38
230.433	473.38
230.667	467.38
230.901	474.38
231.136	439.38
231.37	458.38
231.604	442.38
231.838	467.38
232.072	451.38
232.306	460.38
232.541	468.38
232.775	476.38
233.009	468.38
233.243	481.38
233.477	471.38
233.711	505.38
233.945	523.38
234.179	505.38
234.413	495.38
234.647	503.38
234.881	525.38
235.115	521.38
235.349	544.38
235.583	553.38
235.817	589.38
236.051	643.38
236.285	621.38
236.519	640.38
236.753	708.38
236.987	942.38
237.221	1335.38
237.455	1445.38
237.689	909.38
237.922	720.38
238.156	709.38
238.39	671.38
238.624	631.38
238.858	650.38
239.091	643.38
239.325	651.38
239.559	688.38
239.793	725.38
240.027	761.38
240.26	905.38
240.494	952.38
240.728	967.38
240.961	915.38
241.195	818.38
241.429	797.38
241.662	761.38
241.896	768.38
242.13	768.38
242.363	765.38
242.597	812.38
242.83	828.38
243.064	834.38
243.298	859.38
243.531	821.38
243.765	856.38
243.998	843.38
244.232	868.38
244.465	892.38
244.699	915.38
244.932	910.38
245.166	895.38
245.399	898.38
245.633	934.38
245.866	932.38
246.099	950.38
246.333	957.38
246.566	939.38
246.8	953.38
247.033	1029.38
247.266	1072.38
247.5	1120.38
247.733	1157.38
247.966	1137.38
248.2	1172.38
248.433	1162.38
248.666	1231.38
248.899	1349.38
249.133	1443.38
249.366	1425.38
249.599	1353.38
249.832	1247.38
250.066	1275.38
250.299	1385.38
250.532	1527.38
250.765	1664.38
250.998	1787.38
251.231	1678.38
251.465	1508.38
251.698	1425.38
251.931	1415.38
252.164	1386.38
252.397	1429.38
252.63	1467.38
252.863	1540.38
253.096	1678.38
253.329	1722.38
253.562	1619.38
253.795	1584.38
254.028	1555.38
254.261	1622.38
254.494	1831.38
254.727	2180.38
254.96	2277.38
255.193	1960.38
255.426	1813.38
255.659	1783.38
255.892	1884.38
256.124	2010.38
256.357	1970.38
256.59	1774.38
256.823	1628.38
257.056	1604.38
257.289	1602.38
257.521	1615.38
257.754	1570.38
257.987	1560.38
258.22	1540.38
258.452	1548.38
258.685	1574.38
258.918	1578.38
259.151	1638.38
259.383	1676.38
259.616	1732.38
259.849	1760.38
260.081	1939.38
260.314	2136.38
260.547	2010.38
260.779	1825.38
261.012	1770.38
261.244	1753.38
261.477	1716.38
261.71	1705.38
261.942	1784.38
262.175	1795.38
262.407	1717.38
262.64	1686.38
262.872	1659.38
263.105	1668.38
263.337	1651.38
263.57	1659.38
263.802	1680.38
264.035	1667.38
264.267	1692.38
264.499	1688.38
264.732	1691.38
264.964	1675.38
265.197	1714.38
265.429	1753.38
265.661	1736.38
265.894	1745.38
266.126	1785.38
266.358	1782.38
266.591	1799.38
266.823	1886.38
267.055	1918.38
267.287	1858.38
267.52	1831.38
267.752	1885.38
267.984	1873.38
268.216	1903.38
268.448	1929.38
268.681	2021.38
268.913	2141.38
269.145	2320.38
269.377	2342.38
269.609	2288.38
269.841	2327.38
270.073	2389.38
270.306	2667.38
270.538	2808.38
270.77	2676.38
271.002	2517.38
271.234	2493.38
271.466	2635.38
271.698	2796.38
271.93	2728.38
272.162	2756.38
272.394	2616.38
272.626	2546.38
272.858	2396.38
273.09	2359.38
273.322	2309.38
273.553	2208.38
273.785	2266.38
274.017	2240.38
274.249	2239.38
274.481	2257.38
274.713	2270.38
274.945	2337.38
275.176	2297.38
275.408	2291.38
275.64	2292.38
275.872	2254.38
276.104	2299.38
276.335	2385.38
276.567	2439.38
276.799	2616.38
277.031	2871.38
277.262	2956.38
277.494	2808.38
277.726	2674.38
277.957	2524.38
278.189	2467.38
278.421	2402.38
278.652	2434.38
278.884	2432.38
279.115	2375.38
279.347	2433.38
279.579	2394.38
279.81	2443.38
280.042	2428.38
280.273	2471.38
280.505	2427.38
280.736	2409.38
280.968	2456.38
281.199	2464.38
281.431	2492.38
281.662	2485.38
281.894	2486.38
282.125	2585.38
282.356	2714.38
282.588	2891.38
282.819	2695.38
283.051	2586.38
283.282	2543.38
283.513	2622.38
283.745	2651.38
283.976	2666.38
284.207	2706.38
284.439	2660.38
284.67	2652.38
284.901	2654.38
285.132	2644.38
285.364	2631.38
285.595	2673.38
285.826	2659.38
286.057	2760.38
286.288	2731.38
286.52	2759.38
286.751	2773.38
286.982	2730.38
287.213	2746.38
287.444	2782.38
287.675	2840.38
287.906	2915.38
288.138	2979.38
288.369	2903.38
288.6	2940.38
288.831	2903.38
289.062	2877.38
289.293	2865.38
289.524	2835.38
289.755	2808.38
289.986	2809.38
290.217	2824.38
290.448	2820.38
290.679	2865.38
290.91	2837.38
291.141	2781.38
291.371	2828.38
291.602	2875.38
291.833	2806.38
292.064	2877.38
292.295	2854.38
292.526	2827.38
292.757	2847.38
292.987	2843.38
293.218	2863.38
293.449	2905.38
293.68	2915.38
293.91	2864.38
294.141	2875.38
294.372	2880.38
294.603	2900.38
294.833	2881.38
295.064	2925.38
295.295	2879.38
295.525	2962.38
295.756	3005.38
295.987	3065.38
296.217	3239.38
296.448	3199.38
296.679	3018.38
296.909	2947.38
297.14	3008.38
297.37	3078.38
297.601	3097.38
297.831	3013.38
298.062	3073.38
298.292	3094.38
298.523	3174.38
298.753	3146.38
298.984	3056.38
299.214	3138.38
299.445	3141.38
299.675	3164.38
299.905	3194.38
300.136	3167.38
300.366	3172.38
300.597	3221.38
300.827	3317.38
301.057	3414.38
301.288	3401.38
301.518	3380.38
301.748	3336.38
301.979	3407.38
302.209	3454.38
302.439	3399.38
302.669	3398.38
302.9	3345.38
303.13	3281.38
303.36	3392.38
303.59	3427.38
303.82	3463.38
304.051	3392.38
304.281	3312.38
304.511	3330.38
304.741	3335.38
304.971	3358.38
305.201	3334.38
305.431	3303.38
305.661	3268.38
305.891	3256.38
306.121	3331.38
306.352	3359.38
306.582	3349.38
306.812	3273.38
307.042	3308.38
307.272	3307.38
307.502	3292.38
307.731	3341.38
307.961	3349.38
308.191	3345.38
308.421	3351.38
308.651	3391.38
308.881	3366.38
309.111	3391.38
309.341	3417.38
309.571	3456.38
309.8	3556.38
310.03	3650.38
310.26	3635.38
310.49	3645.38
310.72	3742.38
310.949	3856.38
311.179	3786.38
311.409	3608.38
311.639	3745.38
311.868	3727.38
312.098	3765.38
312.328	3805.38
312.557	3940.38
312.787	3959.38
313.017	3898.38
313.246	3883.38
313.476	3831.38
313.706	3851.38
313.935	3882.38
314.165	4020.38
314.394	4035.38
314.624	3943.38
314.853	3866.38
315.083	3810.38
315.312	3812.38
315.542	3820.38
315.771	3718.38
316.001	3648.38
316.23	3700.38
316.46	3757.38
316.689	3830.38
316.919	3865.38
317.148	3837.38
317.377	3810.38
317.607	3828.38
317.836	3767.38
318.065	3733.38
318.295	3763.38
318.524	3730.38
318.753	3716.38
318.983	3749.38
319.212	3718.38
319.441	3816.38
319.67	3829.38
319.9	3795.38
320.129	3769.38
320.358	3800.38
320.587	3834.38
320.816	3857.38
321.046	3927.38
321.275	3906.38
321.504	3855.38
321.733	3950.38
321.962	3985.38
322.191	4088.38
322.42	4194.38
322.649	4298.38
322.878	4350.38
323.108	4395.38
323.337	4674.38
323.566	4868.38
323.795	5179.38
324.024	5812.38
324.253	7683.38
324.482	11541.38
324.71	15559.38
324.939	15597.38
325.168	13423.38
325.397	6843.38
325.626	5443.38
325.855	5060.38
326.084	4932.38
326.313	5001.38
326.542	5109.38
326.77	5773.38
326.999	7398.38
327.228	10858.38
327.457	14731.38
327.686	13929.38
327.914	7679.38
328.143	6245.38
328.372	5935.38
328.6	5517.38
328.829	5417.38
329.058	5625.38
329.287	5529.38
329.515	5220.38
329.744	5161.38
329.972	5377.38
330.201	5674.38
330.43	6032.38
330.658	5986.38
330.887	6060.38
331.115	5587.38
331.344	5150.38
331.572	5082.38
331.801	5125.38
332.03	5155.38
332.258	5021.38
332.486	5076.38
332.715	5237.38
332.943	5306.38
333.172	5503.38
333.4	5671.38
333.629	5883.38
333.857	6072.38
334.085	6153.38
334.314	6444.38
334.542	6722.38
334.771	6649.38
334.999	5797.38
335.227	5478.38
335.455	5344.38
335.684	5220.38
335.912	5209.38
336.14	5057.38
336.369	5140.38
336.597	5123.38
336.825	5027.38
337.053	5003.38
337.281	4834.38
337.51	4837.38
337.738	4827.38
337.966	4774.38
338.194	4826.38
338.422	4683.38
338.65	4635.38
338.878	4612.38
339.106	4598.38
339.334	4616.38
339.562	4521.38
339.79	4473.38
340.018	4412.38
340.246	4409.38
340.474	4474.38
340.702	4433.38
340.93	4443.38
341.158	4516.38
341.386	4512.38
341.614	4489.38
341.842	4407.38
342.07	4318.38
342.298	4420.38
342.526	4319.38
342.754	4329.38
342.981	4392.38
343.209	4503.38
343.437	4746.38
343.665	5006.38
343.893	5206.38
344.12	5136.38
344.348	4995.38
344.576	4888.38
344.804	4735.38
345.031	4701.38
345.259	4724.38
345.487	4520.38
345.714	4435.38
345.942	4331.38
346.17	4313.38
346.397	4266.38
346.625	4209.38
346.853	4289.38
347.08	4338.38
347.308	4361.38
347.535	4370.38
347.763	4463.38
347.99	4340.38
348.218	4408.38
348.445	4387.38
348.673	4326.38
348.9	4244.38
349.128	4225.38
349.355	4120.38
349.583	4138.38
349.81	4126.38
350.037	4074.38
350.265	4129.38
350.492	4114.38
350.72	4108.38
350.947	4160.38
351.174	4233.38
351.402	4263.38
351.629	4277.38
351.856	4283.38
352.083	4319.38
352.311	4244.38
352.538	4356.38
352.765	4371.38
352.992	4248.38
353.22	4209.38
353.447	4132.38
353.674	4129.38
353.901	4011.38
354.128	4045.38
354.355	4039.38
354.583	4049.38
354.81	3961.38
355.037	3985.38
355.264	3975.38
355.491	3951.38
355.718	3994.38
355.945	4054.38
356.172	4075.38
356.399	3989.38
356.626	4006.38
356.853	3987.38
357.08	4015.38
357.307	4049.38
357.534	3981.38
357.761	4045.38
357.988	4051.38
358.215	4025.38
358.441	4097.38
358.668	4040.38
358.895	4156.38
359.122	4153.38
359.349	4229.38
359.576	4345.38
359.802	4587.38
360.029	4697.38
360.256	4680.38
360.483	4480.38
360.709	4300.38
360.936	4295.38
361.163	4298.38
361.39	4256.38
361.616	4291.38
361.843	4238.38
362.07	4239.38
362.296	4282.38
362.523	4223.38
362.749	4310.38
362.976	4203.38
363.203	4169.38
363.429	4081.38
363.656	4119.38
363.882	4183.38
364.109	4097.38
364.335	4111.38
364.562	4118.38
364.788	4126.38
365.015	4126.38
365.241	4136.38
365.468	4113.38
365.694	4208.38
365.92	4167.38
366.147	4107.38
366.373	4121.38
366.599	4097.38
366.826	4055.38
367.052	4105.38
367.278	4146.38
367.505	4171.38
367.731	4182.38
367.957	4131.38
368.184	4197.38
368.41	4259.38
368.636	4317.38
368.862	4346.38
369.089	4255.38
369.315	4223.38
369.541	4178.38
369.767	4268.38
369.993	4289.38
370.219	4335.38
370.445	4288.38
370.672	4290.38
370.898	4330.38
371.124	4311.38
371.35	4378.38
371.576	4348.38
371.802	4373.38
372.028	4320.38
372.254	4383.38
372.48	4419.38
372.706	4523.38
372.932	4547.38
373.158	4416.38
373.384	4409.38
373.61	4459.38
373.835	4490.38
374.061	4509.38
374.287	4570.38
374.513	4587.38
374.739	4749.38
374.965	4763.38
375.191	4855.38
375.416	4784.38
375.642	4573.38
375.868	4584.38
376.094	4513.38
376.319	4417.38
376.545	4408.38
376.771	4430.38
376.997	4351.38
377.222	4412.38
377.448	4349.38
377.674	4361.38
377.899	4347.38
378.125	4392.38
378.35	4346.38
378.576	4260.38
378.802	4235.38
379.027	4340.38
379.253	4375.38
379.478	4301.38
379.704	4313.38
379.929	4385.38
380.155	4373.38
380.38	4347.38
380.606	4394.38
380.831	4320.38
381.057	4371.38
381.282	4355.38
381.507	4398.38
381.733	4467.38
381.958	4490.38
382.184	4517.38
382.409	4579.38
382.634	4587.38
382.86	4598.38
383.085	4679.38
383.31	4713.38
383.535	4819.38
383.761	4868.38
383.986	4904.38
384.211	5068.38
384.436	5027.38
384.662	5201.38
384.887	5155.38
385.112	5224.38
385.337	5289.38
385.562	5247.38
385.787	5303.38
386.013	5372.38
386.238	5480.38
386.463	5353.38
386.688	5416.38
386.913	5211.38
387.138	5238.38
387.363	5282.38
387.588	5125.38
387.813	5197.38
388.038	5222.38
388.263	5232.38
388.488	5289.38
388.713	5222.38
388.938	5237.38
389.163	5231.38
389.387	5192.38
389.612	5084.38
389.837	5124.38
390.062	5203.38
390.287	5194.38
390.512	5119.38
390.736	5217.38
390.961	5365.38
391.186	5349.38
391.411	5571.38
391.636	5594.38
391.86	5750.38
392.085	5813.38
392.31	5693.38
392.534	5669.38
392.759	5509.38
392.984	5380.38
393.208	5382.38
393.433	5465.38
393.658	5409.38
393.882	5396.38
394.107	5433.38
394.331	5464.38
394.556	5453.38
394.78	5571.38
395.005	5608.38
395.229	5551.38
395.454	5782.38
395.678	5793.38
395.903	5871.38
396.127	5931.38
396.352	5724.38
396.576	5611.38
396.801	5529.38
397.025	5613.38
397.249	5747.38
397.474	5860.38
397.698	5955.38
397.922	6059.38
398.147	6129.38
398.371	6227.38
398.595	6331.38
398.82	6667.38
399.044	7215.38
399.268	7860.38
399.492	9021.38
399.717	9590.38
399.941	9400.38
400.165	8744.38
400.389	8092.38
400.613	7323.38
400.837	6911.38
401.062	6667.38
401.286	6610.38
401.51	6565.38
401.734	6589.38
401.958	6668.38
402.182	6723.38
402.406	6871.38
402.63	6905.38
402.854	7074.38
403.078	7114.38
403.302	7138.38
403.526	7344.38
403.75	7419.38
403.974	7473.38
404.198	7440.38
404.422	7620.38
404.645	7570.38
404.869	7538.38
405.093	7844.38
405.317	8182.38
405.541	8151.38
405.765	7645.38
405.988	7299.38
406.212	7495.38
406.436	7647.38
406.66	7808.38
406.883	7776.38
407.107	8325.38
407.331	8938.38
407.555	9372.38
407.778	9150.38
408.002	8303.38
408.226	7932.38
408.449	7855.38
408.673	7713.38
408.896	7927.38
409.12	8000.38
409.344	7607.38
409.567	7210.38
409.791	7214.38
410.014	7111.38
410.238	7044.38
410.461	7190.38
410.685	7074.38
410.908	7286.38
411.132	7409.38
411.355	7471.38
411.578	7054.38
411.802	6831.38
412.025	6922.38
412.249	7141.38
412.472	7348.38
412.695	7644.38
412.919	7206.38
413.142	6777.38
413.365	6719.38
413.589	6605.38
413.812	6525.38
414.035	6478.38
414.258	6427.38
414.482	6458.38
414.705	6543.38
414.928	6551.38
415.151	6439.38
415.374	6507.38
415.597	6428.38
415.821	6312.38
416.044	6389.38
416.267	6322.38
416.49	6282.38
416.713	6255.38
416.936	6335.38
417.159	6292.38
417.382	6435.38
417.605	6482.38
417.828	6640.38
418.051	6711.38
418.274	6678.38
418.497	6449.38
418.72	6584.38
418.943	6526.38
419.166	6957.38
419.389	7351.38
419.611	7242.38
419.834	7091.38
420.057	7066.38
420.28	6978.38
420.503	6795.38
420.726	6757.38
420.948	6853.38
421.171	7210.38
421.394	7156.38
421.617	6678.38
421.839	6633.38
422.062	6790.38
422.285	6879.38
422.507	7522.38
422.73	8052.38
422.953	7441.38
423.175	7050.38
423.398	7066.38
423.621	7080.38
423.843	7403.38
424.066	7248.38
424.288	7241.38
424.511	7393.38
424.733	7836.38
424.956	8248.38
425.178	7857.38
425.401	7989.38
425.623	7749.38
425.846	6857.38
426.068	6748.38
426.291	6655.38
426.513	6685.38
426.735	6771.38
426.958	7255.38
427.18	7959.38
427.402	9113.38
427.625	9293.38
427.847	7963.38
428.069	7282.38
428.292	6681.38
428.514	6214.38
428.736	6089.38
428.958	6051.38
429.181	5809.38
429.403	5853.38
429.625	6084.38
429.847	6346.38
430.069	6914.38
430.292	6466.38
430.514	5954.38
430.736	5879.38
430.958	5785.38
431.18	5677.38
431.402	5757.38
431.624	5670.38
431.846	5802.38
432.068	5802.38
432.29	5914.38
432.512	5721.38
432.734	5879.38
432.956	5771.38
433.178	5961.38
433.4	5820.38
433.622	5772.38
433.844	5840.38
434.066	5828.38
434.287	5962.38
434.509	6215.38
434.731	6463.38
434.953	6588.38
435.175	6765.38
435.397	6768.38
435.618	6719.38
435.84	7087.38
436.062	7811.38
436.284	7782.38
436.505	6688.38
436.727	6255.38
436.949	6063.38
437.17	5924.38
437.392	5903.38
437.614	6068.38
437.835	6513.38
438.057	7417.38
438.278	8123.38
438.5	7957.38
438.721	8801.38
438.943	7681.38
439.165	6558.38
439.386	6387.38
439.608	6288.38
439.829	6398.38
440.05	6841.38
440.272	7128.38
440.493	6571.38
440.715	6238.38
440.936	6169.38
441.158	6137.38
441.379	6348.38
441.6	6641.38
441.822	6875.38
442.043	7418.38
442.264	8065.38
442.486	7817.38
442.707	6953.38
442.928	6791.38
443.149	7030.38
443.371	7183.38
443.592	7684.38
443.813	8697.38
444.034	8653.38
444.255	7579.38
444.476	7371.38
444.698	7643.38
444.919	7722.38
445.14	7422.38
445.361	7273.38
445.582	7465.38
445.803	8076.38
446.024	8684.38
446.245	8354.38
446.466	7516.38
446.687	6487.38
446.908	6162.38
447.129	5933.38
447.35	5819.38
447.571	5740.38
447.792	5539.38
448.013	5767.38
448.234	5935.38
448.455	6595.38
448.675	7786.38
448.896	8242.38
449.117	6886.38
449.338	7010.38
449.559	8261.38
449.779	8570.38
450	6499.38
450.221	5880.38
450.442	5607.38
450.662	5622.38
450.883	5641.38
451.104	5665.38
451.324	5601.38
451.545	5377.38
451.766	5227.38
451.986	5120.38
452.207	5178.38
452.428	5031.38
452.648	5154.38
452.869	5177.38
453.089	5272.38
453.31	5283.38
453.53	5151.38
453.751	5118.38
453.971	5124.38
454.192	5257.38
454.412	5048.38
454.633	4959.38
454.853	4917.38
455.073	5007.38
455.294	5379.38
455.514	5941.38
455.734	5439.38
455.955	4922.38
456.175	4816.38
456.395	4761.38
456.616	4659.38
456.836	4685.38
457.056	4716.38
457.276	4661.38
457.497	4786.38
457.717	4773.38
457.937	4820.38
458.157	4911.38
458.377	5004.38
458.598	5333.38
458.818	6075.38
459.038	6784.38
459.258	6746.38
459.478	6041.38
459.698	5855.38
459.918	5921.38
460.138	6100.38
460.358	6339.38
460.578	6400.38
460.798	6431.38
461.018	6451.38
461.238	6372.38
461.458	6378.38
461.678	6234.38
461.898	6355.38
462.118	6392.38
462.338	6749.38
462.558	6936.38
462.777	7193.38
462.997	7733.38
463.217	8101.38
463.437	7955.38
463.657	7434.38
463.876	7168.38
464.096	7273.38
464.316	7169.38
464.536	7215.38
464.755	6959.38
464.975	6971.38
465.195	7098.38
465.414	7166.38
465.634	6400.38
465.854	5994.38
466.073	5754.38
466.293	5580.38
466.512	5362.38
466.732	5308.38
466.951	5297.38
467.171	5241.38
467.391	5385.38
467.61	5501.38
467.829	5431.38
468.049	5347.38
468.268	5377.38
468.488	5241.38
468.707	5125.38
468.927	5120.38
469.146	5102.38
469.365	5182.38
469.585	5096.38
469.804	5393.38
470.023	5515.38
470.243	5501.38
470.462	5531.38
470.681	5695.38
470.901	5600.38
471.12	5495.38
471.339	5401.38
471.558	5418.38
471.777	5303.38
471.997	5274.38
472.216	5399.38
472.435	5875.38
472.654	5417.38
472.873	5185.38
473.092	5159.38
473.311	5103.38
473.53	5152.38
473.749	5279.38
473.968	5780.38
474.187	6735.38
474.406	6414.38
474.625	5437.38
474.844	5173.38
475.063	5114.38
475.282	5107.38
475.501	5217.38
475.72	5204.38
475.939	5188.38
476.158	5244.38
476.377	5346.38
476.596	5291.38
476.814	5396.38
477.033	5512.38
477.252	5607.38
477.471	5662.38
477.69	5770.38
477.908	5943.38
478.127	5965.38
478.346	6048.38
478.564	6190.38
478.783	6236.38
479.002	6403.38
479.22	6414.38
479.439	6435.38
479.658	6616.38
479.876	6697.38
480.095	6933.38
480.313	7313.38
480.532	7213.38
480.751	7155.38
480.969	7263.38
481.188	8056.38
481.406	7889.38
481.624	6923.38
481.843	6549.38
482.061	6399.38
482.28	6269.38
482.498	6102.38
482.717	6108.38
482.935	5995.38
483.153	6041.38
483.372	5955.38
483.59	6051.38
483.808	5993.38
484.027	5939.38
484.245	6134.38
484.463	6147.38
484.681	6246.38
484.9	6308.38
485.118	6283.38
485.336	6300.38
485.554	6397.38
485.772	6478.38
485.99	6420.38
486.209	6476.38
486.427	6537.38
486.645	6644.38
486.863	6712.38
487.081	6680.38
487.299	6597.38
487.517	6495.38
487.735	6404.38
487.953	6575.38
