Data from Circ_2016_H10_HRD10591_00088.txt Node
Date: Wed Jan 03 09:58:58 EST 2024
User: Yrep
Spectrometer: HR+D1059
Trigger mode: 1
Integration Time (sec): 1.000000E-1
Scans to average: 1
Electric dark correction enabled: true
Nonlinearity correction enabled: false
Boxcar width: 0
XAxis mode: Wavelengths
Number of Pixels in Spectrum: 2048
>>>>>Begin Spectral Data<<<<<
223.165	-15.44
223.4	-15.44
223.635	-15.44
223.869	-17.44
224.104	-34.44
224.338	-4.44
224.573	-10.44
224.808	-16.44
225.042	-1.44
225.277	-0.44
225.511	-5.44
225.746	-0.44
225.98	7.56
226.215	14.56
226.449	20.56
226.683	21.56
226.918	8.56
227.152	33.56
227.387	8.56
227.621	34.56
227.856	49.56
228.09	37.56
228.324	61.56
228.559	65.56
228.793	58.56
229.027	55.56
229.262	59.56
229.496	60.56
229.73	82.56
229.964	88.56
230.199	89.56
230.433	87.56
230.667	84.56
230.901	76.56
231.136	82.56
231.37	68.56
231.604	71.56
231.838	82.56
232.072	79.56
232.306	71.56
232.541	71.56
232.775	72.56
233.009	83.56
233.243	70.56
233.477	76.56
233.711	80.56
233.945	65.56
234.179	86.56
234.413	72.56
234.647	74.56
234.881	90.56
235.115	96.56
235.349	75.56
235.583	73.56
235.817	85.56
236.051	87.56
236.285	64.56
236.519	81.56
236.753	88.56
236.987	83.56
237.221	76.56
237.455	76.56
237.689	88.56
237.922	81.56
238.156	57.56
238.39	79.56
238.624	70.56
238.858	59.56
239.091	69.56
239.325	69.56
239.559	72.56
239.793	82.56
240.027	80.56
240.26	73.56
240.494	83.56
240.728	67.56
240.961	70.56
241.195	87.56
241.429	74.56
241.662	67.56
241.896	76.56
242.13	82.56
242.363	67.56
242.597	71.56
242.83	76.56
243.064	68.56
243.298	70.56
243.531	77.56
243.765	67.56
243.998	76.56
244.232	74.56
244.465	72.56
244.699	82.56
244.932	75.56
245.166	77.56
245.399	71.56
245.633	90.56
245.866	83.56
246.099	62.56
246.333	80.56
246.566	87.56
246.8	79.56
247.033	84.56
247.266	63.56
247.5	72.56
247.733	79.56
247.966	75.56
248.2	80.56
248.433	85.56
248.666	79.56
248.899	80.56
249.133	85.56
249.366	102.56
249.599	96.56
249.832	92.56
250.066	84.56
250.299	75.56
250.532	53.56
250.765	80.56
250.998	66.56
251.231	75.56
251.465	79.56
251.698	80.56
251.931	59.56
252.164	72.56
252.397	63.56
252.63	85.56
252.863	76.56
253.096	70.56
253.329	86.56
253.562	87.56
253.795	81.56
254.028	76.56
254.261	77.56
254.494	86.56
254.727	83.56
254.96	88.56
255.193	86.56
255.426	92.56
255.659	83.56
255.892	84.56
256.124	65.56
256.357	87.56
256.59	74.56
256.823	76.56
257.056	83.56
257.289	80.56
257.521	79.56
257.754	63.56
257.987	84.56
258.22	91.56
258.452	89.56
258.685	73.56
258.918	80.56
259.151	91.56
259.383	93.56
259.616	82.56
259.849	78.56
260.081	81.56
260.314	74.56
260.547	102.56
260.779	93.56
261.012	78.56
261.244	72.56
261.477	88.56
261.71	98.56
261.942	128.56
262.175	113.56
262.407	88.56
262.64	91.56
262.872	86.56
263.105	99.56
263.337	83.56
263.57	83.56
263.802	77.56
264.035	83.56
264.267	87.56
264.499	92.56
264.732	66.56
264.964	80.56
265.197	71.56
265.429	76.56
265.661	96.56
265.894	86.56
266.126	76.56
266.358	81.56
266.591	95.56
266.823	81.56
267.055	80.56
267.287	85.56
267.52	83.56
267.752	85.56
267.984	87.56
268.216	85.56
268.448	74.56
268.681	90.56
268.913	81.56
269.145	77.56
269.377	80.56
269.609	80.56
269.841	88.56
270.073	86.56
270.306	83.56
270.538	82.56
270.77	92.56
271.002	94.56
271.234	76.56
271.466	83.56
271.698	87.56
271.93	74.56
272.162	79.56
272.394	79.56
272.626	87.56
272.858	97.56
273.09	85.56
273.322	79.56
273.553	90.56
273.785	81.56
274.017	86.56
274.249	88.56
274.481	69.56
274.713	72.56
274.945	81.56
275.176	66.56
275.408	91.56
275.64	84.56
275.872	82.56
276.104	84.56
276.335	96.56
276.567	83.56
276.799	105.56
277.031	91.56
277.262	104.56
277.494	93.56
277.726	75.56
277.957	75.56
278.189	89.56
278.421	75.56
278.652	95.56
278.884	77.56
279.115	96.56
279.347	87.56
279.579	82.56
279.81	86.56
280.042	86.56
280.273	99.56
280.505	75.56
280.736	82.56
280.968	85.56
281.199	92.56
281.431	87.56
281.662	87.56
281.894	95.56
282.125	107.56
282.356	115.56
282.588	149.56
282.819	103.56
283.051	79.56
283.282	91.56
283.513	80.56
283.745	98.56
283.976	84.56
284.207	74.56
284.439	84.56
284.67	77.56
284.901	93.56
285.132	84.56
285.364	89.56
285.595	76.56
285.826	93.56
286.057	80.56
286.288	68.56
286.52	91.56
286.751	88.56
286.982	87.56
287.213	82.56
287.444	91.56
287.675	81.56
287.906	88.56
288.138	102.56
288.369	113.56
288.6	92.56
288.831	88.56
289.062	77.56
289.293	87.56
289.524	83.56
289.755	86.56
289.986	73.56
290.217	81.56
290.448	88.56
290.679	91.56
290.91	85.56
291.141	81.56
291.371	90.56
291.602	76.56
291.833	85.56
292.064	84.56
292.295	91.56
292.526	81.56
292.757	74.56
292.987	89.56
293.218	91.56
293.449	81.56
293.68	84.56
293.91	102.56
294.141	95.56
294.372	85.56
294.603	76.56
294.833	96.56
295.064	87.56
295.295	83.56
295.525	83.56
295.756	113.56
295.987	119.56
296.217	133.56
296.448	146.56
296.679	95.56
296.909	91.56
297.14	98.56
297.37	89.56
297.601	81.56
297.831	87.56
298.062	85.56
298.292	85.56
298.523	81.56
298.753	91.56
298.984	83.56
299.214	86.56
299.445	95.56
299.675	84.56
299.905	108.56
300.136	78.56
300.366	80.56
300.597	84.56
300.827	90.56
301.057	86.56
301.288	98.56
301.518	104.56
301.748	91.56
301.979	102.56
302.209	81.56
302.439	88.56
302.669	92.56
302.9	81.56
303.13	81.56
303.36	98.56
303.59	115.56
303.82	103.56
304.051	92.56
304.281	100.56
304.511	98.56
304.741	87.56
304.971	87.56
305.201	102.56
305.431	83.56
305.661	100.56
305.891	84.56
306.121	92.56
306.352	93.56
306.582	92.56
306.812	83.56
307.042	111.56
307.272	95.56
307.502	95.56
307.731	92.56
307.961	91.56
308.191	99.56
308.421	93.56
308.651	85.56
308.881	81.56
309.111	100.56
309.341	103.56
309.571	99.56
309.8	91.56
310.03	102.56
310.26	76.56
310.49	97.56
310.72	104.56
310.949	101.56
311.179	102.56
311.409	105.56
311.639	90.56
311.868	100.56
312.098	85.56
312.328	90.56
312.557	100.56
312.787	114.56
313.017	100.56
313.246	90.56
313.476	99.56
313.706	84.56
313.935	95.56
314.165	97.56
314.394	96.56
314.624	95.56
314.853	96.56
315.083	110.56
315.312	100.56
315.542	81.56
315.771	84.56
316.001	97.56
316.23	89.56
316.46	79.56
316.689	95.56
316.919	101.56
317.148	92.56
317.377	88.56
317.607	112.56
317.836	101.56
318.065	90.56
318.295	85.56
318.524	96.56
318.753	88.56
318.983	93.56
319.212	87.56
319.441	92.56
319.67	107.56
319.9	85.56
320.129	95.56
320.358	96.56
320.587	88.56
320.816	85.56
321.046	95.56
321.275	96.56
321.504	107.56
321.733	94.56
321.962	108.56
322.191	91.56
322.42	89.56
322.649	100.56
322.878	107.56
323.108	135.56
323.337	128.56
323.566	144.56
323.795	160.56
324.024	211.56
324.253	449.56
324.482	959.56
324.71	1990.56
324.939	2601.56
325.168	959.56
325.397	269.56
325.626	176.56
325.855	141.56
326.084	139.56
326.313	133.56
326.542	175.56
326.77	249.56
326.999	540.56
327.228	1096.56
327.457	1977.56
327.686	1552.56
327.914	428.56
328.143	216.56
328.372	177.56
328.6	124.56
328.829	141.56
329.058	151.56
329.287	107.56
329.515	104.56
329.744	123.56
329.972	122.56
330.201	147.56
330.43	183.56
330.658	153.56
330.887	153.56
331.115	119.56
331.344	99.56
331.572	112.56
331.801	103.56
332.03	94.56
332.258	95.56
332.486	97.56
332.715	95.56
332.943	103.56
333.172	101.56
333.4	102.56
333.629	114.56
333.857	121.56
334.085	131.56
334.314	150.56
334.542	217.56
334.771	183.56
334.999	126.56
335.227	98.56
335.455	91.56
335.684	94.56
335.912	104.56
336.14	105.56
336.369	100.56
336.597	94.56
336.825	97.56
337.053	85.56
337.281	96.56
337.51	90.56
337.738	99.56
337.966	96.56
338.194	107.56
338.422	88.56
338.65	92.56
338.878	93.56
339.106	84.56
339.334	91.56
339.562	78.56
339.79	83.56
340.018	92.56
340.246	80.56
340.474	85.56
340.702	98.56
340.93	96.56
341.158	87.56
341.386	98.56
341.614	112.56
341.842	92.56
342.07	71.56
342.298	92.56
342.526	89.56
342.754	85.56
342.981	88.56
343.209	101.56
343.437	96.56
343.665	91.56
343.893	88.56
344.12	86.56
344.348	85.56
344.576	84.56
344.804	100.56
345.031	110.56
345.259	91.56
345.487	92.56
345.714	96.56
345.942	77.56
346.17	77.56
346.397	95.56
346.625	80.56
346.853	90.56
347.08	106.56
347.308	98.56
347.535	98.56
347.763	104.56
347.99	85.56
348.218	91.56
348.445	111.56
348.673	93.56
348.9	97.56
349.128	95.56
349.355	98.56
349.583	98.56
349.81	89.56
350.037	91.56
350.265	88.56
350.492	95.56
350.72	91.56
350.947	95.56
351.174	101.56
351.402	114.56
351.629	107.56
351.856	96.56
352.083	106.56
352.311	100.56
352.538	112.56
352.765	106.56
352.992	113.56
353.22	115.56
353.447	111.56
353.674	105.56
353.901	97.56
354.128	103.56
354.355	105.56
354.583	96.56
354.81	95.56
355.037	100.56
355.264	75.56
355.491	103.56
355.718	99.56
355.945	90.56
356.172	90.56
356.399	93.56
356.626	76.56
356.853	87.56
357.08	94.56
357.307	101.56
357.534	100.56
357.761	89.56
357.988	91.56
358.215	87.56
358.441	96.56
358.668	96.56
358.895	98.56
359.122	90.56
359.349	103.56
359.576	89.56
359.802	100.56
360.029	99.56
360.256	102.56
360.483	111.56
360.709	96.56
360.936	111.56
361.163	84.56
361.39	95.56
361.616	97.56
361.843	96.56
362.07	96.56
362.296	91.56
362.523	95.56
362.749	85.56
362.976	90.56
363.203	92.56
363.429	87.56
363.656	84.56
363.882	85.56
364.109	87.56
364.335	90.56
364.562	99.56
364.788	96.56
365.015	96.56
365.241	102.56
365.468	111.56
365.694	96.56
365.92	93.56
366.147	108.56
366.373	82.56
366.599	79.56
366.826	77.56
367.052	76.56
367.278	92.56
367.505	90.56
367.731	104.56
367.957	87.56
368.184	91.56
368.41	115.56
368.636	111.56
368.862	112.56
369.089	105.56
369.315	87.56
369.541	85.56
369.767	95.56
369.993	81.56
370.219	88.56
370.445	93.56
370.672	74.56
370.898	82.56
371.124	91.56
371.35	84.56
371.576	86.56
371.802	74.56
372.028	73.56
372.254	84.56
372.48	86.56
372.706	85.56
372.932	103.56
373.158	76.56
373.384	107.56
373.61	101.56
373.835	108.56
374.061	91.56
374.287	76.56
374.513	103.56
374.739	93.56
374.965	83.56
375.191	91.56
375.416	96.56
375.642	95.56
375.868	95.56
376.094	77.56
376.319	81.56
376.545	81.56
376.771	99.56
376.997	87.56
377.222	97.56
377.448	87.56
377.674	101.56
377.899	101.56
378.125	93.56
378.35	91.56
378.576	91.56
378.802	76.56
379.027	80.56
379.253	94.56
379.478	99.56
379.704	97.56
379.929	86.56
380.155	87.56
380.38	95.56
380.606	100.56
380.831	93.56
381.057	106.56
381.282	80.56
381.507	102.56
381.733	89.56
381.958	98.56
382.184	102.56
382.409	86.56
382.634	91.56
382.86	112.56
383.085	106.56
383.31	91.56
383.535	104.56
383.761	100.56
383.986	105.56
384.211	91.56
384.436	102.56
384.662	87.56
384.887	97.56
385.112	100.56
385.337	116.56
385.562	96.56
385.787	100.56
386.013	113.56
386.238	105.56
386.463	127.56
386.688	119.56
386.913	107.56
387.138	102.56
387.363	108.56
387.588	108.56
387.813	105.56
388.038	95.56
388.263	122.56
388.488	119.56
388.713	103.56
388.938	112.56
389.163	102.56
389.387	98.56
389.612	87.56
389.837	92.56
390.062	89.56
390.287	90.56
390.512	92.56
390.736	86.56
390.961	87.56
391.186	90.56
391.411	86.56
391.636	83.56
391.86	75.56
392.085	91.56
392.31	95.56
392.534	87.56
392.759	83.56
392.984	85.56
393.208	84.56
393.433	101.56
393.658	72.56
393.882	71.56
394.107	93.56
394.331	98.56
394.556	76.56
394.78	103.56
395.005	88.56
395.229	92.56
395.454	88.56
395.678	89.56
395.903	89.56
396.127	100.56
396.352	82.56
396.576	80.56
396.801	91.56
397.025	76.56
397.249	85.56
397.474	94.56
397.698	99.56
397.922	85.56
398.147	74.56
398.371	87.56
398.595	89.56
398.82	92.56
399.044	82.56
399.268	69.56
399.492	81.56
399.717	74.56
399.941	94.56
400.165	104.56
400.389	80.56
400.613	95.56
400.837	82.56
401.062	88.56
401.286	96.56
401.51	107.56
401.734	93.56
401.958	91.56
402.182	145.56
402.406	159.56
402.63	128.56
402.854	96.56
403.078	93.56
403.302	84.56
403.526	96.56
403.75	93.56
403.974	92.56
404.198	77.56
404.422	99.56
404.645	86.56
404.869	100.56
405.093	83.56
405.317	99.56
405.541	104.56
405.765	99.56
405.988	123.56
406.212	168.56
406.436	241.56
406.66	164.56
406.883	93.56
407.107	85.56
407.331	86.56
407.555	107.56
407.778	101.56
408.002	96.56
408.226	88.56
408.449	94.56
408.673	96.56
408.896	92.56
409.12	96.56
409.344	72.56
409.567	92.56
409.791	84.56
410.014	91.56
410.238	97.56
410.461	85.56
410.685	103.56
410.908	103.56
411.132	99.56
411.355	102.56
411.578	99.56
411.802	87.56
412.025	84.56
412.249	96.56
412.472	99.56
412.695	109.56
412.919	80.56
413.142	85.56
413.365	78.56
413.589	88.56
413.812	86.56
414.035	86.56
414.258	97.56
414.482	97.56
414.705	76.56
414.928	84.56
415.151	92.56
415.374	91.56
415.597	98.56
415.821	90.56
416.044	93.56
416.267	97.56
416.49	81.56
416.713	89.56
416.936	81.56
417.159	96.56
417.382	97.56
417.605	89.56
417.828	94.56
418.051	93.56
418.274	92.56
418.497	97.56
418.72	84.56
418.943	92.56
419.166	88.56
419.389	95.56
419.611	83.56
419.834	93.56
420.057	101.56
420.28	85.56
420.503	89.56
420.726	94.56
420.948	91.56
421.171	85.56
421.394	95.56
421.617	82.56
421.839	93.56
422.062	88.56
422.285	90.56
422.507	109.56
422.73	100.56
422.953	92.56
423.175	90.56
423.398	108.56
423.621	90.56
423.843	90.56
424.066	98.56
424.288	96.56
424.511	80.56
424.733	107.56
424.956	113.56
425.178	91.56
425.401	104.56
425.623	99.56
425.846	87.56
426.068	81.56
426.291	92.56
426.513	96.56
426.735	90.56
426.958	108.56
427.18	112.56
427.402	145.56
427.625	167.56
427.847	144.56
428.069	107.56
428.292	79.56
428.514	87.56
428.736	82.56
428.958	78.56
429.181	94.56
429.403	82.56
429.625	86.56
429.847	100.56
430.069	88.56
430.292	84.56
430.514	74.56
430.736	85.56
430.958	83.56
431.18	88.56
431.402	75.56
431.624	92.56
431.846	92.56
432.068	93.56
432.29	102.56
432.512	91.56
432.734	77.56
432.956	107.56
433.178	108.56
433.4	89.56
433.622	110.56
433.844	88.56
434.066	87.56
434.287	102.56
434.509	89.56
434.731	88.56
434.953	103.56
435.175	72.56
435.397	82.56
435.618	100.56
435.84	93.56
436.062	129.56
436.284	106.56
436.505	108.56
436.727	99.56
436.949	89.56
437.17	99.56
437.392	83.56
437.614	106.56
437.835	102.56
438.057	117.56
438.278	115.56
438.5	98.56
438.721	123.56
438.943	118.56
439.165	91.56
439.386	95.56
439.608	88.56
439.829	103.56
440.05	117.56
440.272	147.56
440.493	105.56
440.715	79.56
440.936	85.56
441.158	75.56
441.379	79.56
441.6	83.56
441.822	92.56
442.043	88.56
442.264	106.56
442.486	107.56
442.707	92.56
442.928	121.56
443.149	132.56
443.371	143.56
443.592	99.56
443.813	116.56
444.034	101.56
444.255	91.56
444.476	89.56
444.698	87.56
444.919	82.56
445.14	134.56
445.361	112.56
445.582	104.56
445.803	146.56
446.024	134.56
446.245	138.56
446.466	128.56
446.687	91.56
446.908	96.56
447.129	84.56
447.35	93.56
447.571	96.56
447.792	79.56
448.013	101.56
448.234	112.56
448.455	104.56
448.675	117.56
448.896	105.56
449.117	103.56
449.338	109.56
449.559	131.56
449.779	129.56
450	83.56
450.221	78.56
450.442	90.56
450.662	97.56
450.883	101.56
451.104	101.56
451.324	94.56
451.545	93.56
451.766	86.56
451.986	82.56
452.207	91.56
452.428	97.56
452.648	87.56
452.869	104.56
453.089	103.56
453.31	122.56
453.53	97.56
453.751	95.56
453.971	108.56
454.192	109.56
454.412	93.56
454.633	95.56
454.853	96.56
455.073	83.56
455.294	95.56
455.514	96.56
455.734	82.56
455.955	94.56
456.175	83.56
456.395	85.56
456.616	93.56
456.836	93.56
457.056	96.56
457.276	85.56
457.497	73.56
457.717	92.56
457.937	85.56
458.157	86.56
458.377	82.56
458.598	111.56
458.818	155.56
459.038	164.56
459.258	111.56
459.478	90.56
459.698	79.56
459.918	92.56
460.138	90.56
460.358	96.56
460.578	86.56
460.798	83.56
461.018	97.56
461.238	86.56
461.458	81.56
461.678	93.56
461.898	85.56
462.118	95.56
462.338	87.56
462.558	82.56
462.777	86.56
462.997	76.56
463.217	102.56
463.437	79.56
463.657	80.56
463.876	88.56
464.096	79.56
464.316	75.56
464.536	97.56
464.755	89.56
464.975	115.56
465.195	180.56
465.414	185.56
465.634	112.56
465.854	92.56
466.073	96.56
466.293	88.56
466.512	94.56
466.732	83.56
466.951	103.56
467.171	91.56
467.391	101.56
467.61	116.56
467.829	113.56
468.049	100.56
468.268	135.56
468.488	91.56
468.707	94.56
468.927	89.56
469.146	85.56
469.365	72.56
469.585	85.56
469.804	86.56
470.023	99.56
470.243	81.56
470.462	85.56
470.681	116.56
470.901	91.56
471.12	94.56
471.339	84.56
471.558	97.56
471.777	96.56
471.997	100.56
472.216	148.56
472.435	218.56
472.654	113.56
472.873	98.56
473.092	81.56
473.311	98.56
473.53	80.56
473.749	92.56
473.968	89.56
474.187	95.56
474.406	96.56
474.625	83.56
474.844	82.56
475.063	80.56
475.282	83.56
475.501	80.56
475.72	85.56
475.939	83.56
476.158	88.56
476.377	99.56
476.596	93.56
476.814	88.56
477.033	87.56
477.252	92.56
477.471	96.56
477.69	78.56
477.908	81.56
478.127	96.56
478.346	89.56
478.564	72.56
478.783	88.56
479.002	89.56
479.22	96.56
479.439	102.56
479.658	102.56
479.876	94.56
480.095	79.56
480.313	82.56
480.532	96.56
480.751	95.56
480.969	147.56
481.188	361.56
481.406	244.56
481.624	110.56
481.843	106.56
482.061	88.56
482.28	84.56
482.498	93.56
482.717	95.56
482.935	78.56
483.153	84.56
483.372	88.56
483.59	93.56
483.808	83.56
484.027	74.56
484.245	85.56
484.463	106.56
484.681	95.56
484.9	98.56
485.118	91.56
485.336	80.56
485.554	104.56
485.772	112.56
485.99	92.56
486.209	97.56
486.427	106.56
486.645	101.56
486.863	100.56
487.081	97.56
487.299	99.56
487.517	102.56
487.735	94.56
487.953	96.56
488.171	103.56
488.389	102.56
488.607	97.56
488.825	103.56
489.043	91.56
489.261	93.56
489.479	80.56
489.696	96.56
489.914	84.56
490.132	78.56
490.35	96.56
490.568	94.56
490.786	84.56
491.003	94.56
491.221	81.56
491.439	89.56
491.657	87.56
491.874	98.56
492.092	102.56
492.31	84.56
492.527	103.56
492.745	92.56
492.963	98.56
493.18	92.56
493.398	88.56
493.615	95.56
493.833	87.56
494.05	90.56
494.268	90.56
494.485	101.56
494.703	83.56
494.92	88.56
495.138	86.56
495.355	105.56
495.573	92.56
495.79	76.56
496.008	93.56
496.225	75.56
496.442	84.56
496.66	88.56
496.877	81.56
497.094	96.56
497.312	109.56
497.529	88.56
497.746	93.56
497.963	92.56
498.181	92.56
498.398	91.56
498.615	100.56
498.832	102.56
499.049	97.56
499.267	86.56
499.484	96.56
499.701	101.56
499.918	73.56
500.135	101.56
500.352	103.56
500.569	92.56
500.786	110.56
501.003	81.56
501.22	90.56
501.437	89.56
501.654	86.56
501.871	106.56
502.088	91.56
502.305	72.56
502.522	96.56
502.739	96.56
502.956	91.56
503.172	102.56
503.389	92.56
503.606	105.56
503.823	94.56
504.04	93.56
504.256	89.56
504.473	82.56
504.69	98.56
504.907	97.56
505.123	84.56
505.34	91.56
505.557	79.56
505.773	99.56
505.99	85.56
506.207	97.56
506.423	95.56
506.64	94.56
506.856	80.56
507.073	90.56
507.289	87.56
507.506	103.56
507.722	118.56
507.939	121.56
508.155	95.56
508.372	80.56
508.588	98.56
508.805	103.56
509.021	90.56
509.238	117.56
509.454	102.56
509.67	105.56
509.887	125.56
510.103	144.56
510.319	230.56
510.536	880.56
510.752	2931.56
510.968	837.56
511.184	181.56
511.401	109.56
511.617	111.56
511.833	99.56
512.049	111.56
512.265	89.56
512.481	104.56
512.698	81.56
512.914	85.56
513.13	95.56
513.346	83.56
513.562	103.56
513.778	93.56
513.994	95.56
514.21	102.56
514.426	128.56
514.642	132.56
514.858	133.56
515.074	171.56
515.29	498.56
