Data from Circ_2016_H10_HRD10591_00066.txt Node
Date: Wed Jan 03 09:58:53 EST 2024
User: Yrep
Spectrometer: HR+D1059
Trigger mode: 1
Integration Time (sec): 1.000000E-1
Scans to average: 1
Electric dark correction enabled: true
Nonlinearity correction enabled: false
Boxcar width: 0
XAxis mode: Wavelengths
Number of Pixels in Spectrum: 2048
>>>>>Begin Spectral Data<<<<<
223.165	-15.81
223.4	-15.81
223.635	-15.81
223.869	-9.81
224.104	-24.81
224.338	-10.81
224.573	-17.81
224.808	-7.81
225.042	-6.81
225.277	-0.81
225.511	-1.81
225.746	11.19
225.98	4.19
226.215	4.19
226.449	18.19
226.683	19.19
226.918	15.19
227.152	24.19
227.387	44.19
227.621	39.19
227.856	35.19
228.09	46.19
228.324	56.19
228.559	61.19
228.793	72.19
229.027	75.19
229.262	84.19
229.496	69.19
229.73	93.19
229.964	75.19
230.199	67.19
230.433	74.19
230.667	80.19
230.901	81.19
231.136	85.19
231.37	94.19
231.604	84.19
231.838	95.19
232.072	86.19
232.306	73.19
232.541	90.19
232.775	78.19
233.009	89.19
233.243	85.19
233.477	80.19
233.711	68.19
233.945	68.19
234.179	70.19
234.413	83.19
234.647	78.19
234.881	89.19
235.115	82.19
235.349	83.19
235.583	71.19
235.817	88.19
236.051	91.19
236.285	72.19
236.519	68.19
236.753	92.19
236.987	80.19
237.221	73.19
237.455	93.19
237.689	87.19
237.922	82.19
238.156	72.19
238.39	77.19
238.624	61.19
238.858	61.19
239.091	65.19
239.325	82.19
239.559	93.19
239.793	88.19
240.027	74.19
240.26	72.19
240.494	76.19
240.728	87.19
240.961	81.19
241.195	94.19
241.429	68.19
241.662	79.19
241.896	89.19
242.13	82.19
242.363	74.19
242.597	81.19
242.83	82.19
243.064	66.19
243.298	83.19
243.531	82.19
243.765	84.19
243.998	79.19
244.232	76.19
244.465	79.19
244.699	71.19
244.932	75.19
245.166	79.19
245.399	76.19
245.633	90.19
245.866	83.19
246.099	78.19
246.333	83.19
246.566	75.19
246.8	82.19
247.033	78.19
247.266	83.19
247.5	75.19
247.733	88.19
247.966	90.19
248.2	71.19
248.433	77.19
248.666	91.19
248.899	81.19
249.133	106.19
249.366	107.19
249.599	87.19
249.832	92.19
250.066	77.19
250.299	74.19
250.532	83.19
250.765	69.19
250.998	75.19
251.231	77.19
251.465	79.19
251.698	77.19
251.931	91.19
252.164	74.19
252.397	74.19
252.63	88.19
252.863	105.19
253.096	76.19
253.329	81.19
253.562	85.19
253.795	78.19
254.028	77.19
254.261	85.19
254.494	85.19
254.727	102.19
254.96	94.19
255.193	83.19
255.426	79.19
255.659	76.19
255.892	93.19
256.124	71.19
256.357	84.19
256.59	82.19
256.823	79.19
257.056	79.19
257.289	82.19
257.521	93.19
257.754	94.19
257.987	71.19
258.22	79.19
258.452	92.19
258.685	88.19
258.918	86.19
259.151	86.19
259.383	90.19
259.616	88.19
259.849	92.19
260.081	86.19
260.314	89.19
260.547	71.19
260.779	88.19
261.012	91.19
261.244	87.19
261.477	81.19
261.71	86.19
261.942	119.19
262.175	124.19
262.407	95.19
262.64	76.19
262.872	82.19
263.105	78.19
263.337	87.19
263.57	95.19
263.802	83.19
264.035	93.19
264.267	73.19
264.499	94.19
264.732	82.19
264.964	85.19
265.197	83.19
265.429	80.19
265.661	87.19
265.894	78.19
266.126	89.19
266.358	81.19
266.591	99.19
266.823	95.19
267.055	93.19
267.287	83.19
267.52	79.19
267.752	93.19
267.984	93.19
268.216	81.19
268.448	93.19
268.681	94.19
268.913	92.19
269.145	102.19
269.377	85.19
269.609	74.19
269.841	81.19
270.073	89.19
270.306	86.19
270.538	78.19
270.77	72.19
271.002	85.19
271.234	90.19
271.466	79.19
271.698	89.19
271.93	92.19
272.162	83.19
272.394	91.19
272.626	92.19
272.858	85.19
273.09	86.19
273.322	81.19
273.553	89.19
273.785	78.19
274.017	88.19
274.249	96.19
274.481	92.19
274.713	92.19
274.945	93.19
275.176	90.19
275.408	83.19
275.64	90.19
275.872	82.19
276.104	82.19
276.335	98.19
276.567	106.19
276.799	97.19
277.031	99.19
277.262	78.19
277.494	83.19
277.726	83.19
277.957	86.19
278.189	88.19
278.421	90.19
278.652	82.19
278.884	100.19
279.115	92.19
279.347	90.19
279.579	89.19
279.81	87.19
280.042	74.19
280.273	91.19
280.505	85.19
280.736	95.19
280.968	92.19
281.199	87.19
281.431	88.19
281.662	80.19
281.894	92.19
282.125	79.19
282.356	120.19
282.588	135.19
282.819	110.19
283.051	98.19
283.282	100.19
283.513	86.19
283.745	96.19
283.976	88.19
284.207	88.19
284.439	92.19
284.67	82.19
284.901	76.19
285.132	84.19
285.364	85.19
285.595	94.19
285.826	82.19
286.057	90.19
286.288	94.19
286.52	97.19
286.751	90.19
286.982	89.19
287.213	85.19
287.444	92.19
287.675	89.19
287.906	87.19
288.138	91.19
288.369	98.19
288.6	90.19
288.831	84.19
289.062	81.19
289.293	85.19
289.524	99.19
289.755	86.19
289.986	85.19
290.217	82.19
290.448	90.19
290.679	93.19
290.91	98.19
291.141	92.19
291.371	87.19
291.602	89.19
291.833	88.19
292.064	76.19
292.295	94.19
292.526	77.19
292.757	100.19
292.987	83.19
293.218	83.19
293.449	76.19
293.68	91.19
293.91	83.19
294.141	97.19
294.372	99.19
294.603	104.19
294.833	92.19
295.064	85.19
295.295	77.19
295.525	101.19
295.756	89.19
295.987	124.19
296.217	126.19
296.448	129.19
296.679	113.19
296.909	101.19
297.14	86.19
297.37	83.19
297.601	87.19
297.831	89.19
298.062	102.19
298.292	105.19
298.523	85.19
298.753	99.19
298.984	86.19
299.214	95.19
299.445	100.19
299.675	105.19
299.905	101.19
300.136	94.19
300.366	89.19
300.597	101.19
300.827	100.19
301.057	104.19
301.288	110.19
301.518	100.19
301.748	78.19
301.979	109.19
302.209	97.19
302.439	90.19
302.669	94.19
302.9	72.19
303.13	79.19
303.36	90.19
303.59	100.19
303.82	106.19
304.051	85.19
304.281	92.19
304.511	86.19
304.741	83.19
304.971	96.19
305.201	93.19
305.431	85.19
305.661	73.19
305.891	86.19
306.121	99.19
306.352	106.19
306.582	115.19
306.812	113.19
307.042	104.19
307.272	90.19
307.502	89.19
307.731	93.19
307.961	101.19
308.191	89.19
308.421	86.19
308.651	83.19
308.881	83.19
309.111	78.19
309.341	95.19
309.571	100.19
309.8	98.19
310.03	98.19
310.26	107.19
310.49	96.19
310.72	99.19
310.949	103.19
311.179	100.19
311.409	77.19
311.639	89.19
311.868	91.19
312.098	93.19
312.328	104.19
312.557	96.19
312.787	102.19
313.017	84.19
313.246	106.19
313.476	94.19
313.706	82.19
313.935	88.19
314.165	90.19
314.394	105.19
314.624	92.19
314.853	100.19
315.083	77.19
315.312	92.19
315.542	76.19
315.771	92.19
316.001	92.19
316.23	91.19
316.46	95.19
316.689	86.19
316.919	98.19
317.148	97.19
317.377	97.19
317.607	85.19
317.836	99.19
318.065	86.19
318.295	94.19
318.524	93.19
318.753	97.19
318.983	90.19
319.212	106.19
319.441	111.19
319.67	108.19
319.9	100.19
320.129	96.19
320.358	98.19
320.587	84.19
320.816	108.19
321.046	106.19
321.275	79.19
321.504	105.19
321.733	97.19
321.962	94.19
322.191	100.19
322.42	108.19
322.649	89.19
322.878	115.19
323.108	120.19
323.337	129.19
323.566	149.19
323.795	165.19
324.024	202.19
324.253	407.19
324.482	887.19
324.71	1747.19
324.939	2333.19
325.168	848.19
325.397	251.19
325.626	153.19
325.855	121.19
326.084	126.19
326.313	124.19
326.542	178.19
326.77	234.19
326.999	481.19
327.228	997.19
327.457	1799.19
327.686	1445.19
327.914	390.19
328.143	199.19
328.372	155.19
328.6	132.19
328.829	104.19
329.058	117.19
329.287	153.19
329.515	108.19
329.744	109.19
329.972	107.19
330.201	145.19
330.43	147.19
330.658	128.19
330.887	139.19
331.115	117.19
331.344	116.19
331.572	112.19
331.801	107.19
332.03	110.19
332.258	96.19
332.486	84.19
332.715	94.19
332.943	85.19
333.172	107.19
333.4	99.19
333.629	107.19
333.857	127.19
334.085	119.19
334.314	130.19
334.542	158.19
334.771	168.19
334.999	107.19
335.227	99.19
335.455	98.19
335.684	105.19
335.912	111.19
336.14	93.19
336.369	110.19
336.597	108.19
336.825	110.19
337.053	105.19
337.281	85.19
337.51	89.19
337.738	85.19
337.966	89.19
338.194	94.19
338.422	102.19
338.65	109.19
338.878	95.19
339.106	88.19
339.334	96.19
339.562	99.19
339.79	101.19
340.018	100.19
340.246	90.19
340.474	93.19
340.702	101.19
340.93	102.19
341.158	96.19
341.386	91.19
341.614	98.19
341.842	99.19
342.07	100.19
342.298	84.19
342.526	99.19
342.754	90.19
342.981	100.19
343.209	76.19
343.437	95.19
343.665	97.19
343.893	81.19
344.12	91.19
344.348	88.19
344.576	92.19
344.804	95.19
345.031	99.19
345.259	106.19
345.487	104.19
345.714	103.19
345.942	83.19
346.17	95.19
346.397	87.19
346.625	94.19
346.853	107.19
347.08	89.19
347.308	85.19
347.535	108.19
347.763	101.19
347.99	99.19
348.218	105.19
348.445	97.19
348.673	92.19
348.9	82.19
349.128	98.19
349.355	94.19
349.583	97.19
349.81	85.19
350.037	101.19
350.265	110.19
350.492	118.19
350.72	95.19
350.947	117.19
351.174	98.19
351.402	112.19
351.629	101.19
351.856	111.19
352.083	103.19
352.311	109.19
352.538	108.19
352.765	113.19
352.992	135.19
353.22	109.19
353.447	91.19
353.674	101.19
353.901	91.19
354.128	91.19
354.355	85.19
354.583	103.19
354.81	90.19
355.037	96.19
355.264	114.19
355.491	82.19
355.718	92.19
355.945	100.19
356.172	99.19
356.399	90.19
356.626	100.19
356.853	92.19
357.08	92.19
357.307	108.19
357.534	101.19
357.761	82.19
357.988	99.19
358.215	93.19
358.441	91.19
358.668	103.19
358.895	93.19
359.122	93.19
359.349	100.19
359.576	90.19
359.802	104.19
360.029	107.19
360.256	115.19
360.483	99.19
360.709	72.19
360.936	74.19
361.163	114.19
361.39	95.19
361.616	77.19
361.843	96.19
362.07	101.19
362.296	87.19
362.523	73.19
362.749	92.19
362.976	95.19
363.203	93.19
363.429	83.19
363.656	95.19
363.882	98.19
364.109	99.19
364.335	101.19
364.562	81.19
364.788	97.19
365.015	101.19
365.241	85.19
365.468	102.19
365.694	108.19
365.92	93.19
366.147	85.19
366.373	86.19
366.599	90.19
366.826	92.19
367.052	86.19
367.278	88.19
367.505	79.19
367.731	88.19
367.957	90.19
368.184	103.19
368.41	101.19
368.636	97.19
368.862	101.19
369.089	91.19
369.315	99.19
369.541	102.19
369.767	96.19
369.993	87.19
370.219	85.19
370.445	77.19
370.672	79.19
370.898	82.19
371.124	86.19
371.35	88.19
371.576	99.19
371.802	108.19
372.028	93.19
372.254	87.19
372.48	88.19
372.706	97.19
372.932	85.19
373.158	84.19
373.384	90.19
373.61	89.19
373.835	91.19
374.061	89.19
374.287	99.19
374.513	90.19
374.739	82.19
374.965	86.19
375.191	89.19
375.416	97.19
375.642	85.19
375.868	87.19
376.094	102.19
376.319	105.19
376.545	72.19
376.771	87.19
376.997	104.19
377.222	86.19
377.448	79.19
377.674	80.19
377.899	107.19
378.125	107.19
378.35	103.19
378.576	86.19
378.802	106.19
379.027	101.19
379.253	107.19
379.478	95.19
379.704	92.19
379.929	80.19
380.155	100.19
380.38	112.19
380.606	91.19
380.831	96.19
381.057	106.19
381.282	105.19
381.507	91.19
381.733	100.19
381.958	92.19
382.184	109.19
382.409	105.19
382.634	110.19
382.86	103.19
383.085	110.19
383.31	106.19
383.535	95.19
383.761	110.19
383.986	102.19
384.211	98.19
384.436	102.19
384.662	122.19
384.887	94.19
385.112	106.19
385.337	117.19
385.562	111.19
385.787	123.19
386.013	130.19
386.238	124.19
386.463	117.19
386.688	122.19
386.913	100.19
387.138	108.19
387.363	119.19
387.588	102.19
387.813	101.19
388.038	117.19
388.263	119.19
388.488	118.19
388.713	103.19
388.938	96.19
389.163	93.19
389.387	106.19
389.612	99.19
389.837	93.19
390.062	92.19
390.287	98.19
390.512	110.19
390.736	97.19
390.961	96.19
391.186	85.19
391.411	95.19
391.636	77.19
391.86	88.19
392.085	90.19
392.31	95.19
392.534	86.19
392.759	94.19
392.984	78.19
393.208	94.19
393.433	93.19
393.658	101.19
393.882	89.19
394.107	90.19
394.331	87.19
394.556	90.19
394.78	90.19
395.005	99.19
395.229	78.19
395.454	85.19
395.678	78.19
395.903	90.19
396.127	83.19
396.352	86.19
396.576	88.19
396.801	74.19
397.025	98.19
397.249	89.19
397.474	97.19
397.698	91.19
397.922	79.19
398.147	94.19
398.371	95.19
398.595	85.19
398.82	85.19
399.044	97.19
399.268	101.19
399.492	91.19
399.717	94.19
399.941	104.19
400.165	94.19
400.389	96.19
400.613	88.19
400.837	82.19
401.062	86.19
401.286	98.19
401.51	85.19
401.734	98.19
401.958	107.19
402.182	125.19
402.406	152.19
402.63	118.19
402.854	78.19
403.078	76.19
403.302	93.19
403.526	86.19
403.75	90.19
403.974	105.19
404.198	87.19
404.422	86.19
404.645	100.19
404.869	74.19
405.093	104.19
405.317	109.19
405.541	101.19
405.765	99.19
405.988	114.19
406.212	170.19
406.436	215.19
406.66	150.19
406.883	98.19
407.107	90.19
407.331	109.19
407.555	98.19
407.778	105.19
408.002	96.19
408.226	92.19
408.449	85.19
408.673	100.19
408.896	96.19
409.12	96.19
409.344	89.19
409.567	91.19
409.791	98.19
410.014	81.19
410.238	95.19
410.461	87.19
410.685	101.19
410.908	94.19
411.132	94.19
411.355	89.19
411.578	84.19
411.802	73.19
412.025	99.19
412.249	94.19
412.472	88.19
412.695	93.19
412.919	103.19
413.142	95.19
413.365	94.19
413.589	82.19
413.812	93.19
414.035	87.19
414.258	84.19
414.482	83.19
414.705	92.19
414.928	83.19
415.151	107.19
415.374	106.19
415.597	99.19
415.821	101.19
416.044	96.19
416.267	114.19
416.49	102.19
416.713	94.19
416.936	86.19
417.159	83.19
417.382	99.19
417.605	96.19
417.828	99.19
418.051	89.19
418.274	94.19
418.497	94.19
418.72	91.19
418.943	89.19
419.166	94.19
419.389	87.19
419.611	83.19
419.834	88.19
420.057	72.19
420.28	88.19
420.503	75.19
420.726	86.19
420.948	88.19
421.171	93.19
421.394	96.19
421.617	104.19
421.839	81.19
422.062	79.19
422.285	89.19
422.507	101.19
422.73	93.19
422.953	85.19
423.175	101.19
423.398	97.19
423.621	92.19
423.843	95.19
424.066	90.19
424.288	99.19
424.511	101.19
424.733	97.19
424.956	110.19
425.178	120.19
425.401	99.19
425.623	95.19
425.846	90.19
426.068	87.19
426.291	88.19
426.513	107.19
426.735	89.19
426.958	98.19
427.18	101.19
427.402	129.19
427.625	161.19
427.847	136.19
428.069	115.19
428.292	91.19
428.514	84.19
428.736	97.19
428.958	95.19
429.181	106.19
429.403	92.19
429.625	84.19
429.847	91.19
430.069	90.19
430.292	98.19
430.514	100.19
430.736	87.19
430.958	92.19
431.18	69.19
431.402	79.19
431.624	105.19
431.846	82.19
432.068	82.19
432.29	79.19
432.512	89.19
432.734	95.19
432.956	98.19
433.178	91.19
433.4	107.19
433.622	94.19
433.844	92.19
434.066	97.19
434.287	102.19
434.509	95.19
434.731	90.19
434.953	77.19
435.175	82.19
435.397	95.19
435.618	92.19
435.84	116.19
436.062	109.19
436.284	99.19
436.505	90.19
436.727	100.19
436.949	100.19
437.17	98.19
437.392	97.19
437.614	83.19
437.835	95.19
438.057	115.19
438.278	121.19
438.5	96.19
438.721	115.19
438.943	101.19
439.165	83.19
439.386	85.19
439.608	84.19
439.829	107.19
440.05	120.19
440.272	144.19
440.493	104.19
440.715	80.19
440.936	82.19
441.158	97.19
441.379	96.19
441.6	92.19
441.822	87.19
442.043	91.19
442.264	97.19
442.486	108.19
442.707	94.19
442.928	115.19
443.149	125.19
443.371	128.19
443.592	126.19
443.813	118.19
444.034	114.19
444.255	101.19
444.476	87.19
444.698	84.19
444.919	105.19
445.14	134.19
445.361	129.19
445.582	118.19
445.803	127.19
446.024	132.19
446.245	133.19
446.466	101.19
446.687	88.19
446.908	91.19
447.129	88.19
447.35	77.19
447.571	78.19
447.792	92.19
448.013	109.19
448.234	102.19
448.455	102.19
448.675	107.19
448.896	130.19
449.117	117.19
449.338	102.19
449.559	115.19
449.779	134.19
450	106.19
450.221	99.19
450.442	93.19
450.662	105.19
450.883	111.19
451.104	113.19
451.324	113.19
451.545	109.19
451.766	90.19
451.986	101.19
452.207	108.19
452.428	97.19
452.648	104.19
452.869	110.19
453.089	119.19
453.31	125.19
453.53	106.19
453.751	93.19
453.971	117.19
454.192	102.19
454.412	94.19
454.633	86.19
454.853	86.19
455.073	93.19
455.294	98.19
455.514	110.19
455.734	74.19
455.955	88.19
456.175	93.19
456.395	74.19
456.616	93.19
456.836	73.19
457.056	90.19
457.276	92.19
457.497	78.19
457.717	98.19
457.937	103.19
458.157	86.19
458.377	91.19
458.598	109.19
458.818	164.19
459.038	169.19
459.258	97.19
459.478	86.19
459.698	101.19
459.918	79.19
460.138	92.19
460.358	90.19
460.578	93.19
460.798	102.19
461.018	85.19
461.238	82.19
461.458	77.19
461.678	92.19
461.898	100.19
462.118	79.19
462.338	75.19
462.558	90.19
462.777	85.19
462.997	83.19
463.217	89.19
463.437	89.19
463.657	85.19
463.876	87.19
464.096	81.19
464.316	87.19
464.536	95.19
464.755	103.19
464.975	121.19
465.195	145.19
465.414	138.19
465.634	93.19
465.854	95.19
466.073	73.19
466.293	79.19
466.512	106.19
466.732	97.19
466.951	93.19
467.171	87.19
467.391	95.19
467.61	102.19
467.829	106.19
468.049	105.19
468.268	110.19
468.488	96.19
468.707	79.19
468.927	78.19
469.146	74.19
469.365	92.19
469.585	94.19
469.804	92.19
470.023	99.19
470.243	103.19
470.462	99.19
470.681	114.19
470.901	91.19
471.12	106.19
471.339	83.19
471.558	101.19
471.777	95.19
471.997	95.19
472.216	135.19
472.435	169.19
472.654	100.19
472.873	97.19
473.092	94.19
473.311	92.19
473.53	92.19
473.749	90.19
473.968	93.19
474.187	121.19
474.406	91.19
474.625	82.19
474.844	81.19
475.063	74.19
475.282	96.19
475.501	88.19
475.72	95.19
475.939	95.19
476.158	100.19
476.377	77.19
476.596	96.19
476.814	99.19
477.033	94.19
477.252	94.19
477.471	94.19
477.69	89.19
477.908	98.19
478.127	92.19
478.346	89.19
478.564	110.19
478.783	85.19
479.002	96.19
479.22	96.19
479.439	102.19
479.658	105.19
479.876	89.19
480.095	86.19
480.313	85.19
480.532	92.19
480.751	99.19
480.969	109.19
481.188	253.19
481.406	189.19
481.624	101.19
481.843	102.19
482.061	96.19
482.28	89.19
482.498	81.19
482.717	86.19
482.935	83.19
483.153	93.19
483.372	103.19
483.59	97.19
483.808	102.19
484.027	87.19
484.245	91.19
484.463	101.19
484.681	93.19
484.9	87.19
485.118	106.19
485.336	97.19
485.554	89.19
485.772	99.19
485.99	104.19
486.209	103.19
486.427	103.19
486.645	110.19
486.863	127.19
487.081	92.19
487.299	82.19
487.517	94.19
487.735	93.19
487.953	71.19
488.171	89.19
488.389	93.19
488.607	89.19
488.825	102.19
489.043	95.19
489.261	88.19
489.479	87.19
489.696	83.19
489.914	89.19
490.132	79.19
490.35	106.19
490.568	101.19
490.786	89.19
491.003	79.19
491.221	91.19
491.439	107.19
491.657	92.19
491.874	107.19
492.092	89.19
492.31	103.19
492.527	97.19
492.745	96.19
492.963	99.19
493.18	90.19
493.398	92.19
493.615	105.19
493.833	90.19
494.05	96.19
494.268	74.19
494.485	92.19
494.703	88.19
494.92	94.19
495.138	95.19
495.355	88.19
495.573	85.19
495.79	85.19
496.008	101.19
496.225	72.19
496.442	79.19
496.66	98.19
496.877	94.19
497.094	88.19
497.312	92.19
497.529	98.19
497.746	100.19
497.963	98.19
498.181	107.19
498.398	111.19
498.615	122.19
498.832	118.19
499.049	92.19
499.267	94.19
499.484	94.19
499.701	92.19
499.918	93.19
500.135	76.19
500.352	91.19
500.569	84.19
500.786	103.19
501.003	94.19
501.22	79.19
501.437	87.19
501.654	109.19
501.871	104.19
502.088	80.19
502.305	90.19
502.522	91.19
502.739	83.19
502.956	89.19
503.172	93.19
503.389	87.19
503.606	95.19
503.823	102.19
504.04	90.19
504.256	92.19
504.473	98.19
504.69	79.19
504.907	100.19
505.123	90.19
505.34	89.19
505.557	100.19
505.773	89.19
505.99	102.19
506.207	101.19
506.423	93.19
506.64	82.19
506.856	84.19
507.073	94.19
507.289	97.19
507.506	97.19
507.722	111.19
507.939	97.19
508.155	75.19
508.372	88.19
508.588	100.19
508.805	109.19
509.021	87.19
509.238	91.19
509.454	110.19
509.67	99.19
509.887	122.19
510.103	117.19
510.319	210.19
510.536	778.19
510.752	2594.19
510.968	766.19
511.184	177.19
511.401	136.19
511.617	116.19
511.833	94.19
512.049	93.19
512.265	84.19
512.481	89.19
512.698	94.19
512.914	95.19
513.13	91.19
513.346	93.19
513.562	97.19
513.778	103.19
513.994	97.19
514.21	102.19
514.426	120.19
514.642	137.19
