Data from Circ_2016_H10_HRD10591_00035.txt Node
Date: Wed Jan 03 09:58:47 EST 2024
User: Yrep
Spectrometer: HR+D1059
Trigger mode: 1
Integration Time (sec): 1.000000E-1
Scans to average: 1
Electric dark correction enabled: true
Nonlinearity correction enabled: false
Boxcar width: 0
XAxis mode: Wavelengths
Number of Pixels in Spectrum: 2048
>>>>>Begin Spectral Data<<<<<
223.165	-12.81
223.4	-12.81
223.635	-12.81
223.869	-24.81
224.104	-15.81
224.338	-10.81
224.573	-3.81
224.808	-19.81
225.042	-5.81
225.277	-12.81
225.511	-2.81
225.746	4.19
225.98	-4.81
226.215	21.19
226.449	20.19
226.683	6.19
226.918	22.19
227.152	40.19
227.387	40.19
227.621	48.19
227.856	43.19
228.09	50.19
228.324	50.19
228.559	59.19
228.793	70.19
229.027	69.19
229.262	76.19
229.496	66.19
229.73	70.19
229.964	79.19
230.199	67.19
230.433	66.19
230.667	74.19
230.901	83.19
231.136	71.19
231.37	77.19
231.604	72.19
231.838	70.19
232.072	65.19
232.306	85.19
232.541	71.19
232.775	81.19
233.009	97.19
233.243	96.19
233.477	83.19
233.711	73.19
233.945	92.19
234.179	75.19
234.413	90.19
234.647	87.19
234.881	77.19
235.115	71.19
235.349	70.19
235.583	62.19
235.817	76.19
236.051	76.19
236.285	71.19
236.519	89.19
236.753	80.19
236.987	84.19
237.221	84.19
237.455	69.19
237.689	90.19
237.922	74.19
238.156	81.19
238.39	74.19
238.624	75.19
238.858	89.19
239.091	78.19
239.325	78.19
239.559	84.19
239.793	87.19
240.027	71.19
240.26	87.19
240.494	66.19
240.728	82.19
240.961	74.19
241.195	75.19
241.429	72.19
241.662	84.19
241.896	79.19
242.13	83.19
242.363	89.19
242.597	74.19
242.83	76.19
243.064	81.19
243.298	84.19
243.531	78.19
243.765	91.19
243.998	83.19
244.232	80.19
244.465	87.19
244.699	85.19
244.932	75.19
245.166	91.19
245.399	81.19
245.633	78.19
245.866	80.19
246.099	78.19
246.333	79.19
246.566	76.19
246.8	79.19
247.033	62.19
247.266	87.19
247.5	72.19
247.733	79.19
247.966	72.19
248.2	80.19
248.433	79.19
248.666	86.19
248.899	92.19
249.133	104.19
249.366	98.19
249.599	84.19
249.832	82.19
250.066	81.19
250.299	81.19
250.532	86.19
250.765	87.19
250.998	99.19
251.231	73.19
251.465	85.19
251.698	68.19
251.931	77.19
252.164	80.19
252.397	96.19
252.63	81.19
252.863	84.19
253.096	79.19
253.329	66.19
253.562	81.19
253.795	94.19
254.028	89.19
254.261	88.19
254.494	87.19
254.727	68.19
254.96	82.19
255.193	75.19
255.426	87.19
255.659	84.19
255.892	81.19
256.124	85.19
256.357	79.19
256.59	81.19
256.823	79.19
257.056	77.19
257.289	82.19
257.521	90.19
257.754	87.19
257.987	95.19
258.22	84.19
258.452	76.19
258.685	99.19
258.918	89.19
259.151	74.19
259.383	71.19
259.616	83.19
259.849	68.19
260.081	79.19
260.314	91.19
260.547	92.19
260.779	80.19
261.012	86.19
261.244	77.19
261.477	79.19
261.71	93.19
261.942	122.19
262.175	111.19
262.407	102.19
262.64	101.19
262.872	94.19
263.105	88.19
263.337	87.19
263.57	84.19
263.802	98.19
264.035	76.19
264.267	79.19
264.499	86.19
264.732	80.19
264.964	87.19
265.197	83.19
265.429	83.19
265.661	78.19
265.894	81.19
266.126	85.19
266.358	85.19
266.591	77.19
266.823	77.19
267.055	68.19
267.287	79.19
267.52	81.19
267.752	88.19
267.984	79.19
268.216	79.19
268.448	83.19
268.681	84.19
268.913	107.19
269.145	95.19
269.377	85.19
269.609	83.19
269.841	83.19
270.073	93.19
270.306	93.19
270.538	79.19
270.77	96.19
271.002	65.19
271.234	83.19
271.466	84.19
271.698	80.19
271.93	91.19
272.162	87.19
272.394	96.19
272.626	92.19
272.858	76.19
273.09	90.19
273.322	78.19
273.553	86.19
273.785	91.19
274.017	83.19
274.249	92.19
274.481	84.19
274.713	79.19
274.945	99.19
275.176	91.19
275.408	94.19
275.64	86.19
275.872	92.19
276.104	94.19
276.335	85.19
276.567	91.19
276.799	105.19
277.031	94.19
277.262	89.19
277.494	86.19
277.726	86.19
277.957	87.19
278.189	89.19
278.421	89.19
278.652	86.19
278.884	83.19
279.115	94.19
279.347	77.19
279.579	97.19
279.81	84.19
280.042	89.19
280.273	102.19
280.505	88.19
280.736	78.19
280.968	101.19
281.199	90.19
281.431	85.19
281.662	91.19
281.894	79.19
282.125	92.19
282.356	127.19
282.588	138.19
282.819	110.19
283.051	80.19
283.282	91.19
283.513	89.19
283.745	83.19
283.976	76.19
284.207	82.19
284.439	97.19
284.67	83.19
284.901	72.19
285.132	72.19
285.364	80.19
285.595	84.19
285.826	90.19
286.057	77.19
286.288	82.19
286.52	95.19
286.751	94.19
286.982	66.19
287.213	74.19
287.444	87.19
287.675	100.19
287.906	100.19
288.138	102.19
288.369	104.19
288.6	65.19
288.831	86.19
289.062	88.19
289.293	82.19
289.524	102.19
289.755	84.19
289.986	83.19
290.217	89.19
290.448	80.19
290.679	87.19
290.91	82.19
291.141	78.19
291.371	83.19
291.602	93.19
291.833	82.19
292.064	99.19
292.295	100.19
292.526	98.19
292.757	87.19
292.987	91.19
293.218	87.19
293.449	98.19
293.68	84.19
293.91	94.19
294.141	95.19
294.372	78.19
294.603	77.19
294.833	87.19
295.064	97.19
295.295	98.19
295.525	100.19
295.756	92.19
295.987	93.19
296.217	146.19
296.448	135.19
296.679	122.19
296.909	78.19
297.14	87.19
297.37	93.19
297.601	90.19
297.831	91.19
298.062	95.19
298.292	81.19
298.523	92.19
298.753	99.19
298.984	90.19
299.214	96.19
299.445	97.19
299.675	93.19
299.905	97.19
300.136	83.19
300.366	92.19
300.597	97.19
300.827	97.19
301.057	96.19
301.288	95.19
301.518	95.19
301.748	94.19
301.979	99.19
302.209	91.19
302.439	90.19
302.669	78.19
302.9	90.19
303.13	111.19
303.36	98.19
303.59	81.19
303.82	109.19
304.051	85.19
304.281	69.19
304.511	93.19
304.741	88.19
304.971	90.19
305.201	107.19
305.431	91.19
305.661	105.19
305.891	95.19
306.121	102.19
306.352	98.19
306.582	106.19
306.812	98.19
307.042	92.19
307.272	82.19
307.502	110.19
307.731	88.19
307.961	98.19
308.191	91.19
308.421	87.19
308.651	92.19
308.881	86.19
309.111	99.19
309.341	93.19
309.571	85.19
309.8	89.19
310.03	99.19
310.26	91.19
310.49	81.19
310.72	89.19
310.949	115.19
311.179	100.19
311.409	96.19
311.639	104.19
311.868	105.19
312.098	96.19
312.328	99.19
312.557	91.19
312.787	108.19
313.017	85.19
313.246	87.19
313.476	91.19
313.706	95.19
313.935	87.19
314.165	105.19
314.394	114.19
314.624	80.19
314.853	89.19
315.083	90.19
315.312	80.19
315.542	92.19
315.771	90.19
316.001	90.19
316.23	100.19
316.46	98.19
316.689	102.19
316.919	110.19
317.148	106.19
317.377	99.19
317.607	106.19
317.836	110.19
318.065	87.19
318.295	93.19
318.524	93.19
318.753	91.19
318.983	96.19
319.212	92.19
319.441	96.19
319.67	114.19
319.9	93.19
320.129	95.19
320.358	99.19
320.587	98.19
320.816	105.19
321.046	99.19
321.275	99.19
321.504	97.19
321.733	106.19
321.962	91.19
322.191	99.19
322.42	98.19
322.649	107.19
322.878	117.19
323.108	118.19
323.337	121.19
323.566	143.19
323.795	158.19
324.024	226.19
324.253	434.19
324.482	918.19
324.71	1906.19
324.939	2454.19
325.168	898.19
325.397	269.19
325.626	170.19
325.855	135.19
326.084	144.19
326.313	147.19
326.542	171.19
326.77	238.19
326.999	507.19
327.228	1039.19
327.457	1862.19
327.686	1486.19
327.914	391.19
328.143	182.19
328.372	143.19
328.6	125.19
328.829	127.19
329.058	138.19
329.287	124.19
329.515	114.19
329.744	103.19
329.972	92.19
330.201	114.19
330.43	107.19
330.658	131.19
330.887	146.19
331.115	125.19
331.344	100.19
331.572	101.19
331.801	93.19
332.03	111.19
332.258	90.19
332.486	92.19
332.715	87.19
332.943	87.19
333.172	85.19
333.4	113.19
333.629	112.19
333.857	121.19
334.085	104.19
334.314	106.19
334.542	112.19
334.771	110.19
334.999	101.19
335.227	91.19
335.455	117.19
335.684	100.19
335.912	103.19
336.14	110.19
336.369	118.19
336.597	96.19
336.825	99.19
337.053	93.19
337.281	98.19
337.51	78.19
337.738	99.19
337.966	88.19
338.194	94.19
338.422	92.19
338.65	90.19
338.878	98.19
339.106	103.19
339.334	106.19
339.562	99.19
339.79	86.19
340.018	84.19
340.246	100.19
340.474	85.19
340.702	93.19
340.93	94.19
341.158	84.19
341.386	97.19
341.614	108.19
341.842	103.19
342.07	85.19
342.298	100.19
342.526	96.19
342.754	89.19
342.981	88.19
343.209	93.19
343.437	110.19
343.665	83.19
343.893	101.19
344.12	80.19
344.348	73.19
344.576	87.19
344.804	90.19
345.031	92.19
345.259	91.19
345.487	98.19
345.714	97.19
345.942	91.19
346.17	96.19
346.397	99.19
346.625	91.19
346.853	100.19
347.08	96.19
347.308	95.19
347.535	98.19
347.763	87.19
347.99	104.19
348.218	91.19
348.445	111.19
348.673	109.19
348.9	102.19
349.128	91.19
349.355	101.19
349.583	95.19
349.81	92.19
350.037	94.19
350.265	107.19
350.492	107.19
350.72	112.19
350.947	105.19
351.174	119.19
351.402	94.19
351.629	105.19
351.856	94.19
352.083	99.19
352.311	92.19
352.538	115.19
352.765	122.19
352.992	111.19
353.22	126.19
353.447	107.19
353.674	96.19
353.901	105.19
354.128	90.19
354.355	97.19
354.583	111.19
354.81	85.19
355.037	111.19
355.264	88.19
355.491	93.19
355.718	95.19
355.945	99.19
356.172	103.19
356.399	93.19
356.626	91.19
356.853	101.19
357.08	99.19
357.307	90.19
357.534	77.19
357.761	102.19
357.988	114.19
358.215	88.19
358.441	99.19
358.668	111.19
358.895	81.19
359.122	99.19
359.349	98.19
359.576	90.19
359.802	107.19
360.029	118.19
360.256	114.19
360.483	94.19
360.709	104.19
360.936	81.19
361.163	90.19
361.39	95.19
361.616	98.19
361.843	103.19
362.07	100.19
362.296	101.19
362.523	95.19
362.749	103.19
362.976	86.19
363.203	87.19
363.429	90.19
363.656	103.19
363.882	103.19
364.109	89.19
364.335	83.19
364.562	93.19
364.788	84.19
365.015	93.19
365.241	98.19
365.468	94.19
365.694	115.19
365.92	90.19
366.147	93.19
366.373	91.19
366.599	78.19
366.826	81.19
367.052	93.19
367.278	92.19
367.505	94.19
367.731	86.19
367.957	77.19
368.184	97.19
368.41	102.19
368.636	125.19
368.862	111.19
369.089	100.19
369.315	90.19
369.541	89.19
369.767	87.19
369.993	97.19
370.219	102.19
370.445	94.19
370.672	90.19
370.898	77.19
371.124	81.19
371.35	86.19
371.576	80.19
371.802	76.19
372.028	88.19
372.254	90.19
372.48	82.19
372.706	83.19
372.932	88.19
373.158	97.19
373.384	87.19
373.61	96.19
373.835	99.19
374.061	93.19
374.287	99.19
374.513	97.19
374.739	82.19
374.965	84.19
375.191	88.19
375.416	103.19
375.642	76.19
375.868	103.19
376.094	96.19
376.319	96.19
376.545	87.19
376.771	89.19
376.997	81.19
377.222	94.19
377.448	94.19
377.674	103.19
377.899	92.19
378.125	90.19
378.35	84.19
378.576	102.19
378.802	95.19
379.027	93.19
379.253	90.19
379.478	88.19
379.704	92.19
379.929	96.19
380.155	109.19
380.38	108.19
380.606	105.19
380.831	96.19
381.057	116.19
381.282	100.19
381.507	115.19
381.733	105.19
381.958	109.19
382.184	102.19
382.409	116.19
382.634	110.19
382.86	118.19
383.085	114.19
383.31	110.19
383.535	101.19
383.761	123.19
383.986	110.19
384.211	118.19
384.436	104.19
384.662	109.19
384.887	106.19
385.112	132.19
385.337	111.19
385.562	118.19
385.787	136.19
386.013	121.19
386.238	134.19
386.463	119.19
386.688	108.19
386.913	137.19
387.138	135.19
387.363	121.19
387.588	120.19
387.813	111.19
388.038	103.19
388.263	136.19
388.488	148.19
388.713	104.19
388.938	98.19
389.163	107.19
389.387	99.19
389.612	84.19
389.837	101.19
390.062	89.19
390.287	95.19
390.512	88.19
390.736	91.19
390.961	88.19
391.186	86.19
391.411	85.19
391.636	96.19
391.86	94.19
392.085	86.19
392.31	66.19
392.534	85.19
392.759	87.19
392.984	90.19
393.208	95.19
393.433	97.19
393.658	84.19
393.882	86.19
394.107	85.19
394.331	103.19
394.556	84.19
394.78	112.19
395.005	91.19
395.229	81.19
395.454	87.19
395.678	81.19
395.903	86.19
396.127	97.19
396.352	92.19
396.576	94.19
396.801	100.19
397.025	100.19
397.249	87.19
397.474	99.19
397.698	86.19
397.922	69.19
398.147	79.19
398.371	85.19
398.595	83.19
398.82	75.19
399.044	64.19
399.268	85.19
399.492	93.19
399.717	96.19
399.941	97.19
400.165	100.19
400.389	92.19
400.613	78.19
400.837	87.19
401.062	84.19
401.286	95.19
401.51	90.19
401.734	90.19
401.958	96.19
402.182	113.19
402.406	153.19
402.63	116.19
402.854	101.19
403.078	91.19
403.302	88.19
403.526	89.19
403.75	82.19
403.974	96.19
404.198	87.19
404.422	92.19
404.645	79.19
404.869	90.19
405.093	86.19
405.317	112.19
405.541	100.19
405.765	104.19
405.988	116.19
406.212	164.19
406.436	224.19
406.66	148.19
406.883	108.19
407.107	92.19
407.331	108.19
407.555	101.19
407.778	94.19
408.002	92.19
408.226	81.19
408.449	91.19
408.673	84.19
408.896	95.19
409.12	95.19
409.344	88.19
409.567	102.19
409.791	79.19
410.014	94.19
410.238	90.19
410.461	84.19
410.685	90.19
410.908	106.19
411.132	98.19
411.355	87.19
411.578	94.19
411.802	84.19
412.025	88.19
412.249	79.19
412.472	91.19
412.695	97.19
412.919	86.19
413.142	86.19
413.365	88.19
413.589	93.19
413.812	107.19
414.035	111.19
414.258	77.19
414.482	84.19
414.705	100.19
414.928	99.19
415.151	87.19
415.374	95.19
415.597	99.19
415.821	95.19
416.044	86.19
416.267	100.19
416.49	92.19
416.713	86.19
416.936	93.19
417.159	109.19
417.382	95.19
417.605	90.19
417.828	96.19
418.051	81.19
418.274	85.19
418.497	95.19
418.72	98.19
418.943	92.19
419.166	88.19
419.389	87.19
419.611	99.19
419.834	86.19
420.057	73.19
420.28	90.19
420.503	88.19
420.726	86.19
420.948	95.19
421.171	88.19
421.394	99.19
421.617	105.19
421.839	99.19
422.062	87.19
422.285	87.19
422.507	120.19
422.73	115.19
422.953	99.19
423.175	98.19
423.398	93.19
423.621	85.19
423.843	92.19
424.066	94.19
424.288	102.19
424.511	90.19
424.733	86.19
424.956	102.19
425.178	94.19
425.401	94.19
425.623	87.19
425.846	94.19
426.068	84.19
426.291	91.19
426.513	87.19
426.735	84.19
426.958	83.19
427.18	103.19
427.402	142.19
427.625	167.19
427.847	130.19
428.069	103.19
428.292	97.19
428.514	93.19
428.736	71.19
428.958	95.19
429.181	76.19
429.403	95.19
429.625	95.19
429.847	103.19
430.069	85.19
430.292	85.19
430.514	84.19
430.736	96.19
430.958	102.19
431.18	87.19
431.402	86.19
431.624	101.19
431.846	97.19
432.068	84.19
432.29	76.19
432.512	91.19
432.734	75.19
432.956	88.19
433.178	92.19
433.4	90.19
433.622	98.19
433.844	104.19
434.066	92.19
434.287	84.19
434.509	90.19
434.731	84.19
434.953	91.19
435.175	94.19
435.397	91.19
435.618	98.19
435.84	100.19
436.062	112.19
436.284	104.19
436.505	101.19
436.727	105.19
436.949	95.19
437.17	110.19
437.392	96.19
437.614	79.19
437.835	100.19
438.057	111.19
438.278	101.19
438.5	99.19
438.721	126.19
438.943	98.19
439.165	74.19
439.386	78.19
439.608	91.19
439.829	105.19
440.05	123.19
440.272	132.19
440.493	107.19
440.715	92.19
440.936	83.19
441.158	94.19
441.379	99.19
441.6	91.19
441.822	102.19
442.043	110.19
442.264	100.19
442.486	88.19
442.707	83.19
442.928	112.19
443.149	140.19
443.371	135.19
443.592	115.19
443.813	111.19
444.034	95.19
444.255	100.19
444.476	84.19
444.698	85.19
444.919	88.19
445.14	131.19
445.361	118.19
445.582	122.19
445.803	143.19
446.024	135.19
446.245	137.19
446.466	118.19
446.687	102.19
446.908	98.19
447.129	102.19
447.35	95.19
447.571	92.19
447.792	95.19
448.013	99.19
448.234	110.19
448.455	89.19
448.675	100.19
448.896	132.19
449.117	95.19
449.338	106.19
449.559	121.19
449.779	117.19
450	94.19
450.221	89.19
450.442	94.19
450.662	96.19
450.883	95.19
451.104	114.19
451.324	91.19
451.545	102.19
451.766	79.19
451.986	91.19
452.207	88.19
452.428	100.19
452.648	90.19
452.869	112.19
453.089	100.19
453.31	127.19
453.53	99.19
453.751	90.19
453.971	104.19
454.192	105.19
454.412	92.19
454.633	75.19
454.853	82.19
455.073	89.19
455.294	86.19
455.514	85.19
455.734	88.19
455.955	104.19
456.175	78.19
456.395	82.19
456.616	75.19
456.836	77.19
457.056	93.19
457.276	71.19
457.497	88.19
457.717	86.19
457.937	90.19
458.157	68.19
458.377	87.19
458.598	113.19
458.818	150.19
459.038	144.19
459.258	108.19
459.478	90.19
459.698	96.19
459.918	91.19
460.138	89.19
460.358	91.19
460.578	86.19
460.798	75.19
461.018	76.19
461.238	85.19
461.458	73.19
461.678	97.19
461.898	91.19
462.118	94.19
462.338	85.19
462.558	87.19
462.777	80.19
462.997	90.19
463.217	77.19
463.437	93.19
463.657	87.19
463.876	95.19
464.096	75.19
464.316	89.19
464.536	98.19
464.755	98.19
464.975	106.19
465.195	161.19
465.414	169.19
465.634	92.19
465.854	80.19
466.073	84.19
466.293	90.19
466.512	88.19
466.732	89.19
466.951	81.19
467.171	85.19
467.391	89.19
467.61	108.19
467.829	94.19
468.049	99.19
468.268	91.19
468.488	103.19
468.707	80.19
468.927	82.19
469.146	100.19
469.365	96.19
469.585	93.19
469.804	90.19
470.023	94.19
470.243	77.19
470.462	100.19
470.681	107.19
470.901	96.19
471.12	104.19
471.339	80.19
471.558	85.19
471.777	91.19
471.997	84.19
472.216	93.19
472.435	108.19
472.654	96.19
472.873	82.19
473.092	78.19
473.311	93.19
473.53	94.19
473.749	103.19
473.968	103.19
474.187	103.19
474.406	90.19
474.625	79.19
474.844	85.19
475.063	91.19
475.282	87.19
475.501	85.19
475.72	86.19
475.939	80.19
476.158	87.19
476.377	81.19
476.596	80.19
476.814	87.19
477.033	78.19
477.252	79.19
477.471	91.19
477.69	89.19
477.908	98.19
478.127	86.19
478.346	85.19
478.564	95.19
478.783	71.19
479.002	89.19
479.22	100.19
479.439	108.19
479.658	80.19
479.876	92.19
480.095	88.19
480.313	95.19
480.532	87.19
480.751	98.19
480.969	105.19
481.188	118.19
481.406	105.19
481.624	99.19
481.843	88.19
482.061	95.19
482.28	77.19
482.498	88.19
482.717	84.19
482.935	90.19
483.153	88.19
483.372	86.19
483.59	72.19
483.808	92.19
484.027	107.19
484.245	93.19
484.463	96.19
484.681	110.19
484.9	95.19
485.118	103.19
485.336	95.19
485.554	101.19
485.772	108.19
485.99	107.19
486.209	114.19
486.427	95.19
486.645	105.19
486.863	109.19
487.081	105.19
487.299	94.19
487.517	78.19
487.735	80.19
487.953	92.19
488.171	98.19
488.389	93.19
488.607	103.19
488.825	86.19
489.043	83.19
489.261	101.19
489.479	98.19
489.696	95.19
489.914	89.19
490.132	91.19
490.35	81.19
490.568	91.19
490.786	91.19
491.003	82.19
491.221	87.19
491.439	100.19
491.657	84.19
491.874	92.19
492.092	90.19
492.31	94.19
492.527	84.19
492.745	97.19
492.963	85.19
493.18	78.19
493.398	93.19
493.615	100.19
493.833	95.19
494.05	83.19
494.268	103.19
494.485	86.19
494.703	84.19
494.92	77.19
495.138	102.19
495.355	95.19
495.573	100.19
495.79	91.19
496.008	108.19
496.225	95.19
496.442	80.19
496.66	107.19
496.877	94.19
497.094	100.19
497.312	107.19
497.529	100.19
497.746	102.19
497.963	94.19
498.181	99.19
498.398	91.19
498.615	101.19
498.832	114.19
499.049	95.19
499.267	95.19
499.484	89.19
499.701	95.19
499.918	85.19
500.135	99.19
500.352	82.19
500.569	90.19
500.786	100.19
501.003	86.19
501.22	86.19
501.437	93.19
501.654	110.19
501.871	112.19
502.088	107.19
502.305	91.19
502.522	92.19
502.739	86.19
502.956	88.19
503.172	83.19
503.389	104.19
503.606	111.19
503.823	99.19
504.04	87.19
504.256	91.19
504.473	82.19
504.69	94.19
504.907	103.19
505.123	100.19
505.34	95.19
505.557	86.19
505.773	84.19
505.99	96.19
506.207	87.19
506.423	91.19
506.64	91.19
506.856	90.19
507.073	93.19
507.289	85.19
507.506	82.19
507.722	103.19
507.939	96.19
508.155	105.19
508.372	88.19
508.588	91.19
508.805	92.19
509.021	109.19
509.238	110.19
509.454	119.19
509.67	109.19
509.887	126.19
510.103	149.19
510.319	209.19
510.536	766.19
510.752	2546.19
510.968	750.19
511.184	170.19
511.401	99.19
511.617	113.19
511.833	84.19
512.049	85.19
512.265	85.19
512.481	88.19
512.698	80.19
512.914	87.19
513.13	93.19
513.346	86.19
513.562	85.19
513.778	112.19
513.994	89.19
514.21	97.19
514.426	108.19
514.642	132.19
514.858	128.19
515.074	160.19
