Data from Circ_2016_H10_HRD10591_00042.txt Node
Date: Wed Jan 03 09:58:49 EST 2024
User: Yrep
Spectrometer: HR+D1059
Trigger mode: 1
Integration Time (sec): 1.000000E-1
Scans to average: 1
Electric dark correction enabled: true
Nonlinearity correction enabled: false
Boxcar width: 0
XAxis mode: Wavelengths
Number of Pixels in Spectrum: 2048
>>>>>Begin Spectral Data<<<<<
223.165	-20.62
223.4	-20.62
223.635	-20.62
223.869	-26.62
224.104	-14.62
224.338	4.38
224.573	-1.62
224.808	-26.62
225.042	-15.62
225.277	-4.62
225.511	-2.62
225.746	-7.62
225.98	9.38
226.215	15.38
226.449	11.38
226.683	13.38
226.918	36.38
227.152	30.38
227.387	30.38
227.621	27.38
227.856	35.38
228.09	47.38
228.324	51.38
228.559	64.38
228.793	73.38
229.027	56.38
229.262	69.38
229.496	85.38
229.73	74.38
229.964	92.38
230.199	72.38
230.433	67.38
230.667	66.38
230.901	73.38
231.136	84.38
231.37	72.38
231.604	80.38
231.838	83.38
232.072	74.38
232.306	75.38
232.541	64.38
232.775	68.38
233.009	65.38
233.243	77.38
233.477	88.38
233.711	68.38
233.945	82.38
234.179	79.38
234.413	86.38
234.647	76.38
234.881	70.38
235.115	77.38
235.349	83.38
235.583	84.38
235.817	79.38
236.051	80.38
236.285	80.38
236.519	75.38
236.753	76.38
236.987	72.38
237.221	95.38
237.455	83.38
237.689	67.38
237.922	69.38
238.156	64.38
238.39	82.38
238.624	69.38
238.858	72.38
239.091	79.38
239.325	63.38
239.559	87.38
239.793	87.38
240.027	78.38
240.26	75.38
240.494	78.38
240.728	73.38
240.961	73.38
241.195	67.38
241.429	70.38
241.662	66.38
241.896	75.38
242.13	79.38
242.363	85.38
242.597	70.38
242.83	65.38
243.064	73.38
243.298	81.38
243.531	75.38
243.765	81.38
243.998	77.38
244.232	84.38
244.465	73.38
244.699	65.38
244.932	84.38
245.166	75.38
245.399	81.38
245.633	84.38
245.866	65.38
246.099	70.38
246.333	81.38
246.566	77.38
246.8	67.38
247.033	73.38
247.266	73.38
247.5	82.38
247.733	71.38
247.966	83.38
248.2	79.38
248.433	83.38
248.666	70.38
248.899	81.38
249.133	80.38
249.366	87.38
249.599	93.38
249.832	80.38
250.066	82.38
250.299	74.38
250.532	90.38
250.765	74.38
250.998	64.38
251.231	69.38
251.465	83.38
251.698	73.38
251.931	85.38
252.164	68.38
252.397	74.38
252.63	79.38
252.863	85.38
253.096	91.38
253.329	88.38
253.562	75.38
253.795	79.38
254.028	68.38
254.261	82.38
254.494	73.38
254.727	78.38
254.96	78.38
255.193	64.38
255.426	86.38
255.659	79.38
255.892	87.38
256.124	84.38
256.357	67.38
256.59	76.38
256.823	85.38
257.056	73.38
257.289	84.38
257.521	74.38
257.754	82.38
257.987	72.38
258.22	84.38
258.452	79.38
258.685	83.38
258.918	82.38
259.151	67.38
259.383	66.38
259.616	76.38
259.849	85.38
260.081	67.38
260.314	72.38
260.547	90.38
260.779	77.38
261.012	74.38
261.244	74.38
261.477	79.38
261.71	86.38
261.942	107.38
262.175	103.38
262.407	75.38
262.64	71.38
262.872	85.38
263.105	82.38
263.337	89.38
263.57	90.38
263.802	75.38
264.035	80.38
264.267	87.38
264.499	75.38
264.732	69.38
264.964	75.38
265.197	75.38
265.429	83.38
265.661	74.38
265.894	82.38
266.126	89.38
266.358	76.38
266.591	76.38
266.823	58.38
267.055	81.38
267.287	86.38
267.52	83.38
267.752	92.38
267.984	76.38
268.216	93.38
268.448	72.38
268.681	80.38
268.913	81.38
269.145	82.38
269.377	85.38
269.609	72.38
269.841	79.38
270.073	61.38
270.306	78.38
270.538	75.38
270.77	72.38
271.002	86.38
271.234	80.38
271.466	75.38
271.698	90.38
271.93	80.38
272.162	81.38
272.394	82.38
272.626	91.38
272.858	79.38
273.09	72.38
273.322	70.38
273.553	68.38
273.785	73.38
274.017	77.38
274.249	71.38
274.481	66.38
274.713	83.38
274.945	75.38
275.176	76.38
275.408	76.38
275.64	68.38
275.872	76.38
276.104	94.38
276.335	91.38
276.567	92.38
276.799	108.38
277.031	103.38
277.262	88.38
277.494	94.38
277.726	89.38
277.957	77.38
278.189	77.38
278.421	79.38
278.652	69.38
278.884	73.38
279.115	99.38
279.347	75.38
279.579	85.38
279.81	79.38
280.042	94.38
280.273	83.38
280.505	98.38
280.736	91.38
280.968	86.38
281.199	81.38
281.431	96.38
281.662	91.38
281.894	91.38
282.125	96.38
282.356	116.38
282.588	119.38
282.819	102.38
283.051	91.38
283.282	82.38
283.513	87.38
283.745	75.38
283.976	73.38
284.207	84.38
284.439	81.38
284.67	86.38
284.901	83.38
285.132	73.38
285.364	80.38
285.595	96.38
285.826	78.38
286.057	96.38
286.288	89.38
286.52	72.38
286.751	83.38
286.982	96.38
287.213	85.38
287.444	98.38
287.675	91.38
287.906	69.38
288.138	84.38
288.369	83.38
288.6	76.38
288.831	92.38
289.062	89.38
289.293	115.38
289.524	96.38
289.755	100.38
289.986	86.38
290.217	70.38
290.448	84.38
290.679	73.38
290.91	80.38
291.141	77.38
291.371	72.38
291.602	66.38
291.833	78.38
292.064	78.38
292.295	76.38
292.526	78.38
292.757	81.38
292.987	91.38
293.218	84.38
293.449	72.38
293.68	87.38
293.91	91.38
294.141	86.38
294.372	84.38
294.603	82.38
294.833	93.38
295.064	95.38
295.295	78.38
295.525	99.38
295.756	82.38
295.987	111.38
296.217	130.38
296.448	137.38
296.679	99.38
296.909	94.38
297.14	89.38
297.37	82.38
297.601	87.38
297.831	95.38
298.062	83.38
298.292	76.38
298.523	78.38
298.753	85.38
298.984	101.38
299.214	97.38
299.445	89.38
299.675	101.38
299.905	90.38
300.136	73.38
300.366	90.38
300.597	73.38
300.827	92.38
301.057	88.38
301.288	95.38
301.518	92.38
301.748	90.38
301.979	111.38
302.209	86.38
302.439	86.38
302.669	84.38
302.9	86.38
303.13	88.38
303.36	105.38
303.59	105.38
303.82	90.38
304.051	83.38
304.281	84.38
304.511	87.38
304.741	75.38
304.971	87.38
305.201	76.38
305.431	91.38
305.661	73.38
305.891	87.38
306.121	104.38
306.352	97.38
306.582	91.38
306.812	91.38
307.042	80.38
307.272	86.38
307.502	88.38
307.731	85.38
307.961	86.38
308.191	102.38
308.421	102.38
308.651	98.38
308.881	80.38
309.111	94.38
309.341	86.38
309.571	107.38
309.8	104.38
310.03	86.38
310.26	91.38
310.49	93.38
310.72	92.38
310.949	105.38
311.179	96.38
311.409	94.38
311.639	96.38
311.868	86.38
312.098	87.38
312.328	79.38
312.557	110.38
312.787	103.38
313.017	92.38
313.246	84.38
313.476	90.38
313.706	83.38
313.935	87.38
314.165	96.38
314.394	103.38
314.624	86.38
314.853	90.38
315.083	90.38
315.312	105.38
315.542	71.38
315.771	89.38
316.001	85.38
316.23	86.38
316.46	88.38
316.689	100.38
316.919	104.38
317.148	86.38
317.377	91.38
317.607	103.38
317.836	85.38
318.065	102.38
318.295	89.38
318.524	84.38
318.753	88.38
318.983	103.38
319.212	108.38
319.441	92.38
319.67	114.38
319.9	83.38
320.129	90.38
320.358	91.38
320.587	95.38
320.816	110.38
321.046	99.38
321.275	102.38
321.504	93.38
321.733	100.38
321.962	87.38
322.191	87.38
322.42	94.38
322.649	96.38
322.878	112.38
323.108	115.38
323.337	113.38
323.566	121.38
323.795	146.38
324.024	219.38
324.253	435.38
324.482	908.38
324.71	1784.38
324.939	2370.38
325.168	881.38
325.397	259.38
325.626	156.38
325.855	130.38
326.084	131.38
326.313	130.38
326.542	167.38
326.77	229.38
326.999	462.38
327.228	1002.38
327.457	1786.38
327.686	1429.38
327.914	386.38
328.143	190.38
328.372	152.38
328.6	135.38
328.829	124.38
329.058	144.38
329.287	134.38
329.515	94.38
329.744	73.38
329.972	94.38
330.201	99.38
330.43	124.38
330.658	112.38
330.887	137.38
331.115	103.38
331.344	89.38
331.572	90.38
331.801	100.38
332.03	104.38
332.258	114.38
332.486	98.38
332.715	96.38
332.943	94.38
333.172	89.38
333.4	98.38
333.629	90.38
333.857	116.38
334.085	100.38
334.314	101.38
334.542	110.38
334.771	99.38
334.999	103.38
335.227	88.38
335.455	76.38
335.684	91.38
335.912	98.38
336.14	102.38
336.369	102.38
336.597	85.38
336.825	89.38
337.053	96.38
337.281	78.38
337.51	88.38
337.738	92.38
337.966	98.38
338.194	97.38
338.422	80.38
338.65	95.38
338.878	89.38
339.106	92.38
339.334	90.38
339.562	85.38
339.79	85.38
340.018	89.38
340.246	93.38
340.474	83.38
340.702	99.38
340.93	94.38
341.158	91.38
341.386	97.38
341.614	93.38
341.842	92.38
342.07	89.38
342.298	79.38
342.526	85.38
342.754	91.38
342.981	84.38
343.209	84.38
343.437	103.38
343.665	78.38
343.893	84.38
344.12	102.38
344.348	89.38
344.576	95.38
344.804	94.38
345.031	95.38
345.259	93.38
345.487	98.38
345.714	95.38
345.942	93.38
346.17	91.38
346.397	89.38
346.625	92.38
346.853	77.38
347.08	86.38
347.308	88.38
347.535	98.38
347.763	88.38
347.99	97.38
348.218	108.38
348.445	89.38
348.673	92.38
348.9	94.38
349.128	95.38
349.355	98.38
349.583	97.38
349.81	90.38
350.037	82.38
350.265	90.38
350.492	87.38
350.72	93.38
350.947	84.38
351.174	107.38
351.402	95.38
351.629	105.38
351.856	102.38
352.083	99.38
352.311	92.38
352.538	106.38
352.765	94.38
352.992	124.38
353.22	105.38
353.447	108.38
353.674	95.38
353.901	94.38
354.128	85.38
354.355	84.38
354.583	83.38
354.81	99.38
355.037	83.38
355.264	85.38
355.491	84.38
355.718	102.38
355.945	89.38
356.172	94.38
356.399	96.38
356.626	94.38
356.853	95.38
357.08	103.38
357.307	96.38
357.534	96.38
357.761	87.38
357.988	102.38
358.215	95.38
358.441	83.38
358.668	88.38
358.895	79.38
359.122	76.38
359.349	88.38
359.576	89.38
359.802	88.38
360.029	110.38
360.256	102.38
360.483	95.38
360.709	89.38
360.936	91.38
361.163	84.38
361.39	91.38
361.616	107.38
361.843	99.38
362.07	93.38
362.296	100.38
362.523	89.38
362.749	87.38
362.976	90.38
363.203	87.38
363.429	88.38
363.656	103.38
363.882	99.38
364.109	85.38
364.335	82.38
364.562	89.38
364.788	82.38
365.015	86.38
365.241	82.38
365.468	99.38
365.694	112.38
365.92	86.38
366.147	87.38
366.373	90.38
366.599	84.38
366.826	84.38
367.052	76.38
367.278	94.38
367.505	89.38
367.731	78.38
367.957	96.38
368.184	80.38
368.41	104.38
368.636	94.38
368.862	121.38
369.089	96.38
369.315	94.38
369.541	92.38
369.767	92.38
369.993	94.38
370.219	94.38
370.445	88.38
370.672	84.38
370.898	81.38
371.124	83.38
371.35	86.38
371.576	86.38
371.802	83.38
372.028	87.38
372.254	82.38
372.48	78.38
372.706	80.38
372.932	100.38
373.158	78.38
373.384	90.38
373.61	81.38
373.835	92.38
374.061	92.38
374.287	78.38
374.513	82.38
374.739	88.38
374.965	82.38
375.191	94.38
375.416	75.38
375.642	81.38
375.868	83.38
376.094	93.38
376.319	93.38
376.545	91.38
376.771	87.38
376.997	90.38
377.222	88.38
377.448	91.38
377.674	82.38
377.899	94.38
378.125	94.38
378.35	90.38
378.576	81.38
378.802	87.38
379.027	82.38
379.253	90.38
379.478	91.38
379.704	108.38
379.929	80.38
380.155	96.38
380.38	97.38
380.606	87.38
380.831	107.38
381.057	103.38
381.282	95.38
381.507	101.38
381.733	98.38
381.958	94.38
382.184	96.38
382.409	102.38
382.634	105.38
382.86	110.38
383.085	105.38
383.31	105.38
383.535	110.38
383.761	112.38
383.986	107.38
384.211	102.38
384.436	98.38
384.662	119.38
384.887	113.38
385.112	124.38
385.337	122.38
385.562	115.38
385.787	123.38
386.013	134.38
386.238	137.38
386.463	115.38
386.688	126.38
386.913	128.38
387.138	136.38
387.363	118.38
387.588	102.38
387.813	103.38
388.038	135.38
388.263	143.38
388.488	137.38
388.713	111.38
388.938	100.38
389.163	99.38
389.387	95.38
389.612	107.38
389.837	93.38
390.062	78.38
390.287	87.38
390.512	88.38
390.736	96.38
390.961	106.38
391.186	98.38
391.411	95.38
391.636	101.38
391.86	83.38
392.085	88.38
392.31	81.38
392.534	75.38
392.759	81.38
392.984	78.38
393.208	84.38
393.433	114.38
393.658	106.38
393.882	75.38
394.107	83.38
394.331	89.38
394.556	80.38
394.78	77.38
395.005	91.38
395.229	96.38
395.454	80.38
395.678	75.38
395.903	82.38
396.127	80.38
396.352	89.38
396.576	88.38
396.801	89.38
397.025	104.38
397.249	82.38
397.474	80.38
397.698	87.38
397.922	80.38
398.147	78.38
398.371	82.38
398.595	76.38
398.82	86.38
399.044	88.38
399.268	83.38
399.492	67.38
399.717	89.38
399.941	86.38
400.165	86.38
400.389	77.38
400.613	98.38
400.837	82.38
401.062	91.38
401.286	96.38
401.51	82.38
401.734	88.38
401.958	87.38
402.182	114.38
402.406	146.38
402.63	123.38
402.854	88.38
403.078	89.38
403.302	73.38
403.526	80.38
403.75	84.38
403.974	89.38
404.198	91.38
404.422	81.38
404.645	98.38
404.869	78.38
405.093	88.38
405.317	92.38
405.541	95.38
405.765	88.38
405.988	114.38
406.212	170.38
406.436	222.38
406.66	146.38
406.883	113.38
407.107	101.38
407.331	98.38
407.555	91.38
407.778	88.38
408.002	92.38
408.226	80.38
408.449	81.38
408.673	89.38
408.896	92.38
409.12	92.38
409.344	87.38
409.567	80.38
409.791	91.38
410.014	104.38
410.238	101.38
410.461	97.38
410.685	105.38
410.908	87.38
411.132	97.38
411.355	92.38
411.578	94.38
411.802	84.38
412.025	92.38
412.249	92.38
412.472	90.38
412.695	91.38
412.919	86.38
413.142	80.38
413.365	83.38
413.589	85.38
413.812	74.38
414.035	106.38
414.258	97.38
414.482	97.38
414.705	88.38
414.928	91.38
415.151	103.38
415.374	87.38
415.597	93.38
415.821	99.38
416.044	83.38
416.267	99.38
416.49	86.38
416.713	86.38
416.936	98.38
417.159	83.38
417.382	75.38
417.605	89.38
417.828	93.38
418.051	88.38
418.274	80.38
418.497	70.38
418.72	64.38
418.943	76.38
419.166	80.38
419.389	91.38
419.611	91.38
419.834	89.38
420.057	86.38
420.28	82.38
420.503	86.38
420.726	84.38
420.948	78.38
421.171	97.38
421.394	91.38
421.617	97.38
421.839	93.38
422.062	92.38
422.285	88.38
422.507	90.38
422.73	94.38
422.953	94.38
423.175	107.38
423.398	85.38
423.621	82.38
423.843	101.38
424.066	83.38
424.288	87.38
424.511	99.38
424.733	104.38
424.956	91.38
425.178	102.38
425.401	105.38
425.623	93.38
425.846	96.38
426.068	83.38
426.291	80.38
426.513	84.38
426.735	96.38
426.958	83.38
427.18	94.38
427.402	126.38
427.625	166.38
427.847	125.38
428.069	110.38
428.292	87.38
428.514	94.38
428.736	96.38
428.958	84.38
429.181	88.38
429.403	89.38
429.625	89.38
429.847	93.38
430.069	100.38
430.292	90.38
430.514	96.38
430.736	82.38
430.958	81.38
431.18	83.38
431.402	74.38
431.624	86.38
431.846	80.38
432.068	98.38
432.29	98.38
432.512	91.38
432.734	84.38
432.956	83.38
433.178	97.38
433.4	93.38
433.622	87.38
433.844	81.38
434.066	88.38
434.287	93.38
434.509	94.38
434.731	90.38
434.953	99.38
435.175	92.38
435.397	94.38
435.618	89.38
435.84	99.38
436.062	120.38
436.284	95.38
436.505	100.38
436.727	99.38
436.949	83.38
437.17	97.38
437.392	82.38
437.614	88.38
437.835	104.38
438.057	101.38
438.278	93.38
438.5	110.38
438.721	104.38
438.943	87.38
439.165	69.38
439.386	97.38
439.608	97.38
439.829	79.38
440.05	111.38
440.272	139.38
440.493	101.38
440.715	89.38
440.936	78.38
441.158	96.38
441.379	98.38
441.6	97.38
441.822	96.38
442.043	90.38
442.264	82.38
442.486	88.38
442.707	91.38
442.928	100.38
443.149	129.38
443.371	119.38
443.592	119.38
443.813	117.38
444.034	108.38
444.255	95.38
444.476	84.38
444.698	84.38
444.919	98.38
445.14	135.38
445.361	114.38
445.582	114.38
445.803	122.38
446.024	124.38
446.245	134.38
446.466	95.38
446.687	100.38
446.908	85.38
447.129	78.38
447.35	73.38
447.571	90.38
447.792	103.38
448.013	99.38
448.234	111.38
448.455	112.38
448.675	111.38
448.896	99.38
449.117	90.38
449.338	100.38
449.559	130.38
449.779	132.38
450	90.38
450.221	93.38
450.442	83.38
450.662	84.38
450.883	111.38
451.104	102.38
451.324	106.38
451.545	92.38
451.766	86.38
451.986	81.38
452.207	97.38
452.428	95.38
452.648	89.38
452.869	110.38
453.089	102.38
453.31	108.38
453.53	85.38
453.751	92.38
453.971	89.38
454.192	91.38
454.412	90.38
454.633	76.38
454.853	86.38
455.073	78.38
455.294	86.38
455.514	103.38
455.734	93.38
455.955	82.38
456.175	82.38
456.395	72.38
456.616	87.38
456.836	85.38
457.056	87.38
457.276	86.38
457.497	73.38
457.717	86.38
457.937	86.38
458.157	87.38
458.377	76.38
458.598	89.38
458.818	149.38
459.038	137.38
459.258	105.38
459.478	96.38
459.698	67.38
459.918	87.38
460.138	69.38
460.358	76.38
460.578	102.38
460.798	89.38
461.018	68.38
461.238	74.38
461.458	74.38
461.678	81.38
461.898	94.38
462.118	86.38
462.338	82.38
462.558	102.38
462.777	90.38
462.997	86.38
463.217	83.38
463.437	91.38
463.657	74.38
463.876	69.38
464.096	91.38
464.316	89.38
464.536	86.38
464.755	85.38
464.975	89.38
465.195	154.38
465.414	163.38
465.634	114.38
465.854	80.38
466.073	74.38
466.293	77.38
466.512	86.38
466.732	82.38
466.951	97.38
467.171	89.38
467.391	99.38
467.61	96.38
467.829	91.38
468.049	94.38
468.268	75.38
468.488	84.38
468.707	75.38
468.927	88.38
469.146	89.38
469.365	87.38
469.585	89.38
469.804	98.38
470.023	81.38
470.243	96.38
470.462	99.38
470.681	101.38
470.901	95.38
471.12	75.38
471.339	89.38
471.558	92.38
471.777	80.38
471.997	79.38
472.216	92.38
472.435	123.38
472.654	106.38
472.873	98.38
473.092	82.38
473.311	76.38
473.53	82.38
473.749	80.38
473.968	94.38
474.187	106.38
474.406	83.38
474.625	85.38
474.844	96.38
475.063	75.38
475.282	83.38
475.501	91.38
475.72	98.38
475.939	96.38
476.158	82.38
476.377	86.38
476.596	87.38
476.814	95.38
477.033	89.38
477.252	81.38
477.471	94.38
477.69	80.38
477.908	85.38
478.127	106.38
478.346	86.38
478.564	95.38
478.783	85.38
479.002	84.38
479.22	90.38
479.439	101.38
479.658	98.38
479.876	80.38
480.095	96.38
480.313	103.38
480.532	80.38
480.751	94.38
480.969	90.38
481.188	148.38
481.406	139.38
481.624	95.38
481.843	90.38
482.061	96.38
482.28	89.38
482.498	70.38
482.717	71.38
482.935	81.38
483.153	79.38
483.372	88.38
483.59	90.38
483.808	89.38
484.027	89.38
484.245	94.38
484.463	97.38
484.681	112.38
484.9	107.38
485.118	71.38
485.336	95.38
485.554	124.38
485.772	95.38
485.99	107.38
486.209	96.38
486.427	102.38
486.645	101.38
486.863	113.38
487.081	103.38
487.299	106.38
487.517	99.38
487.735	97.38
487.953	98.38
488.171	87.38
488.389	84.38
488.607	106.38
488.825	65.38
489.043	90.38
489.261	94.38
489.479	91.38
489.696	94.38
489.914	84.38
490.132	89.38
490.35	78.38
490.568	90.38
490.786	92.38
491.003	86.38
491.221	85.38
491.439	87.38
491.657	94.38
491.874	76.38
492.092	83.38
492.31	83.38
492.527	80.38
492.745	86.38
492.963	87.38
493.18	84.38
493.398	97.38
493.615	99.38
493.833	90.38
494.05	87.38
494.268	88.38
494.485	106.38
494.703	95.38
494.92	92.38
495.138	97.38
495.355	90.38
495.573	83.38
495.79	98.38
496.008	85.38
496.225	93.38
496.442	86.38
496.66	98.38
496.877	85.38
497.094	102.38
497.312	87.38
497.529	83.38
497.746	89.38
497.963	89.38
498.181	127.38
498.398	107.38
498.615	110.38
498.832	113.38
499.049	69.38
499.267	78.38
499.484	90.38
499.701	89.38
499.918	92.38
500.135	83.38
500.352	73.38
500.569	76.38
500.786	82.38
501.003	81.38
501.22	105.38
501.437	80.38
501.654	88.38
501.871	107.38
502.088	95.38
502.305	103.38
502.522	91.38
502.739	89.38
502.956	84.38
503.172	94.38
503.389	99.38
503.606	85.38
503.823	88.38
504.04	102.38
504.256	79.38
504.473	108.38
504.69	80.38
504.907	84.38
505.123	102.38
505.34	90.38
505.557	83.38
505.773	89.38
505.99	91.38
506.207	92.38
506.423	98.38
506.64	90.38
506.856	93.38
507.073	91.38
507.289	76.38
507.506	106.38
507.722	103.38
507.939	110.38
508.155	98.38
508.372	82.38
508.588	92.38
508.805	87.38
509.021	91.38
509.238	89.38
509.454	104.38
509.67	111.38
509.887	103.38
510.103	136.38
510.319	204.38
510.536	725.38
510.752	2530.38
510.968	733.38
511.184	152.38
511.401	95.38
511.617	95.38
511.833	93.38
512.049	99.38
512.265	94.38
512.481	72.38
512.698	87.38
512.914	90.38
513.13	96.38
513.346	92.38
513.562	90.38
513.778	96.38
513.994	91.38
514.21	98.38
514.426	124.38
514.642	128.38
514.858	117.38
515.074	172.38
515.29	462.38
515.506	1488.38
515.721	571.38
515.937	134.38
516.153	85.38
516.369	96.38
