Data from Circ_2016_H10_HRD10591_00094.txt Node
Date: Wed Jan 03 09:58:59 EST 2024
User: Yrep
Spectrometer: HR+D1059
Trigger mode: 1
Integration Time (sec): 1.000000E-1
Scans to average: 1
Electric dark correction enabled: true
Nonlinearity correction enabled: false
Boxcar width: 0
XAxis mode: Wavelengths
Number of Pixels in Spectrum: 2048
>>>>>Begin Spectral Data<<<<<
223.165	-10.25
223.4	-10.25
223.635	-10.25
223.869	-23.25
224.104	-6.25
224.338	-7.25
224.573	-5.25
224.808	1.75
225.042	-3.25
225.277	-5.25
225.511	-5.25
225.746	-2.25
225.98	-13.25
226.215	6.75
226.449	9.75
226.683	22.75
226.918	18.75
227.152	21.75
227.387	26.75
227.621	46.75
227.856	43.75
228.09	38.75
228.324	40.75
228.559	71.75
228.793	66.75
229.027	64.75
229.262	66.75
229.496	78.75
229.73	90.75
229.964	85.75
230.199	84.75
230.433	70.75
230.667	86.75
230.901	88.75
231.136	78.75
231.37	71.75
231.604	82.75
231.838	68.75
232.072	71.75
232.306	97.75
232.541	69.75
232.775	87.75
233.009	107.75
233.243	79.75
233.477	60.75
233.711	89.75
233.945	85.75
234.179	78.75
234.413	91.75
234.647	91.75
234.881	90.75
235.115	98.75
235.349	84.75
235.583	84.75
235.817	85.75
236.051	63.75
236.285	61.75
236.519	87.75
236.753	92.75
236.987	87.75
237.221	88.75
237.455	83.75
237.689	88.75
237.922	75.75
238.156	67.75
238.39	78.75
238.624	73.75
238.858	74.75
239.091	76.75
239.325	78.75
239.559	94.75
239.793	64.75
240.027	88.75
240.26	76.75
240.494	71.75
240.728	83.75
240.961	82.75
241.195	87.75
241.429	80.75
241.662	80.75
241.896	78.75
242.13	76.75
242.363	82.75
242.597	93.75
242.83	89.75
243.064	78.75
243.298	83.75
243.531	75.75
243.765	89.75
243.998	92.75
244.232	71.75
244.465	85.75
244.699	81.75
244.932	71.75
245.166	77.75
245.399	81.75
245.633	75.75
245.866	63.75
246.099	69.75
246.333	78.75
246.566	75.75
246.8	84.75
247.033	64.75
247.266	79.75
247.5	71.75
247.733	87.75
247.966	86.75
248.2	86.75
248.433	73.75
248.666	82.75
248.899	75.75
249.133	78.75
249.366	118.75
249.599	105.75
249.832	84.75
250.066	82.75
250.299	83.75
250.532	79.75
250.765	72.75
250.998	83.75
251.231	77.75
251.465	64.75
251.698	78.75
251.931	71.75
252.164	92.75
252.397	74.75
252.63	81.75
252.863	84.75
253.096	88.75
253.329	84.75
253.562	72.75
253.795	72.75
254.028	79.75
254.261	82.75
254.494	93.75
254.727	88.75
254.96	80.75
255.193	78.75
255.426	89.75
255.659	71.75
255.892	90.75
256.124	78.75
256.357	75.75
256.59	87.75
256.823	95.75
257.056	82.75
257.289	83.75
257.521	69.75
257.754	77.75
257.987	85.75
258.22	84.75
258.452	74.75
258.685	66.75
258.918	85.75
259.151	80.75
259.383	85.75
259.616	91.75
259.849	81.75
260.081	81.75
260.314	82.75
260.547	84.75
260.779	74.75
261.012	88.75
261.244	84.75
261.477	102.75
261.71	94.75
261.942	114.75
262.175	127.75
262.407	93.75
262.64	82.75
262.872	83.75
263.105	96.75
263.337	88.75
263.57	71.75
263.802	100.75
264.035	87.75
264.267	75.75
264.499	81.75
264.732	81.75
264.964	86.75
265.197	89.75
265.429	84.75
265.661	86.75
265.894	75.75
266.126	83.75
266.358	80.75
266.591	86.75
266.823	85.75
267.055	77.75
267.287	84.75
267.52	79.75
267.752	74.75
267.984	90.75
268.216	87.75
268.448	85.75
268.681	87.75
268.913	83.75
269.145	77.75
269.377	97.75
269.609	88.75
269.841	92.75
270.073	97.75
270.306	87.75
270.538	85.75
270.77	98.75
271.002	101.75
271.234	82.75
271.466	94.75
271.698	95.75
271.93	86.75
272.162	93.75
272.394	86.75
272.626	87.75
272.858	77.75
273.09	79.75
273.322	85.75
273.553	87.75
273.785	71.75
274.017	84.75
274.249	89.75
274.481	77.75
274.713	83.75
274.945	87.75
275.176	77.75
275.408	87.75
275.64	77.75
275.872	96.75
276.104	89.75
276.335	87.75
276.567	105.75
276.799	110.75
277.031	95.75
277.262	90.75
277.494	88.75
277.726	105.75
277.957	82.75
278.189	87.75
278.421	94.75
278.652	86.75
278.884	90.75
279.115	86.75
279.347	78.75
279.579	79.75
279.81	78.75
280.042	93.75
280.273	87.75
280.505	96.75
280.736	117.75
280.968	92.75
281.199	93.75
281.431	93.75
281.662	88.75
281.894	93.75
282.125	99.75
282.356	121.75
282.588	147.75
282.819	124.75
283.051	85.75
283.282	87.75
283.513	90.75
283.745	93.75
283.976	79.75
284.207	81.75
284.439	101.75
284.67	93.75
284.901	84.75
285.132	94.75
285.364	84.75
285.595	86.75
285.826	94.75
286.057	99.75
286.288	89.75
286.52	89.75
286.751	84.75
286.982	84.75
287.213	79.75
287.444	84.75
287.675	79.75
287.906	79.75
288.138	96.75
288.369	102.75
288.6	90.75
288.831	79.75
289.062	97.75
289.293	83.75
289.524	78.75
289.755	96.75
289.986	104.75
290.217	92.75
290.448	98.75
290.679	98.75
290.91	100.75
291.141	93.75
291.371	78.75
291.602	76.75
291.833	98.75
292.064	91.75
292.295	102.75
292.526	99.75
292.757	99.75
292.987	84.75
293.218	90.75
293.449	90.75
293.68	88.75
293.91	92.75
294.141	73.75
294.372	96.75
294.603	88.75
294.833	97.75
295.064	88.75
295.295	88.75
295.525	97.75
295.756	103.75
295.987	120.75
296.217	130.75
296.448	123.75
296.679	102.75
296.909	89.75
297.14	97.75
297.37	92.75
297.601	89.75
297.831	94.75
298.062	78.75
298.292	97.75
298.523	84.75
298.753	78.75
298.984	78.75
299.214	95.75
299.445	92.75
299.675	79.75
299.905	110.75
300.136	91.75
300.366	108.75
300.597	86.75
300.827	84.75
301.057	95.75
301.288	99.75
301.518	108.75
301.748	78.75
301.979	100.75
302.209	102.75
302.439	91.75
302.669	98.75
302.9	108.75
303.13	83.75
303.36	104.75
303.59	94.75
303.82	106.75
304.051	106.75
304.281	100.75
304.511	91.75
304.741	99.75
304.971	85.75
305.201	91.75
305.431	89.75
305.661	69.75
305.891	87.75
306.121	100.75
306.352	88.75
306.582	89.75
306.812	109.75
307.042	103.75
307.272	98.75
307.502	98.75
307.731	90.75
307.961	87.75
308.191	85.75
308.421	107.75
308.651	90.75
308.881	97.75
309.111	111.75
309.341	108.75
309.571	98.75
309.8	99.75
310.03	93.75
310.26	86.75
310.49	98.75
310.72	91.75
310.949	98.75
311.179	111.75
311.409	94.75
311.639	85.75
311.868	79.75
312.098	90.75
312.328	91.75
312.557	101.75
312.787	131.75
313.017	97.75
313.246	99.75
313.476	86.75
313.706	97.75
313.935	92.75
314.165	95.75
314.394	122.75
314.624	103.75
314.853	108.75
315.083	118.75
315.312	85.75
315.542	88.75
315.771	90.75
316.001	106.75
316.23	101.75
316.46	99.75
316.689	91.75
316.919	99.75
317.148	96.75
317.377	85.75
317.607	86.75
317.836	92.75
318.065	100.75
318.295	86.75
318.524	99.75
318.753	100.75
318.983	97.75
319.212	102.75
319.441	116.75
319.67	118.75
319.9	107.75
320.129	93.75
320.358	84.75
320.587	103.75
320.816	95.75
321.046	92.75
321.275	103.75
321.504	94.75
321.733	99.75
321.962	96.75
322.191	98.75
322.42	101.75
322.649	128.75
322.878	110.75
323.108	111.75
323.337	118.75
323.566	124.75
323.795	161.75
324.024	232.75
324.253	455.75
324.482	943.75
324.71	1938.75
324.939	2571.75
325.168	955.75
325.397	270.75
325.626	151.75
325.855	141.75
326.084	123.75
326.313	147.75
326.542	179.75
326.77	269.75
326.999	525.75
327.228	1079.75
327.457	1969.75
327.686	1547.75
327.914	425.75
328.143	214.75
328.372	165.75
328.6	135.75
328.829	137.75
329.058	143.75
329.287	137.75
329.515	99.75
329.744	115.75
329.972	132.75
330.201	156.75
330.43	188.75
330.658	152.75
330.887	141.75
331.115	120.75
331.344	107.75
331.572	102.75
331.801	103.75
332.03	114.75
332.258	77.75
332.486	92.75
332.715	94.75
332.943	98.75
333.172	106.75
333.4	90.75
333.629	117.75
333.857	117.75
334.085	115.75
334.314	157.75
334.542	204.75
334.771	185.75
334.999	126.75
335.227	97.75
335.455	115.75
335.684	87.75
335.912	94.75
336.14	118.75
336.369	98.75
336.597	98.75
336.825	91.75
337.053	104.75
337.281	94.75
337.51	85.75
337.738	84.75
337.966	104.75
338.194	81.75
338.422	85.75
338.65	84.75
338.878	95.75
339.106	86.75
339.334	88.75
339.562	69.75
339.79	93.75
340.018	81.75
340.246	97.75
340.474	106.75
340.702	90.75
340.93	101.75
341.158	88.75
341.386	101.75
341.614	91.75
341.842	90.75
342.07	90.75
342.298	88.75
342.526	88.75
342.754	94.75
342.981	91.75
343.209	87.75
343.437	85.75
343.665	87.75
343.893	95.75
344.12	85.75
344.348	91.75
344.576	92.75
344.804	103.75
345.031	106.75
345.259	111.75
345.487	110.75
345.714	115.75
345.942	92.75
346.17	113.75
346.397	91.75
346.625	88.75
346.853	81.75
347.08	93.75
347.308	95.75
347.535	100.75
347.763	98.75
347.99	99.75
348.218	94.75
348.445	92.75
348.673	105.75
348.9	102.75
349.128	105.75
349.355	96.75
349.583	104.75
349.81	97.75
350.037	92.75
350.265	88.75
350.492	91.75
350.72	90.75
350.947	87.75
351.174	98.75
351.402	90.75
351.629	110.75
351.856	89.75
352.083	104.75
352.311	102.75
352.538	107.75
352.765	99.75
352.992	102.75
353.22	113.75
353.447	114.75
353.674	104.75
353.901	99.75
354.128	89.75
354.355	100.75
354.583	102.75
354.81	93.75
355.037	102.75
355.264	109.75
355.491	96.75
355.718	82.75
355.945	92.75
356.172	101.75
356.399	102.75
356.626	98.75
356.853	101.75
357.08	101.75
357.307	92.75
357.534	89.75
357.761	98.75
357.988	89.75
358.215	96.75
358.441	90.75
358.668	111.75
358.895	83.75
359.122	96.75
359.349	92.75
359.576	100.75
359.802	107.75
360.029	122.75
360.256	109.75
360.483	111.75
360.709	84.75
360.936	104.75
361.163	81.75
361.39	87.75
361.616	99.75
361.843	100.75
362.07	102.75
362.296	98.75
362.523	94.75
362.749	94.75
362.976	75.75
363.203	100.75
363.429	79.75
363.656	88.75
363.882	91.75
364.109	94.75
364.335	96.75
364.562	88.75
364.788	83.75
365.015	100.75
365.241	85.75
365.468	102.75
365.694	107.75
365.92	92.75
366.147	78.75
366.373	82.75
366.599	74.75
366.826	94.75
367.052	108.75
367.278	92.75
367.505	85.75
367.731	78.75
367.957	96.75
368.184	94.75
368.41	116.75
368.636	98.75
368.862	116.75
369.089	98.75
369.315	91.75
369.541	97.75
369.767	92.75
369.993	88.75
370.219	92.75
370.445	95.75
370.672	85.75
370.898	79.75
371.124	92.75
371.35	81.75
371.576	103.75
371.802	87.75
372.028	76.75
372.254	94.75
372.48	81.75
372.706	87.75
372.932	95.75
373.158	91.75
373.384	94.75
373.61	91.75
373.835	90.75
374.061	98.75
374.287	93.75
374.513	100.75
374.739	91.75
374.965	98.75
375.191	94.75
375.416	93.75
375.642	85.75
375.868	89.75
376.094	95.75
376.319	90.75
376.545	93.75
376.771	90.75
376.997	90.75
377.222	90.75
377.448	99.75
377.674	96.75
377.899	99.75
378.125	100.75
378.35	88.75
378.576	102.75
378.802	97.75
379.027	99.75
379.253	113.75
379.478	105.75
379.704	103.75
379.929	81.75
380.155	100.75
380.38	95.75
380.606	111.75
380.831	118.75
381.057	108.75
381.282	96.75
381.507	98.75
381.733	87.75
381.958	102.75
382.184	102.75
382.409	93.75
382.634	114.75
382.86	102.75
383.085	103.75
383.31	96.75
383.535	101.75
383.761	102.75
383.986	107.75
384.211	101.75
384.436	92.75
384.662	109.75
384.887	109.75
385.112	107.75
385.337	107.75
385.562	112.75
385.787	102.75
386.013	110.75
386.238	111.75
386.463	98.75
386.688	102.75
386.913	100.75
387.138	95.75
387.363	101.75
387.588	115.75
387.813	92.75
388.038	106.75
388.263	125.75
388.488	103.75
388.713	82.75
388.938	106.75
389.163	105.75
389.387	98.75
389.612	102.75
389.837	108.75
390.062	99.75
390.287	85.75
390.512	98.75
390.736	83.75
390.961	81.75
391.186	94.75
391.411	101.75
391.636	101.75
391.86	78.75
392.085	97.75
392.31	99.75
392.534	94.75
392.759	84.75
392.984	88.75
393.208	88.75
393.433	93.75
393.658	79.75
393.882	85.75
394.107	69.75
394.331	87.75
394.556	81.75
394.78	93.75
395.005	85.75
395.229	93.75
395.454	92.75
395.678	85.75
395.903	94.75
396.127	85.75
396.352	95.75
396.576	94.75
396.801	85.75
397.025	77.75
397.249	98.75
397.474	89.75
397.698	93.75
397.922	91.75
398.147	89.75
398.371	94.75
398.595	92.75
398.82	101.75
399.044	73.75
399.268	85.75
399.492	88.75
399.717	97.75
399.941	81.75
400.165	114.75
400.389	93.75
400.613	82.75
400.837	92.75
401.062	84.75
401.286	89.75
401.51	101.75
401.734	98.75
401.958	122.75
402.182	120.75
402.406	149.75
402.63	129.75
402.854	94.75
403.078	84.75
403.302	94.75
403.526	91.75
403.75	98.75
403.974	88.75
404.198	105.75
404.422	99.75
404.645	85.75
404.869	112.75
405.093	93.75
405.317	97.75
405.541	116.75
405.765	106.75
405.988	117.75
406.212	186.75
406.436	224.75
406.66	132.75
406.883	94.75
407.107	99.75
407.331	98.75
407.555	91.75
407.778	87.75
408.002	74.75
408.226	100.75
408.449	87.75
408.673	89.75
408.896	92.75
409.12	102.75
409.344	98.75
409.567	102.75
409.791	85.75
410.014	90.75
410.238	83.75
410.461	98.75
410.685	103.75
410.908	98.75
411.132	113.75
411.355	100.75
411.578	86.75
411.802	93.75
412.025	98.75
412.249	68.75
412.472	102.75
412.695	104.75
412.919	78.75
413.142	95.75
413.365	76.75
413.589	93.75
413.812	97.75
414.035	88.75
414.258	88.75
414.482	87.75
414.705	90.75
414.928	100.75
415.151	89.75
415.374	101.75
415.597	98.75
415.821	81.75
416.044	81.75
416.267	87.75
416.49	79.75
416.713	82.75
416.936	81.75
417.159	79.75
417.382	97.75
417.605	80.75
417.828	94.75
418.051	93.75
418.274	93.75
418.497	99.75
418.72	98.75
418.943	89.75
419.166	91.75
419.389	80.75
419.611	79.75
419.834	87.75
420.057	105.75
420.28	78.75
420.503	85.75
420.726	93.75
420.948	90.75
421.171	102.75
421.394	93.75
421.617	102.75
421.839	82.75
422.062	96.75
422.285	99.75
422.507	105.75
422.73	96.75
422.953	100.75
423.175	72.75
423.398	94.75
423.621	96.75
423.843	85.75
424.066	91.75
424.288	95.75
424.511	73.75
424.733	104.75
424.956	102.75
425.178	100.75
425.401	105.75
425.623	102.75
425.846	75.75
426.068	89.75
426.291	99.75
426.513	89.75
426.735	89.75
426.958	98.75
427.18	108.75
427.402	147.75
427.625	174.75
427.847	143.75
428.069	137.75
428.292	100.75
428.514	89.75
428.736	89.75
428.958	79.75
429.181	93.75
429.403	81.75
429.625	96.75
429.847	90.75
430.069	92.75
430.292	88.75
430.514	82.75
430.736	83.75
430.958	86.75
431.18	76.75
431.402	71.75
431.624	94.75
431.846	74.75
432.068	89.75
432.29	86.75
432.512	95.75
432.734	103.75
432.956	90.75
433.178	118.75
433.4	88.75
433.622	85.75
433.844	85.75
434.066	101.75
434.287	94.75
434.509	87.75
434.731	96.75
434.953	84.75
435.175	86.75
435.397	97.75
435.618	100.75
435.84	105.75
436.062	118.75
436.284	133.75
436.505	101.75
436.727	100.75
436.949	91.75
437.17	106.75
437.392	78.75
437.614	94.75
437.835	95.75
438.057	130.75
438.278	125.75
438.5	118.75
438.721	127.75
438.943	117.75
439.165	101.75
439.386	92.75
439.608	100.75
439.829	106.75
440.05	119.75
440.272	153.75
440.493	113.75
440.715	85.75
440.936	90.75
441.158	83.75
441.379	88.75
441.6	95.75
441.822	86.75
442.043	100.75
442.264	108.75
442.486	104.75
442.707	80.75
442.928	98.75
443.149	122.75
443.371	137.75
443.592	101.75
443.813	113.75
444.034	109.75
444.255	93.75
444.476	85.75
444.698	100.75
444.919	90.75
445.14	128.75
445.361	121.75
445.582	110.75
445.803	156.75
446.024	150.75
446.245	147.75
446.466	113.75
446.687	82.75
446.908	103.75
447.129	99.75
447.35	99.75
447.571	92.75
447.792	91.75
448.013	116.75
448.234	110.75
448.455	93.75
448.675	102.75
448.896	118.75
449.117	99.75
449.338	110.75
449.559	131.75
449.779	136.75
450	115.75
450.221	88.75
450.442	81.75
450.662	92.75
450.883	99.75
451.104	103.75
451.324	106.75
451.545	87.75
451.766	80.75
451.986	95.75
452.207	90.75
452.428	78.75
452.648	87.75
452.869	107.75
453.089	123.75
453.31	120.75
453.53	101.75
453.751	99.75
453.971	108.75
454.192	108.75
454.412	88.75
454.633	88.75
454.853	68.75
455.073	80.75
455.294	82.75
455.514	103.75
455.734	106.75
455.955	80.75
456.175	87.75
456.395	86.75
456.616	79.75
456.836	74.75
457.056	98.75
457.276	87.75
457.497	103.75
457.717	78.75
457.937	88.75
458.157	87.75
458.377	86.75
458.598	88.75
458.818	134.75
459.038	144.75
459.258	126.75
459.478	88.75
459.698	87.75
459.918	79.75
460.138	81.75
460.358	90.75
460.578	85.75
460.798	91.75
461.018	80.75
461.238	92.75
461.458	98.75
461.678	101.75
461.898	83.75
462.118	81.75
462.338	80.75
462.558	92.75
462.777	77.75
462.997	88.75
463.217	92.75
463.437	96.75
463.657	94.75
463.876	87.75
464.096	101.75
464.316	96.75
464.536	94.75
464.755	109.75
464.975	104.75
465.195	161.75
465.414	170.75
465.634	96.75
465.854	92.75
466.073	99.75
466.293	90.75
466.512	92.75
466.732	85.75
466.951	87.75
467.171	97.75
467.391	86.75
467.61	101.75
467.829	91.75
468.049	115.75
468.268	135.75
468.488	105.75
468.707	90.75
468.927	84.75
469.146	78.75
469.365	89.75
469.585	103.75
469.804	91.75
470.023	101.75
470.243	113.75
470.462	99.75
470.681	107.75
470.901	96.75
471.12	90.75
471.339	82.75
471.558	85.75
471.777	84.75
471.997	106.75
472.216	151.75
472.435	257.75
472.654	129.75
472.873	87.75
473.092	87.75
473.311	87.75
473.53	98.75
473.749	95.75
473.968	94.75
474.187	109.75
474.406	102.75
474.625	78.75
474.844	89.75
475.063	86.75
475.282	87.75
475.501	88.75
475.72	97.75
475.939	86.75
476.158	86.75
476.377	96.75
476.596	79.75
476.814	90.75
477.033	85.75
477.252	86.75
477.471	81.75
477.69	81.75
477.908	97.75
478.127	71.75
478.346	111.75
478.564	88.75
478.783	97.75
479.002	102.75
479.22	99.75
479.439	87.75
479.658	109.75
479.876	101.75
480.095	88.75
480.313	98.75
480.532	100.75
480.751	99.75
480.969	164.75
481.188	397.75
481.406	286.75
481.624	112.75
481.843	101.75
482.061	111.75
482.28	85.75
482.498	90.75
482.717	81.75
482.935	90.75
483.153	94.75
483.372	86.75
483.59	111.75
483.808	97.75
484.027	89.75
484.245	93.75
484.463	99.75
484.681	93.75
484.9	89.75
485.118	91.75
485.336	103.75
485.554	102.75
485.772	92.75
485.99	92.75
486.209	105.75
486.427	104.75
486.645	123.75
486.863	101.75
487.081	92.75
487.299	106.75
487.517	97.75
487.735	81.75
487.953	89.75
488.171	89.75
488.389	99.75
488.607	97.75
488.825	93.75
489.043	79.75
489.261	91.75
489.479	94.75
489.696	94.75
489.914	90.75
490.132	67.75
490.35	83.75
490.568	92.75
490.786	76.75
491.003	76.75
491.221	82.75
491.439	81.75
491.657	88.75
491.874	92.75
492.092	86.75
492.31	97.75
492.527	83.75
492.745	109.75
492.963	106.75
493.18	98.75
493.398	96.75
493.615	89.75
493.833	94.75
494.05	91.75
494.268	79.75
494.485	82.75
494.703	87.75
494.92	94.75
495.138	84.75
495.355	95.75
495.573	88.75
495.79	96.75
496.008	97.75
496.225	99.75
496.442	94.75
496.66	78.75
496.877	99.75
497.094	88.75
497.312	98.75
497.529	72.75
497.746	90.75
497.963	79.75
498.181	95.75
498.398	113.75
498.615	104.75
498.832	106.75
499.049	100.75
499.267	104.75
499.484	83.75
499.701	74.75
499.918	92.75
500.135	92.75
500.352	91.75
500.569	100.75
500.786	81.75
501.003	89.75
501.22	89.75
501.437	86.75
501.654	98.75
501.871	100.75
502.088	91.75
502.305	94.75
502.522	97.75
502.739	83.75
502.956	91.75
503.172	98.75
503.389	94.75
503.606	105.75
503.823	101.75
504.04	96.75
504.256	97.75
504.473	82.75
504.69	83.75
504.907	99.75
505.123	89.75
505.34	84.75
505.557	87.75
505.773	85.75
505.99	98.75
506.207	81.75
506.423	79.75
506.64	94.75
506.856	74.75
507.073	96.75
507.289	94.75
507.506	96.75
507.722	106.75
507.939	106.75
508.155	86.75
508.372	92.75
508.588	94.75
508.805	95.75
509.021	108.75
509.238	114.75
509.454	93.75
509.67	97.75
509.887	100.75
510.103	138.75
510.319	215.75
510.536	775.75
510.752	2613.75
510.968	761.75
511.184	171.75
511.401	111.75
511.617	107.75
511.833	93.75
512.049	105.75
512.265	78.75
512.481	92.75
512.698	88.75
512.914	95.75
513.13	101.75
513.346	91.75
513.562	95.75
513.778	94.75
513.994	99.75
514.21	103.75
514.426	110.75
514.642	134.75
514.858	125.75
