Data from Circ_2016_H10_HRD10591_00058.txt Node
Date: Wed Jan 03 09:58:52 EST 2024
User: Yrep
Spectrometer: HR+D1059
Trigger mode: 1
Integration Time (sec): 1.000000E-1
Scans to average: 1
Electric dark correction enabled: true
Nonlinearity correction enabled: false
Boxcar width: 0
XAxis mode: Wavelengths
Number of Pixels in Spectrum: 2048
>>>>>Begin Spectral Data<<<<<
223.165	-26.81
223.4	-26.81
223.635	-26.81
223.869	-23.81
224.104	-10.81
224.338	-14.81
224.573	-9.81
224.808	-5.81
225.042	-15.81
225.277	-6.81
225.511	6.19
225.746	8.19
225.98	16.19
226.215	15.19
226.449	8.19
226.683	16.19
226.918	16.19
227.152	28.19
227.387	37.19
227.621	21.19
227.856	26.19
228.09	37.19
228.324	42.19
228.559	39.19
228.793	65.19
229.027	55.19
229.262	62.19
229.496	65.19
229.73	83.19
229.964	70.19
230.199	87.19
230.433	71.19
230.667	78.19
230.901	67.19
231.136	74.19
231.37	79.19
231.604	82.19
231.838	80.19
232.072	85.19
232.306	86.19
232.541	73.19
232.775	73.19
233.009	74.19
233.243	89.19
233.477	62.19
233.711	67.19
233.945	92.19
234.179	79.19
234.413	69.19
234.647	87.19
234.881	70.19
235.115	80.19
235.349	71.19
235.583	84.19
235.817	67.19
236.051	81.19
236.285	95.19
236.519	64.19
236.753	81.19
236.987	83.19
237.221	74.19
237.455	83.19
237.689	79.19
237.922	61.19
238.156	53.19
238.39	72.19
238.624	80.19
238.858	73.19
239.091	75.19
239.325	75.19
239.559	92.19
239.793	67.19
240.027	72.19
240.26	57.19
240.494	68.19
240.728	84.19
240.961	66.19
241.195	81.19
241.429	76.19
241.662	73.19
241.896	73.19
242.13	83.19
242.363	82.19
242.597	95.19
242.83	77.19
243.064	86.19
243.298	74.19
243.531	71.19
243.765	69.19
243.998	82.19
244.232	81.19
244.465	80.19
244.699	71.19
244.932	70.19
245.166	71.19
245.399	88.19
245.633	70.19
245.866	82.19
246.099	86.19
246.333	67.19
246.566	69.19
246.8	80.19
247.033	93.19
247.266	80.19
247.5	66.19
247.733	73.19
247.966	64.19
248.2	74.19
248.433	86.19
248.666	74.19
248.899	87.19
249.133	86.19
249.366	81.19
249.599	101.19
249.832	98.19
250.066	89.19
250.299	69.19
250.532	78.19
250.765	65.19
250.998	73.19
251.231	84.19
251.465	98.19
251.698	81.19
251.931	64.19
252.164	79.19
252.397	80.19
252.63	74.19
252.863	86.19
253.096	85.19
253.329	101.19
253.562	84.19
253.795	74.19
254.028	88.19
254.261	97.19
254.494	83.19
254.727	66.19
254.96	72.19
255.193	69.19
255.426	78.19
255.659	71.19
255.892	93.19
256.124	83.19
256.357	87.19
256.59	69.19
256.823	79.19
257.056	69.19
257.289	83.19
257.521	77.19
257.754	77.19
257.987	61.19
258.22	84.19
258.452	74.19
258.685	88.19
258.918	77.19
259.151	66.19
259.383	83.19
259.616	89.19
259.849	73.19
260.081	76.19
260.314	83.19
260.547	83.19
260.779	93.19
261.012	72.19
261.244	91.19
261.477	81.19
261.71	104.19
261.942	111.19
262.175	114.19
262.407	105.19
262.64	75.19
262.872	78.19
263.105	83.19
263.337	82.19
263.57	79.19
263.802	87.19
264.035	79.19
264.267	81.19
264.499	82.19
264.732	74.19
264.964	82.19
265.197	72.19
265.429	88.19
265.661	75.19
265.894	79.19
266.126	80.19
266.358	74.19
266.591	90.19
266.823	80.19
267.055	85.19
267.287	107.19
267.52	76.19
267.752	79.19
267.984	75.19
268.216	71.19
268.448	95.19
268.681	90.19
268.913	91.19
269.145	97.19
269.377	93.19
269.609	91.19
269.841	81.19
270.073	93.19
270.306	80.19
270.538	86.19
270.77	79.19
271.002	82.19
271.234	75.19
271.466	75.19
271.698	89.19
271.93	73.19
272.162	81.19
272.394	80.19
272.626	96.19
272.858	84.19
273.09	73.19
273.322	72.19
273.553	81.19
273.785	72.19
274.017	81.19
274.249	83.19
274.481	82.19
274.713	85.19
274.945	78.19
275.176	70.19
275.408	73.19
275.64	83.19
275.872	91.19
276.104	87.19
276.335	88.19
276.567	99.19
276.799	97.19
277.031	100.19
277.262	83.19
277.494	85.19
277.726	74.19
277.957	90.19
278.189	90.19
278.421	86.19
278.652	81.19
278.884	87.19
279.115	109.19
279.347	79.19
279.579	84.19
279.81	75.19
280.042	81.19
280.273	75.19
280.505	86.19
280.736	100.19
280.968	81.19
281.199	69.19
281.431	89.19
281.662	80.19
281.894	75.19
282.125	89.19
282.356	111.19
282.588	149.19
282.819	132.19
283.051	94.19
283.282	93.19
283.513	85.19
283.745	75.19
283.976	93.19
284.207	80.19
284.439	82.19
284.67	89.19
284.901	82.19
285.132	79.19
285.364	71.19
285.595	90.19
285.826	79.19
286.057	75.19
286.288	89.19
286.52	94.19
286.751	87.19
286.982	82.19
287.213	82.19
287.444	93.19
287.675	86.19
287.906	97.19
288.138	88.19
288.369	97.19
288.6	96.19
288.831	80.19
289.062	94.19
289.293	93.19
289.524	90.19
289.755	95.19
289.986	86.19
290.217	98.19
290.448	82.19
290.679	81.19
290.91	90.19
291.141	91.19
291.371	86.19
291.602	70.19
291.833	83.19
292.064	95.19
292.295	86.19
292.526	97.19
292.757	93.19
292.987	86.19
293.218	106.19
293.449	76.19
293.68	86.19
293.91	84.19
294.141	87.19
294.372	96.19
294.603	89.19
294.833	86.19
295.064	96.19
295.295	92.19
295.525	106.19
295.756	95.19
295.987	104.19
296.217	143.19
296.448	129.19
296.679	81.19
296.909	96.19
297.14	79.19
297.37	85.19
297.601	81.19
297.831	87.19
298.062	99.19
298.292	87.19
298.523	87.19
298.753	96.19
298.984	97.19
299.214	88.19
299.445	75.19
299.675	104.19
299.905	97.19
300.136	85.19
300.366	90.19
300.597	98.19
300.827	102.19
301.057	109.19
301.288	103.19
301.518	103.19
301.748	93.19
301.979	92.19
302.209	89.19
302.439	98.19
302.669	87.19
302.9	94.19
303.13	81.19
303.36	84.19
303.59	102.19
303.82	115.19
304.051	93.19
304.281	92.19
304.511	93.19
304.741	70.19
304.971	88.19
305.201	93.19
305.431	75.19
305.661	95.19
305.891	88.19
306.121	86.19
306.352	109.19
306.582	101.19
306.812	87.19
307.042	101.19
307.272	90.19
307.502	94.19
307.731	90.19
307.961	81.19
308.191	79.19
308.421	81.19
308.651	78.19
308.881	95.19
309.111	94.19
309.341	97.19
309.571	96.19
309.8	108.19
310.03	91.19
310.26	95.19
310.49	84.19
310.72	98.19
310.949	107.19
311.179	93.19
311.409	96.19
311.639	95.19
311.868	93.19
312.098	98.19
312.328	102.19
312.557	101.19
312.787	117.19
313.017	102.19
313.246	104.19
313.476	96.19
313.706	94.19
313.935	109.19
314.165	95.19
314.394	110.19
314.624	118.19
314.853	89.19
315.083	77.19
315.312	75.19
315.542	87.19
315.771	86.19
316.001	87.19
316.23	90.19
316.46	95.19
316.689	88.19
316.919	102.19
317.148	88.19
317.377	104.19
317.607	99.19
317.836	84.19
318.065	112.19
318.295	109.19
318.524	95.19
318.753	92.19
318.983	86.19
319.212	87.19
319.441	106.19
319.67	113.19
319.9	85.19
320.129	103.19
320.358	89.19
320.587	80.19
320.816	98.19
321.046	108.19
321.275	94.19
321.504	101.19
321.733	100.19
321.962	102.19
322.191	103.19
322.42	111.19
322.649	105.19
322.878	113.19
323.108	110.19
323.337	123.19
323.566	138.19
323.795	156.19
324.024	225.19
324.253	443.19
324.482	987.19
324.71	1990.19
324.939	2654.19
325.168	976.19
325.397	283.19
325.626	149.19
325.855	149.19
326.084	126.19
326.313	144.19
326.542	172.19
326.77	269.19
326.999	543.19
327.228	1117.19
327.457	2034.19
327.686	1569.19
327.914	434.19
328.143	216.19
328.372	157.19
328.6	135.19
328.829	114.19
329.058	112.19
329.287	136.19
329.515	107.19
329.744	97.19
329.972	126.19
330.201	129.19
330.43	133.19
330.658	134.19
330.887	154.19
331.115	129.19
331.344	89.19
331.572	108.19
331.801	113.19
332.03	106.19
332.258	93.19
332.486	91.19
332.715	101.19
332.943	76.19
333.172	102.19
333.4	96.19
333.629	105.19
333.857	116.19
334.085	120.19
334.314	129.19
334.542	147.19
334.771	135.19
334.999	102.19
335.227	102.19
335.455	90.19
335.684	97.19
335.912	102.19
336.14	103.19
336.369	108.19
336.597	97.19
336.825	105.19
337.053	91.19
337.281	89.19
337.51	82.19
337.738	96.19
337.966	118.19
338.194	101.19
338.422	93.19
338.65	102.19
338.878	71.19
339.106	96.19
339.334	82.19
339.562	84.19
339.79	100.19
340.018	83.19
340.246	91.19
340.474	86.19
340.702	97.19
340.93	73.19
341.158	85.19
341.386	106.19
341.614	101.19
341.842	93.19
342.07	91.19
342.298	89.19
342.526	104.19
342.754	96.19
342.981	79.19
343.209	90.19
343.437	99.19
343.665	75.19
343.893	88.19
344.12	88.19
344.348	84.19
344.576	90.19
344.804	93.19
345.031	81.19
345.259	80.19
345.487	93.19
345.714	89.19
345.942	100.19
346.17	102.19
346.397	93.19
346.625	85.19
346.853	96.19
347.08	93.19
347.308	84.19
347.535	91.19
347.763	88.19
347.99	96.19
348.218	95.19
348.445	104.19
348.673	93.19
348.9	96.19
349.128	84.19
349.355	101.19
349.583	95.19
349.81	103.19
350.037	92.19
350.265	95.19
350.492	87.19
350.72	90.19
350.947	114.19
351.174	100.19
351.402	113.19
351.629	94.19
351.856	109.19
352.083	88.19
352.311	88.19
352.538	113.19
352.765	89.19
352.992	116.19
353.22	104.19
353.447	106.19
353.674	103.19
353.901	93.19
354.128	94.19
354.355	89.19
354.583	96.19
354.81	105.19
355.037	104.19
355.264	85.19
355.491	84.19
355.718	89.19
355.945	78.19
356.172	96.19
356.399	85.19
356.626	97.19
356.853	96.19
357.08	80.19
357.307	101.19
357.534	79.19
357.761	93.19
357.988	92.19
358.215	103.19
358.441	92.19
358.668	97.19
358.895	95.19
359.122	86.19
359.349	94.19
359.576	91.19
359.802	84.19
360.029	106.19
360.256	117.19
360.483	103.19
360.709	88.19
360.936	88.19
361.163	101.19
361.39	95.19
361.616	95.19
361.843	84.19
362.07	101.19
362.296	99.19
362.523	94.19
362.749	94.19
362.976	99.19
363.203	91.19
363.429	100.19
363.656	88.19
363.882	97.19
364.109	81.19
364.335	91.19
364.562	79.19
364.788	88.19
365.015	87.19
365.241	100.19
365.468	106.19
365.694	101.19
365.92	95.19
366.147	77.19
366.373	94.19
366.599	86.19
366.826	75.19
367.052	86.19
367.278	112.19
367.505	83.19
367.731	89.19
367.957	90.19
368.184	100.19
368.41	106.19
368.636	107.19
368.862	113.19
369.089	115.19
369.315	103.19
369.541	90.19
369.767	94.19
369.993	98.19
370.219	85.19
370.445	92.19
370.672	76.19
370.898	72.19
371.124	93.19
371.35	83.19
371.576	88.19
371.802	84.19
372.028	88.19
372.254	111.19
372.48	92.19
372.706	82.19
372.932	67.19
373.158	88.19
373.384	89.19
373.61	89.19
373.835	78.19
374.061	90.19
374.287	88.19
374.513	96.19
374.739	75.19
374.965	90.19
375.191	95.19
375.416	94.19
375.642	88.19
375.868	70.19
376.094	87.19
376.319	84.19
376.545	86.19
376.771	90.19
376.997	87.19
377.222	76.19
377.448	97.19
377.674	103.19
377.899	94.19
378.125	82.19
378.35	96.19
378.576	94.19
378.802	78.19
379.027	93.19
379.253	95.19
379.478	80.19
379.704	73.19
379.929	88.19
380.155	104.19
380.38	106.19
380.606	98.19
380.831	103.19
381.057	96.19
381.282	97.19
381.507	114.19
381.733	108.19
381.958	94.19
382.184	94.19
382.409	87.19
382.634	103.19
382.86	96.19
383.085	97.19
383.31	116.19
383.535	93.19
383.761	104.19
383.986	93.19
384.211	110.19
384.436	93.19
384.662	98.19
384.887	109.19
385.112	118.19
385.337	99.19
385.562	119.19
385.787	117.19
386.013	97.19
386.238	120.19
386.463	103.19
386.688	117.19
386.913	115.19
387.138	119.19
387.363	110.19
387.588	116.19
387.813	96.19
388.038	103.19
388.263	117.19
388.488	128.19
388.713	98.19
388.938	103.19
389.163	91.19
389.387	93.19
389.612	82.19
389.837	102.19
390.062	88.19
390.287	102.19
390.512	80.19
390.736	89.19
390.961	98.19
391.186	93.19
391.411	89.19
391.636	75.19
391.86	80.19
392.085	85.19
392.31	82.19
392.534	84.19
392.759	79.19
392.984	89.19
393.208	79.19
393.433	95.19
393.658	103.19
393.882	89.19
394.107	74.19
394.331	83.19
394.556	85.19
394.78	92.19
395.005	72.19
395.229	78.19
395.454	79.19
395.678	95.19
395.903	92.19
396.127	81.19
396.352	96.19
396.576	94.19
396.801	94.19
397.025	111.19
397.249	73.19
397.474	80.19
397.698	91.19
397.922	81.19
398.147	80.19
398.371	86.19
398.595	92.19
398.82	79.19
399.044	79.19
399.268	81.19
399.492	88.19
399.717	93.19
399.941	92.19
400.165	88.19
400.389	91.19
400.613	86.19
400.837	73.19
401.062	92.19
401.286	85.19
401.51	79.19
401.734	84.19
401.958	93.19
402.182	125.19
402.406	159.19
402.63	125.19
402.854	101.19
403.078	75.19
403.302	90.19
403.526	83.19
403.75	73.19
403.974	107.19
404.198	90.19
404.422	89.19
404.645	94.19
404.869	101.19
405.093	77.19
405.317	82.19
405.541	84.19
405.765	98.19
405.988	118.19
406.212	177.19
406.436	262.19
406.66	148.19
406.883	113.19
407.107	92.19
407.331	103.19
407.555	94.19
407.778	104.19
408.002	79.19
408.226	88.19
408.449	91.19
408.673	96.19
408.896	88.19
409.12	101.19
409.344	85.19
409.567	96.19
409.791	88.19
410.014	82.19
410.238	88.19
410.461	85.19
410.685	83.19
410.908	96.19
411.132	95.19
411.355	84.19
411.578	84.19
411.802	96.19
412.025	81.19
412.249	89.19
412.472	82.19
412.695	90.19
412.919	84.19
413.142	83.19
413.365	96.19
413.589	90.19
413.812	99.19
414.035	86.19
414.258	89.19
414.482	75.19
414.705	80.19
414.928	96.19
415.151	91.19
415.374	87.19
415.597	88.19
415.821	78.19
416.044	85.19
416.267	88.19
416.49	60.19
416.713	73.19
416.936	76.19
417.159	71.19
417.382	80.19
417.605	72.19
417.828	84.19
418.051	65.19
418.274	86.19
418.497	77.19
418.72	79.19
418.943	91.19
419.166	89.19
419.389	90.19
419.611	69.19
419.834	81.19
420.057	78.19
420.28	84.19
420.503	97.19
420.726	86.19
420.948	77.19
421.171	79.19
421.394	82.19
421.617	80.19
421.839	100.19
422.062	83.19
422.285	92.19
422.507	96.19
422.73	96.19
422.953	82.19
423.175	102.19
423.398	91.19
423.621	79.19
423.843	88.19
424.066	80.19
424.288	87.19
424.511	81.19
424.733	96.19
424.956	101.19
425.178	96.19
425.401	73.19
425.623	93.19
425.846	94.19
426.068	67.19
426.291	79.19
426.513	89.19
426.735	88.19
426.958	94.19
427.18	92.19
427.402	126.19
427.625	166.19
427.847	144.19
428.069	97.19
428.292	84.19
428.514	101.19
428.736	81.19
428.958	88.19
429.181	90.19
429.403	73.19
429.625	78.19
429.847	113.19
430.069	90.19
430.292	89.19
430.514	73.19
430.736	64.19
430.958	99.19
431.18	83.19
431.402	93.19
431.624	76.19
431.846	81.19
432.068	76.19
432.29	88.19
432.512	94.19
432.734	95.19
432.956	85.19
433.178	95.19
433.4	100.19
433.622	91.19
433.844	92.19
434.066	77.19
434.287	94.19
434.509	103.19
434.731	89.19
434.953	75.19
435.175	78.19
435.397	90.19
435.618	91.19
435.84	100.19
436.062	125.19
436.284	120.19
436.505	103.19
436.727	98.19
436.949	93.19
437.17	84.19
437.392	65.19
437.614	82.19
437.835	105.19
438.057	127.19
438.278	94.19
438.5	105.19
438.721	102.19
438.943	102.19
439.165	70.19
439.386	79.19
439.608	88.19
439.829	87.19
440.05	128.19
440.272	155.19
440.493	93.19
440.715	77.19
440.936	89.19
441.158	85.19
441.379	82.19
441.6	98.19
441.822	89.19
442.043	94.19
442.264	89.19
442.486	101.19
442.707	68.19
442.928	100.19
443.149	128.19
443.371	130.19
443.592	100.19
443.813	98.19
444.034	111.19
444.255	79.19
444.476	83.19
444.698	85.19
444.919	85.19
445.14	140.19
445.361	130.19
445.582	117.19
445.803	145.19
446.024	143.19
446.245	140.19
446.466	101.19
446.687	90.19
446.908	80.19
447.129	87.19
447.35	74.19
447.571	94.19
447.792	79.19
448.013	115.19
448.234	94.19
448.455	88.19
448.675	115.19
448.896	112.19
449.117	80.19
449.338	93.19
449.559	138.19
449.779	131.19
450	99.19
450.221	73.19
450.442	86.19
450.662	95.19
450.883	109.19
451.104	102.19
451.324	93.19
451.545	91.19
451.766	87.19
451.986	90.19
452.207	90.19
452.428	82.19
452.648	106.19
452.869	98.19
453.089	111.19
453.31	117.19
453.53	87.19
453.751	90.19
453.971	98.19
454.192	97.19
454.412	96.19
454.633	74.19
454.853	79.19
455.073	74.19
455.294	85.19
455.514	102.19
455.734	95.19
455.955	78.19
456.175	86.19
456.395	80.19
456.616	86.19
456.836	79.19
457.056	88.19
457.276	79.19
457.497	91.19
457.717	86.19
457.937	69.19
458.157	89.19
458.377	88.19
458.598	104.19
458.818	153.19
459.038	164.19
459.258	131.19
459.478	103.19
459.698	86.19
459.918	82.19
460.138	92.19
460.358	74.19
460.578	89.19
460.798	98.19
461.018	81.19
461.238	74.19
461.458	76.19
461.678	80.19
461.898	79.19
462.118	79.19
462.338	86.19
462.558	90.19
462.777	82.19
462.997	92.19
463.217	82.19
463.437	81.19
463.657	80.19
463.876	66.19
464.096	80.19
464.316	86.19
464.536	90.19
464.755	97.19
464.975	106.19
465.195	166.19
465.414	165.19
465.634	88.19
465.854	86.19
466.073	88.19
466.293	90.19
466.512	84.19
466.732	85.19
466.951	87.19
467.171	89.19
467.391	102.19
467.61	90.19
467.829	100.19
468.049	90.19
468.268	96.19
468.488	85.19
468.707	79.19
468.927	81.19
469.146	81.19
469.365	89.19
469.585	79.19
469.804	80.19
470.023	90.19
470.243	105.19
470.462	95.19
470.681	110.19
470.901	94.19
471.12	72.19
471.339	84.19
471.558	88.19
471.777	84.19
471.997	100.19
472.216	118.19
472.435	157.19
472.654	95.19
472.873	81.19
473.092	82.19
473.311	80.19
473.53	81.19
473.749	83.19
473.968	89.19
474.187	103.19
474.406	96.19
474.625	87.19
474.844	81.19
475.063	68.19
475.282	80.19
475.501	81.19
475.72	91.19
475.939	74.19
476.158	80.19
476.377	84.19
476.596	74.19
476.814	94.19
477.033	83.19
477.252	75.19
477.471	76.19
477.69	91.19
477.908	71.19
478.127	70.19
478.346	82.19
478.564	75.19
478.783	77.19
479.002	82.19
479.22	91.19
479.439	103.19
479.658	90.19
479.876	96.19
480.095	80.19
480.313	80.19
480.532	97.19
480.751	102.19
480.969	115.19
481.188	218.19
481.406	163.19
481.624	106.19
481.843	71.19
482.061	75.19
482.28	82.19
482.498	73.19
482.717	89.19
482.935	87.19
483.153	89.19
483.372	94.19
483.59	97.19
483.808	88.19
484.027	80.19
484.245	74.19
484.463	95.19
484.681	92.19
484.9	91.19
485.118	99.19
485.336	90.19
485.554	94.19
485.772	83.19
485.99	93.19
486.209	102.19
486.427	95.19
486.645	100.19
486.863	124.19
487.081	102.19
487.299	105.19
487.517	97.19
487.735	79.19
487.953	80.19
488.171	82.19
488.389	92.19
488.607	94.19
488.825	85.19
489.043	83.19
489.261	95.19
489.479	81.19
489.696	91.19
489.914	88.19
490.132	93.19
490.35	82.19
490.568	91.19
490.786	87.19
491.003	81.19
491.221	89.19
491.439	64.19
491.657	83.19
491.874	90.19
492.092	83.19
492.31	79.19
492.527	79.19
492.745	80.19
492.963	86.19
493.18	83.19
493.398	89.19
493.615	85.19
493.833	77.19
494.05	91.19
494.268	78.19
494.485	76.19
494.703	78.19
494.92	91.19
495.138	75.19
495.355	83.19
495.573	96.19
495.79	78.19
496.008	98.19
496.225	83.19
496.442	79.19
496.66	91.19
496.877	80.19
497.094	85.19
497.312	91.19
497.529	93.19
497.746	104.19
497.963	94.19
498.181	80.19
498.398	84.19
498.615	97.19
498.832	93.19
499.049	85.19
499.267	78.19
499.484	80.19
499.701	90.19
499.918	93.19
500.135	98.19
500.352	95.19
500.569	80.19
500.786	99.19
501.003	85.19
501.22	95.19
501.437	74.19
501.654	77.19
501.871	103.19
502.088	84.19
502.305	83.19
502.522	85.19
502.739	86.19
502.956	90.19
503.172	89.19
503.389	93.19
503.606	102.19
503.823	103.19
504.04	111.19
504.256	83.19
504.473	89.19
504.69	78.19
504.907	99.19
505.123	88.19
505.34	83.19
505.557	82.19
505.773	88.19
505.99	72.19
506.207	76.19
506.423	90.19
506.64	81.19
506.856	85.19
507.073	107.19
507.289	80.19
507.506	104.19
507.722	112.19
507.939	110.19
508.155	86.19
508.372	88.19
508.588	90.19
508.805	112.19
509.021	96.19
509.238	102.19
509.454	105.19
509.67	103.19
509.887	115.19
510.103	129.19
510.319	226.19
510.536	862.19
510.752	3022.19
510.968	848.19
511.184	184.19
511.401	100.19
511.617	104.19
511.833	85.19
512.049	100.19
512.265	71.19
512.481	73.19
512.698	83.19
512.914	84.19
513.13	83.19
513.346	87.19
513.562	88.19
513.778	104.19
513.994	105.19
514.21	103.19
514.426	106.19
514.642	125.19
514.858	134.19
515.074	179.19
515.29	531.19
515.506	1823.19
515.721	683.19
515.937	170.19
