Data from Circ_2016_H10_HRD10591_00009.txt Node
Date: Wed Jan 03 09:58:42 EST 2024
User: Yrep
Spectrometer: HR+D1059
Trigger mode: 1
Integration Time (sec): 1.000000E-1
Scans to average: 1
Electric dark correction enabled: true
Nonlinearity correction enabled: false
Boxcar width: 0
XAxis mode: Wavelengths
Number of Pixels in Spectrum: 2048
>>>>>Begin Spectral Data<<<<<
223.165	-9.19
223.4	-9.19
223.635	-9.19
223.869	-17.19
224.104	-28.19
224.338	-11.19
224.573	-12.19
224.808	-18.19
225.042	-3.19
225.277	1.81
225.511	-16.19
225.746	-0.19
225.98	10.81
226.215	21.81
226.449	17.81
226.683	11.81
226.918	24.81
227.152	26.81
227.387	38.81
227.621	41.81
227.856	45.81
228.09	43.81
228.324	45.81
228.559	56.81
228.793	70.81
229.027	68.81
229.262	75.81
229.496	61.81
229.73	77.81
229.964	90.81
230.199	84.81
230.433	89.81
230.667	81.81
230.901	93.81
231.136	85.81
231.37	86.81
231.604	82.81
231.838	75.81
232.072	60.81
232.306	84.81
232.541	82.81
232.775	83.81
233.009	90.81
233.243	68.81
233.477	87.81
233.711	86.81
233.945	86.81
234.179	78.81
234.413	81.81
234.647	68.81
234.881	73.81
235.115	82.81
235.349	74.81
235.583	81.81
235.817	81.81
236.051	95.81
236.285	85.81
236.519	69.81
236.753	66.81
236.987	76.81
237.221	78.81
237.455	88.81
237.689	92.81
237.922	70.81
238.156	70.81
238.39	88.81
238.624	72.81
238.858	96.81
239.091	73.81
239.325	74.81
239.559	81.81
239.793	83.81
240.027	79.81
240.26	73.81
240.494	88.81
240.728	66.81
240.961	88.81
241.195	85.81
241.429	87.81
241.662	75.81
241.896	77.81
242.13	85.81
242.363	84.81
242.597	74.81
242.83	66.81
243.064	82.81
243.298	80.81
243.531	90.81
243.765	82.81
243.998	86.81
244.232	80.81
244.465	87.81
244.699	79.81
244.932	83.81
245.166	76.81
245.399	58.81
245.633	68.81
245.866	82.81
246.099	78.81
246.333	79.81
246.566	88.81
246.8	62.81
247.033	68.81
247.266	97.81
247.5	77.81
247.733	77.81
247.966	79.81
248.2	91.81
248.433	60.81
248.666	70.81
248.899	87.81
249.133	85.81
249.366	88.81
249.599	82.81
249.832	84.81
250.066	70.81
250.299	98.81
250.532	88.81
250.765	77.81
250.998	79.81
251.231	83.81
251.465	85.81
251.698	77.81
251.931	83.81
252.164	74.81
252.397	71.81
252.63	79.81
252.863	90.81
253.096	77.81
253.329	74.81
253.562	71.81
253.795	85.81
254.028	80.81
254.261	79.81
254.494	72.81
254.727	77.81
254.96	89.81
255.193	69.81
255.426	75.81
255.659	78.81
255.892	89.81
256.124	90.81
256.357	69.81
256.59	82.81
256.823	93.81
257.056	78.81
257.289	73.81
257.521	86.81
257.754	77.81
257.987	87.81
258.22	85.81
258.452	73.81
258.685	78.81
258.918	88.81
259.151	83.81
259.383	85.81
259.616	84.81
259.849	98.81
260.081	85.81
260.314	73.81
260.547	82.81
260.779	81.81
261.012	81.81
261.244	82.81
261.477	73.81
261.71	85.81
261.942	110.81
262.175	99.81
262.407	80.81
262.64	84.81
262.872	81.81
263.105	93.81
263.337	83.81
263.57	98.81
263.802	90.81
264.035	80.81
264.267	88.81
264.499	85.81
264.732	94.81
264.964	82.81
265.197	93.81
265.429	76.81
265.661	82.81
265.894	75.81
266.126	74.81
266.358	70.81
266.591	78.81
266.823	93.81
267.055	80.81
267.287	84.81
267.52	92.81
267.752	83.81
267.984	73.81
268.216	82.81
268.448	98.81
268.681	86.81
268.913	84.81
269.145	97.81
269.377	76.81
269.609	72.81
269.841	84.81
270.073	79.81
270.306	76.81
270.538	90.81
270.77	87.81
271.002	68.81
271.234	83.81
271.466	88.81
271.698	81.81
271.93	91.81
272.162	88.81
272.394	95.81
272.626	78.81
272.858	82.81
273.09	86.81
273.322	87.81
273.553	87.81
273.785	87.81
274.017	82.81
274.249	87.81
274.481	76.81
274.713	87.81
274.945	91.81
275.176	78.81
275.408	82.81
275.64	88.81
275.872	89.81
276.104	101.81
276.335	92.81
276.567	90.81
276.799	106.81
277.031	102.81
277.262	82.81
277.494	95.81
277.726	82.81
277.957	77.81
278.189	77.81
278.421	74.81
278.652	91.81
278.884	86.81
279.115	90.81
279.347	78.81
279.579	86.81
279.81	86.81
280.042	86.81
280.273	74.81
280.505	92.81
280.736	76.81
280.968	78.81
281.199	73.81
281.431	83.81
281.662	87.81
281.894	82.81
282.125	101.81
282.356	102.81
282.588	136.81
282.819	132.81
283.051	97.81
283.282	92.81
283.513	75.81
283.745	90.81
283.976	88.81
284.207	78.81
284.439	82.81
284.67	92.81
284.901	101.81
285.132	94.81
285.364	102.81
285.595	97.81
285.826	85.81
286.057	82.81
286.288	86.81
286.52	88.81
286.751	86.81
286.982	88.81
287.213	84.81
287.444	76.81
287.675	91.81
287.906	83.81
288.138	93.81
288.369	76.81
288.6	82.81
288.831	86.81
289.062	89.81
289.293	78.81
289.524	90.81
289.755	81.81
289.986	90.81
290.217	79.81
290.448	95.81
290.679	76.81
290.91	102.81
291.141	75.81
291.371	89.81
291.602	93.81
291.833	99.81
292.064	92.81
292.295	94.81
292.526	89.81
292.757	88.81
292.987	97.81
293.218	87.81
293.449	101.81
293.68	81.81
293.91	93.81
294.141	95.81
294.372	100.81
294.603	88.81
294.833	80.81
295.064	91.81
295.295	86.81
295.525	94.81
295.756	89.81
295.987	115.81
296.217	126.81
296.448	111.81
296.679	97.81
296.909	101.81
297.14	78.81
297.37	85.81
297.601	91.81
297.831	94.81
298.062	90.81
298.292	98.81
298.523	97.81
298.753	98.81
298.984	88.81
299.214	96.81
299.445	86.81
299.675	97.81
299.905	93.81
300.136	97.81
300.366	95.81
300.597	90.81
300.827	88.81
301.057	88.81
301.288	101.81
301.518	93.81
301.748	92.81
301.979	103.81
302.209	109.81
302.439	103.81
302.669	101.81
302.9	96.81
303.13	90.81
303.36	101.81
303.59	103.81
303.82	98.81
304.051	87.81
304.281	74.81
304.511	83.81
304.741	94.81
304.971	87.81
305.201	95.81
305.431	78.81
305.661	103.81
305.891	100.81
306.121	95.81
306.352	91.81
306.582	103.81
306.812	91.81
307.042	98.81
307.272	88.81
307.502	88.81
307.731	86.81
307.961	75.81
308.191	91.81
308.421	96.81
308.651	97.81
308.881	97.81
309.111	103.81
309.341	108.81
309.571	86.81
309.8	97.81
310.03	89.81
310.26	113.81
310.49	100.81
310.72	96.81
310.949	99.81
311.179	97.81
311.409	93.81
311.639	94.81
311.868	99.81
312.098	97.81
312.328	92.81
312.557	94.81
312.787	91.81
313.017	105.81
313.246	82.81
313.476	67.81
313.706	96.81
313.935	85.81
314.165	95.81
314.394	102.81
314.624	98.81
314.853	88.81
315.083	80.81
315.312	94.81
315.542	100.81
315.771	101.81
316.001	93.81
316.23	80.81
316.46	101.81
316.689	103.81
316.919	100.81
317.148	95.81
317.377	84.81
317.607	94.81
317.836	84.81
318.065	96.81
318.295	93.81
318.524	86.81
318.753	90.81
318.983	77.81
319.212	85.81
319.441	104.81
319.67	96.81
319.9	110.81
320.129	99.81
320.358	98.81
320.587	94.81
320.816	97.81
321.046	115.81
321.275	109.81
321.504	98.81
321.733	108.81
321.962	102.81
322.191	98.81
322.42	102.81
322.649	97.81
322.878	112.81
323.108	105.81
323.337	104.81
323.566	115.81
323.795	142.81
324.024	194.81
324.253	373.81
324.482	767.81
324.71	1553.81
324.939	2081.81
325.168	763.81
325.397	226.81
325.626	147.81
325.855	138.81
326.084	120.81
326.313	123.81
326.542	162.81
326.77	217.81
326.999	454.81
327.228	909.81
327.457	1646.81
327.686	1250.81
327.914	328.81
328.143	190.81
328.372	133.81
328.6	115.81
328.829	117.81
329.058	121.81
329.287	122.81
329.515	105.81
329.744	92.81
329.972	102.81
330.201	102.81
330.43	99.81
330.658	104.81
330.887	115.81
331.115	106.81
331.344	110.81
331.572	100.81
331.801	100.81
332.03	106.81
332.258	102.81
332.486	88.81
332.715	89.81
332.943	113.81
333.172	98.81
333.4	106.81
333.629	101.81
333.857	109.81
334.085	87.81
334.314	95.81
334.542	120.81
334.771	73.81
334.999	103.81
335.227	90.81
335.455	100.81
335.684	105.81
335.912	107.81
336.14	105.81
336.369	105.81
336.597	100.81
336.825	95.81
337.053	102.81
337.281	105.81
337.51	92.81
337.738	107.81
337.966	98.81
338.194	93.81
338.422	94.81
338.65	88.81
338.878	77.81
339.106	89.81
339.334	97.81
339.562	85.81
339.79	82.81
340.018	89.81
340.246	96.81
340.474	83.81
340.702	94.81
340.93	101.81
341.158	98.81
341.386	108.81
341.614	103.81
341.842	94.81
342.07	87.81
342.298	98.81
342.526	88.81
342.754	90.81
342.981	86.81
343.209	90.81
343.437	105.81
343.665	107.81
343.893	93.81
344.12	86.81
344.348	87.81
344.576	92.81
344.804	98.81
345.031	90.81
345.259	97.81
345.487	106.81
345.714	98.81
345.942	83.81
346.17	101.81
346.397	94.81
346.625	93.81
346.853	93.81
347.08	89.81
347.308	91.81
347.535	105.81
347.763	94.81
347.99	103.81
348.218	97.81
348.445	100.81
348.673	80.81
348.9	88.81
349.128	107.81
349.355	100.81
349.583	97.81
349.81	91.81
350.037	103.81
350.265	91.81
350.492	106.81
350.72	110.81
350.947	101.81
351.174	92.81
351.402	112.81
351.629	92.81
351.856	106.81
352.083	125.81
352.311	109.81
352.538	104.81
352.765	113.81
352.992	108.81
353.22	120.81
353.447	97.81
353.674	103.81
353.901	97.81
354.128	104.81
354.355	83.81
354.583	102.81
354.81	91.81
355.037	92.81
355.264	113.81
355.491	83.81
355.718	92.81
355.945	98.81
356.172	105.81
356.399	99.81
356.626	102.81
356.853	87.81
357.08	94.81
357.307	101.81
357.534	95.81
357.761	96.81
357.988	127.81
358.215	131.81
358.441	117.81
358.668	131.81
358.895	115.81
359.122	101.81
359.349	88.81
359.576	105.81
359.802	95.81
360.029	115.81
360.256	105.81
360.483	92.81
360.709	87.81
360.936	92.81
361.163	92.81
361.39	100.81
361.616	90.81
361.843	92.81
362.07	92.81
362.296	98.81
362.523	87.81
362.749	79.81
362.976	93.81
363.203	97.81
363.429	92.81
363.656	98.81
363.882	94.81
364.109	94.81
364.335	94.81
364.562	88.81
364.788	94.81
365.015	84.81
365.241	95.81
365.468	91.81
365.694	98.81
365.92	110.81
366.147	95.81
366.373	86.81
366.599	89.81
366.826	95.81
367.052	84.81
367.278	101.81
367.505	95.81
367.731	100.81
367.957	85.81
368.184	106.81
368.41	95.81
368.636	99.81
368.862	96.81
369.089	100.81
369.315	83.81
369.541	89.81
369.767	88.81
369.993	86.81
370.219	85.81
370.445	102.81
370.672	78.81
370.898	84.81
371.124	89.81
371.35	85.81
371.576	102.81
371.802	73.81
372.028	97.81
372.254	85.81
372.48	110.81
372.706	96.81
372.932	100.81
373.158	104.81
373.384	103.81
373.61	99.81
373.835	90.81
374.061	99.81
374.287	98.81
374.513	98.81
374.739	97.81
374.965	94.81
375.191	102.81
375.416	92.81
375.642	93.81
375.868	98.81
376.094	83.81
376.319	98.81
376.545	99.81
376.771	103.81
376.997	94.81
377.222	100.81
377.448	109.81
377.674	108.81
377.899	92.81
378.125	102.81
378.35	86.81
378.576	108.81
378.802	114.81
379.027	121.81
379.253	95.81
379.478	117.81
379.704	112.81
379.929	111.81
380.155	99.81
380.38	120.81
380.606	113.81
380.831	118.81
381.057	122.81
381.282	122.81
381.507	127.81
381.733	113.81
381.958	128.81
382.184	138.81
382.409	122.81
382.634	150.81
382.86	141.81
383.085	132.81
383.31	155.81
383.535	147.81
383.761	153.81
383.986	123.81
384.211	151.81
384.436	140.81
384.662	152.81
384.887	174.81
385.112	180.81
385.337	166.81
385.562	161.81
385.787	164.81
386.013	169.81
386.238	181.81
386.463	175.81
386.688	174.81
386.913	183.81
387.138	174.81
387.363	160.81
387.588	137.81
387.813	137.81
388.038	174.81
388.263	205.81
388.488	182.81
388.713	110.81
388.938	93.81
389.163	113.81
389.387	108.81
389.612	93.81
389.837	94.81
390.062	86.81
390.287	99.81
390.512	95.81
390.736	91.81
390.961	80.81
391.186	101.81
391.411	91.81
391.636	92.81
391.86	90.81
392.085	84.81
392.31	93.81
392.534	96.81
392.759	92.81
392.984	99.81
393.208	104.81
393.433	165.81
393.658	127.81
393.882	94.81
394.107	95.81
394.331	96.81
394.556	91.81
394.78	103.81
395.005	86.81
395.229	91.81
395.454	98.81
395.678	86.81
395.903	76.81
396.127	82.81
396.352	91.81
396.576	88.81
396.801	109.81
397.025	132.81
397.249	94.81
397.474	90.81
397.698	90.81
397.922	89.81
398.147	94.81
398.371	80.81
398.595	87.81
398.82	88.81
399.044	77.81
399.268	96.81
399.492	80.81
399.717	89.81
399.941	92.81
400.165	94.81
400.389	98.81
400.613	93.81
400.837	78.81
401.062	74.81
401.286	83.81
401.51	94.81
401.734	95.81
401.958	103.81
402.182	121.81
402.406	133.81
402.63	105.81
402.854	83.81
403.078	100.81
403.302	93.81
403.526	91.81
403.75	100.81
403.974	92.81
404.198	86.81
404.422	82.81
404.645	94.81
404.869	112.81
405.093	97.81
405.317	91.81
405.541	95.81
405.765	101.81
405.988	112.81
406.212	140.81
406.436	200.81
406.66	128.81
406.883	107.81
407.107	83.81
407.331	93.81
407.555	81.81
407.778	90.81
408.002	108.81
408.226	94.81
408.449	82.81
408.673	106.81
408.896	96.81
409.12	88.81
409.344	92.81
409.567	97.81
409.791	86.81
410.014	104.81
410.238	93.81
410.461	85.81
410.685	99.81
410.908	86.81
411.132	103.81
411.355	105.81
411.578	101.81
411.802	86.81
412.025	90.81
412.249	83.81
412.472	104.81
412.695	83.81
412.919	99.81
413.142	100.81
413.365	117.81
413.589	103.81
413.812	94.81
414.035	94.81
414.258	104.81
414.482	84.81
414.705	95.81
414.928	116.81
415.151	109.81
415.374	110.81
415.597	95.81
415.821	102.81
416.044	106.81
416.267	108.81
416.49	108.81
416.713	113.81
416.936	100.81
417.159	89.81
417.382	90.81
417.605	96.81
417.828	91.81
418.051	97.81
418.274	98.81
418.497	86.81
418.72	101.81
418.943	105.81
419.166	96.81
419.389	97.81
419.611	97.81
419.834	86.81
420.057	82.81
420.28	91.81
420.503	93.81
420.726	95.81
420.948	78.81
421.171	104.81
421.394	101.81
421.617	93.81
421.839	92.81
422.062	78.81
422.285	99.81
422.507	104.81
422.73	145.81
422.953	134.81
423.175	85.81
423.398	93.81
423.621	96.81
423.843	87.81
424.066	81.81
424.288	75.81
424.511	87.81
424.733	88.81
424.956	94.81
425.178	114.81
425.401	93.81
425.623	111.81
425.846	91.81
426.068	86.81
426.291	87.81
426.513	99.81
426.735	103.81
426.958	98.81
427.18	119.81
427.402	130.81
427.625	141.81
427.847	126.81
428.069	106.81
428.292	77.81
428.514	84.81
428.736	75.81
428.958	77.81
429.181	89.81
429.403	83.81
429.625	81.81
429.847	89.81
430.069	91.81
430.292	93.81
430.514	90.81
430.736	87.81
430.958	89.81
431.18	80.81
431.402	66.81
431.624	76.81
431.846	88.81
432.068	78.81
432.29	83.81
432.512	94.81
432.734	106.81
432.956	104.81
433.178	97.81
433.4	103.81
433.622	78.81
433.844	91.81
434.066	92.81
434.287	95.81
434.509	102.81
434.731	101.81
434.953	83.81
435.175	83.81
435.397	103.81
435.618	100.81
435.84	107.81
436.062	112.81
436.284	115.81
436.505	103.81
436.727	103.81
436.949	94.81
437.17	90.81
437.392	100.81
437.614	88.81
437.835	85.81
438.057	110.81
438.278	107.81
438.5	107.81
438.721	127.81
438.943	104.81
439.165	89.81
439.386	90.81
439.608	95.81
439.829	95.81
440.05	100.81
440.272	129.81
440.493	95.81
440.715	93.81
440.936	85.81
441.158	87.81
441.379	90.81
441.6	90.81
441.822	103.81
442.043	100.81
442.264	96.81
442.486	103.81
442.707	90.81
442.928	101.81
443.149	122.81
443.371	114.81
443.592	96.81
443.813	115.81
444.034	98.81
444.255	101.81
444.476	90.81
444.698	92.81
444.919	96.81
445.14	124.81
445.361	121.81
445.582	102.81
445.803	117.81
446.024	117.81
446.245	114.81
446.466	116.81
446.687	93.81
446.908	86.81
447.129	83.81
447.35	84.81
447.571	102.81
447.792	100.81
448.013	82.81
448.234	98.81
448.455	92.81
448.675	108.81
448.896	105.81
449.117	102.81
449.338	110.81
449.559	129.81
449.779	125.81
450	94.81
450.221	96.81
450.442	93.81
450.662	98.81
450.883	97.81
451.104	109.81
451.324	92.81
451.545	97.81
451.766	97.81
451.986	75.81
452.207	79.81
452.428	79.81
452.648	88.81
452.869	108.81
453.089	117.81
453.31	100.81
453.53	86.81
453.751	100.81
453.971	94.81
454.192	100.81
454.412	101.81
454.633	92.81
454.853	70.81
455.073	94.81
455.294	88.81
455.514	90.81
455.734	100.81
455.955	87.81
456.175	97.81
456.395	81.81
456.616	95.81
456.836	86.81
457.056	85.81
457.276	89.81
457.497	90.81
457.717	84.81
457.937	82.81
458.157	89.81
458.377	76.81
458.598	87.81
458.818	117.81
459.038	143.81
459.258	102.81
459.478	89.81
459.698	85.81
459.918	79.81
460.138	92.81
460.358	81.81
460.578	87.81
460.798	87.81
461.018	75.81
461.238	86.81
461.458	87.81
461.678	68.81
461.898	78.81
462.118	87.81
462.338	81.81
462.558	86.81
462.777	94.81
462.997	94.81
463.217	94.81
463.437	82.81
463.657	92.81
463.876	75.81
464.096	75.81
464.316	89.81
464.536	95.81
464.755	96.81
464.975	106.81
465.195	121.81
465.414	143.81
465.634	105.81
465.854	102.81
466.073	86.81
466.293	97.81
466.512	95.81
466.732	100.81
466.951	103.81
467.171	84.81
467.391	102.81
467.61	86.81
467.829	92.81
468.049	94.81
468.268	90.81
468.488	94.81
468.707	78.81
468.927	79.81
469.146	89.81
469.365	84.81
469.585	99.81
469.804	103.81
470.023	93.81
470.243	98.81
470.462	92.81
470.681	119.81
470.901	87.81
471.12	76.81
471.339	77.81
471.558	86.81
471.777	83.81
471.997	92.81
472.216	88.81
472.435	78.81
472.654	86.81
472.873	86.81
473.092	98.81
473.311	88.81
473.53	114.81
473.749	102.81
473.968	94.81
474.187	97.81
474.406	89.81
474.625	81.81
474.844	79.81
475.063	88.81
475.282	85.81
475.501	91.81
475.72	84.81
475.939	81.81
476.158	89.81
476.377	85.81
476.596	84.81
476.814	87.81
477.033	91.81
477.252	90.81
477.471	94.81
477.69	87.81
477.908	94.81
478.127	91.81
478.346	99.81
478.564	84.81
478.783	81.81
479.002	81.81
479.22	69.81
479.439	82.81
479.658	92.81
479.876	89.81
480.095	90.81
480.313	100.81
480.532	100.81
480.751	86.81
480.969	95.81
481.188	117.81
481.406	88.81
481.624	98.81
481.843	87.81
482.061	83.81
482.28	93.81
482.498	87.81
482.717	85.81
482.935	87.81
483.153	108.81
483.372	91.81
483.59	93.81
483.808	91.81
484.027	90.81
484.245	96.81
484.463	93.81
484.681	91.81
484.9	89.81
485.118	94.81
485.336	100.81
485.554	111.81
485.772	105.81
485.99	96.81
486.209	114.81
486.427	104.81
486.645	122.81
486.863	115.81
487.081	113.81
487.299	81.81
487.517	86.81
487.735	94.81
487.953	87.81
488.171	95.81
488.389	106.81
488.607	95.81
488.825	83.81
489.043	96.81
489.261	92.81
489.479	86.81
489.696	86.81
489.914	94.81
490.132	102.81
490.35	91.81
490.568	88.81
490.786	78.81
491.003	71.81
491.221	79.81
491.439	78.81
491.657	89.81
491.874	93.81
492.092	111.81
492.31	76.81
492.527	88.81
492.745	88.81
492.963	100.81
493.18	94.81
493.398	96.81
493.615	104.81
493.833	96.81
494.05	97.81
494.268	90.81
494.485	93.81
494.703	91.81
494.92	97.81
495.138	90.81
495.355	104.81
495.573	88.81
495.79	91.81
496.008	108.81
496.225	91.81
496.442	87.81
496.66	85.81
496.877	89.81
497.094	96.81
497.312	83.81
497.529	85.81
497.746	92.81
497.963	101.81
498.181	97.81
498.398	89.81
498.615	115.81
498.832	106.81
499.049	97.81
499.267	93.81
499.484	77.81
499.701	96.81
499.918	86.81
500.135	104.81
500.352	88.81
500.569	84.81
500.786	95.81
501.003	85.81
501.22	77.81
501.437	92.81
501.654	85.81
501.871	104.81
502.088	103.81
502.305	96.81
502.522	90.81
502.739	89.81
502.956	76.81
503.172	108.81
503.389	87.81
503.606	129.81
503.823	98.81
504.04	83.81
504.256	97.81
504.473	89.81
504.69	89.81
504.907	87.81
505.123	90.81
505.34	89.81
505.557	97.81
505.773	93.81
505.99	89.81
506.207	94.81
506.423	91.81
506.64	84.81
506.856	102.81
507.073	92.81
507.289	88.81
507.506	102.81
507.722	109.81
507.939	103.81
508.155	102.81
508.372	92.81
508.588	80.81
508.805	92.81
509.021	92.81
509.238	85.81
509.454	114.81
509.67	110.81
509.887	114.81
510.103	139.81
510.319	176.81
510.536	624.81
510.752	2014.81
510.968	585.81
511.184	149.81
511.401	111.81
511.617	93.81
511.833	102.81
512.049	79.81
512.265	93.81
512.481	82.81
512.698	93.81
512.914	86.81
513.13	89.81
513.346	91.81
513.562	101.81
513.778	96.81
513.994	94.81
514.21	99.81
514.426	110.81
514.642	117.81
514.858	123.81
