Data from Circ_2016_H10_HRD10591_00062.txt Node
Date: Wed Jan 03 09:58:53 EST 2024
User: Yrep
Spectrometer: HR+D1059
Trigger mode: 1
Integration Time (sec): 1.000000E-1
Scans to average: 1
Electric dark correction enabled: true
Nonlinearity correction enabled: false
Boxcar width: 0
XAxis mode: Wavelengths
Number of Pixels in Spectrum: 2048
>>>>>Begin Spectral Data<<<<<
223.165	-10.81
223.4	-10.81
223.635	-10.81
223.869	-34.81
224.104	-25.81
224.338	-12.81
224.573	-2.81
224.808	-12.81
225.042	-16.81
225.277	-13.81
225.511	4.19
225.746	3.19
225.98	-4.81
226.215	10.19
226.449	28.19
226.683	14.19
226.918	30.19
227.152	45.19
227.387	35.19
227.621	33.19
227.856	36.19
228.09	44.19
228.324	35.19
228.559	41.19
228.793	54.19
229.027	65.19
229.262	66.19
229.496	83.19
229.73	79.19
229.964	88.19
230.199	72.19
230.433	69.19
230.667	88.19
230.901	80.19
231.136	74.19
231.37	77.19
231.604	78.19
231.838	67.19
232.072	73.19
232.306	81.19
232.541	89.19
232.775	63.19
233.009	77.19
233.243	78.19
233.477	72.19
233.711	88.19
233.945	72.19
234.179	78.19
234.413	83.19
234.647	75.19
234.881	76.19
235.115	80.19
235.349	81.19
235.583	76.19
235.817	63.19
236.051	74.19
236.285	83.19
236.519	82.19
236.753	73.19
236.987	62.19
237.221	89.19
237.455	90.19
237.689	67.19
237.922	80.19
238.156	69.19
238.39	70.19
238.624	75.19
238.858	69.19
239.091	65.19
239.325	53.19
239.559	92.19
239.793	63.19
240.027	83.19
240.26	66.19
240.494	68.19
240.728	63.19
240.961	58.19
241.195	68.19
241.429	75.19
241.662	73.19
241.896	57.19
242.13	70.19
242.363	66.19
242.597	77.19
242.83	76.19
243.064	70.19
243.298	68.19
243.531	72.19
243.765	74.19
243.998	67.19
244.232	72.19
244.465	85.19
244.699	59.19
244.932	68.19
245.166	83.19
245.399	77.19
245.633	78.19
245.866	68.19
246.099	90.19
246.333	83.19
246.566	95.19
246.8	85.19
247.033	84.19
247.266	78.19
247.5	80.19
247.733	85.19
247.966	75.19
248.2	80.19
248.433	64.19
248.666	75.19
248.899	65.19
249.133	72.19
249.366	85.19
249.599	105.19
249.832	82.19
250.066	78.19
250.299	74.19
250.532	63.19
250.765	79.19
250.998	74.19
251.231	92.19
251.465	77.19
251.698	77.19
251.931	73.19
252.164	74.19
252.397	76.19
252.63	66.19
252.863	84.19
253.096	84.19
253.329	93.19
253.562	73.19
253.795	81.19
254.028	69.19
254.261	83.19
254.494	81.19
254.727	72.19
254.96	87.19
255.193	81.19
255.426	72.19
255.659	92.19
255.892	76.19
256.124	83.19
256.357	79.19
256.59	75.19
256.823	88.19
257.056	94.19
257.289	78.19
257.521	92.19
257.754	84.19
257.987	75.19
258.22	91.19
258.452	74.19
258.685	77.19
258.918	76.19
259.151	64.19
259.383	74.19
259.616	77.19
259.849	90.19
260.081	83.19
260.314	76.19
260.547	84.19
260.779	76.19
261.012	81.19
261.244	83.19
261.477	85.19
261.71	92.19
261.942	111.19
262.175	110.19
262.407	87.19
262.64	82.19
262.872	88.19
263.105	89.19
263.337	75.19
263.57	77.19
263.802	75.19
264.035	85.19
264.267	83.19
264.499	90.19
264.732	90.19
264.964	93.19
265.197	92.19
265.429	90.19
265.661	90.19
265.894	84.19
266.126	92.19
266.358	79.19
266.591	81.19
266.823	90.19
267.055	68.19
267.287	65.19
267.52	86.19
267.752	80.19
267.984	85.19
268.216	80.19
268.448	79.19
268.681	77.19
268.913	73.19
269.145	87.19
269.377	88.19
269.609	83.19
269.841	93.19
270.073	83.19
270.306	67.19
270.538	87.19
270.77	78.19
271.002	85.19
271.234	89.19
271.466	78.19
271.698	95.19
271.93	85.19
272.162	84.19
272.394	84.19
272.626	69.19
272.858	82.19
273.09	82.19
273.322	82.19
273.553	86.19
273.785	74.19
274.017	87.19
274.249	84.19
274.481	74.19
274.713	87.19
274.945	89.19
275.176	85.19
275.408	94.19
275.64	99.19
275.872	75.19
276.104	74.19
276.335	90.19
276.567	105.19
276.799	102.19
277.031	86.19
277.262	94.19
277.494	93.19
277.726	92.19
277.957	73.19
278.189	86.19
278.421	85.19
278.652	88.19
278.884	87.19
279.115	86.19
279.347	82.19
279.579	84.19
279.81	95.19
280.042	82.19
280.273	79.19
280.505	85.19
280.736	83.19
280.968	66.19
281.199	78.19
281.431	85.19
281.662	78.19
281.894	93.19
282.125	92.19
282.356	118.19
282.588	139.19
282.819	111.19
283.051	89.19
283.282	83.19
283.513	90.19
283.745	80.19
283.976	81.19
284.207	83.19
284.439	88.19
284.67	82.19
284.901	88.19
285.132	76.19
285.364	83.19
285.595	77.19
285.826	94.19
286.057	85.19
286.288	69.19
286.52	70.19
286.751	83.19
286.982	73.19
287.213	81.19
287.444	87.19
287.675	87.19
287.906	74.19
288.138	88.19
288.369	85.19
288.6	85.19
288.831	75.19
289.062	80.19
289.293	87.19
289.524	90.19
289.755	71.19
289.986	93.19
290.217	84.19
290.448	96.19
290.679	85.19
290.91	89.19
291.141	86.19
291.371	92.19
291.602	84.19
291.833	79.19
292.064	85.19
292.295	77.19
292.526	80.19
292.757	64.19
292.987	82.19
293.218	86.19
293.449	82.19
293.68	92.19
293.91	83.19
294.141	74.19
294.372	68.19
294.603	88.19
294.833	95.19
295.064	84.19
295.295	91.19
295.525	88.19
295.756	79.19
295.987	99.19
296.217	146.19
296.448	107.19
296.679	70.19
296.909	87.19
297.14	83.19
297.37	93.19
297.601	102.19
297.831	87.19
298.062	94.19
298.292	91.19
298.523	95.19
298.753	89.19
298.984	88.19
299.214	91.19
299.445	90.19
299.675	99.19
299.905	91.19
300.136	88.19
300.366	82.19
300.597	73.19
300.827	84.19
301.057	94.19
301.288	97.19
301.518	86.19
301.748	93.19
301.979	82.19
302.209	100.19
302.439	91.19
302.669	83.19
302.9	76.19
303.13	95.19
303.36	87.19
303.59	110.19
303.82	98.19
304.051	93.19
304.281	88.19
304.511	97.19
304.741	81.19
304.971	86.19
305.201	79.19
305.431	92.19
305.661	95.19
305.891	83.19
306.121	94.19
306.352	85.19
306.582	98.19
306.812	92.19
307.042	82.19
307.272	87.19
307.502	115.19
307.731	85.19
307.961	73.19
308.191	82.19
308.421	98.19
308.651	93.19
308.881	86.19
309.111	82.19
309.341	100.19
309.571	96.19
309.8	92.19
310.03	87.19
310.26	106.19
310.49	89.19
310.72	92.19
310.949	100.19
311.179	91.19
311.409	85.19
311.639	93.19
311.868	83.19
312.098	82.19
312.328	85.19
312.557	95.19
312.787	97.19
313.017	101.19
313.246	89.19
313.476	93.19
313.706	94.19
313.935	98.19
314.165	106.19
314.394	87.19
314.624	84.19
314.853	89.19
315.083	91.19
315.312	97.19
315.542	84.19
315.771	92.19
316.001	97.19
316.23	84.19
316.46	73.19
316.689	99.19
316.919	82.19
317.148	77.19
317.377	85.19
317.607	107.19
317.836	98.19
318.065	97.19
318.295	76.19
318.524	87.19
318.753	86.19
318.983	105.19
319.212	91.19
319.441	111.19
319.67	104.19
319.9	98.19
320.129	99.19
320.358	92.19
320.587	94.19
320.816	97.19
321.046	91.19
321.275	89.19
321.504	84.19
321.733	101.19
321.962	91.19
322.191	98.19
322.42	89.19
322.649	103.19
322.878	107.19
323.108	111.19
323.337	117.19
323.566	143.19
323.795	156.19
324.024	198.19
324.253	412.19
324.482	818.19
324.71	1696.19
324.939	2175.19
325.168	831.19
325.397	240.19
325.626	147.19
325.855	147.19
326.084	117.19
326.313	114.19
326.542	143.19
326.77	241.19
326.999	458.19
327.228	943.19
327.457	1678.19
327.686	1313.19
327.914	360.19
328.143	189.19
328.372	151.19
328.6	123.19
328.829	117.19
329.058	103.19
329.287	108.19
329.515	103.19
329.744	122.19
329.972	107.19
330.201	120.19
330.43	138.19
330.658	136.19
330.887	143.19
331.115	113.19
331.344	102.19
331.572	102.19
331.801	88.19
332.03	93.19
332.258	82.19
332.486	73.19
332.715	88.19
332.943	97.19
333.172	91.19
333.4	98.19
333.629	111.19
333.857	119.19
334.085	118.19
334.314	114.19
334.542	147.19
334.771	131.19
334.999	102.19
335.227	102.19
335.455	86.19
335.684	103.19
335.912	100.19
336.14	106.19
336.369	95.19
336.597	111.19
336.825	91.19
337.053	92.19
337.281	101.19
337.51	90.19
337.738	96.19
337.966	94.19
338.194	91.19
338.422	102.19
338.65	85.19
338.878	91.19
339.106	104.19
339.334	91.19
339.562	81.19
339.79	88.19
340.018	99.19
340.246	96.19
340.474	87.19
340.702	80.19
340.93	83.19
341.158	78.19
341.386	96.19
341.614	86.19
341.842	99.19
342.07	102.19
342.298	91.19
342.526	87.19
342.754	90.19
342.981	97.19
343.209	100.19
343.437	99.19
343.665	74.19
343.893	83.19
344.12	89.19
344.348	99.19
344.576	87.19
344.804	90.19
345.031	92.19
345.259	94.19
345.487	90.19
345.714	87.19
345.942	83.19
346.17	85.19
346.397	89.19
346.625	99.19
346.853	94.19
347.08	94.19
347.308	95.19
347.535	100.19
347.763	87.19
347.99	89.19
348.218	119.19
348.445	93.19
348.673	91.19
348.9	90.19
349.128	95.19
349.355	82.19
349.583	82.19
349.81	88.19
350.037	92.19
350.265	87.19
350.492	99.19
350.72	102.19
350.947	109.19
351.174	115.19
351.402	99.19
351.629	111.19
351.856	90.19
352.083	92.19
352.311	98.19
352.538	95.19
352.765	97.19
352.992	111.19
353.22	120.19
353.447	102.19
353.674	90.19
353.901	103.19
354.128	82.19
354.355	106.19
354.583	92.19
354.81	96.19
355.037	110.19
355.264	95.19
355.491	82.19
355.718	91.19
355.945	99.19
356.172	90.19
356.399	89.19
356.626	108.19
356.853	77.19
357.08	98.19
357.307	84.19
357.534	91.19
357.761	92.19
357.988	98.19
358.215	90.19
358.441	89.19
358.668	82.19
358.895	97.19
359.122	99.19
359.349	79.19
359.576	80.19
359.802	99.19
360.029	103.19
360.256	104.19
360.483	97.19
360.709	89.19
360.936	86.19
361.163	81.19
361.39	79.19
361.616	92.19
361.843	91.19
362.07	80.19
362.296	98.19
362.523	92.19
362.749	89.19
362.976	98.19
363.203	90.19
363.429	80.19
363.656	84.19
363.882	89.19
364.109	71.19
364.335	85.19
364.562	90.19
364.788	85.19
365.015	93.19
365.241	93.19
365.468	99.19
365.694	106.19
365.92	103.19
366.147	84.19
366.373	81.19
366.599	80.19
366.826	94.19
367.052	88.19
367.278	100.19
367.505	88.19
367.731	82.19
367.957	79.19
368.184	86.19
368.41	79.19
368.636	108.19
368.862	105.19
369.089	116.19
369.315	79.19
369.541	77.19
369.767	83.19
369.993	97.19
370.219	95.19
370.445	86.19
370.672	93.19
370.898	83.19
371.124	81.19
371.35	85.19
371.576	85.19
371.802	82.19
372.028	89.19
372.254	84.19
372.48	89.19
372.706	97.19
372.932	97.19
373.158	94.19
373.384	85.19
373.61	81.19
373.835	73.19
374.061	94.19
374.287	84.19
374.513	86.19
374.739	100.19
374.965	94.19
375.191	86.19
375.416	93.19
375.642	92.19
375.868	92.19
376.094	97.19
376.319	88.19
376.545	80.19
376.771	100.19
376.997	95.19
377.222	85.19
377.448	88.19
377.674	90.19
377.899	78.19
378.125	84.19
378.35	86.19
378.576	87.19
378.802	80.19
379.027	83.19
379.253	85.19
379.478	98.19
379.704	104.19
379.929	91.19
380.155	97.19
380.38	96.19
380.606	87.19
380.831	102.19
381.057	90.19
381.282	98.19
381.507	92.19
381.733	101.19
381.958	91.19
382.184	97.19
382.409	95.19
382.634	115.19
382.86	99.19
383.085	104.19
383.31	97.19
383.535	103.19
383.761	100.19
383.986	100.19
384.211	97.19
384.436	100.19
384.662	108.19
384.887	100.19
385.112	111.19
385.337	111.19
385.562	122.19
385.787	106.19
386.013	104.19
386.238	116.19
386.463	107.19
386.688	121.19
386.913	105.19
387.138	125.19
387.363	115.19
387.588	99.19
387.813	108.19
388.038	108.19
388.263	124.19
388.488	119.19
388.713	104.19
388.938	80.19
389.163	91.19
389.387	86.19
389.612	88.19
389.837	81.19
390.062	89.19
390.287	69.19
390.512	84.19
390.736	83.19
390.961	95.19
391.186	85.19
391.411	84.19
391.636	93.19
391.86	72.19
392.085	81.19
392.31	76.19
392.534	78.19
392.759	82.19
392.984	91.19
393.208	96.19
393.433	88.19
393.658	74.19
393.882	75.19
394.107	77.19
394.331	70.19
394.556	90.19
394.78	88.19
395.005	95.19
395.229	87.19
395.454	82.19
395.678	71.19
395.903	70.19
396.127	74.19
396.352	89.19
396.576	84.19
396.801	75.19
397.025	92.19
397.249	96.19
397.474	92.19
397.698	91.19
397.922	91.19
398.147	83.19
398.371	96.19
398.595	99.19
398.82	89.19
399.044	86.19
399.268	74.19
399.492	82.19
399.717	84.19
399.941	80.19
400.165	93.19
400.389	88.19
400.613	96.19
400.837	88.19
401.062	88.19
401.286	85.19
401.51	96.19
401.734	93.19
401.958	96.19
402.182	111.19
402.406	145.19
402.63	119.19
402.854	102.19
403.078	88.19
403.302	91.19
403.526	80.19
403.75	74.19
403.974	89.19
404.198	84.19
404.422	84.19
404.645	100.19
404.869	78.19
405.093	80.19
405.317	104.19
405.541	99.19
405.765	109.19
405.988	109.19
406.212	165.19
406.436	214.19
406.66	140.19
406.883	90.19
407.107	86.19
407.331	89.19
407.555	90.19
407.778	98.19
408.002	101.19
408.226	93.19
408.449	77.19
408.673	86.19
408.896	97.19
409.12	97.19
409.344	76.19
409.567	73.19
409.791	74.19
410.014	116.19
410.238	97.19
410.461	85.19
410.685	105.19
410.908	97.19
411.132	102.19
411.355	96.19
411.578	90.19
411.802	88.19
412.025	99.19
412.249	90.19
412.472	86.19
412.695	106.19
412.919	104.19
413.142	85.19
413.365	88.19
413.589	92.19
413.812	85.19
414.035	73.19
414.258	84.19
414.482	89.19
414.705	93.19
414.928	95.19
415.151	77.19
415.374	95.19
415.597	81.19
415.821	91.19
416.044	86.19
416.267	86.19
416.49	67.19
416.713	96.19
416.936	88.19
417.159	87.19
417.382	90.19
417.605	90.19
417.828	88.19
418.051	87.19
418.274	84.19
418.497	87.19
418.72	93.19
418.943	82.19
419.166	80.19
419.389	101.19
419.611	90.19
419.834	96.19
420.057	81.19
420.28	90.19
420.503	98.19
420.726	71.19
420.948	94.19
421.171	92.19
421.394	91.19
421.617	81.19
421.839	97.19
422.062	105.19
422.285	98.19
422.507	92.19
422.73	95.19
422.953	104.19
423.175	77.19
423.398	76.19
423.621	87.19
423.843	98.19
424.066	85.19
424.288	82.19
424.511	98.19
424.733	92.19
424.956	97.19
425.178	90.19
425.401	113.19
425.623	100.19
425.846	85.19
426.068	97.19
426.291	92.19
426.513	94.19
426.735	90.19
426.958	84.19
427.18	94.19
427.402	135.19
427.625	149.19
427.847	131.19
428.069	95.19
428.292	86.19
428.514	94.19
428.736	77.19
428.958	88.19
429.181	79.19
429.403	75.19
429.625	74.19
429.847	95.19
430.069	97.19
430.292	75.19
430.514	74.19
430.736	82.19
430.958	67.19
431.18	84.19
431.402	88.19
431.624	81.19
431.846	77.19
432.068	81.19
432.29	85.19
432.512	92.19
432.734	77.19
432.956	79.19
433.178	87.19
433.4	89.19
433.622	92.19
433.844	93.19
434.066	91.19
434.287	99.19
434.509	88.19
434.731	88.19
434.953	87.19
435.175	87.19
435.397	106.19
435.618	100.19
435.84	93.19
436.062	132.19
436.284	134.19
436.505	104.19
436.727	106.19
436.949	99.19
437.17	88.19
437.392	75.19
437.614	76.19
437.835	93.19
438.057	120.19
438.278	109.19
438.5	95.19
438.721	110.19
438.943	94.19
439.165	78.19
439.386	72.19
439.608	90.19
439.829	95.19
440.05	117.19
440.272	140.19
440.493	107.19
440.715	102.19
440.936	77.19
441.158	86.19
441.379	94.19
441.6	96.19
441.822	86.19
442.043	92.19
442.264	104.19
442.486	113.19
442.707	109.19
442.928	111.19
443.149	113.19
443.371	112.19
443.592	104.19
443.813	98.19
444.034	100.19
444.255	93.19
444.476	86.19
444.698	83.19
444.919	89.19
445.14	127.19
445.361	111.19
445.582	119.19
445.803	121.19
446.024	133.19
446.245	128.19
446.466	81.19
446.687	86.19
446.908	98.19
447.129	82.19
447.35	80.19
447.571	100.19
447.792	86.19
448.013	85.19
448.234	99.19
448.455	102.19
448.675	125.19
448.896	116.19
449.117	85.19
449.338	89.19
449.559	112.19
449.779	127.19
450	85.19
450.221	92.19
450.442	87.19
450.662	100.19
450.883	105.19
451.104	109.19
451.324	89.19
451.545	77.19
451.766	87.19
451.986	81.19
452.207	101.19
452.428	100.19
452.648	89.19
452.869	115.19
453.089	115.19
453.31	106.19
453.53	99.19
453.751	97.19
453.971	102.19
454.192	107.19
454.412	101.19
454.633	89.19
454.853	92.19
455.073	71.19
455.294	85.19
455.514	115.19
455.734	80.19
455.955	96.19
456.175	82.19
456.395	83.19
456.616	88.19
456.836	83.19
457.056	83.19
457.276	87.19
457.497	89.19
457.717	81.19
457.937	66.19
458.157	72.19
458.377	91.19
458.598	107.19
458.818	141.19
459.038	153.19
459.258	108.19
459.478	87.19
459.698	87.19
459.918	83.19
460.138	80.19
460.358	76.19
460.578	93.19
460.798	89.19
461.018	84.19
461.238	78.19
461.458	91.19
461.678	86.19
461.898	102.19
462.118	90.19
462.338	89.19
462.558	77.19
462.777	101.19
462.997	86.19
463.217	94.19
463.437	97.19
463.657	83.19
463.876	92.19
464.096	96.19
464.316	76.19
464.536	98.19
464.755	86.19
464.975	95.19
465.195	149.19
465.414	167.19
465.634	101.19
465.854	89.19
466.073	84.19
466.293	90.19
466.512	71.19
466.732	81.19
466.951	83.19
467.171	98.19
467.391	92.19
467.61	101.19
467.829	98.19
468.049	99.19
468.268	105.19
468.488	91.19
468.707	82.19
468.927	80.19
469.146	74.19
469.365	78.19
469.585	83.19
469.804	87.19
470.023	81.19
470.243	88.19
470.462	91.19
470.681	108.19
470.901	88.19
471.12	84.19
471.339	79.19
471.558	77.19
471.777	96.19
471.997	99.19
472.216	127.19
472.435	170.19
472.654	81.19
472.873	95.19
473.092	73.19
473.311	96.19
473.53	77.19
473.749	72.19
473.968	77.19
474.187	106.19
474.406	100.19
474.625	87.19
474.844	82.19
475.063	90.19
475.282	100.19
475.501	74.19
475.72	81.19
475.939	85.19
476.158	91.19
476.377	82.19
476.596	80.19
476.814	84.19
477.033	87.19
477.252	83.19
477.471	94.19
477.69	92.19
477.908	76.19
478.127	92.19
478.346	102.19
478.564	97.19
478.783	88.19
479.002	75.19
479.22	83.19
479.439	100.19
479.658	105.19
479.876	93.19
480.095	92.19
480.313	88.19
480.532	96.19
480.751	90.19
480.969	122.19
481.188	231.19
481.406	182.19
481.624	99.19
481.843	88.19
482.061	83.19
482.28	98.19
482.498	95.19
482.717	89.19
482.935	84.19
483.153	88.19
483.372	95.19
483.59	88.19
483.808	89.19
484.027	74.19
484.245	84.19
484.463	85.19
484.681	89.19
484.9	96.19
485.118	76.19
485.336	99.19
485.554	94.19
485.772	92.19
485.99	108.19
486.209	114.19
486.427	101.19
486.645	111.19
486.863	103.19
487.081	102.19
487.299	92.19
487.517	93.19
487.735	88.19
487.953	95.19
488.171	106.19
488.389	88.19
488.607	97.19
488.825	82.19
489.043	99.19
489.261	81.19
489.479	99.19
489.696	88.19
489.914	99.19
490.132	101.19
490.35	93.19
490.568	96.19
490.786	81.19
491.003	86.19
491.221	93.19
491.439	87.19
491.657	92.19
491.874	92.19
492.092	73.19
492.31	100.19
492.527	76.19
492.745	85.19
492.963	90.19
493.18	80.19
493.398	84.19
493.615	104.19
493.833	93.19
494.05	89.19
494.268	81.19
494.485	59.19
494.703	84.19
494.92	103.19
495.138	88.19
495.355	86.19
495.573	93.19
495.79	92.19
496.008	79.19
496.225	91.19
496.442	71.19
496.66	91.19
496.877	71.19
497.094	96.19
497.312	87.19
497.529	93.19
497.746	78.19
497.963	82.19
498.181	86.19
498.398	97.19
498.615	91.19
498.832	100.19
499.049	88.19
499.267	98.19
499.484	94.19
499.701	95.19
499.918	98.19
500.135	93.19
500.352	95.19
500.569	89.19
500.786	95.19
501.003	103.19
501.22	80.19
501.437	88.19
501.654	96.19
501.871	108.19
502.088	89.19
502.305	81.19
502.522	82.19
502.739	77.19
502.956	91.19
503.172	89.19
503.389	98.19
503.606	92.19
503.823	92.19
504.04	95.19
504.256	90.19
504.473	90.19
504.69	93.19
504.907	92.19
505.123	91.19
505.34	80.19
505.557	91.19
505.773	91.19
505.99	83.19
506.207	94.19
506.423	89.19
506.64	88.19
506.856	89.19
507.073	76.19
507.289	84.19
507.506	84.19
507.722	85.19
507.939	103.19
508.155	96.19
508.372	95.19
508.588	76.19
508.805	99.19
509.021	91.19
509.238	98.19
509.454	98.19
509.67	100.19
509.887	123.19
510.103	123.19
510.319	220.19
510.536	768.19
510.752	2596.19
510.968	729.19
511.184	161.19
511.401	100.19
511.617	102.19
511.833	91.19
512.049	89.19
512.265	92.19
512.481	75.19
512.698	86.19
512.914	87.19
513.13	80.19
513.346	92.19
513.562	86.19
513.778	87.19
513.994	100.19
514.21	102.19
514.426	116.19
514.642	139.19
514.858	124.19
515.074	162.19
515.29	424.19
515.506	1497.19
515.721	589.19
515.937	151.19
516.153	107.19
516.369	105.19
