Data from Circ_2016_H10_HRD10591_00049.txt Node
Date: Wed Jan 03 09:58:50 EST 2024
User: Yrep
Spectrometer: HR+D1059
Trigger mode: 1
Integration Time (sec): 1.000000E-1
Scans to average: 1
Electric dark correction enabled: true
Nonlinearity correction enabled: false
Boxcar width: 0
XAxis mode: Wavelengths
Number of Pixels in Spectrum: 2048
>>>>>Begin Spectral Data<<<<<
223.165	-19.19
223.4	-19.19
223.635	-19.19
223.869	-16.19
224.104	-19.19
224.338	-21.19
224.573	-10.19
224.808	-13.19
225.042	-13.19
225.277	-0.19
225.511	-7.19
225.746	4.81
225.98	7.81
226.215	7.81
226.449	19.81
226.683	17.81
226.918	30.81
227.152	30.81
227.387	48.81
227.621	35.81
227.856	54.81
228.09	36.81
228.324	46.81
228.559	60.81
228.793	63.81
229.027	63.81
229.262	48.81
229.496	71.81
229.73	77.81
229.964	67.81
230.199	84.81
230.433	58.81
230.667	88.81
230.901	81.81
231.136	68.81
231.37	85.81
231.604	79.81
231.838	74.81
232.072	74.81
232.306	76.81
232.541	78.81
232.775	72.81
233.009	64.81
233.243	63.81
233.477	83.81
233.711	80.81
233.945	71.81
234.179	78.81
234.413	83.81
234.647	86.81
234.881	75.81
235.115	81.81
235.349	69.81
235.583	90.81
235.817	71.81
236.051	96.81
236.285	73.81
236.519	74.81
236.753	81.81
236.987	72.81
237.221	84.81
237.455	80.81
237.689	67.81
237.922	58.81
238.156	78.81
238.39	76.81
238.624	74.81
238.858	66.81
239.091	81.81
239.325	71.81
239.559	76.81
239.793	68.81
240.027	64.81
240.26	72.81
240.494	63.81
240.728	75.81
240.961	95.81
241.195	85.81
241.429	76.81
241.662	80.81
241.896	71.81
242.13	78.81
242.363	80.81
242.597	72.81
242.83	74.81
243.064	72.81
243.298	82.81
243.531	79.81
243.765	93.81
243.998	82.81
244.232	71.81
244.465	80.81
244.699	82.81
244.932	67.81
245.166	82.81
245.399	95.81
245.633	75.81
245.866	80.81
246.099	62.81
246.333	77.81
246.566	78.81
246.8	67.81
247.033	82.81
247.266	70.81
247.5	78.81
247.733	86.81
247.966	81.81
248.2	80.81
248.433	71.81
248.666	71.81
248.899	73.81
249.133	74.81
249.366	94.81
249.599	87.81
249.832	88.81
250.066	79.81
250.299	81.81
250.532	85.81
250.765	82.81
250.998	67.81
251.231	77.81
251.465	70.81
251.698	75.81
251.931	69.81
252.164	71.81
252.397	76.81
252.63	73.81
252.863	79.81
253.096	82.81
253.329	75.81
253.562	75.81
253.795	87.81
254.028	67.81
254.261	59.81
254.494	86.81
254.727	87.81
254.96	81.81
255.193	86.81
255.426	81.81
255.659	76.81
255.892	79.81
256.124	87.81
256.357	77.81
256.59	75.81
256.823	91.81
257.056	71.81
257.289	93.81
257.521	83.81
257.754	71.81
257.987	82.81
258.22	83.81
258.452	65.81
258.685	85.81
258.918	78.81
259.151	98.81
259.383	87.81
259.616	81.81
259.849	83.81
260.081	88.81
260.314	74.81
260.547	88.81
260.779	82.81
261.012	89.81
261.244	80.81
261.477	87.81
261.71	90.81
261.942	95.81
262.175	98.81
262.407	73.81
262.64	76.81
262.872	84.81
263.105	73.81
263.337	88.81
263.57	90.81
263.802	95.81
264.035	77.81
264.267	67.81
264.499	83.81
264.732	93.81
264.964	80.81
265.197	84.81
265.429	84.81
265.661	81.81
265.894	78.81
266.126	96.81
266.358	79.81
266.591	81.81
266.823	89.81
267.055	78.81
267.287	76.81
267.52	74.81
267.752	77.81
267.984	75.81
268.216	73.81
268.448	82.81
268.681	82.81
268.913	74.81
269.145	88.81
269.377	76.81
269.609	84.81
269.841	88.81
270.073	68.81
270.306	81.81
270.538	94.81
270.77	73.81
271.002	82.81
271.234	87.81
271.466	73.81
271.698	74.81
271.93	87.81
272.162	82.81
272.394	84.81
272.626	78.81
272.858	80.81
273.09	83.81
273.322	87.81
273.553	81.81
273.785	74.81
274.017	75.81
274.249	73.81
274.481	91.81
274.713	84.81
274.945	88.81
275.176	80.81
275.408	84.81
275.64	94.81
275.872	83.81
276.104	75.81
276.335	73.81
276.567	90.81
276.799	112.81
277.031	99.81
277.262	95.81
277.494	106.81
277.726	86.81
277.957	74.81
278.189	75.81
278.421	83.81
278.652	68.81
278.884	92.81
279.115	71.81
279.347	75.81
279.579	88.81
279.81	92.81
280.042	84.81
280.273	99.81
280.505	90.81
280.736	86.81
280.968	100.81
281.199	92.81
281.431	87.81
281.662	76.81
281.894	93.81
282.125	98.81
282.356	108.81
282.588	154.81
282.819	132.81
283.051	85.81
283.282	86.81
283.513	87.81
283.745	82.81
283.976	81.81
284.207	84.81
284.439	77.81
284.67	84.81
284.901	80.81
285.132	90.81
285.364	87.81
285.595	82.81
285.826	81.81
286.057	78.81
286.288	84.81
286.52	91.81
286.751	88.81
286.982	83.81
287.213	91.81
287.444	74.81
287.675	79.81
287.906	86.81
288.138	93.81
288.369	83.81
288.6	97.81
288.831	91.81
289.062	84.81
289.293	68.81
289.524	85.81
289.755	95.81
289.986	91.81
290.217	73.81
290.448	87.81
290.679	90.81
290.91	80.81
291.141	87.81
291.371	93.81
291.602	86.81
291.833	90.81
292.064	87.81
292.295	84.81
292.526	81.81
292.757	94.81
292.987	86.81
293.218	86.81
293.449	89.81
293.68	78.81
293.91	75.81
294.141	88.81
294.372	87.81
294.603	90.81
294.833	69.81
295.064	70.81
295.295	82.81
295.525	79.81
295.756	89.81
295.987	95.81
296.217	122.81
296.448	112.81
296.679	82.81
296.909	117.81
297.14	99.81
297.37	89.81
297.601	93.81
297.831	82.81
298.062	90.81
298.292	83.81
298.523	91.81
298.753	76.81
298.984	94.81
299.214	81.81
299.445	75.81
299.675	96.81
299.905	95.81
300.136	88.81
300.366	80.81
300.597	84.81
300.827	94.81
301.057	100.81
301.288	99.81
301.518	86.81
301.748	104.81
301.979	88.81
302.209	70.81
302.439	86.81
302.669	93.81
302.9	89.81
303.13	84.81
303.36	95.81
303.59	101.81
303.82	103.81
304.051	97.81
304.281	87.81
304.511	90.81
304.741	80.81
304.971	98.81
305.201	82.81
305.431	83.81
305.661	87.81
305.891	86.81
306.121	97.81
306.352	99.81
306.582	93.81
306.812	92.81
307.042	90.81
307.272	94.81
307.502	94.81
307.731	83.81
307.961	83.81
308.191	86.81
308.421	90.81
308.651	99.81
308.881	97.81
309.111	96.81
309.341	85.81
309.571	91.81
309.8	91.81
310.03	95.81
310.26	100.81
310.49	105.81
310.72	87.81
310.949	100.81
311.179	85.81
311.409	97.81
311.639	95.81
311.868	96.81
312.098	95.81
312.328	92.81
312.557	90.81
312.787	98.81
313.017	86.81
313.246	90.81
313.476	84.81
313.706	95.81
313.935	89.81
314.165	115.81
314.394	95.81
314.624	96.81
314.853	111.81
315.083	87.81
315.312	94.81
315.542	93.81
315.771	87.81
316.001	91.81
316.23	87.81
316.46	77.81
316.689	87.81
316.919	82.81
317.148	86.81
317.377	102.81
317.607	101.81
317.836	97.81
318.065	96.81
318.295	92.81
318.524	99.81
318.753	97.81
318.983	94.81
319.212	111.81
319.441	109.81
319.67	102.81
319.9	84.81
320.129	106.81
320.358	94.81
320.587	89.81
320.816	95.81
321.046	105.81
321.275	102.81
321.504	92.81
321.733	87.81
321.962	105.81
322.191	99.81
322.42	103.81
322.649	98.81
322.878	118.81
323.108	119.81
323.337	102.81
323.566	112.81
323.795	136.81
324.024	199.81
324.253	383.81
324.482	798.81
324.71	1676.81
324.939	2205.81
325.168	793.81
325.397	233.81
325.626	140.81
325.855	121.81
326.084	105.81
326.313	127.81
326.542	151.81
326.77	243.81
326.999	443.81
327.228	919.81
327.457	1630.81
327.686	1302.81
327.914	347.81
328.143	171.81
328.372	140.81
328.6	136.81
328.829	104.81
329.058	123.81
329.287	129.81
329.515	97.81
329.744	100.81
329.972	104.81
330.201	102.81
330.43	123.81
330.658	123.81
330.887	131.81
331.115	113.81
331.344	96.81
331.572	99.81
331.801	108.81
332.03	104.81
332.258	102.81
332.486	88.81
332.715	87.81
332.943	83.81
333.172	93.81
333.4	96.81
333.629	102.81
333.857	107.81
334.085	108.81
334.314	111.81
334.542	132.81
334.771	128.81
334.999	90.81
335.227	80.81
335.455	87.81
335.684	97.81
335.912	87.81
336.14	92.81
336.369	85.81
336.597	99.81
336.825	103.81
337.053	89.81
337.281	99.81
337.51	92.81
337.738	100.81
337.966	94.81
338.194	87.81
338.422	76.81
338.65	86.81
338.878	87.81
339.106	90.81
339.334	87.81
339.562	83.81
339.79	72.81
340.018	97.81
340.246	77.81
340.474	92.81
340.702	84.81
340.93	92.81
341.158	106.81
341.386	94.81
341.614	96.81
341.842	82.81
342.07	96.81
342.298	79.81
342.526	97.81
342.754	91.81
342.981	82.81
343.209	84.81
343.437	88.81
343.665	97.81
343.893	99.81
344.12	88.81
344.348	82.81
344.576	92.81
344.804	92.81
345.031	88.81
345.259	102.81
345.487	99.81
345.714	81.81
345.942	81.81
346.17	103.81
346.397	96.81
346.625	85.81
346.853	96.81
347.08	86.81
347.308	94.81
347.535	89.81
347.763	81.81
347.99	87.81
348.218	95.81
348.445	94.81
348.673	86.81
348.9	74.81
349.128	83.81
349.355	90.81
349.583	95.81
349.81	88.81
350.037	97.81
350.265	97.81
350.492	85.81
350.72	82.81
350.947	103.81
351.174	111.81
351.402	110.81
351.629	104.81
351.856	95.81
352.083	95.81
352.311	103.81
352.538	103.81
352.765	103.81
352.992	108.81
353.22	109.81
353.447	104.81
353.674	92.81
353.901	102.81
354.128	97.81
354.355	93.81
354.583	96.81
354.81	84.81
355.037	99.81
355.264	82.81
355.491	100.81
355.718	93.81
355.945	92.81
356.172	87.81
356.399	84.81
356.626	98.81
356.853	102.81
357.08	92.81
357.307	103.81
357.534	99.81
357.761	101.81
357.988	97.81
358.215	101.81
358.441	84.81
358.668	70.81
358.895	76.81
359.122	86.81
359.349	82.81
359.576	96.81
359.802	102.81
360.029	113.81
360.256	109.81
360.483	93.81
360.709	80.81
360.936	89.81
361.163	89.81
361.39	95.81
361.616	82.81
361.843	94.81
362.07	97.81
362.296	101.81
362.523	69.81
362.749	80.81
362.976	97.81
363.203	78.81
363.429	105.81
363.656	102.81
363.882	77.81
364.109	76.81
364.335	83.81
364.562	90.81
364.788	92.81
365.015	97.81
365.241	105.81
365.468	87.81
365.694	80.81
365.92	94.81
366.147	87.81
366.373	94.81
366.599	86.81
366.826	79.81
367.052	94.81
367.278	89.81
367.505	92.81
367.731	89.81
367.957	95.81
368.184	92.81
368.41	82.81
368.636	108.81
368.862	106.81
369.089	101.81
369.315	92.81
369.541	83.81
369.767	95.81
369.993	91.81
370.219	88.81
370.445	93.81
370.672	82.81
370.898	83.81
371.124	88.81
371.35	87.81
371.576	83.81
371.802	92.81
372.028	87.81
372.254	84.81
372.48	87.81
372.706	88.81
372.932	75.81
373.158	86.81
373.384	87.81
373.61	95.81
373.835	81.81
374.061	72.81
374.287	82.81
374.513	82.81
374.739	87.81
374.965	87.81
375.191	99.81
375.416	87.81
375.642	78.81
375.868	89.81
376.094	76.81
376.319	82.81
376.545	84.81
376.771	93.81
376.997	91.81
377.222	88.81
377.448	89.81
377.674	82.81
377.899	92.81
378.125	88.81
378.35	102.81
378.576	94.81
378.802	98.81
379.027	92.81
379.253	84.81
379.478	101.81
379.704	100.81
379.929	89.81
380.155	103.81
380.38	99.81
380.606	106.81
380.831	99.81
381.057	103.81
381.282	102.81
381.507	100.81
381.733	107.81
381.958	91.81
382.184	112.81
382.409	104.81
382.634	106.81
382.86	103.81
383.085	110.81
383.31	125.81
383.535	117.81
383.761	104.81
383.986	99.81
384.211	105.81
384.436	100.81
384.662	106.81
384.887	124.81
385.112	114.81
385.337	125.81
385.562	110.81
385.787	117.81
386.013	126.81
386.238	124.81
386.463	122.81
386.688	122.81
386.913	121.81
387.138	104.81
387.363	117.81
387.588	105.81
387.813	97.81
388.038	126.81
388.263	134.81
388.488	126.81
388.713	96.81
388.938	97.81
389.163	94.81
389.387	97.81
389.612	70.81
389.837	100.81
390.062	101.81
390.287	97.81
390.512	90.81
390.736	88.81
390.961	81.81
391.186	104.81
391.411	103.81
391.636	75.81
391.86	88.81
392.085	101.81
392.31	67.81
392.534	65.81
392.759	87.81
392.984	99.81
393.208	89.81
393.433	101.81
393.658	87.81
393.882	75.81
394.107	87.81
394.331	84.81
394.556	92.81
394.78	82.81
395.005	86.81
395.229	89.81
395.454	79.81
395.678	80.81
395.903	94.81
396.127	67.81
396.352	91.81
396.576	93.81
396.801	90.81
397.025	77.81
397.249	84.81
397.474	73.81
397.698	80.81
397.922	90.81
398.147	94.81
398.371	85.81
398.595	85.81
398.82	76.81
399.044	84.81
399.268	99.81
399.492	98.81
399.717	96.81
399.941	93.81
400.165	101.81
400.389	76.81
400.613	85.81
400.837	88.81
401.062	96.81
401.286	97.81
401.51	76.81
401.734	81.81
401.958	92.81
402.182	135.81
402.406	150.81
402.63	127.81
402.854	64.81
403.078	87.81
403.302	74.81
403.526	82.81
403.75	85.81
403.974	83.81
404.198	80.81
404.422	68.81
404.645	95.81
404.869	84.81
405.093	101.81
405.317	98.81
405.541	97.81
405.765	96.81
405.988	105.81
406.212	162.81
406.436	217.81
406.66	147.81
406.883	99.81
407.107	83.81
407.331	91.81
407.555	86.81
407.778	92.81
408.002	82.81
408.226	80.81
408.449	82.81
408.673	84.81
408.896	82.81
409.12	90.81
409.344	106.81
409.567	90.81
409.791	89.81
410.014	96.81
410.238	88.81
410.461	83.81
410.685	86.81
410.908	103.81
411.132	102.81
411.355	102.81
411.578	102.81
411.802	79.81
412.025	98.81
412.249	92.81
412.472	91.81
412.695	82.81
412.919	87.81
413.142	89.81
413.365	84.81
413.589	83.81
413.812	86.81
414.035	84.81
414.258	95.81
414.482	83.81
414.705	90.81
414.928	90.81
415.151	94.81
415.374	79.81
415.597	83.81
415.821	86.81
416.044	89.81
416.267	83.81
416.49	88.81
416.713	96.81
416.936	95.81
417.159	81.81
417.382	86.81
417.605	93.81
417.828	104.81
418.051	100.81
418.274	90.81
418.497	78.81
418.72	87.81
418.943	100.81
419.166	82.81
419.389	84.81
419.611	88.81
419.834	84.81
420.057	89.81
420.28	76.81
420.503	76.81
420.726	81.81
420.948	75.81
421.171	93.81
421.394	89.81
421.617	92.81
421.839	82.81
422.062	82.81
422.285	86.81
422.507	121.81
422.73	100.81
422.953	100.81
423.175	87.81
423.398	95.81
423.621	83.81
423.843	82.81
424.066	70.81
424.288	93.81
424.511	89.81
424.733	93.81
424.956	88.81
425.178	97.81
425.401	110.81
425.623	94.81
425.846	90.81
426.068	88.81
426.291	89.81
426.513	105.81
426.735	95.81
426.958	91.81
427.18	95.81
427.402	134.81
427.625	159.81
427.847	132.81
428.069	100.81
428.292	88.81
428.514	76.81
428.736	96.81
428.958	80.81
429.181	74.81
429.403	87.81
429.625	90.81
429.847	101.81
430.069	93.81
430.292	90.81
430.514	79.81
430.736	91.81
430.958	95.81
431.18	90.81
431.402	89.81
431.624	75.81
431.846	91.81
432.068	84.81
432.29	103.81
432.512	96.81
432.734	82.81
432.956	88.81
433.178	82.81
433.4	95.81
433.622	85.81
433.844	103.81
434.066	93.81
434.287	94.81
434.509	90.81
434.731	83.81
434.953	80.81
435.175	83.81
435.397	99.81
435.618	99.81
435.84	108.81
436.062	146.81
436.284	105.81
436.505	91.81
436.727	105.81
436.949	97.81
437.17	88.81
437.392	68.81
437.614	88.81
437.835	101.81
438.057	123.81
438.278	105.81
438.5	106.81
438.721	110.81
438.943	99.81
439.165	93.81
439.386	97.81
439.608	99.81
439.829	104.81
440.05	109.81
440.272	133.81
440.493	103.81
440.715	79.81
440.936	94.81
441.158	93.81
441.379	83.81
441.6	85.81
441.822	91.81
442.043	95.81
442.264	112.81
442.486	97.81
442.707	82.81
442.928	112.81
443.149	123.81
443.371	120.81
443.592	93.81
443.813	118.81
444.034	89.81
444.255	89.81
444.476	90.81
444.698	88.81
444.919	91.81
445.14	130.81
445.361	134.81
445.582	115.81
445.803	136.81
446.024	128.81
446.245	136.81
446.466	114.81
446.687	91.81
446.908	82.81
447.129	80.81
447.35	86.81
447.571	80.81
447.792	82.81
448.013	97.81
448.234	108.81
448.455	91.81
448.675	106.81
448.896	114.81
449.117	112.81
449.338	105.81
449.559	118.81
449.779	112.81
450	101.81
450.221	78.81
450.442	85.81
450.662	90.81
450.883	99.81
451.104	107.81
451.324	102.81
451.545	92.81
451.766	92.81
451.986	78.81
452.207	86.81
452.428	92.81
452.648	86.81
452.869	101.81
453.089	106.81
453.31	110.81
453.53	83.81
453.751	88.81
453.971	104.81
454.192	110.81
454.412	84.81
454.633	96.81
454.853	76.81
455.073	81.81
455.294	98.81
455.514	107.81
455.734	85.81
455.955	91.81
456.175	87.81
456.395	85.81
456.616	87.81
456.836	88.81
457.056	83.81
457.276	80.81
457.497	81.81
457.717	98.81
457.937	98.81
458.157	83.81
458.377	86.81
458.598	104.81
458.818	144.81
459.038	148.81
459.258	107.81
459.478	90.81
459.698	90.81
459.918	79.81
460.138	84.81
460.358	90.81
460.578	88.81
460.798	96.81
461.018	98.81
461.238	81.81
461.458	79.81
461.678	72.81
461.898	88.81
462.118	101.81
462.338	86.81
462.558	93.81
462.777	89.81
462.997	86.81
463.217	91.81
463.437	90.81
463.657	79.81
463.876	87.81
464.096	99.81
464.316	88.81
464.536	76.81
464.755	95.81
464.975	111.81
465.195	147.81
465.414	157.81
465.634	102.81
465.854	74.81
466.073	88.81
466.293	79.81
466.512	98.81
466.732	88.81
466.951	86.81
467.171	89.81
467.391	96.81
467.61	96.81
467.829	95.81
468.049	99.81
468.268	83.81
468.488	77.81
468.707	86.81
468.927	85.81
469.146	83.81
469.365	96.81
469.585	83.81
469.804	98.81
470.023	102.81
470.243	85.81
470.462	102.81
470.681	105.81
470.901	89.81
471.12	71.81
471.339	86.81
471.558	90.81
471.777	96.81
471.997	89.81
472.216	110.81
472.435	140.81
472.654	112.81
472.873	82.81
473.092	89.81
473.311	91.81
473.53	89.81
473.749	80.81
473.968	87.81
474.187	86.81
474.406	87.81
474.625	89.81
474.844	98.81
475.063	83.81
475.282	79.81
475.501	87.81
475.72	74.81
475.939	83.81
476.158	92.81
476.377	95.81
476.596	81.81
476.814	88.81
477.033	87.81
477.252	94.81
477.471	74.81
477.69	92.81
477.908	100.81
478.127	97.81
478.346	68.81
478.564	98.81
478.783	97.81
479.002	106.81
479.22	95.81
479.439	80.81
479.658	105.81
479.876	81.81
480.095	95.81
480.313	86.81
480.532	67.81
480.751	88.81
480.969	106.81
481.188	188.81
481.406	150.81
481.624	100.81
481.843	69.81
482.061	84.81
482.28	75.81
482.498	90.81
482.717	103.81
482.935	92.81
483.153	89.81
483.372	79.81
483.59	80.81
483.808	82.81
484.027	95.81
484.245	95.81
484.463	80.81
484.681	99.81
484.9	89.81
485.118	82.81
485.336	107.81
485.554	95.81
485.772	94.81
485.99	95.81
486.209	101.81
486.427	102.81
486.645	114.81
486.863	117.81
487.081	95.81
487.299	91.81
487.517	104.81
487.735	108.81
487.953	91.81
488.171	91.81
488.389	86.81
488.607	91.81
488.825	103.81
489.043	75.81
489.261	103.81
489.479	93.81
489.696	73.81
489.914	89.81
490.132	79.81
490.35	90.81
490.568	98.81
490.786	95.81
491.003	95.81
491.221	94.81
491.439	95.81
491.657	98.81
491.874	101.81
492.092	77.81
492.31	98.81
492.527	84.81
492.745	97.81
492.963	91.81
493.18	78.81
493.398	75.81
493.615	94.81
493.833	96.81
494.05	84.81
494.268	97.81
494.485	94.81
494.703	96.81
494.92	96.81
495.138	75.81
495.355	80.81
495.573	85.81
495.79	85.81
496.008	97.81
496.225	80.81
496.442	71.81
496.66	95.81
496.877	87.81
497.094	84.81
497.312	81.81
497.529	93.81
497.746	84.81
497.963	102.81
498.181	92.81
498.398	96.81
498.615	118.81
498.832	103.81
499.049	94.81
499.267	84.81
499.484	97.81
499.701	78.81
499.918	91.81
500.135	79.81
500.352	91.81
500.569	70.81
500.786	82.81
501.003	75.81
501.22	87.81
501.437	81.81
501.654	86.81
501.871	100.81
502.088	97.81
502.305	90.81
502.522	89.81
502.739	96.81
502.956	82.81
503.172	101.81
503.389	94.81
503.606	105.81
503.823	96.81
504.04	84.81
504.256	71.81
504.473	98.81
504.69	82.81
504.907	103.81
505.123	97.81
505.34	82.81
505.557	100.81
505.773	110.81
505.99	91.81
506.207	77.81
506.423	95.81
506.64	82.81
506.856	92.81
507.073	87.81
507.289	100.81
507.506	97.81
507.722	119.81
507.939	106.81
508.155	97.81
508.372	97.81
508.588	79.81
508.805	88.81
509.021	101.81
509.238	104.81
509.454	115.81
509.67	99.81
509.887	120.81
510.103	127.81
510.319	203.81
510.536	755.81
510.752	2418.81
510.968	682.81
511.184	154.81
511.401	92.81
511.617	86.81
511.833	94.81
512.049	90.81
512.265	87.81
512.481	81.81
512.698	84.81
512.914	90.81
513.13	96.81
513.346	89.81
513.562	91.81
513.778	106.81
513.994	101.81
514.21	96.81
514.426	110.81
514.642	133.81
514.858	124.81
515.074	177.81
515.29	428.81
515.506	1416.81
515.721	558.81
515.937	141.81
516.153	112.81
