Data from Circ_2016_H10_HRD10591_00055.txt Node
Date: Wed Jan 03 09:58:51 EST 2024
User: Yrep
Spectrometer: HR+D1059
Trigger mode: 1
Integration Time (sec): 1.000000E-1
Scans to average: 1
Electric dark correction enabled: true
Nonlinearity correction enabled: false
Boxcar width: 0
XAxis mode: Wavelengths
Number of Pixels in Spectrum: 2048
>>>>>Begin Spectral Data<<<<<
223.165	-3
223.4	-3
223.635	-3
223.869	-7
224.104	-27
224.338	-24
224.573	-22
224.808	-13
225.042	-17
225.277	11
225.511	-1
225.746	5
225.98	10
226.215	9
226.449	11
226.683	21
226.918	25
227.152	22
227.387	38
227.621	52
227.856	56
228.09	41
228.324	53
228.559	46
228.793	61
229.027	68
229.262	67
229.496	71
229.73	75
229.964	81
230.199	61
230.433	87
230.667	90
230.901	73
231.136	77
231.37	78
231.604	95
231.838	89
232.072	87
232.306	78
232.541	83
232.775	83
233.009	81
233.243	84
233.477	86
233.711	89
233.945	78
234.179	79
234.413	89
234.647	85
234.881	80
235.115	64
235.349	88
235.583	79
235.817	89
236.051	81
236.285	79
236.519	65
236.753	68
236.987	74
237.221	85
237.455	93
237.689	93
237.922	79
238.156	85
238.39	74
238.624	87
238.858	82
239.091	96
239.325	78
239.559	88
239.793	86
240.027	90
240.26	76
240.494	92
240.728	78
240.961	81
241.195	89
241.429	88
241.662	81
241.896	63
242.13	85
242.363	65
242.597	75
242.83	76
243.064	86
243.298	93
243.531	79
243.765	75
243.998	76
244.232	86
244.465	90
244.699	80
244.932	86
245.166	80
245.399	89
245.633	78
245.866	78
246.099	87
246.333	79
246.566	82
246.8	73
247.033	83
247.266	85
247.5	80
247.733	82
247.966	86
248.2	78
248.433	85
248.666	87
248.899	77
249.133	79
249.366	93
249.599	101
249.832	95
250.066	86
250.299	85
250.532	95
250.765	80
250.998	91
251.231	76
251.465	77
251.698	78
251.931	87
252.164	81
252.397	83
252.63	89
252.863	77
253.096	80
253.329	73
253.562	81
253.795	80
254.028	78
254.261	84
254.494	59
254.727	82
254.96	89
255.193	79
255.426	104
255.659	87
255.892	84
256.124	83
256.357	95
256.59	90
256.823	85
257.056	86
257.289	84
257.521	81
257.754	72
257.987	96
258.22	108
258.452	87
258.685	100
258.918	81
259.151	73
259.383	76
259.616	73
259.849	85
260.081	89
260.314	92
260.547	71
260.779	97
261.012	84
261.244	79
261.477	91
261.71	92
261.942	117
262.175	117
262.407	96
262.64	73
262.872	98
263.105	99
263.337	94
263.57	91
263.802	85
264.035	71
264.267	96
264.499	89
264.732	85
264.964	88
265.197	100
265.429	86
265.661	88
265.894	83
266.126	82
266.358	90
266.591	84
266.823	81
267.055	90
267.287	85
267.52	80
267.752	77
267.984	95
268.216	70
268.448	93
268.681	89
268.913	77
269.145	88
269.377	101
269.609	97
269.841	89
270.073	89
270.306	99
270.538	82
270.77	78
271.002	94
271.234	95
271.466	96
271.698	92
271.93	88
272.162	80
272.394	87
272.626	94
272.858	75
273.09	88
273.322	87
273.553	88
273.785	96
274.017	91
274.249	71
274.481	87
274.713	91
274.945	93
275.176	84
275.408	87
275.64	83
275.872	95
276.104	86
276.335	76
276.567	106
276.799	112
277.031	100
277.262	109
277.494	85
277.726	81
277.957	88
278.189	86
278.421	84
278.652	95
278.884	91
279.115	89
279.347	86
279.579	71
279.81	93
280.042	86
280.273	89
280.505	87
280.736	78
280.968	88
281.199	90
281.431	93
281.662	96
281.894	106
282.125	91
282.356	119
282.588	147
282.819	122
283.051	85
283.282	93
283.513	76
283.745	106
283.976	93
284.207	81
284.439	102
284.67	85
284.901	79
285.132	88
285.364	77
285.595	84
285.826	80
286.057	93
286.288	97
286.52	88
286.751	80
286.982	89
287.213	89
287.444	95
287.675	95
287.906	94
288.138	75
288.369	110
288.6	91
288.831	81
289.062	94
289.293	102
289.524	104
289.755	84
289.986	86
290.217	97
290.448	100
290.679	87
290.91	91
291.141	80
291.371	78
291.602	87
291.833	79
292.064	88
292.295	97
292.526	84
292.757	84
292.987	84
293.218	87
293.449	97
293.68	89
293.91	95
294.141	80
294.372	92
294.603	89
294.833	94
295.064	95
295.295	86
295.525	88
295.756	85
295.987	124
296.217	135
296.448	112
296.679	106
296.909	102
297.14	90
297.37	104
297.601	113
297.831	109
298.062	99
298.292	75
298.523	89
298.753	100
298.984	92
299.214	89
299.445	109
299.675	106
299.905	99
300.136	80
300.366	88
300.597	91
300.827	84
301.057	103
301.288	96
301.518	88
301.748	88
301.979	98
302.209	88
302.439	78
302.669	93
302.9	91
303.13	88
303.36	95
303.59	97
303.82	104
304.051	95
304.281	92
304.511	100
304.741	86
304.971	75
305.201	84
305.431	81
305.661	87
305.891	93
306.121	99
306.352	106
306.582	110
306.812	96
307.042	98
307.272	108
307.502	116
307.731	116
307.961	93
308.191	94
308.421	98
308.651	88
308.881	98
309.111	98
309.341	90
309.571	117
309.8	112
310.03	105
310.26	84
310.49	102
310.72	94
310.949	103
311.179	103
311.409	98
311.639	98
311.868	101
312.098	96
312.328	93
312.557	94
312.787	97
313.017	108
313.246	88
313.476	102
313.706	81
313.935	90
314.165	97
314.394	114
314.624	111
314.853	90
315.083	108
315.312	88
315.542	100
315.771	108
316.001	97
316.23	95
316.46	95
316.689	100
316.919	94
317.148	105
317.377	90
317.607	115
317.836	87
318.065	101
318.295	89
318.524	89
318.753	96
318.983	103
319.212	95
319.441	109
319.67	104
319.9	105
320.129	97
320.358	96
320.587	96
320.816	97
321.046	94
321.275	106
321.504	106
321.733	107
321.962	94
322.191	116
322.42	117
322.649	115
322.878	121
323.108	120
323.337	109
323.566	124
323.795	140
324.024	202
324.253	381
324.482	851
324.71	1709
324.939	2231
325.168	817
325.397	259
325.626	144
325.855	136
326.084	141
326.313	126
326.542	151
326.77	226
326.999	466
327.228	974
327.457	1730
327.686	1367
327.914	364
328.143	200
328.372	157
328.6	119
328.829	110
329.058	142
329.287	121
329.515	101
329.744	107
329.972	107
330.201	109
330.43	144
330.658	133
330.887	143
331.115	129
331.344	102
331.572	116
331.801	104
332.03	102
332.258	104
332.486	109
332.715	98
332.943	92
333.172	87
333.4	92
333.629	100
333.857	110
334.085	118
334.314	114
334.542	152
334.771	151
334.999	108
335.227	104
335.455	109
335.684	112
335.912	90
336.14	108
336.369	94
336.597	111
336.825	96
337.053	78
337.281	86
337.51	96
337.738	88
337.966	91
338.194	91
338.422	91
338.65	105
338.878	105
339.106	84
339.334	104
339.562	85
339.79	103
340.018	102
340.246	102
340.474	97
340.702	88
340.93	95
341.158	95
341.386	111
341.614	115
341.842	86
342.07	80
342.298	84
342.526	89
342.754	86
342.981	99
343.209	85
343.437	93
343.665	85
343.893	92
344.12	100
344.348	87
344.576	93
344.804	93
345.031	94
345.259	95
345.487	91
345.714	81
345.942	103
346.17	90
346.397	104
346.625	103
346.853	107
347.08	111
347.308	104
347.535	101
347.763	93
347.99	99
348.218	102
348.445	106
348.673	101
348.9	116
349.128	97
349.355	95
349.583	87
349.81	97
350.037	86
350.265	100
350.492	97
350.72	85
350.947	88
351.174	100
351.402	117
351.629	93
351.856	90
352.083	108
352.311	104
352.538	103
352.765	104
352.992	121
353.22	136
353.447	120
353.674	97
353.901	94
354.128	115
354.355	104
354.583	110
354.81	105
355.037	107
355.264	93
355.491	90
355.718	108
355.945	110
356.172	87
356.399	102
356.626	112
356.853	101
357.08	92
357.307	94
357.534	87
357.761	100
357.988	99
358.215	108
358.441	113
358.668	97
358.895	104
359.122	99
359.349	90
359.576	83
359.802	97
360.029	119
360.256	114
360.483	109
360.709	85
360.936	84
361.163	95
361.39	106
361.616	98
361.843	96
362.07	100
362.296	97
362.523	92
362.749	92
362.976	83
363.203	98
363.429	84
363.656	104
363.882	89
364.109	104
364.335	86
364.562	85
364.788	96
365.015	98
365.241	99
365.468	104
365.694	101
365.92	106
366.147	113
366.373	94
366.599	80
366.826	85
367.052	85
367.278	87
367.505	86
367.731	86
367.957	94
368.184	92
368.41	90
368.636	111
368.862	118
369.089	117
369.315	96
369.541	100
369.767	95
369.993	92
370.219	93
370.445	81
370.672	96
370.898	85
371.124	106
371.35	91
371.576	104
371.802	88
372.028	97
372.254	98
372.48	97
372.706	80
372.932	78
373.158	89
373.384	91
373.61	92
373.835	88
374.061	97
374.287	76
374.513	95
374.739	83
374.965	99
375.191	85
375.416	81
375.642	95
375.868	105
376.094	86
376.319	77
376.545	94
376.771	91
376.997	89
377.222	84
377.448	97
377.674	103
377.899	89
378.125	99
378.35	82
378.576	92
378.802	100
379.027	90
379.253	94
379.478	99
379.704	90
379.929	109
380.155	109
380.38	93
380.606	113
380.831	112
381.057	108
381.282	97
381.507	103
381.733	115
381.958	116
382.184	111
382.409	94
382.634	123
382.86	112
383.085	106
383.31	112
383.535	104
383.761	102
383.986	108
384.211	103
384.436	106
384.662	102
384.887	115
385.112	129
385.337	115
385.562	112
385.787	113
386.013	115
386.238	150
386.463	113
386.688	104
386.913	110
387.138	141
387.363	123
387.588	115
387.813	118
388.038	123
388.263	127
388.488	118
388.713	106
388.938	95
389.163	104
389.387	95
389.612	91
389.837	99
390.062	96
390.287	101
390.512	93
390.736	101
390.961	96
391.186	111
391.411	96
391.636	83
391.86	87
392.085	81
392.31	80
392.534	94
392.759	93
392.984	89
393.208	94
393.433	101
393.658	100
393.882	86
394.107	97
394.331	100
394.556	85
394.78	96
395.005	91
395.229	96
395.454	85
395.678	96
395.903	108
396.127	91
396.352	87
396.576	91
396.801	92
397.025	89
397.249	96
397.474	99
397.698	87
397.922	97
398.147	90
398.371	88
398.595	99
398.82	93
399.044	88
399.268	77
399.492	95
399.717	91
399.941	101
400.165	91
400.389	91
400.613	80
400.837	108
401.062	83
401.286	85
401.51	84
401.734	88
401.958	105
402.182	126
402.406	147
402.63	107
402.854	90
403.078	93
403.302	88
403.526	83
403.75	68
403.974	96
404.198	93
404.422	86
404.645	94
404.869	95
405.093	86
405.317	117
405.541	106
405.765	83
405.988	104
406.212	167
406.436	221
406.66	160
406.883	102
407.107	102
407.331	105
407.555	88
407.778	96
408.002	92
408.226	97
408.449	90
408.673	88
408.896	99
409.12	98
409.344	77
409.567	94
409.791	88
410.014	105
410.238	89
410.461	93
410.685	96
410.908	94
411.132	110
411.355	109
411.578	93
411.802	89
412.025	106
412.249	92
412.472	95
412.695	90
412.919	89
413.142	106
413.365	79
413.589	99
413.812	99
414.035	86
414.258	101
414.482	85
414.705	98
414.928	87
415.151	104
415.374	98
415.597	93
415.821	93
416.044	88
416.267	96
416.49	98
416.713	93
416.936	77
417.159	87
417.382	97
417.605	93
417.828	95
418.051	94
418.274	99
418.497	83
418.72	110
418.943	85
419.166	80
419.389	89
419.611	89
419.834	82
420.057	95
420.28	90
420.503	86
420.726	86
420.948	108
421.171	88
421.394	90
421.617	88
421.839	99
422.062	84
422.285	92
422.507	80
422.73	102
422.953	92
423.175	94
423.398	102
423.621	78
423.843	85
424.066	99
424.288	84
424.511	98
424.733	93
424.956	116
425.178	105
425.401	102
425.623	102
425.846	88
426.068	84
426.291	98
426.513	82
426.735	86
426.958	95
427.18	117
427.402	142
427.625	153
427.847	126
428.069	110
428.292	88
428.514	87
428.736	89
428.958	97
429.181	91
429.403	87
429.625	101
429.847	102
430.069	91
430.292	95
430.514	79
430.736	90
430.958	93
431.18	89
431.402	92
431.624	102
431.846	79
432.068	95
432.29	94
432.512	74
432.734	100
432.956	98
433.178	99
433.4	100
433.622	91
433.844	99
434.066	93
434.287	87
434.509	98
434.731	92
434.953	84
435.175	94
435.397	88
435.618	90
435.84	105
436.062	118
436.284	106
436.505	106
436.727	116
436.949	103
437.17	99
437.392	88
437.614	108
437.835	108
438.057	125
438.278	97
438.5	103
438.721	128
438.943	102
439.165	98
439.386	96
439.608	89
439.829	103
440.05	120
440.272	149
440.493	103
440.715	83
440.936	93
441.158	98
441.379	83
441.6	99
441.822	97
442.043	97
442.264	96
442.486	104
442.707	95
442.928	90
443.149	120
443.371	131
443.592	108
443.813	95
444.034	100
444.255	100
444.476	76
444.698	90
444.919	77
445.14	126
445.361	131
445.582	117
445.803	133
446.024	126
446.245	112
446.466	110
446.687	103
446.908	103
447.129	79
447.35	93
447.571	96
447.792	92
448.013	115
448.234	104
448.455	103
448.675	123
448.896	120
449.117	92
449.338	115
449.559	134
449.779	123
450	105
450.221	100
450.442	110
450.662	91
450.883	101
451.104	108
451.324	101
451.545	85
451.766	101
451.986	105
452.207	81
452.428	86
452.648	86
452.869	110
453.089	115
453.31	119
453.53	96
453.751	91
453.971	93
454.192	103
454.412	89
454.633	93
454.853	92
455.073	92
455.294	91
455.514	95
455.734	97
455.955	93
456.175	99
456.395	72
456.616	79
456.836	78
457.056	83
457.276	84
457.497	87
457.717	90
457.937	85
458.157	87
458.377	91
458.598	96
458.818	138
459.038	144
459.258	113
459.478	90
459.698	95
459.918	104
460.138	87
460.358	95
460.578	96
460.798	99
461.018	101
461.238	79
461.458	89
461.678	98
461.898	95
462.118	78
462.338	88
462.558	85
462.777	80
462.997	81
463.217	107
463.437	89
463.657	91
463.876	84
464.096	91
464.316	85
464.536	102
464.755	92
464.975	106
465.195	183
465.414	159
465.634	119
465.854	83
466.073	95
466.293	91
466.512	83
466.732	81
466.951	87
467.171	108
467.391	101
467.61	119
467.829	106
468.049	97
468.268	97
468.488	93
468.707	86
468.927	78
469.146	100
469.365	97
469.585	92
469.804	101
470.023	102
470.243	97
470.462	94
470.681	104
470.901	93
471.12	93
471.339	86
471.558	92
471.777	89
471.997	93
472.216	126
472.435	155
472.654	113
472.873	101
473.092	80
473.311	101
473.53	91
473.749	88
473.968	101
474.187	95
474.406	96
474.625	89
474.844	94
475.063	87
475.282	91
475.501	87
475.72	94
475.939	91
476.158	88
476.377	95
476.596	100
476.814	77
477.033	113
477.252	98
477.471	88
477.69	95
477.908	84
478.127	95
478.346	87
478.564	103
478.783	107
479.002	101
479.22	92
479.439	97
479.658	102
479.876	96
480.095	102
480.313	100
480.532	96
480.751	103
480.969	102
481.188	189
481.406	141
481.624	112
481.843	89
482.061	94
482.28	95
482.498	101
482.717	92
482.935	100
483.153	90
483.372	88
483.59	95
483.808	114
484.027	108
484.245	99
484.463	95
484.681	95
484.9	86
485.118	105
485.336	87
485.554	113
485.772	113
485.99	119
486.209	117
486.427	117
486.645	107
486.863	104
487.081	96
487.299	99
487.517	109
487.735	89
487.953	96
488.171	105
488.389	102
488.607	95
488.825	89
489.043	106
489.261	98
489.479	88
489.696	104
489.914	101
490.132	100
490.35	88
490.568	88
490.786	84
491.003	92
491.221	99
491.439	86
491.657	89
491.874	94
492.092	85
492.31	78
492.527	83
492.745	90
492.963	86
493.18	96
493.398	76
493.615	109
493.833	94
494.05	89
494.268	81
494.485	91
494.703	105
494.92	99
495.138	105
495.355	107
495.573	89
495.79	81
496.008	99
496.225	93
496.442	85
496.66	88
496.877	101
497.094	96
497.312	91
497.529	91
497.746	86
497.963	103
498.181	93
498.398	89
498.615	125
498.832	111
499.049	95
499.267	90
499.484	71
499.701	100
499.918	84
500.135	90
500.352	93
500.569	88
500.786	89
501.003	95
501.22	99
501.437	85
501.654	89
501.871	113
502.088	91
502.305	103
502.522	89
502.739	102
502.956	101
503.172	89
503.389	82
503.606	104
503.823	92
504.04	94
504.256	87
504.473	110
504.69	105
504.907	94
505.123	79
505.34	70
505.557	86
505.773	91
505.99	85
506.207	92
506.423	87
506.64	92
506.856	97
507.073	99
507.289	92
507.506	95
507.722	101
507.939	120
508.155	109
508.372	92
508.588	104
508.805	95
509.021	118
509.238	101
509.454	111
509.67	96
509.887	124
510.103	124
510.319	215
510.536	772
510.752	2521
510.968	713
511.184	165
511.401	109
511.617	102
511.833	96
512.049	98
512.265	92
512.481	88
512.698	94
512.914	82
513.13	88
513.346	112
513.562	99
513.778	100
513.994	105
514.21	100
514.426	117
514.642	131
514.858	137
515.074	167
515.29	401
515.506	1459
515.721	543
515.937	161
516.153	116
516.369	109
516.585	94
516.801	99
517.016	83
517.232	97
517.448	79
517.664	96
517.879	92
518.095	87
518.311	89
518.527	95
518.742	97
518.958	77
519.173	110
519.389	86
519.605	96
519.82	94
520.036	116
520.251	119
520.467	108
520.682	114
520.898	115
521.113	114
521.329	136
521.544	212
521.76	501
521.975	2333
522.19	1468
522.406	307
522.621	125
522.836	102
523.052	114
523.267	105
523.482	97
523.698	110
523.913	137
524.128	115
524.343	112
524.559	103
524.774	93
524.989	98
525.204	112
525.419	106
525.634	81
525.849	79
526.064	100
526.28	92
526.495	97
526.71	111
526.925	94
527.14	101
527.355	89
527.57	76
527.785	102
527.999	78
528.214	97
528.429	101
528.644	109
528.859	99
529.074	93
529.289	120
529.503	171
529.718	107
529.933	104
530.148	91
530.363	89
530.577	82
530.792	82
531.007	95
531.221	106
531.436	85
531.651	96
531.865	90
532.08	93
532.295	93
532.509	94
532.724	100
532.938	105
533.153	92
533.367	95
533.582	84
533.796	91
534.011	90
534.225	79
534.44	101
534.654	105
534.868	93
535.083	113
535.297	91
535.511	105
535.726	94
535.94	111
536.154	101
536.369	85
536.583	93
536.797	84
537.011	79
537.225	101
537.44	97
537.654	101
537.868	89
538.082	84
538.296	99
538.51	95
538.724	84
538.938	103
539.153	103
539.367	103
539.581	97
539.795	78
540.009	88
540.222	101
540.436	91
540.65	98
540.864	93
541.078	101
541.292	103
541.506	89
541.72	94
541.934	79
542.147	88
542.361	90
542.575	85
542.789	95
543.002	95
543.216	93
543.43	100
543.644	101
543.857	96
544.071	99
544.285	102
544.498	92
544.712	91
544.925	88
545.139	82
545.352	97
545.566	88
545.779	86
545.993	87
546.206	81
546.42	96
546.633	91
546.847	106
547.06	97
547.274	82
547.487	81
547.7	80
547.914	95
548.127	92
548.34	89
548.554	91
548.767	95
548.98	91
549.193	81
549.407	92
549.62	91
549.833	99
550.046	79
550.259	92
550.473	85
550.686	87
550.899	88
551.112	89
551.325	88
551.538	80
551.751	91
551.964	91
552.177	88
552.39	74
552.603	81
552.816	89
553.029	102
553.242	90
553.455	91
553.667	98
553.88	94
554.093	94
554.306	98
554.519	98
554.732	89
554.944	89
555.157	92
555.37	96
555.583	88
555.795	90
556.008	91
556.221	90
556.433	74
556.646	93
556.859	85
557.071	80
557.284	89
557.496	100
557.709	100
557.921	88
558.134	89
558.346	88
558.559	81
558.771	93
558.984	106
559.196	87
559.409	100
559.621	92
559.833	99
560.046	91
560.258	84
560.47	96
560.683	96
560.895	91
561.107	91
561.32	93
561.532	99
561.744	101
561.956	97
562.168	86
562.381	94
562.593	104
562.805	99
563.017	92
563.229	86
563.441	104
563.653	101
563.865	87
564.077	95
564.289	94
564.501	100
564.713	91
564.925	102
565.137	100
565.349	102
565.561	88
565.773	97
565.985	77
566.197	86
566.408	95
566.62	78
566.832	79
567.044	105
567.255	94
567.467	100
567.679	86
567.891	85
568.102	101
568.314	89
568.526	83
568.737	88
568.949	85
569.161	85
569.372	95
569.584	85
569.795	90
570.007	111
570.218	244
570.43	135
570.641	85
570.853	93
571.064	90
571.276	93
571.487	89
571.698	91
571.91	96
572.121	94
572.333	94
572.544	93
572.755	101
572.966	98
573.178	91
573.389	89
573.6	79
573.811	80
574.023	91
574.234	89
574.445	89
574.656	88
574.867	87
575.078	87
575.289	93
575.501	93
575.712	81
575.923	89
576.134	93
576.345	89
576.556	88
576.767	108
576.978	104
577.188	96
577.399	96
577.61	99
577.821	104
578.032	126
578.243	269
578.454	784
578.665	214
578.875	98
579.086	99
579.297	92
579.508	118
579.718	93
579.929	86
580.14	97
580.35	86
580.561	77
580.772	80
580.982	95
581.193	89
581.403	96
581.614	87
581.825	99
