Data from Circ_2016_H10_HRD10591_00075.txt Node
Date: Wed Jan 03 09:58:55 EST 2024
User: Yrep
Spectrometer: HR+D1059
Trigger mode: 1
Integration Time (sec): 1.000000E-1
Scans to average: 1
Electric dark correction enabled: true
Nonlinearity correction enabled: false
Boxcar width: 0
XAxis mode: Wavelengths
Number of Pixels in Spectrum: 2048
>>>>>Begin Spectral Data<<<<<
223.165	-19.62
223.4	-19.62
223.635	-19.62
223.869	-23.62
224.104	-36.62
224.338	-13.62
224.573	-18.62
224.808	-6.62
225.042	2.38
225.277	17.38
225.511	-0.62
225.746	2.38
225.98	-11.62
226.215	11.38
226.449	23.38
226.683	26.38
226.918	13.38
227.152	34.38
227.387	41.38
227.621	41.38
227.856	51.38
228.09	55.38
228.324	58.38
228.559	71.38
228.793	68.38
229.027	60.38
229.262	61.38
229.496	66.38
229.73	61.38
229.964	68.38
230.199	79.38
230.433	73.38
230.667	70.38
230.901	80.38
231.136	66.38
231.37	74.38
231.604	79.38
231.838	65.38
232.072	79.38
232.306	88.38
232.541	69.38
232.775	65.38
233.009	76.38
233.243	91.38
233.477	76.38
233.711	88.38
233.945	77.38
234.179	83.38
234.413	80.38
234.647	65.38
234.881	68.38
235.115	89.38
235.349	80.38
235.583	86.38
235.817	75.38
236.051	79.38
236.285	84.38
236.519	81.38
236.753	92.38
236.987	87.38
237.221	96.38
237.455	85.38
237.689	75.38
237.922	76.38
238.156	75.38
238.39	73.38
238.624	86.38
238.858	72.38
239.091	69.38
239.325	96.38
239.559	75.38
239.793	81.38
240.027	86.38
240.26	80.38
240.494	80.38
240.728	74.38
240.961	70.38
241.195	69.38
241.429	69.38
241.662	60.38
241.896	76.38
242.13	83.38
242.363	87.38
242.597	76.38
242.83	64.38
243.064	78.38
243.298	77.38
243.531	67.38
243.765	76.38
243.998	82.38
244.232	70.38
244.465	87.38
244.699	71.38
244.932	75.38
245.166	75.38
245.399	80.38
245.633	86.38
245.866	89.38
246.099	79.38
246.333	79.38
246.566	69.38
246.8	86.38
247.033	78.38
247.266	86.38
247.5	76.38
247.733	83.38
247.966	88.38
248.2	100.38
248.433	80.38
248.666	87.38
248.899	82.38
249.133	90.38
249.366	86.38
249.599	96.38
249.832	76.38
250.066	80.38
250.299	76.38
250.532	78.38
250.765	69.38
250.998	94.38
251.231	79.38
251.465	73.38
251.698	72.38
251.931	90.38
252.164	94.38
252.397	71.38
252.63	85.38
252.863	72.38
253.096	75.38
253.329	88.38
253.562	72.38
253.795	73.38
254.028	84.38
254.261	84.38
254.494	68.38
254.727	75.38
254.96	84.38
255.193	81.38
255.426	92.38
255.659	95.38
255.892	75.38
256.124	85.38
256.357	74.38
256.59	94.38
256.823	100.38
257.056	77.38
257.289	94.38
257.521	73.38
257.754	87.38
257.987	79.38
258.22	72.38
258.452	89.38
258.685	87.38
258.918	94.38
259.151	89.38
259.383	90.38
259.616	86.38
259.849	75.38
260.081	87.38
260.314	86.38
260.547	91.38
260.779	76.38
261.012	86.38
261.244	70.38
261.477	86.38
261.71	102.38
261.942	111.38
262.175	90.38
262.407	75.38
262.64	74.38
262.872	69.38
263.105	84.38
263.337	86.38
263.57	98.38
263.802	73.38
264.035	73.38
264.267	77.38
264.499	78.38
264.732	94.38
264.964	88.38
265.197	72.38
265.429	84.38
265.661	85.38
265.894	78.38
266.126	88.38
266.358	79.38
266.591	92.38
266.823	74.38
267.055	78.38
267.287	73.38
267.52	83.38
267.752	91.38
267.984	80.38
268.216	72.38
268.448	85.38
268.681	75.38
268.913	86.38
269.145	68.38
269.377	102.38
269.609	79.38
269.841	69.38
270.073	64.38
270.306	79.38
270.538	81.38
270.77	80.38
271.002	98.38
271.234	80.38
271.466	81.38
271.698	95.38
271.93	92.38
272.162	91.38
272.394	82.38
272.626	95.38
272.858	82.38
273.09	86.38
273.322	85.38
273.553	86.38
273.785	95.38
274.017	93.38
274.249	88.38
274.481	93.38
274.713	89.38
274.945	84.38
275.176	77.38
275.408	91.38
275.64	75.38
275.872	80.38
276.104	82.38
276.335	82.38
276.567	102.38
276.799	103.38
277.031	94.38
277.262	82.38
277.494	91.38
277.726	78.38
277.957	89.38
278.189	74.38
278.421	90.38
278.652	93.38
278.884	86.38
279.115	98.38
279.347	91.38
279.579	79.38
279.81	81.38
280.042	91.38
280.273	90.38
280.505	95.38
280.736	86.38
280.968	91.38
281.199	98.38
281.431	77.38
281.662	83.38
281.894	92.38
282.125	101.38
282.356	127.38
282.588	126.38
282.819	101.38
283.051	91.38
283.282	81.38
283.513	92.38
283.745	87.38
283.976	88.38
284.207	92.38
284.439	89.38
284.67	94.38
284.901	92.38
285.132	95.38
285.364	91.38
285.595	79.38
285.826	84.38
286.057	89.38
286.288	85.38
286.52	99.38
286.751	97.38
286.982	94.38
287.213	83.38
287.444	98.38
287.675	91.38
287.906	89.38
288.138	79.38
288.369	82.38
288.6	91.38
288.831	101.38
289.062	96.38
289.293	78.38
289.524	92.38
289.755	92.38
289.986	91.38
290.217	79.38
290.448	89.38
290.679	103.38
290.91	89.38
291.141	87.38
291.371	79.38
291.602	80.38
291.833	83.38
292.064	91.38
292.295	94.38
292.526	91.38
292.757	77.38
292.987	92.38
293.218	98.38
293.449	88.38
293.68	92.38
293.91	88.38
294.141	89.38
294.372	111.38
294.603	85.38
294.833	86.38
295.064	72.38
295.295	91.38
295.525	95.38
295.756	103.38
295.987	107.38
296.217	136.38
296.448	115.38
296.679	101.38
296.909	77.38
297.14	87.38
297.37	95.38
297.601	96.38
297.831	100.38
298.062	98.38
298.292	92.38
298.523	99.38
298.753	90.38
298.984	87.38
299.214	94.38
299.445	100.38
299.675	97.38
299.905	107.38
300.136	93.38
300.366	90.38
300.597	111.38
300.827	94.38
301.057	97.38
301.288	107.38
301.518	87.38
301.748	92.38
301.979	100.38
302.209	77.38
302.439	92.38
302.669	101.38
302.9	99.38
303.13	90.38
303.36	105.38
303.59	106.38
303.82	106.38
304.051	100.38
304.281	83.38
304.511	95.38
304.741	93.38
304.971	87.38
305.201	78.38
305.431	88.38
305.661	103.38
305.891	103.38
306.121	101.38
306.352	110.38
306.582	102.38
306.812	94.38
307.042	99.38
307.272	84.38
307.502	92.38
307.731	102.38
307.961	91.38
308.191	104.38
308.421	86.38
308.651	75.38
308.881	94.38
309.111	104.38
309.341	103.38
309.571	79.38
309.8	87.38
310.03	106.38
310.26	99.38
310.49	96.38
310.72	90.38
310.949	103.38
311.179	99.38
311.409	97.38
311.639	95.38
311.868	101.38
312.098	105.38
312.328	89.38
312.557	90.38
312.787	107.38
313.017	103.38
313.246	100.38
313.476	97.38
313.706	102.38
313.935	90.38
314.165	97.38
314.394	101.38
314.624	94.38
314.853	104.38
315.083	84.38
315.312	80.38
315.542	101.38
315.771	96.38
316.001	111.38
316.23	91.38
316.46	105.38
316.689	88.38
316.919	85.38
317.148	89.38
317.377	93.38
317.607	112.38
317.836	97.38
318.065	99.38
318.295	79.38
318.524	91.38
318.753	103.38
318.983	100.38
319.212	103.38
319.441	112.38
319.67	99.38
319.9	94.38
320.129	104.38
320.358	91.38
320.587	100.38
320.816	118.38
321.046	98.38
321.275	98.38
321.504	91.38
321.733	99.38
321.962	98.38
322.191	96.38
322.42	98.38
322.649	113.38
322.878	100.38
323.108	117.38
323.337	128.38
323.566	135.38
323.795	150.38
324.024	192.38
324.253	403.38
324.482	844.38
324.71	1681.38
324.939	2232.38
325.168	827.38
325.397	256.38
325.626	142.38
325.855	130.38
326.084	112.38
326.313	126.38
326.542	150.38
326.77	229.38
326.999	472.38
327.228	963.38
327.457	1760.38
327.686	1374.38
327.914	383.38
328.143	189.38
328.372	165.38
328.6	128.38
328.829	114.38
329.058	134.38
329.287	116.38
329.515	102.38
329.744	109.38
329.972	123.38
330.201	123.38
330.43	173.38
330.658	151.38
330.887	143.38
331.115	118.38
331.344	90.38
331.572	100.38
331.801	98.38
332.03	102.38
332.258	95.38
332.486	96.38
332.715	88.38
332.943	109.38
333.172	105.38
333.4	103.38
333.629	99.38
333.857	132.38
334.085	124.38
334.314	140.38
334.542	164.38
334.771	166.38
334.999	105.38
335.227	106.38
335.455	90.38
335.684	95.38
335.912	102.38
336.14	90.38
336.369	93.38
336.597	98.38
336.825	98.38
337.053	83.38
337.281	99.38
337.51	91.38
337.738	96.38
337.966	103.38
338.194	100.38
338.422	83.38
338.65	94.38
338.878	92.38
339.106	85.38
339.334	98.38
339.562	104.38
339.79	92.38
340.018	91.38
340.246	97.38
340.474	107.38
340.702	75.38
340.93	89.38
341.158	103.38
341.386	84.38
341.614	91.38
341.842	102.38
342.07	90.38
342.298	93.38
342.526	86.38
342.754	100.38
342.981	82.38
343.209	96.38
343.437	107.38
343.665	101.38
343.893	94.38
344.12	94.38
344.348	103.38
344.576	98.38
344.804	80.38
345.031	106.38
345.259	108.38
345.487	99.38
345.714	91.38
345.942	103.38
346.17	86.38
346.397	97.38
346.625	98.38
346.853	87.38
347.08	92.38
347.308	97.38
347.535	94.38
347.763	104.38
347.99	92.38
348.218	99.38
348.445	105.38
348.673	98.38
348.9	93.38
349.128	84.38
349.355	95.38
349.583	103.38
349.81	89.38
350.037	87.38
350.265	101.38
350.492	88.38
350.72	106.38
350.947	99.38
351.174	100.38
351.402	113.38
351.629	105.38
351.856	123.38
352.083	97.38
352.311	102.38
352.538	106.38
352.765	102.38
352.992	102.38
353.22	107.38
353.447	104.38
353.674	102.38
353.901	110.38
354.128	92.38
354.355	89.38
354.583	82.38
354.81	106.38
355.037	80.38
355.264	98.38
355.491	100.38
355.718	93.38
355.945	82.38
356.172	99.38
356.399	108.38
356.626	87.38
356.853	107.38
357.08	86.38
357.307	75.38
357.534	83.38
357.761	104.38
357.988	106.38
358.215	85.38
358.441	94.38
358.668	91.38
358.895	94.38
359.122	93.38
359.349	87.38
359.576	95.38
359.802	101.38
360.029	97.38
360.256	99.38
360.483	88.38
360.709	93.38
360.936	102.38
361.163	97.38
361.39	103.38
361.616	96.38
361.843	84.38
362.07	88.38
362.296	101.38
362.523	86.38
362.749	92.38
362.976	93.38
363.203	93.38
363.429	100.38
363.656	102.38
363.882	93.38
364.109	99.38
364.335	95.38
364.562	93.38
364.788	88.38
365.015	99.38
365.241	103.38
365.468	95.38
365.694	97.38
365.92	92.38
366.147	87.38
366.373	87.38
366.599	88.38
366.826	85.38
367.052	95.38
367.278	72.38
367.505	98.38
367.731	78.38
367.957	95.38
368.184	99.38
368.41	103.38
368.636	118.38
368.862	122.38
369.089	104.38
369.315	93.38
369.541	91.38
369.767	100.38
369.993	90.38
370.219	93.38
370.445	98.38
370.672	85.38
370.898	92.38
371.124	90.38
371.35	97.38
371.576	88.38
371.802	94.38
372.028	94.38
372.254	72.38
372.48	101.38
372.706	85.38
372.932	94.38
373.158	105.38
373.384	85.38
373.61	101.38
373.835	115.38
374.061	86.38
374.287	79.38
374.513	95.38
374.739	90.38
374.965	100.38
375.191	85.38
375.416	87.38
375.642	89.38
375.868	83.38
376.094	95.38
376.319	87.38
376.545	104.38
376.771	90.38
376.997	105.38
377.222	103.38
377.448	85.38
377.674	85.38
377.899	80.38
378.125	102.38
378.35	99.38
378.576	86.38
378.802	98.38
379.027	99.38
379.253	94.38
379.478	110.38
379.704	95.38
379.929	103.38
380.155	104.38
380.38	98.38
380.606	95.38
380.831	94.38
381.057	101.38
381.282	98.38
381.507	90.38
381.733	107.38
381.958	100.38
382.184	99.38
382.409	102.38
382.634	118.38
382.86	89.38
383.085	114.38
383.31	95.38
383.535	103.38
383.761	101.38
383.986	99.38
384.211	112.38
384.436	118.38
384.662	106.38
384.887	103.38
385.112	110.38
385.337	102.38
385.562	109.38
385.787	109.38
386.013	120.38
386.238	134.38
386.463	126.38
386.688	116.38
386.913	109.38
387.138	111.38
387.363	104.38
387.588	103.38
387.813	109.38
388.038	124.38
388.263	110.38
388.488	119.38
388.713	100.38
388.938	83.38
389.163	94.38
389.387	92.38
389.612	104.38
389.837	96.38
390.062	104.38
390.287	90.38
390.512	92.38
390.736	95.38
390.961	86.38
391.186	95.38
391.411	89.38
391.636	82.38
391.86	83.38
392.085	90.38
392.31	78.38
392.534	94.38
392.759	90.38
392.984	97.38
393.208	102.38
393.433	94.38
393.658	92.38
393.882	80.38
394.107	82.38
394.331	93.38
394.556	94.38
394.78	99.38
395.005	78.38
395.229	86.38
395.454	72.38
395.678	90.38
395.903	90.38
396.127	87.38
396.352	95.38
396.576	87.38
396.801	93.38
397.025	99.38
397.249	89.38
397.474	100.38
397.698	94.38
397.922	95.38
398.147	81.38
398.371	95.38
398.595	87.38
398.82	100.38
399.044	86.38
399.268	82.38
399.492	78.38
399.717	95.38
399.941	85.38
400.165	81.38
400.389	85.38
400.613	87.38
400.837	90.38
401.062	87.38
401.286	86.38
401.51	93.38
401.734	82.38
401.958	100.38
402.182	123.38
402.406	150.38
402.63	116.38
402.854	111.38
403.078	88.38
403.302	82.38
403.526	79.38
403.75	98.38
403.974	90.38
404.198	64.38
404.422	92.38
404.645	90.38
404.869	84.38
405.093	111.38
405.317	104.38
405.541	115.38
405.765	98.38
405.988	121.38
406.212	164.38
406.436	219.38
406.66	118.38
406.883	100.38
407.107	118.38
407.331	97.38
407.555	96.38
407.778	93.38
408.002	83.38
408.226	72.38
408.449	88.38
408.673	88.38
408.896	68.38
409.12	106.38
409.344	107.38
409.567	87.38
409.791	89.38
410.014	111.38
410.238	87.38
410.461	90.38
410.685	94.38
410.908	84.38
411.132	94.38
411.355	102.38
411.578	107.38
411.802	104.38
412.025	99.38
412.249	89.38
412.472	102.38
412.695	94.38
412.919	88.38
413.142	90.38
413.365	88.38
413.589	96.38
413.812	85.38
414.035	82.38
414.258	98.38
414.482	87.38
414.705	94.38
414.928	91.38
415.151	105.38
415.374	105.38
415.597	101.38
415.821	100.38
416.044	98.38
416.267	85.38
416.49	83.38
416.713	93.38
416.936	104.38
417.159	92.38
417.382	83.38
417.605	104.38
417.828	96.38
418.051	99.38
418.274	109.38
418.497	87.38
418.72	98.38
418.943	104.38
419.166	102.38
419.389	72.38
419.611	102.38
419.834	83.38
420.057	86.38
420.28	93.38
420.503	90.38
420.726	89.38
420.948	88.38
421.171	98.38
421.394	94.38
421.617	84.38
421.839	100.38
422.062	103.38
422.285	100.38
422.507	99.38
422.73	95.38
422.953	111.38
423.175	95.38
423.398	88.38
423.621	104.38
423.843	71.38
424.066	79.38
424.288	87.38
424.511	85.38
424.733	93.38
424.956	103.38
425.178	91.38
425.401	88.38
425.623	97.38
425.846	83.38
426.068	83.38
426.291	94.38
426.513	92.38
426.735	95.38
426.958	93.38
427.18	94.38
427.402	132.38
427.625	150.38
427.847	135.38
428.069	125.38
428.292	110.38
428.514	90.38
428.736	90.38
428.958	101.38
429.181	89.38
429.403	78.38
429.625	94.38
429.847	84.38
430.069	101.38
430.292	81.38
430.514	89.38
430.736	90.38
430.958	85.38
431.18	99.38
431.402	90.38
431.624	94.38
431.846	99.38
432.068	75.38
432.29	89.38
432.512	86.38
432.734	91.38
432.956	90.38
433.178	99.38
433.4	84.38
433.622	90.38
433.844	86.38
434.066	100.38
434.287	100.38
434.509	86.38
434.731	79.38
434.953	88.38
435.175	94.38
435.397	90.38
435.618	91.38
435.84	96.38
436.062	119.38
436.284	109.38
436.505	103.38
436.727	99.38
436.949	84.38
437.17	86.38
437.392	90.38
437.614	84.38
437.835	112.38
438.057	118.38
438.278	120.38
438.5	104.38
438.721	122.38
438.943	87.38
439.165	83.38
439.386	94.38
439.608	89.38
439.829	105.38
440.05	126.38
440.272	145.38
440.493	113.38
440.715	91.38
440.936	92.38
441.158	84.38
441.379	77.38
441.6	83.38
441.822	89.38
442.043	90.38
442.264	106.38
442.486	95.38
442.707	89.38
442.928	107.38
443.149	125.38
443.371	119.38
443.592	100.38
443.813	108.38
444.034	100.38
444.255	101.38
444.476	81.38
444.698	85.38
444.919	95.38
445.14	135.38
445.361	133.38
445.582	124.38
445.803	124.38
446.024	124.38
446.245	128.38
446.466	96.38
446.687	79.38
446.908	80.38
447.129	92.38
447.35	79.38
447.571	90.38
447.792	94.38
448.013	93.38
448.234	101.38
448.455	82.38
448.675	114.38
448.896	111.38
449.117	106.38
449.338	106.38
449.559	119.38
449.779	136.38
450	99.38
450.221	85.38
450.442	84.38
450.662	74.38
450.883	94.38
451.104	112.38
451.324	89.38
451.545	82.38
451.766	91.38
451.986	79.38
452.207	88.38
452.428	79.38
452.648	85.38
452.869	115.38
453.089	108.38
453.31	113.38
453.53	89.38
453.751	93.38
453.971	93.38
454.192	101.38
454.412	78.38
454.633	93.38
454.853	84.38
455.073	80.38
455.294	92.38
455.514	106.38
455.734	95.38
455.955	86.38
456.175	81.38
456.395	93.38
456.616	102.38
456.836	82.38
457.056	87.38
457.276	85.38
457.497	102.38
457.717	84.38
457.937	88.38
458.157	77.38
458.377	89.38
458.598	103.38
458.818	144.38
459.038	139.38
459.258	114.38
459.478	87.38
459.698	98.38
459.918	85.38
460.138	95.38
460.358	88.38
460.578	90.38
460.798	93.38
461.018	101.38
461.238	89.38
461.458	81.38
461.678	96.38
461.898	94.38
462.118	91.38
462.338	83.38
462.558	84.38
462.777	94.38
462.997	110.38
463.217	94.38
463.437	69.38
463.657	86.38
463.876	91.38
464.096	85.38
464.316	102.38
464.536	101.38
464.755	93.38
464.975	101.38
465.195	144.38
465.414	151.38
465.634	100.38
465.854	83.38
466.073	96.38
466.293	92.38
466.512	80.38
466.732	80.38
466.951	89.38
467.171	95.38
467.391	110.38
467.61	115.38
467.829	94.38
468.049	101.38
468.268	128.38
468.488	91.38
468.707	76.38
468.927	99.38
469.146	84.38
469.365	96.38
469.585	89.38
469.804	89.38
470.023	99.38
470.243	95.38
470.462	98.38
470.681	105.38
470.901	87.38
471.12	90.38
471.339	99.38
471.558	91.38
471.777	95.38
471.997	93.38
472.216	140.38
472.435	202.38
472.654	114.38
472.873	76.38
473.092	83.38
473.311	78.38
473.53	81.38
473.749	75.38
473.968	96.38
474.187	94.38
474.406	103.38
474.625	104.38
474.844	85.38
475.063	77.38
475.282	81.38
475.501	86.38
475.72	80.38
475.939	95.38
476.158	88.38
476.377	94.38
476.596	83.38
476.814	86.38
477.033	86.38
477.252	91.38
477.471	95.38
477.69	87.38
477.908	97.38
478.127	87.38
478.346	91.38
478.564	93.38
478.783	80.38
479.002	90.38
479.22	83.38
479.439	101.38
479.658	100.38
479.876	100.38
480.095	78.38
480.313	89.38
480.532	92.38
480.751	96.38
480.969	145.38
481.188	292.38
481.406	221.38
481.624	107.38
481.843	100.38
482.061	89.38
482.28	84.38
482.498	87.38
482.717	74.38
482.935	104.38
483.153	91.38
483.372	94.38
483.59	89.38
483.808	100.38
484.027	92.38
484.245	86.38
484.463	89.38
484.681	110.38
484.9	78.38
485.118	95.38
485.336	103.38
485.554	104.38
485.772	99.38
485.99	98.38
486.209	102.38
486.427	99.38
486.645	109.38
486.863	118.38
487.081	115.38
487.299	101.38
487.517	99.38
487.735	95.38
487.953	101.38
488.171	107.38
488.389	69.38
488.607	93.38
488.825	87.38
489.043	89.38
489.261	87.38
489.479	74.38
489.696	90.38
489.914	102.38
490.132	94.38
490.35	92.38
490.568	87.38
490.786	95.38
491.003	98.38
491.221	91.38
491.439	104.38
491.657	93.38
491.874	79.38
492.092	86.38
492.31	84.38
492.527	104.38
492.745	91.38
492.963	89.38
493.18	95.38
493.398	86.38
493.615	102.38
493.833	90.38
494.05	98.38
494.268	100.38
494.485	89.38
494.703	99.38
494.92	95.38
495.138	84.38
495.355	116.38
495.573	79.38
495.79	94.38
496.008	96.38
496.225	91.38
496.442	99.38
496.66	83.38
496.877	90.38
497.094	88.38
497.312	99.38
497.529	96.38
497.746	106.38
497.963	90.38
498.181	83.38
498.398	86.38
498.615	112.38
498.832	106.38
499.049	88.38
499.267	89.38
499.484	91.38
499.701	73.38
499.918	89.38
500.135	99.38
500.352	101.38
500.569	94.38
500.786	91.38
501.003	79.38
501.22	91.38
501.437	90.38
501.654	96.38
501.871	108.38
502.088	78.38
502.305	94.38
502.522	94.38
502.739	98.38
502.956	94.38
503.172	104.38
503.389	94.38
503.606	104.38
503.823	99.38
504.04	91.38
504.256	104.38
504.473	78.38
504.69	90.38
504.907	90.38
505.123	91.38
505.34	93.38
505.557	80.38
505.773	95.38
505.99	101.38
506.207	94.38
506.423	91.38
506.64	91.38
506.856	99.38
507.073	75.38
507.289	104.38
507.506	96.38
507.722	104.38
507.939	111.38
508.155	116.38
508.372	82.38
508.588	92.38
508.805	111.38
509.021	86.38
509.238	91.38
509.454	89.38
509.67	89.38
509.887	90.38
510.103	125.38
510.319	207.38
510.536	710.38
510.752	2325.38
510.968	694.38
511.184	166.38
511.401	107.38
511.617	101.38
511.833	92.38
512.049	91.38
512.265	78.38
512.481	86.38
512.698	91.38
512.914	93.38
513.13	87.38
513.346	103.38
513.562	98.38
513.778	107.38
513.994	94.38
514.21	90.38
514.426	108.38
514.642	135.38
514.858	124.38
