Data from Circ_2016_H10_HRD10591_00080.txt Node
Date: Wed Jan 03 09:58:56 EST 2024
User: Yrep
Spectrometer: HR+D1059
Trigger mode: 1
Integration Time (sec): 1.000000E-1
Scans to average: 1
Electric dark correction enabled: true
Nonlinearity correction enabled: false
Boxcar width: 0
XAxis mode: Wavelengths
Number of Pixels in Spectrum: 2048
>>>>>Begin Spectral Data<<<<<
223.165	-20.56
223.4	-20.56
223.635	-20.56
223.869	-32.56
224.104	-12.56
224.338	-17.56
224.573	-8.56
224.808	-7.56
225.042	-22.56
225.277	-9.56
225.511	-12.56
225.746	17.44
225.98	19.44
226.215	16.44
226.449	21.44
226.683	19.44
226.918	21.44
227.152	28.44
227.387	32.44
227.621	28.44
227.856	42.44
228.09	29.44
228.324	55.44
228.559	52.44
228.793	164.44
229.027	446.44
229.262	513.44
229.496	621.44
229.73	793.44
229.964	792.44
230.199	544.44
230.433	492.44
230.667	453.44
230.901	459.44
231.136	429.44
231.37	456.44
231.604	455.44
231.838	456.44
232.072	456.44
232.306	460.44
232.541	465.44
232.775	464.44
233.009	467.44
233.243	461.44
233.477	469.44
233.711	494.44
233.945	527.44
234.179	532.44
234.413	511.44
234.647	528.44
234.881	502.44
235.115	540.44
235.349	547.44
235.583	562.44
235.817	601.44
236.051	641.44
236.285	625.44
236.519	610.44
236.753	729.44
236.987	923.44
237.221	1400.44
237.455	1520.44
237.689	868.44
237.922	755.44
238.156	716.44
238.39	676.44
238.624	661.44
238.858	691.44
239.091	623.44
239.325	654.44
239.559	688.44
239.793	724.44
240.027	780.44
240.26	926.44
240.494	972.44
240.728	957.44
240.961	927.44
241.195	821.44
241.429	780.44
241.662	779.44
241.896	793.44
242.13	800.44
242.363	809.44
242.597	809.44
242.83	852.44
243.064	808.44
243.298	848.44
243.531	849.44
243.765	845.44
243.998	842.44
244.232	855.44
244.465	904.44
244.699	899.44
244.932	923.44
245.166	913.44
245.399	920.44
245.633	923.44
245.866	923.44
246.099	949.44
246.333	942.44
246.566	970.44
246.8	998.44
247.033	1039.44
247.266	1065.44
247.5	1114.44
247.733	1204.44
247.966	1147.44
248.2	1167.44
248.433	1163.44
248.666	1241.44
248.899	1374.44
249.133	1496.44
249.366	1442.44
249.599	1368.44
249.832	1295.44
250.066	1290.44
250.299	1399.44
250.532	1622.44
250.765	1781.44
250.998	1864.44
251.231	1714.44
251.465	1514.44
251.698	1433.44
251.931	1473.44
252.164	1406.44
252.397	1440.44
252.63	1484.44
252.863	1593.44
253.096	1677.44
253.329	1791.44
253.562	1637.44
253.795	1601.44
254.028	1602.44
254.261	1665.44
254.494	1860.44
254.727	2179.44
254.96	2273.44
255.193	2006.44
255.426	1829.44
255.659	1813.44
255.892	2000.44
256.124	2239.44
256.357	2085.44
256.59	1848.44
256.823	1663.44
257.056	1643.44
257.289	1625.44
257.521	1640.44
257.754	1611.44
257.987	1591.44
258.22	1554.44
258.452	1558.44
258.685	1597.44
258.918	1606.44
259.151	1654.44
259.383	1728.44
259.616	1732.44
259.849	1779.44
260.081	1929.44
260.314	2110.44
260.547	2061.44
260.779	1837.44
261.012	1783.44
261.244	1735.44
261.477	1718.44
261.71	1740.44
261.942	1843.44
262.175	1829.44
262.407	1761.44
262.64	1709.44
262.872	1692.44
263.105	1685.44
263.337	1675.44
263.57	1690.44
263.802	1701.44
264.035	1727.44
264.267	1724.44
264.499	1747.44
264.732	1757.44
264.964	1715.44
265.197	1746.44
265.429	1753.44
265.661	1749.44
265.894	1744.44
266.126	1789.44
266.358	1821.44
266.591	1840.44
266.823	1912.44
267.055	1879.44
267.287	1879.44
267.52	1886.44
267.752	1890.44
267.984	1933.44
268.216	1953.44
268.448	1965.44
268.681	2030.44
268.913	2218.44
269.145	2387.44
269.377	2411.44
269.609	2351.44
269.841	2309.44
270.073	2497.44
270.306	2783.44
270.538	2853.44
270.77	2679.44
271.002	2578.44
271.234	2533.44
271.466	2644.44
271.698	2772.44
271.93	2779.44
272.162	2729.44
272.394	2666.44
272.626	2525.44
272.858	2424.44
273.09	2345.44
273.322	2321.44
273.553	2260.44
273.785	2280.44
274.017	2242.44
274.249	2325.44
274.481	2343.44
274.713	2317.44
274.945	2306.44
275.176	2346.44
275.408	2340.44
275.64	2367.44
275.872	2327.44
276.104	2359.44
276.335	2396.44
276.567	2477.44
276.799	2631.44
277.031	2876.44
277.262	2979.44
277.494	2834.44
277.726	2689.44
277.957	2623.44
278.189	2508.44
278.421	2480.44
278.652	2485.44
278.884	2496.44
279.115	2405.44
279.347	2433.44
279.579	2469.44
279.81	2494.44
280.042	2491.44
280.273	2544.44
280.505	2504.44
280.736	2456.44
280.968	2482.44
281.199	2459.44
281.431	2518.44
281.662	2515.44
281.894	2552.44
282.125	2601.44
282.356	2796.44
282.588	2896.44
282.819	2769.44
283.051	2601.44
283.282	2558.44
283.513	2601.44
283.745	2684.44
283.976	2731.44
284.207	2708.44
284.439	2639.44
284.67	2710.44
284.901	2687.44
285.132	2658.44
285.364	2696.44
285.595	2671.44
285.826	2708.44
286.057	2708.44
286.288	2698.44
286.52	2727.44
286.751	2832.44
286.982	2713.44
287.213	2755.44
287.444	2832.44
287.675	2831.44
287.906	2996.44
288.138	3013.44
288.369	2981.44
288.6	2932.44
288.831	2933.44
289.062	2885.44
289.293	2862.44
289.524	2886.44
289.755	2859.44
289.986	2829.44
290.217	2836.44
290.448	2852.44
290.679	2819.44
290.91	2811.44
291.141	2889.44
291.371	2856.44
291.602	2868.44
291.833	2914.44
292.064	2923.44
292.295	2899.44
292.526	2873.44
292.757	2897.44
292.987	2883.44
293.218	2832.44
293.449	2926.44
293.68	2932.44
293.91	2904.44
294.141	2899.44
294.372	2863.44
294.603	2966.44
294.833	2907.44
295.064	2941.44
295.295	2935.44
295.525	2967.44
295.756	3029.44
295.987	3102.44
296.217	3293.44
296.448	3184.44
296.679	3047.44
296.909	3004.44
297.14	3024.44
297.37	3072.44
297.601	3106.44
297.831	3091.44
298.062	3116.44
298.292	3130.44
298.523	3175.44
298.753	3184.44
298.984	3124.44
299.214	3148.44
299.445	3179.44
299.675	3166.44
299.905	3273.44
300.136	3196.44
300.366	3252.44
300.597	3236.44
300.827	3324.44
301.057	3387.44
301.288	3464.44
301.518	3422.44
301.748	3411.44
301.979	3403.44
302.209	3469.44
302.439	3455.44
302.669	3401.44
302.9	3374.44
303.13	3336.44
303.36	3472.44
303.59	3417.44
303.82	3508.44
304.051	3475.44
304.281	3461.44
304.511	3364.44
304.741	3355.44
304.971	3353.44
305.201	3368.44
305.431	3338.44
305.661	3337.44
305.891	3360.44
306.121	3372.44
306.352	3463.44
306.582	3394.44
306.812	3340.44
307.042	3428.44
307.272	3402.44
307.502	3363.44
307.731	3391.44
307.961	3384.44
308.191	3361.44
308.421	3358.44
308.651	3381.44
308.881	3401.44
309.111	3449.44
309.341	3452.44
309.571	3533.44
309.8	3577.44
310.03	3729.44
310.26	3713.44
310.49	3667.44
310.72	3847.44
310.949	3899.44
311.179	3851.44
311.409	3744.44
311.639	3775.44
311.868	3775.44
312.098	3796.44
312.328	3856.44
312.557	4056.44
312.787	4080.44
313.017	3978.44
313.246	3937.44
313.476	3772.44
313.706	3868.44
313.935	3979.44
314.165	4058.44
314.394	4075.44
314.624	4003.44
314.853	3909.44
315.083	3893.44
315.312	3880.44
315.542	3863.44
315.771	3812.44
316.001	3811.44
316.23	3765.44
316.46	3783.44
316.689	3760.44
316.919	3906.44
317.148	3889.44
317.377	3904.44
317.607	3862.44
317.836	3808.44
318.065	3759.44
318.295	3804.44
318.524	3771.44
318.753	3834.44
318.983	3750.44
319.212	3766.44
319.441	3806.44
319.67	3852.44
319.9	3796.44
320.129	3862.44
320.358	3893.44
320.587	3883.44
320.816	3926.44
321.046	3945.44
321.275	3942.44
321.504	3986.44
321.733	4007.44
321.962	4030.44
322.191	4187.44
322.42	4259.44
322.649	4427.44
322.878	4381.44
323.108	4536.44
323.337	4735.44
323.566	4968.44
323.795	5323.44
324.024	5921.44
324.253	7885.44
324.482	11997.44
324.71	15593.44
324.939	15593.44
325.168	13662.44
325.397	6927.44
325.626	5535.44
325.855	5093.44
326.084	4948.44
326.313	4989.44
326.542	5178.44
326.77	5962.44
326.999	7699.44
327.228	11259.44
327.457	14993.44
327.686	14251.44
327.914	7940.44
328.143	6443.44
328.372	6093.44
328.6	5778.44
328.829	5511.44
329.058	5750.44
329.287	5767.44
329.515	5431.44
329.744	5272.44
329.972	5576.44
330.201	6136.44
330.43	6460.44
330.658	6334.44
330.887	6288.44
331.115	5853.44
331.344	5249.44
331.572	5168.44
331.801	5258.44
332.03	5255.44
332.258	5174.44
332.486	5255.44
332.715	5331.44
332.943	5396.44
333.172	5576.44
333.4	5834.44
333.629	6000.44
333.857	6198.44
334.085	6486.44
334.314	6861.44
334.542	7428.44
334.771	7046.44
334.999	6027.44
335.227	5681.44
335.455	5464.44
335.684	5324.44
335.912	5206.44
336.14	5175.44
336.369	5112.44
336.597	5240.44
336.825	5155.44
337.053	4992.44
337.281	4936.44
337.51	4907.44
337.738	4957.44
337.966	4888.44
338.194	4889.44
338.422	4781.44
338.65	4664.44
338.878	4741.44
339.106	4676.44
339.334	4654.44
339.562	4575.44
339.79	4550.44
340.018	4539.44
340.246	4496.44
340.474	4597.44
340.702	4520.44
340.93	4580.44
341.158	4487.44
341.386	4513.44
341.614	4520.44
341.842	4554.44
342.07	4459.44
342.298	4489.44
342.526	4403.44
342.754	4410.44
342.981	4460.44
343.209	4574.44
343.437	4782.44
343.665	4971.44
343.893	5256.44
344.12	5304.44
344.348	5002.44
344.576	4886.44
344.804	4806.44
345.031	4710.44
345.259	4793.44
345.487	4617.44
345.714	4483.44
345.942	4408.44
346.17	4389.44
346.397	4303.44
346.625	4285.44
346.853	4279.44
347.08	4310.44
347.308	4376.44
347.535	4421.44
347.763	4528.44
347.99	4400.44
348.218	4420.44
348.445	4416.44
348.673	4336.44
348.9	4271.44
349.128	4231.44
349.355	4207.44
349.583	4199.44
349.81	4146.44
350.037	4186.44
350.265	4158.44
350.492	4161.44
350.72	4187.44
350.947	4316.44
351.174	4313.44
351.402	4368.44
351.629	4298.44
351.856	4310.44
352.083	4335.44
352.311	4391.44
352.538	4392.44
352.765	4443.44
352.992	4332.44
353.22	4333.44
353.447	4221.44
353.674	4086.44
353.901	4116.44
354.128	4081.44
354.355	4073.44
354.583	4118.44
354.81	4031.44
355.037	4119.44
355.264	4095.44
355.491	4075.44
355.718	3981.44
355.945	4069.44
356.172	4039.44
356.399	4093.44
356.626	4079.44
356.853	4120.44
357.08	4008.44
357.307	4052.44
357.534	4059.44
357.761	4084.44
357.988	4111.44
358.215	4043.44
358.441	4187.44
358.668	4164.44
358.895	4169.44
359.122	4203.44
359.349	4276.44
359.576	4369.44
359.802	4580.44
360.029	4767.44
360.256	4764.44
360.483	4549.44
360.709	4327.44
360.936	4334.44
361.163	4340.44
361.39	4380.44
361.616	4370.44
361.843	4307.44
362.07	4367.44
362.296	4339.44
362.523	4353.44
362.749	4310.44
362.976	4278.44
363.203	4207.44
363.429	4134.44
363.656	4255.44
363.882	4177.44
364.109	4172.44
364.335	4150.44
364.562	4199.44
364.788	4149.44
365.015	4089.44
365.241	4212.44
365.468	4254.44
365.694	4295.44
365.92	4141.44
366.147	4166.44
366.373	4137.44
366.599	4161.44
366.826	4098.44
367.052	4165.44
367.278	4135.44
367.505	4126.44
367.731	4184.44
367.957	4205.44
368.184	4205.44
368.41	4296.44
368.636	4408.44
368.862	4412.44
369.089	4327.44
369.315	4232.44
369.541	4243.44
369.767	4317.44
369.993	4257.44
370.219	4280.44
370.445	4290.44
370.672	4413.44
370.898	4334.44
371.124	4370.44
371.35	4401.44
371.576	4403.44
371.802	4405.44
372.028	4354.44
372.254	4414.44
372.48	4482.44
372.706	4560.44
372.932	4606.44
373.158	4545.44
373.384	4512.44
373.61	4386.44
373.835	4453.44
374.061	4492.44
374.287	4550.44
374.513	4566.44
374.739	4703.44
374.965	4854.44
375.191	4818.44
375.416	4772.44
375.642	4555.44
375.868	4559.44
376.094	4543.44
376.319	4489.44
376.545	4466.44
376.771	4493.44
376.997	4441.44
377.222	4440.44
377.448	4393.44
377.674	4413.44
377.899	4318.44
378.125	4421.44
378.35	4339.44
378.576	4343.44
378.802	4384.44
379.027	4349.44
379.253	4389.44
379.478	4373.44
379.704	4338.44
379.929	4408.44
380.155	4371.44
380.38	4416.44
380.606	4501.44
380.831	4396.44
381.057	4497.44
381.282	4421.44
381.507	4399.44
381.733	4566.44
381.958	4485.44
382.184	4602.44
382.409	4611.44
382.634	4636.44
382.86	4675.44
383.085	4743.44
383.31	4731.44
383.535	4833.44
383.761	4867.44
383.986	5043.44
384.211	5039.44
384.436	5122.44
384.662	5156.44
384.887	5328.44
385.112	5248.44
385.337	5248.44
385.562	5276.44
385.787	5324.44
386.013	5410.44
386.238	5497.44
386.463	5414.44
386.688	5447.44
386.913	5278.44
387.138	5279.44
387.363	5360.44
387.588	5226.44
387.813	5219.44
388.038	5216.44
388.263	5326.44
388.488	5269.44
388.713	5308.44
388.938	5213.44
389.163	5211.44
389.387	5250.44
389.612	5119.44
389.837	5198.44
390.062	5148.44
390.287	5153.44
390.512	5218.44
390.736	5261.44
390.961	5311.44
391.186	5402.44
391.411	5531.44
391.636	5705.44
391.86	5849.44
392.085	5913.44
392.31	5810.44
392.534	5711.44
392.759	5620.44
392.984	5534.44
393.208	5449.44
393.433	5442.44
393.658	5492.44
393.882	5436.44
394.107	5469.44
394.331	5493.44
394.556	5526.44
394.78	5578.44
395.005	5601.44
395.229	5651.44
395.454	5831.44
395.678	5971.44
395.903	5886.44
396.127	5956.44
396.352	5811.44
396.576	5522.44
396.801	5589.44
397.025	5696.44
397.249	5829.44
397.474	5893.44
397.698	5941.44
397.922	6095.44
398.147	6207.44
398.371	6242.44
398.595	6352.44
398.82	6696.44
399.044	7215.44
399.268	8036.44
399.492	9062.44
399.717	9744.44
399.941	9409.44
400.165	8775.44
400.389	8054.44
400.613	7399.44
400.837	6892.44
401.062	6825.44
401.286	6672.44
401.51	6505.44
401.734	6523.44
401.958	6731.44
402.182	6780.44
402.406	6906.44
402.63	7014.44
402.854	7124.44
403.078	7139.44
403.302	7271.44
403.526	7387.44
403.75	7463.44
403.974	7511.44
404.198	7608.44
404.422	7707.44
404.645	7682.44
404.869	7677.44
405.093	8029.44
405.317	8425.44
405.541	8371.44
405.765	7660.44
405.988	7567.44
406.212	7704.44
406.436	7768.44
406.66	7862.44
406.883	7871.44
407.107	8461.44
407.331	9015.44
407.555	9536.44
407.778	9197.44
408.002	8493.44
408.226	8116.44
408.449	7941.44
408.673	7916.44
408.896	7971.44
409.12	8107.44
409.344	7706.44
409.567	7329.44
409.791	7289.44
410.014	7158.44
410.238	7084.44
410.461	7180.44
410.685	7290.44
410.908	7294.44
411.132	7492.44
411.355	7551.44
411.578	7134.44
411.802	6924.44
412.025	7073.44
412.249	7220.44
412.472	7571.44
412.695	7894.44
412.919	7372.44
413.142	6997.44
413.365	6827.44
413.589	6701.44
413.812	6632.44
414.035	6473.44
414.258	6583.44
414.482	6575.44
414.705	6618.44
414.928	6544.44
415.151	6517.44
415.374	6565.44
415.597	6483.44
415.821	6421.44
416.044	6444.44
416.267	6445.44
416.49	6368.44
416.713	6356.44
416.936	6382.44
417.159	6488.44
417.382	6432.44
417.605	6516.44
417.828	6712.44
418.051	6777.44
418.274	6630.44
418.497	6533.44
418.72	6695.44
418.943	6679.44
419.166	7056.44
419.389	7496.44
419.611	7321.44
419.834	7163.44
420.057	7108.44
420.28	7103.44
420.503	6937.44
420.726	6829.44
420.948	6937.44
421.171	7280.44
421.394	7312.44
421.617	6700.44
421.839	6702.44
422.062	6813.44
422.285	6971.44
422.507	7644.44
422.73	8163.44
422.953	7413.44
423.175	7081.44
423.398	7163.44
423.621	7144.44
423.843	7383.44
424.066	7292.44
424.288	7277.44
424.511	7508.44
424.733	7925.44
424.956	8419.44
425.178	7931.44
425.401	8031.44
425.623	7866.44
425.846	6932.44
426.068	6787.44
426.291	6712.44
426.513	6688.44
426.735	6823.44
426.958	7375.44
427.18	8187.44
427.402	9317.44
427.625	9496.44
427.847	8199.44
428.069	7532.44
428.292	6733.44
428.514	6346.44
428.736	6126.44
428.958	6172.44
429.181	6010.44
429.403	5975.44
429.625	6214.44
429.847	6517.44
430.069	6973.44
430.292	6557.44
430.514	6071.44
430.736	5971.44
430.958	5871.44
431.18	5837.44
431.402	5829.44
431.624	5786.44
431.846	5895.44
432.068	5883.44
432.29	6052.44
432.512	5838.44
432.734	5924.44
432.956	5829.44
433.178	5978.44
433.4	6045.44
433.622	5841.44
433.844	5938.44
434.066	5964.44
434.287	5925.44
434.509	6204.44
434.731	6418.44
434.953	6629.44
435.175	6757.44
435.397	6818.44
435.618	6761.44
435.84	7227.44
436.062	7998.44
436.284	7904.44
436.505	6678.44
436.727	6383.44
436.949	6109.44
437.17	6079.44
437.392	5918.44
437.614	6152.44
437.835	6563.44
438.057	7550.44
438.278	8235.44
438.5	8111.44
438.721	8891.44
438.943	7778.44
439.165	6568.44
439.386	6416.44
439.608	6403.44
439.829	6547.44
440.05	6787.44
440.272	7220.44
440.493	6605.44
440.715	6395.44
440.936	6304.44
441.158	6285.44
441.379	6416.44
441.6	6767.44
441.822	6996.44
442.043	7536.44
442.264	8191.44
442.486	7925.44
442.707	6991.44
442.928	6838.44
443.149	7072.44
443.371	7303.44
443.592	7839.44
443.813	8962.44
444.034	8699.44
444.255	7623.44
444.476	7594.44
444.698	7663.44
444.919	7760.44
445.14	7592.44
445.361	7346.44
445.582	7575.44
445.803	8173.44
446.024	8781.44
446.245	8463.44
446.466	7603.44
446.687	6559.44
446.908	6257.44
447.129	5959.44
447.35	5805.44
447.571	5853.44
447.792	5668.44
448.013	5785.44
448.234	6033.44
448.455	6723.44
448.675	7920.44
448.896	8402.44
449.117	6861.44
449.338	7207.44
449.559	8464.44
449.779	8655.44
450	6596.44
450.221	5922.44
450.442	5678.44
450.662	5626.44
450.883	5655.44
451.104	5915.44
451.324	5604.44
451.545	5489.44
451.766	5373.44
451.986	5173.44
452.207	5224.44
452.428	5179.44
452.648	5199.44
452.869	5259.44
453.089	5278.44
453.31	5390.44
453.53	5212.44
453.751	5163.44
453.971	5144.44
454.192	5268.44
454.412	5083.44
454.633	5029.44
454.853	4998.44
455.073	5042.44
455.294	5477.44
455.514	6031.44
455.734	5529.44
455.955	4903.44
456.175	4817.44
456.395	4765.44
456.616	4705.44
456.836	4814.44
457.056	4761.44
457.276	4684.44
457.497	4823.44
457.717	4871.44
457.937	4907.44
458.157	5023.44
458.377	5117.44
458.598	5456.44
458.818	6224.44
459.038	7001.44
459.258	6774.44
459.478	6136.44
459.698	5971.44
459.918	6040.44
460.138	6217.44
460.358	6407.44
460.578	6335.44
460.798	6518.44
461.018	6492.44
461.238	6270.44
461.458	6303.44
461.678	6318.44
461.898	6453.44
462.118	6435.44
462.338	6918.44
462.558	6981.44
462.777	7268.44
462.997	7851.44
463.217	8185.44
463.437	8031.44
463.657	7443.44
463.876	7232.44
464.096	7263.44
464.316	7298.44
464.536	7328.44
464.755	7181.44
464.975	7005.44
465.195	7226.44
465.414	7325.44
465.634	6436.44
465.854	6062.44
466.073	5770.44
466.293	5670.44
466.512	5460.44
466.732	5332.44
466.951	5303.44
467.171	5357.44
467.391	5470.44
467.61	5506.44
467.829	5520.44
468.049	5490.44
468.268	5544.44
468.488	5291.44
468.707	5283.44
468.927	5141.44
469.146	5151.44
469.365	5291.44
469.585	5211.44
469.804	5443.44
470.023	5580.44
470.243	5555.44
470.462	5715.44
470.681	5788.44
470.901	5692.44
471.12	5569.44
471.339	5472.44
471.558	5463.44
471.777	5425.44
471.997	5351.44
472.216	5640.44
472.435	6202.44
472.654	5791.44
472.873	5345.44
473.092	5264.44
473.311	5289.44
473.53	5225.44
473.749	5339.44
473.968	5795.44
474.187	6945.44
474.406	6417.44
474.625	5513.44
474.844	5293.44
475.063	5192.44
475.282	5227.44
475.501	5194.44
475.72	5299.44
475.939	5350.44
476.158	5373.44
476.377	5327.44
476.596	5379.44
476.814	5503.44
477.033	5530.44
477.252	5598.44
477.471	5730.44
477.69	5895.44
477.908	5938.44
478.127	6071.44
478.346	6146.44
478.564	6281.44
478.783	6346.44
479.002	6497.44
479.22	6555.44
479.439	6580.44
479.658	6764.44
479.876	6757.44
480.095	7046.44
480.313	7475.44
480.532	7244.44
480.751	7313.44
480.969	7526.44
481.188	8627.44
481.406	8526.44
481.624	7221.44
481.843	6689.44
482.061	6537.44
482.28	6387.44
482.498	6248.44
482.717	6252.44
482.935	6191.44
483.153	6148.44
483.372	6128.44
483.59	6133.44
483.808	6139.44
484.027	6059.44
484.245	6183.44
484.463	6257.44
484.681	6252.44
484.9	6382.44
485.118	6420.44
485.336	6378.44
485.554	6511.44
485.772	6535.44
485.99	6559.44
486.209	6655.44
486.427	6600.44
486.645	6726.44
486.863	6787.44
487.081	6677.44
487.299	6641.44
487.517	6607.44
487.735	6554.44
