Data from Circ_2016_H10_HRD10591_00089.txt Node
Date: Wed Jan 03 09:58:58 EST 2024
User: Yrep
Spectrometer: HR+D1059
Trigger mode: 1
Integration Time (sec): 1.000000E-1
Scans to average: 1
Electric dark correction enabled: true
Nonlinearity correction enabled: false
Boxcar width: 0
XAxis mode: Wavelengths
Number of Pixels in Spectrum: 2048
>>>>>Begin Spectral Data<<<<<
223.165	-15.94
223.4	-15.94
223.635	-15.94
223.869	-24.94
224.104	-19.94
224.338	-17.94
224.573	-19.94
224.808	-11.94
225.042	-7.94
225.277	-6.94
225.511	-5.94
225.746	10.06
225.98	4.06
226.215	14.06
226.449	23.06
226.683	24.06
226.918	25.06
227.152	31.06
227.387	27.06
227.621	41.06
227.856	43.06
228.09	62.06
228.324	51.06
228.559	52.06
228.793	66.06
229.027	59.06
229.262	82.06
229.496	67.06
229.73	97.06
229.964	85.06
230.199	58.06
230.433	70.06
230.667	86.06
230.901	80.06
231.136	83.06
231.37	66.06
231.604	77.06
231.838	80.06
232.072	95.06
232.306	69.06
232.541	71.06
232.775	73.06
233.009	80.06
233.243	70.06
233.477	88.06
233.711	84.06
233.945	83.06
234.179	79.06
234.413	81.06
234.647	60.06
234.881	71.06
235.115	78.06
235.349	77.06
235.583	83.06
235.817	87.06
236.051	68.06
236.285	72.06
236.519	68.06
236.753	76.06
236.987	88.06
237.221	97.06
237.455	78.06
237.689	84.06
237.922	64.06
238.156	76.06
238.39	79.06
238.624	68.06
238.858	75.06
239.091	78.06
239.325	81.06
239.559	89.06
239.793	73.06
240.027	77.06
240.26	83.06
240.494	73.06
240.728	73.06
240.961	68.06
241.195	82.06
241.429	89.06
241.662	77.06
241.896	98.06
242.13	74.06
242.363	75.06
242.597	81.06
242.83	79.06
243.064	75.06
243.298	79.06
243.531	84.06
243.765	86.06
243.998	81.06
244.232	86.06
244.465	78.06
244.699	78.06
244.932	78.06
245.166	87.06
245.399	85.06
245.633	89.06
245.866	76.06
246.099	62.06
246.333	82.06
246.566	78.06
246.8	74.06
247.033	83.06
247.266	80.06
247.5	78.06
247.733	82.06
247.966	83.06
248.2	75.06
248.433	71.06
248.666	76.06
248.899	82.06
249.133	77.06
249.366	104.06
249.599	90.06
249.832	76.06
250.066	81.06
250.299	78.06
250.532	75.06
250.765	68.06
250.998	92.06
251.231	82.06
251.465	74.06
251.698	77.06
251.931	78.06
252.164	73.06
252.397	78.06
252.63	89.06
252.863	85.06
253.096	69.06
253.329	101.06
253.562	90.06
253.795	69.06
254.028	83.06
254.261	93.06
254.494	73.06
254.727	64.06
254.96	84.06
255.193	95.06
255.426	89.06
255.659	86.06
255.892	73.06
256.124	73.06
256.357	87.06
256.59	88.06
256.823	76.06
257.056	75.06
257.289	76.06
257.521	75.06
257.754	76.06
257.987	77.06
258.22	85.06
258.452	79.06
258.685	79.06
258.918	85.06
259.151	94.06
259.383	93.06
259.616	87.06
259.849	79.06
260.081	89.06
260.314	88.06
260.547	84.06
260.779	78.06
261.012	80.06
261.244	76.06
261.477	92.06
261.71	91.06
261.942	104.06
262.175	125.06
262.407	96.06
262.64	82.06
262.872	82.06
263.105	82.06
263.337	96.06
263.57	85.06
263.802	76.06
264.035	73.06
264.267	68.06
264.499	89.06
264.732	98.06
264.964	87.06
265.197	88.06
265.429	82.06
265.661	89.06
265.894	82.06
266.126	52.06
266.358	75.06
266.591	69.06
266.823	90.06
267.055	91.06
267.287	91.06
267.52	89.06
267.752	84.06
267.984	84.06
268.216	85.06
268.448	96.06
268.681	79.06
268.913	76.06
269.145	79.06
269.377	92.06
269.609	78.06
269.841	78.06
270.073	91.06
270.306	84.06
270.538	84.06
270.77	89.06
271.002	75.06
271.234	84.06
271.466	84.06
271.698	91.06
271.93	100.06
272.162	81.06
272.394	89.06
272.626	86.06
272.858	88.06
273.09	74.06
273.322	86.06
273.553	90.06
273.785	85.06
274.017	78.06
274.249	89.06
274.481	97.06
274.713	81.06
274.945	83.06
275.176	84.06
275.408	94.06
275.64	81.06
275.872	82.06
276.104	80.06
276.335	88.06
276.567	81.06
276.799	117.06
277.031	91.06
277.262	90.06
277.494	82.06
277.726	89.06
277.957	105.06
278.189	83.06
278.421	75.06
278.652	89.06
278.884	86.06
279.115	76.06
279.347	83.06
279.579	92.06
279.81	98.06
280.042	87.06
280.273	86.06
280.505	76.06
280.736	81.06
280.968	82.06
281.199	76.06
281.431	93.06
281.662	85.06
281.894	89.06
282.125	117.06
282.356	120.06
282.588	147.06
282.819	109.06
283.051	100.06
283.282	93.06
283.513	88.06
283.745	95.06
283.976	84.06
284.207	83.06
284.439	84.06
284.67	83.06
284.901	88.06
285.132	88.06
285.364	74.06
285.595	96.06
285.826	90.06
286.057	70.06
286.288	84.06
286.52	93.06
286.751	85.06
286.982	94.06
287.213	82.06
287.444	78.06
287.675	92.06
287.906	93.06
288.138	97.06
288.369	84.06
288.6	93.06
288.831	87.06
289.062	94.06
289.293	106.06
289.524	76.06
289.755	90.06
289.986	89.06
290.217	83.06
290.448	87.06
290.679	105.06
290.91	78.06
291.141	84.06
291.371	89.06
291.602	87.06
291.833	88.06
292.064	81.06
292.295	66.06
292.526	77.06
292.757	93.06
292.987	89.06
293.218	82.06
293.449	93.06
293.68	94.06
293.91	91.06
294.141	86.06
294.372	90.06
294.603	85.06
294.833	82.06
295.064	84.06
295.295	89.06
295.525	89.06
295.756	102.06
295.987	136.06
296.217	160.06
296.448	130.06
296.679	88.06
296.909	97.06
297.14	89.06
297.37	75.06
297.601	81.06
297.831	95.06
298.062	82.06
298.292	86.06
298.523	88.06
298.753	98.06
298.984	82.06
299.214	84.06
299.445	91.06
299.675	97.06
299.905	97.06
300.136	105.06
300.366	85.06
300.597	82.06
300.827	98.06
301.057	96.06
301.288	97.06
301.518	91.06
301.748	78.06
301.979	105.06
302.209	91.06
302.439	89.06
302.669	89.06
302.9	104.06
303.13	94.06
303.36	104.06
303.59	107.06
303.82	112.06
304.051	75.06
304.281	96.06
304.511	78.06
304.741	85.06
304.971	90.06
305.201	90.06
305.431	79.06
305.661	98.06
305.891	90.06
306.121	102.06
306.352	94.06
306.582	105.06
306.812	85.06
307.042	85.06
307.272	98.06
307.502	107.06
307.731	108.06
307.961	88.06
308.191	81.06
308.421	94.06
308.651	77.06
308.881	96.06
309.111	89.06
309.341	93.06
309.571	105.06
309.8	112.06
310.03	107.06
310.26	106.06
310.49	108.06
310.72	103.06
310.949	119.06
311.179	111.06
311.409	92.06
311.639	85.06
311.868	99.06
312.098	98.06
312.328	103.06
312.557	107.06
312.787	101.06
313.017	102.06
313.246	80.06
313.476	86.06
313.706	91.06
313.935	82.06
314.165	100.06
314.394	112.06
314.624	102.06
314.853	98.06
315.083	91.06
315.312	97.06
315.542	81.06
315.771	96.06
316.001	91.06
316.23	100.06
316.46	100.06
316.689	100.06
316.919	91.06
317.148	92.06
317.377	105.06
317.607	91.06
317.836	95.06
318.065	88.06
318.295	81.06
318.524	79.06
318.753	90.06
318.983	96.06
319.212	96.06
319.441	103.06
319.67	105.06
319.9	91.06
320.129	100.06
320.358	96.06
320.587	85.06
320.816	86.06
321.046	92.06
321.275	109.06
321.504	82.06
321.733	89.06
321.962	90.06
322.191	100.06
322.42	126.06
322.649	109.06
322.878	114.06
323.108	112.06
323.337	123.06
323.566	150.06
323.795	185.06
324.024	248.06
324.253	452.06
324.482	1017.06
324.71	2158.06
324.939	2825.06
325.168	1021.06
325.397	297.06
325.626	178.06
325.855	134.06
326.084	134.06
326.313	143.06
326.542	172.06
326.77	260.06
326.999	564.06
327.228	1154.06
327.457	2154.06
327.686	1671.06
327.914	448.06
328.143	245.06
328.372	172.06
328.6	140.06
328.829	133.06
329.058	140.06
329.287	144.06
329.515	113.06
329.744	124.06
329.972	134.06
330.201	152.06
330.43	172.06
330.658	157.06
330.887	157.06
331.115	132.06
331.344	112.06
331.572	98.06
331.801	104.06
332.03	107.06
332.258	101.06
332.486	107.06
332.715	88.06
332.943	90.06
333.172	83.06
333.4	100.06
333.629	109.06
333.857	138.06
334.085	129.06
334.314	160.06
334.542	203.06
334.771	171.06
334.999	116.06
335.227	101.06
335.455	114.06
335.684	90.06
335.912	92.06
336.14	114.06
336.369	103.06
336.597	114.06
336.825	111.06
337.053	84.06
337.281	80.06
337.51	92.06
337.738	84.06
337.966	103.06
338.194	105.06
338.422	107.06
338.65	98.06
338.878	97.06
339.106	99.06
339.334	79.06
339.562	89.06
339.79	82.06
340.018	95.06
340.246	87.06
340.474	106.06
340.702	100.06
340.93	96.06
341.158	90.06
341.386	85.06
341.614	101.06
341.842	110.06
342.07	83.06
342.298	105.06
342.526	101.06
342.754	90.06
342.981	99.06
343.209	96.06
343.437	95.06
343.665	95.06
343.893	90.06
344.12	88.06
344.348	92.06
344.576	78.06
344.804	103.06
345.031	92.06
345.259	100.06
345.487	103.06
345.714	91.06
345.942	91.06
346.17	93.06
346.397	97.06
346.625	106.06
346.853	86.06
347.08	89.06
347.308	81.06
347.535	100.06
347.763	95.06
347.99	113.06
348.218	104.06
348.445	98.06
348.673	105.06
348.9	105.06
349.128	89.06
349.355	93.06
349.583	88.06
349.81	87.06
350.037	93.06
350.265	99.06
350.492	105.06
350.72	93.06
350.947	99.06
351.174	100.06
351.402	107.06
351.629	99.06
351.856	108.06
352.083	105.06
352.311	95.06
352.538	106.06
352.765	113.06
352.992	119.06
353.22	117.06
353.447	110.06
353.674	102.06
353.901	102.06
354.128	112.06
354.355	101.06
354.583	108.06
354.81	91.06
355.037	103.06
355.264	87.06
355.491	111.06
355.718	92.06
355.945	88.06
356.172	89.06
356.399	93.06
356.626	77.06
356.853	97.06
357.08	93.06
357.307	81.06
357.534	86.06
357.761	96.06
357.988	98.06
358.215	105.06
358.441	94.06
358.668	100.06
358.895	105.06
359.122	95.06
359.349	105.06
359.576	102.06
359.802	103.06
360.029	103.06
360.256	113.06
360.483	97.06
360.709	91.06
360.936	108.06
361.163	78.06
361.39	91.06
361.616	99.06
361.843	90.06
362.07	88.06
362.296	93.06
362.523	85.06
362.749	101.06
362.976	82.06
363.203	83.06
363.429	81.06
363.656	84.06
363.882	88.06
364.109	89.06
364.335	94.06
364.562	94.06
364.788	101.06
365.015	87.06
365.241	98.06
365.468	111.06
365.694	97.06
365.92	101.06
366.147	90.06
366.373	70.06
366.599	90.06
366.826	97.06
367.052	88.06
367.278	98.06
367.505	76.06
367.731	83.06
367.957	76.06
368.184	71.06
368.41	88.06
368.636	109.06
368.862	125.06
369.089	99.06
369.315	100.06
369.541	78.06
369.767	99.06
369.993	90.06
370.219	87.06
370.445	84.06
370.672	87.06
370.898	91.06
371.124	95.06
371.35	103.06
371.576	95.06
371.802	102.06
372.028	82.06
372.254	83.06
372.48	103.06
372.706	94.06
372.932	84.06
373.158	88.06
373.384	89.06
373.61	77.06
373.835	105.06
374.061	78.06
374.287	86.06
374.513	83.06
374.739	100.06
374.965	99.06
375.191	88.06
375.416	96.06
375.642	80.06
375.868	94.06
376.094	98.06
376.319	78.06
376.545	91.06
376.771	100.06
376.997	101.06
377.222	98.06
377.448	85.06
377.674	99.06
377.899	97.06
378.125	90.06
378.35	88.06
378.576	91.06
378.802	96.06
379.027	86.06
379.253	89.06
379.478	93.06
379.704	93.06
379.929	98.06
380.155	89.06
380.38	97.06
380.606	91.06
380.831	110.06
381.057	108.06
381.282	90.06
381.507	107.06
381.733	90.06
381.958	90.06
382.184	90.06
382.409	99.06
382.634	87.06
382.86	124.06
383.085	108.06
383.31	105.06
383.535	101.06
383.761	98.06
383.986	93.06
384.211	101.06
384.436	93.06
384.662	98.06
384.887	112.06
385.112	108.06
385.337	107.06
385.562	116.06
385.787	112.06
386.013	109.06
386.238	130.06
386.463	114.06
386.688	116.06
386.913	107.06
387.138	116.06
387.363	116.06
387.588	104.06
387.813	96.06
388.038	101.06
388.263	111.06
388.488	122.06
388.713	94.06
388.938	101.06
389.163	99.06
389.387	89.06
389.612	84.06
389.837	91.06
390.062	105.06
390.287	100.06
390.512	106.06
390.736	103.06
390.961	98.06
391.186	85.06
391.411	80.06
391.636	79.06
391.86	78.06
392.085	91.06
392.31	94.06
392.534	90.06
392.759	83.06
392.984	94.06
393.208	82.06
393.433	112.06
393.658	91.06
393.882	87.06
394.107	77.06
394.331	81.06
394.556	86.06
394.78	82.06
395.005	79.06
395.229	86.06
395.454	92.06
395.678	88.06
395.903	99.06
396.127	81.06
396.352	93.06
396.576	93.06
396.801	78.06
397.025	103.06
397.249	93.06
397.474	91.06
397.698	84.06
397.922	87.06
398.147	86.06
398.371	77.06
398.595	89.06
398.82	81.06
399.044	84.06
399.268	89.06
399.492	84.06
399.717	93.06
399.941	90.06
400.165	100.06
400.389	96.06
400.613	94.06
400.837	97.06
401.062	84.06
401.286	92.06
401.51	82.06
401.734	89.06
401.958	97.06
402.182	136.06
402.406	173.06
402.63	127.06
402.854	89.06
403.078	84.06
403.302	79.06
403.526	84.06
403.75	86.06
403.974	91.06
404.198	84.06
404.422	92.06
404.645	81.06
404.869	103.06
405.093	95.06
405.317	101.06
405.541	113.06
405.765	78.06
405.988	124.06
406.212	169.06
406.436	254.06
406.66	158.06
406.883	98.06
407.107	101.06
407.331	96.06
407.555	101.06
407.778	93.06
408.002	88.06
408.226	91.06
408.449	85.06
408.673	96.06
408.896	97.06
409.12	100.06
409.344	88.06
409.567	88.06
409.791	95.06
410.014	84.06
410.238	96.06
410.461	91.06
410.685	85.06
410.908	91.06
411.132	108.06
411.355	98.06
411.578	99.06
411.802	86.06
412.025	104.06
412.249	97.06
412.472	99.06
412.695	106.06
412.919	85.06
413.142	96.06
413.365	93.06
413.589	83.06
413.812	93.06
414.035	89.06
414.258	80.06
414.482	91.06
414.705	86.06
414.928	92.06
415.151	95.06
415.374	96.06
415.597	83.06
415.821	101.06
416.044	99.06
416.267	99.06
416.49	94.06
416.713	86.06
416.936	93.06
417.159	92.06
417.382	90.06
417.605	90.06
417.828	108.06
418.051	95.06
418.274	84.06
418.497	98.06
418.72	89.06
418.943	86.06
419.166	75.06
419.389	97.06
419.611	71.06
419.834	77.06
420.057	78.06
420.28	102.06
420.503	98.06
420.726	94.06
420.948	83.06
421.171	116.06
421.394	97.06
421.617	98.06
421.839	98.06
422.062	95.06
422.285	100.06
422.507	106.06
422.73	101.06
422.953	89.06
423.175	76.06
423.398	88.06
423.621	93.06
423.843	94.06
424.066	80.06
424.288	81.06
424.511	89.06
424.733	105.06
424.956	102.06
425.178	92.06
425.401	110.06
425.623	101.06
425.846	93.06
426.068	95.06
426.291	109.06
426.513	98.06
426.735	96.06
426.958	101.06
427.18	100.06
427.402	132.06
427.625	174.06
427.847	136.06
428.069	119.06
428.292	101.06
428.514	102.06
428.736	94.06
428.958	89.06
429.181	85.06
429.403	78.06
429.625	75.06
429.847	92.06
430.069	89.06
430.292	89.06
430.514	93.06
430.736	78.06
430.958	70.06
431.18	99.06
431.402	80.06
431.624	86.06
431.846	86.06
432.068	83.06
432.29	91.06
432.512	85.06
432.734	93.06
432.956	99.06
433.178	99.06
433.4	102.06
433.622	78.06
433.844	80.06
434.066	96.06
434.287	95.06
434.509	69.06
434.731	92.06
434.953	86.06
435.175	84.06
435.397	92.06
435.618	92.06
435.84	110.06
436.062	129.06
436.284	114.06
436.505	119.06
436.727	101.06
436.949	99.06
437.17	89.06
437.392	77.06
437.614	96.06
437.835	117.06
438.057	117.06
438.278	126.06
438.5	122.06
438.721	133.06
438.943	109.06
439.165	88.06
439.386	84.06
439.608	93.06
439.829	92.06
440.05	126.06
440.272	146.06
440.493	97.06
440.715	90.06
440.936	92.06
441.158	94.06
441.379	97.06
441.6	100.06
441.822	94.06
442.043	92.06
442.264	118.06
442.486	102.06
442.707	104.06
442.928	98.06
443.149	142.06
443.371	144.06
443.592	99.06
443.813	125.06
444.034	117.06
444.255	113.06
444.476	94.06
444.698	80.06
444.919	83.06
445.14	118.06
445.361	124.06
445.582	121.06
445.803	151.06
446.024	149.06
446.245	131.06
446.466	110.06
446.687	93.06
446.908	101.06
447.129	88.06
447.35	96.06
447.571	104.06
447.792	98.06
448.013	101.06
448.234	119.06
448.455	101.06
448.675	123.06
448.896	114.06
449.117	103.06
449.338	101.06
449.559	140.06
449.779	117.06
450	90.06
450.221	73.06
450.442	78.06
450.662	98.06
450.883	97.06
451.104	128.06
451.324	107.06
451.545	96.06
451.766	101.06
451.986	89.06
452.207	82.06
452.428	93.06
452.648	86.06
452.869	118.06
453.089	121.06
453.31	135.06
453.53	94.06
453.751	99.06
453.971	92.06
454.192	118.06
454.412	83.06
454.633	85.06
454.853	86.06
455.073	87.06
455.294	78.06
455.514	96.06
455.734	84.06
455.955	84.06
456.175	91.06
456.395	78.06
456.616	76.06
456.836	84.06
457.056	95.06
457.276	97.06
457.497	93.06
457.717	96.06
457.937	80.06
458.157	90.06
458.377	85.06
458.598	107.06
458.818	169.06
459.038	173.06
459.258	131.06
459.478	92.06
459.698	92.06
459.918	82.06
460.138	92.06
460.358	75.06
460.578	82.06
460.798	84.06
461.018	94.06
461.238	90.06
461.458	86.06
461.678	78.06
461.898	81.06
462.118	109.06
462.338	89.06
462.558	89.06
462.777	74.06
462.997	74.06
463.217	87.06
463.437	77.06
463.657	86.06
463.876	85.06
464.096	111.06
464.316	96.06
464.536	84.06
464.755	97.06
464.975	105.06
465.195	188.06
465.414	172.06
465.634	93.06
465.854	97.06
466.073	80.06
466.293	91.06
466.512	93.06
466.732	81.06
466.951	93.06
467.171	104.06
467.391	100.06
467.61	102.06
467.829	120.06
468.049	107.06
468.268	111.06
468.488	102.06
468.707	98.06
468.927	79.06
469.146	84.06
469.365	90.06
469.585	96.06
469.804	97.06
470.023	94.06
470.243	97.06
470.462	92.06
470.681	108.06
470.901	98.06
471.12	80.06
471.339	91.06
471.558	86.06
471.777	94.06
471.997	95.06
472.216	158.06
472.435	242.06
472.654	120.06
472.873	110.06
473.092	92.06
473.311	94.06
473.53	93.06
473.749	88.06
473.968	93.06
474.187	104.06
474.406	91.06
474.625	82.06
474.844	73.06
475.063	89.06
475.282	79.06
475.501	74.06
475.72	88.06
475.939	89.06
476.158	83.06
476.377	91.06
476.596	85.06
476.814	94.06
477.033	99.06
477.252	81.06
477.471	86.06
477.69	99.06
477.908	83.06
478.127	89.06
478.346	84.06
478.564	91.06
478.783	86.06
479.002	81.06
479.22	93.06
479.439	113.06
479.658	109.06
479.876	106.06
480.095	83.06
480.313	101.06
480.532	99.06
480.751	101.06
480.969	166.06
481.188	392.06
481.406	261.06
481.624	113.06
481.843	80.06
482.061	82.06
482.28	86.06
482.498	85.06
482.717	81.06
482.935	74.06
483.153	82.06
483.372	84.06
483.59	82.06
483.808	86.06
484.027	89.06
484.245	92.06
484.463	84.06
484.681	101.06
484.9	109.06
485.118	105.06
485.336	103.06
485.554	101.06
485.772	101.06
485.99	98.06
486.209	97.06
486.427	96.06
486.645	113.06
486.863	119.06
487.081	103.06
487.299	90.06
487.517	94.06
487.735	96.06
487.953	74.06
488.171	86.06
488.389	97.06
488.607	103.06
488.825	85.06
489.043	88.06
489.261	98.06
489.479	97.06
489.696	88.06
489.914	84.06
490.132	90.06
490.35	87.06
490.568	88.06
490.786	84.06
491.003	77.06
491.221	90.06
491.439	99.06
491.657	88.06
491.874	82.06
492.092	99.06
492.31	92.06
492.527	90.06
492.745	81.06
492.963	93.06
493.18	85.06
493.398	89.06
493.615	95.06
493.833	85.06
494.05	93.06
494.268	95.06
494.485	86.06
494.703	86.06
494.92	80.06
495.138	93.06
495.355	105.06
495.573	92.06
495.79	94.06
496.008	81.06
496.225	81.06
496.442	101.06
496.66	98.06
496.877	94.06
497.094	77.06
497.312	80.06
497.529	94.06
497.746	85.06
497.963	90.06
498.181	104.06
498.398	101.06
498.615	107.06
498.832	98.06
499.049	84.06
499.267	78.06
499.484	84.06
499.701	105.06
499.918	88.06
500.135	101.06
500.352	94.06
500.569	103.06
500.786	96.06
501.003	89.06
501.22	78.06
501.437	77.06
501.654	107.06
501.871	113.06
502.088	97.06
502.305	94.06
502.522	100.06
502.739	78.06
502.956	88.06
503.172	96.06
503.389	89.06
503.606	121.06
503.823	101.06
504.04	102.06
504.256	94.06
504.473	93.06
504.69	108.06
504.907	94.06
505.123	90.06
505.34	99.06
505.557	101.06
505.773	74.06
505.99	85.06
506.207	88.06
506.423	106.06
506.64	103.06
506.856	91.06
507.073	100.06
507.289	102.06
507.506	110.06
507.722	115.06
507.939	101.06
508.155	97.06
508.372	101.06
508.588	88.06
508.805	87.06
509.021	96.06
509.238	104.06
509.454	88.06
509.67	95.06
509.887	109.06
510.103	134.06
510.319	217.06
510.536	872.06
510.752	2992.06
510.968	830.06
511.184	181.06
511.401	120.06
511.617	89.06
511.833	97.06
512.049	89.06
512.265	86.06
512.481	89.06
512.698	88.06
512.914	97.06
513.13	97.06
513.346	90.06
513.562	104.06
513.778	105.06
513.994	106.06
514.21	124.06
514.426	135.06
514.642	133.06
514.858	119.06
