Data from Circ_2016_H10_HRD10591_00090.txt Node
Date: Wed Jan 03 09:58:58 EST 2024
User: Yrep
Spectrometer: HR+D1059
Trigger mode: 1
Integration Time (sec): 1.000000E-1
Scans to average: 1
Electric dark correction enabled: true
Nonlinearity correction enabled: false
Boxcar width: 0
XAxis mode: Wavelengths
Number of Pixels in Spectrum: 2048
>>>>>Begin Spectral Data<<<<<
223.165	-21.44
223.4	-21.44
223.635	-21.44
223.869	-19.44
224.104	-11.44
224.338	-11.44
224.573	-8.44
224.808	-15.44
225.042	-11.44
225.277	-13.44
225.511	6.56
225.746	2.56
225.98	8.56
226.215	15.56
226.449	12.56
226.683	6.56
226.918	30.56
227.152	29.56
227.387	36.56
227.621	37.56
227.856	55.56
228.09	50.56
228.324	57.56
228.559	54.56
228.793	50.56
229.027	47.56
229.262	66.56
229.496	74.56
229.73	61.56
229.964	90.56
230.199	83.56
230.433	73.56
230.667	75.56
230.901	68.56
231.136	85.56
231.37	88.56
231.604	68.56
231.838	83.56
232.072	79.56
232.306	69.56
232.541	69.56
232.775	81.56
233.009	72.56
233.243	81.56
233.477	85.56
233.711	85.56
233.945	95.56
234.179	85.56
234.413	81.56
234.647	84.56
234.881	81.56
235.115	60.56
235.349	65.56
235.583	86.56
235.817	74.56
236.051	85.56
236.285	81.56
236.519	86.56
236.753	78.56
236.987	95.56
237.221	75.56
237.455	69.56
237.689	80.56
237.922	65.56
238.156	72.56
238.39	71.56
238.624	75.56
238.858	78.56
239.091	83.56
239.325	89.56
239.559	80.56
239.793	81.56
240.027	86.56
240.26	80.56
240.494	67.56
240.728	75.56
240.961	76.56
241.195	73.56
241.429	98.56
241.662	62.56
241.896	73.56
242.13	83.56
242.363	75.56
242.597	73.56
242.83	81.56
243.064	73.56
243.298	69.56
243.531	69.56
243.765	77.56
243.998	73.56
244.232	78.56
244.465	80.56
244.699	70.56
244.932	93.56
245.166	85.56
245.399	76.56
245.633	80.56
245.866	75.56
246.099	75.56
246.333	75.56
246.566	84.56
246.8	78.56
247.033	83.56
247.266	77.56
247.5	95.56
247.733	76.56
247.966	73.56
248.2	68.56
248.433	81.56
248.666	80.56
248.899	78.56
249.133	78.56
249.366	88.56
249.599	91.56
249.832	80.56
250.066	88.56
250.299	76.56
250.532	85.56
250.765	79.56
250.998	70.56
251.231	80.56
251.465	76.56
251.698	61.56
251.931	81.56
252.164	90.56
252.397	84.56
252.63	74.56
252.863	76.56
253.096	89.56
253.329	73.56
253.562	98.56
253.795	90.56
254.028	85.56
254.261	85.56
254.494	70.56
254.727	78.56
254.96	61.56
255.193	82.56
255.426	74.56
255.659	76.56
255.892	65.56
256.124	72.56
256.357	69.56
256.59	76.56
256.823	74.56
257.056	81.56
257.289	63.56
257.521	84.56
257.754	85.56
257.987	75.56
258.22	76.56
258.452	75.56
258.685	86.56
258.918	80.56
259.151	78.56
259.383	85.56
259.616	78.56
259.849	92.56
260.081	81.56
260.314	90.56
260.547	90.56
260.779	81.56
261.012	81.56
261.244	87.56
261.477	89.56
261.71	96.56
261.942	116.56
262.175	109.56
262.407	93.56
262.64	90.56
262.872	92.56
263.105	75.56
263.337	73.56
263.57	83.56
263.802	84.56
264.035	83.56
264.267	77.56
264.499	84.56
264.732	87.56
264.964	69.56
265.197	90.56
265.429	77.56
265.661	76.56
265.894	84.56
266.126	89.56
266.358	77.56
266.591	71.56
266.823	78.56
267.055	83.56
267.287	82.56
267.52	81.56
267.752	96.56
267.984	89.56
268.216	84.56
268.448	77.56
268.681	89.56
268.913	93.56
269.145	86.56
269.377	93.56
269.609	81.56
269.841	76.56
270.073	91.56
270.306	81.56
270.538	81.56
270.77	82.56
271.002	76.56
271.234	75.56
271.466	92.56
271.698	85.56
271.93	73.56
272.162	75.56
272.394	80.56
272.626	69.56
272.858	86.56
273.09	84.56
273.322	97.56
273.553	77.56
273.785	93.56
274.017	80.56
274.249	79.56
274.481	79.56
274.713	71.56
274.945	90.56
275.176	85.56
275.408	78.56
275.64	95.56
275.872	84.56
276.104	77.56
276.335	93.56
276.567	96.56
276.799	118.56
277.031	108.56
277.262	80.56
277.494	103.56
277.726	85.56
277.957	92.56
278.189	86.56
278.421	85.56
278.652	83.56
278.884	85.56
279.115	94.56
279.347	89.56
279.579	91.56
279.81	73.56
280.042	89.56
280.273	70.56
280.505	86.56
280.736	92.56
280.968	85.56
281.199	71.56
281.431	84.56
281.662	89.56
281.894	97.56
282.125	101.56
282.356	126.56
282.588	149.56
282.819	119.56
283.051	91.56
283.282	73.56
283.513	73.56
283.745	67.56
283.976	87.56
284.207	76.56
284.439	74.56
284.67	97.56
284.901	84.56
285.132	79.56
285.364	89.56
285.595	83.56
285.826	87.56
286.057	81.56
286.288	77.56
286.52	90.56
286.751	90.56
286.982	90.56
287.213	89.56
287.444	80.56
287.675	90.56
287.906	89.56
288.138	83.56
288.369	91.56
288.6	94.56
288.831	88.56
289.062	90.56
289.293	90.56
289.524	74.56
289.755	84.56
289.986	76.56
290.217	80.56
290.448	90.56
290.679	86.56
290.91	82.56
291.141	84.56
291.371	76.56
291.602	92.56
291.833	80.56
292.064	83.56
292.295	99.56
292.526	103.56
292.757	92.56
292.987	98.56
293.218	88.56
293.449	88.56
293.68	82.56
293.91	79.56
294.141	85.56
294.372	85.56
294.603	79.56
294.833	95.56
295.064	89.56
295.295	94.56
295.525	87.56
295.756	95.56
295.987	109.56
296.217	140.56
296.448	136.56
296.679	97.56
296.909	90.56
297.14	86.56
297.37	87.56
297.601	84.56
297.831	93.56
298.062	86.56
298.292	89.56
298.523	93.56
298.753	92.56
298.984	86.56
299.214	90.56
299.445	99.56
299.675	91.56
299.905	96.56
300.136	89.56
300.366	92.56
300.597	90.56
300.827	94.56
301.057	100.56
301.288	93.56
301.518	97.56
301.748	99.56
301.979	103.56
302.209	98.56
302.439	93.56
302.669	85.56
302.9	86.56
303.13	88.56
303.36	88.56
303.59	84.56
303.82	101.56
304.051	84.56
304.281	100.56
304.511	84.56
304.741	86.56
304.971	83.56
305.201	93.56
305.431	84.56
305.661	93.56
305.891	97.56
306.121	85.56
306.352	110.56
306.582	104.56
306.812	79.56
307.042	96.56
307.272	94.56
307.502	101.56
307.731	101.56
307.961	100.56
308.191	87.56
308.421	82.56
308.651	90.56
308.881	82.56
309.111	108.56
309.341	94.56
309.571	90.56
309.8	97.56
310.03	86.56
310.26	96.56
310.49	103.56
310.72	94.56
310.949	101.56
311.179	115.56
311.409	101.56
311.639	87.56
311.868	98.56
312.098	89.56
312.328	90.56
312.557	106.56
312.787	123.56
313.017	98.56
313.246	84.56
313.476	98.56
313.706	80.56
313.935	99.56
314.165	118.56
314.394	97.56
314.624	107.56
314.853	89.56
315.083	80.56
315.312	97.56
315.542	82.56
315.771	97.56
316.001	97.56
316.23	90.56
316.46	78.56
316.689	93.56
316.919	102.56
317.148	99.56
317.377	92.56
317.607	99.56
317.836	85.56
318.065	84.56
318.295	78.56
318.524	102.56
318.753	102.56
318.983	100.56
319.212	97.56
319.441	100.56
319.67	112.56
319.9	97.56
320.129	102.56
320.358	98.56
320.587	99.56
320.816	95.56
321.046	112.56
321.275	91.56
321.504	88.56
321.733	89.56
321.962	95.56
322.191	107.56
322.42	99.56
322.649	124.56
322.878	109.56
323.108	115.56
323.337	124.56
323.566	119.56
323.795	156.56
324.024	232.56
324.253	470.56
324.482	1000.56
324.71	2019.56
324.939	2686.56
325.168	974.56
325.397	278.56
325.626	164.56
325.855	146.56
326.084	134.56
326.313	152.56
326.542	163.56
326.77	257.56
326.999	537.56
327.228	1116.56
327.457	2053.56
327.686	1617.56
327.914	428.56
328.143	210.56
328.372	178.56
328.6	150.56
328.829	113.56
329.058	143.56
329.287	132.56
329.515	114.56
329.744	109.56
329.972	119.56
330.201	146.56
330.43	180.56
330.658	149.56
330.887	151.56
331.115	114.56
331.344	107.56
331.572	103.56
331.801	107.56
332.03	111.56
332.258	84.56
332.486	87.56
332.715	95.56
332.943	91.56
333.172	96.56
333.4	104.56
333.629	109.56
333.857	127.56
334.085	122.56
334.314	142.56
334.542	200.56
334.771	186.56
334.999	107.56
335.227	102.56
335.455	106.56
335.684	106.56
335.912	105.56
336.14	121.56
336.369	103.56
336.597	94.56
336.825	94.56
337.053	86.56
337.281	94.56
337.51	89.56
337.738	106.56
337.966	114.56
338.194	108.56
338.422	104.56
338.65	101.56
338.878	86.56
339.106	80.56
339.334	87.56
339.562	94.56
339.79	95.56
340.018	86.56
340.246	95.56
340.474	88.56
340.702	78.56
340.93	85.56
341.158	78.56
341.386	111.56
341.614	94.56
341.842	99.56
342.07	75.56
342.298	88.56
342.526	95.56
342.754	89.56
342.981	91.56
343.209	85.56
343.437	89.56
343.665	83.56
343.893	94.56
344.12	101.56
344.348	93.56
344.576	94.56
344.804	75.56
345.031	98.56
345.259	85.56
345.487	93.56
345.714	90.56
345.942	82.56
346.17	86.56
346.397	83.56
346.625	93.56
346.853	97.56
347.08	91.56
347.308	101.56
347.535	91.56
347.763	90.56
347.99	110.56
348.218	108.56
348.445	110.56
348.673	98.56
348.9	84.56
349.128	92.56
349.355	83.56
349.583	85.56
349.81	103.56
350.037	96.56
350.265	90.56
350.492	101.56
350.72	83.56
350.947	91.56
351.174	121.56
351.402	101.56
351.629	101.56
351.856	106.56
352.083	117.56
352.311	104.56
352.538	89.56
352.765	111.56
352.992	108.56
353.22	109.56
353.447	104.56
353.674	89.56
353.901	91.56
354.128	99.56
354.355	97.56
354.583	85.56
354.81	103.56
355.037	98.56
355.264	89.56
355.491	94.56
355.718	95.56
355.945	81.56
356.172	99.56
356.399	102.56
356.626	92.56
356.853	93.56
357.08	90.56
357.307	92.56
357.534	89.56
357.761	88.56
357.988	89.56
358.215	100.56
358.441	89.56
358.668	92.56
358.895	95.56
359.122	98.56
359.349	99.56
359.576	97.56
359.802	112.56
360.029	110.56
360.256	116.56
360.483	98.56
360.709	84.56
360.936	99.56
361.163	87.56
361.39	93.56
361.616	91.56
361.843	85.56
362.07	111.56
362.296	93.56
362.523	76.56
362.749	98.56
362.976	93.56
363.203	100.56
363.429	92.56
363.656	86.56
363.882	98.56
364.109	96.56
364.335	102.56
364.562	94.56
364.788	90.56
365.015	84.56
365.241	104.56
365.468	99.56
365.694	90.56
365.92	104.56
366.147	88.56
366.373	92.56
366.599	102.56
366.826	89.56
367.052	80.56
367.278	94.56
367.505	101.56
367.731	96.56
367.957	82.56
368.184	101.56
368.41	98.56
368.636	100.56
368.862	130.56
369.089	123.56
369.315	91.56
369.541	102.56
369.767	87.56
369.993	100.56
370.219	100.56
370.445	84.56
370.672	82.56
370.898	92.56
371.124	94.56
371.35	89.56
371.576	94.56
371.802	88.56
372.028	87.56
372.254	95.56
372.48	89.56
372.706	83.56
372.932	78.56
373.158	88.56
373.384	93.56
373.61	90.56
373.835	110.56
374.061	76.56
374.287	88.56
374.513	81.56
374.739	87.56
374.965	87.56
375.191	84.56
375.416	90.56
375.642	92.56
375.868	93.56
376.094	90.56
376.319	81.56
376.545	85.56
376.771	86.56
376.997	96.56
377.222	79.56
377.448	88.56
377.674	92.56
377.899	102.56
378.125	89.56
378.35	81.56
378.576	91.56
378.802	99.56
379.027	95.56
379.253	91.56
379.478	94.56
379.704	87.56
379.929	93.56
380.155	93.56
380.38	88.56
380.606	98.56
380.831	99.56
381.057	108.56
381.282	94.56
381.507	96.56
381.733	98.56
381.958	98.56
382.184	99.56
382.409	93.56
382.634	101.56
382.86	83.56
383.085	105.56
383.31	97.56
383.535	97.56
383.761	101.56
383.986	105.56
384.211	99.56
384.436	100.56
384.662	89.56
384.887	107.56
385.112	107.56
385.337	96.56
385.562	103.56
385.787	99.56
386.013	108.56
386.238	107.56
386.463	122.56
386.688	112.56
386.913	110.56
387.138	105.56
387.363	107.56
387.588	97.56
387.813	110.56
388.038	107.56
388.263	125.56
388.488	113.56
388.713	93.56
388.938	99.56
389.163	95.56
389.387	97.56
389.612	93.56
389.837	82.56
390.062	92.56
390.287	88.56
390.512	94.56
390.736	88.56
390.961	87.56
391.186	86.56
391.411	90.56
391.636	93.56
391.86	91.56
392.085	79.56
392.31	85.56
392.534	80.56
392.759	89.56
392.984	95.56
393.208	86.56
393.433	92.56
393.658	81.56
393.882	93.56
394.107	103.56
394.331	80.56
394.556	89.56
394.78	76.56
395.005	88.56
395.229	77.56
395.454	80.56
395.678	91.56
395.903	81.56
396.127	87.56
396.352	96.56
396.576	93.56
396.801	89.56
397.025	85.56
397.249	89.56
397.474	97.56
397.698	91.56
397.922	76.56
398.147	100.56
398.371	93.56
398.595	74.56
398.82	84.56
399.044	85.56
399.268	89.56
399.492	91.56
399.717	96.56
399.941	85.56
400.165	97.56
400.389	93.56
400.613	90.56
400.837	78.56
401.062	93.56
401.286	101.56
401.51	100.56
401.734	87.56
401.958	96.56
402.182	141.56
402.406	173.56
402.63	127.56
402.854	98.56
403.078	116.56
403.302	97.56
403.526	75.56
403.75	83.56
403.974	85.56
404.198	95.56
404.422	88.56
404.645	74.56
404.869	88.56
405.093	103.56
405.317	98.56
405.541	102.56
405.765	91.56
405.988	120.56
406.212	166.56
406.436	223.56
406.66	152.56
406.883	87.56
407.107	98.56
407.331	96.56
407.555	95.56
407.778	95.56
408.002	84.56
408.226	96.56
408.449	79.56
408.673	68.56
408.896	93.56
409.12	75.56
409.344	85.56
409.567	90.56
409.791	92.56
410.014	90.56
410.238	92.56
410.461	99.56
410.685	77.56
410.908	85.56
411.132	106.56
411.355	104.56
411.578	101.56
411.802	105.56
412.025	84.56
412.249	85.56
412.472	93.56
412.695	84.56
412.919	93.56
413.142	80.56
413.365	86.56
413.589	87.56
413.812	104.56
414.035	91.56
414.258	92.56
414.482	92.56
414.705	84.56
414.928	83.56
415.151	79.56
415.374	98.56
415.597	94.56
415.821	99.56
416.044	97.56
416.267	77.56
416.49	83.56
416.713	88.56
416.936	86.56
417.159	82.56
417.382	85.56
417.605	97.56
417.828	98.56
418.051	89.56
418.274	69.56
418.497	96.56
418.72	79.56
418.943	90.56
419.166	92.56
419.389	102.56
419.611	83.56
419.834	99.56
420.057	82.56
420.28	74.56
420.503	79.56
420.726	106.56
420.948	84.56
421.171	84.56
421.394	96.56
421.617	88.56
421.839	92.56
422.062	90.56
422.285	78.56
422.507	90.56
422.73	98.56
422.953	90.56
423.175	92.56
423.398	85.56
423.621	81.56
423.843	84.56
424.066	73.56
424.288	92.56
424.511	84.56
424.733	94.56
424.956	107.56
425.178	96.56
425.401	100.56
425.623	98.56
425.846	93.56
426.068	106.56
426.291	103.56
426.513	87.56
426.735	88.56
426.958	101.56
427.18	115.56
427.402	146.56
427.625	172.56
427.847	137.56
428.069	117.56
428.292	95.56
428.514	81.56
428.736	86.56
428.958	90.56
429.181	90.56
429.403	90.56
429.625	96.56
429.847	95.56
430.069	107.56
430.292	92.56
430.514	96.56
430.736	77.56
430.958	91.56
431.18	79.56
431.402	77.56
431.624	80.56
431.846	98.56
432.068	95.56
432.29	82.56
432.512	100.56
432.734	88.56
432.956	91.56
433.178	91.56
433.4	102.56
433.622	97.56
433.844	80.56
434.066	81.56
434.287	89.56
434.509	91.56
434.731	90.56
434.953	95.56
435.175	91.56
435.397	91.56
435.618	97.56
435.84	101.56
436.062	113.56
436.284	116.56
436.505	108.56
436.727	103.56
436.949	94.56
437.17	105.56
437.392	79.56
437.614	92.56
437.835	113.56
438.057	122.56
438.278	104.56
438.5	120.56
438.721	117.56
438.943	105.56
439.165	88.56
439.386	89.56
439.608	92.56
439.829	96.56
440.05	132.56
440.272	148.56
440.493	92.56
440.715	90.56
440.936	99.56
441.158	83.56
441.379	93.56
441.6	87.56
441.822	93.56
442.043	90.56
442.264	98.56
442.486	102.56
442.707	101.56
442.928	101.56
443.149	146.56
443.371	124.56
443.592	134.56
443.813	117.56
444.034	105.56
444.255	90.56
444.476	83.56
444.698	78.56
444.919	82.56
445.14	133.56
445.361	116.56
445.582	123.56
445.803	158.56
446.024	163.56
446.245	144.56
446.466	104.56
446.687	97.56
446.908	73.56
447.129	86.56
447.35	106.56
447.571	94.56
447.792	102.56
448.013	97.56
448.234	109.56
448.455	100.56
448.675	116.56
448.896	136.56
449.117	97.56
449.338	104.56
449.559	114.56
449.779	131.56
450	106.56
450.221	98.56
450.442	92.56
450.662	88.56
450.883	106.56
451.104	102.56
451.324	85.56
451.545	77.56
451.766	94.56
451.986	82.56
452.207	91.56
452.428	91.56
452.648	100.56
452.869	99.56
453.089	115.56
453.31	118.56
453.53	91.56
453.751	93.56
453.971	83.56
454.192	100.56
454.412	88.56
454.633	85.56
454.853	81.56
455.073	86.56
455.294	110.56
455.514	109.56
455.734	91.56
455.955	97.56
456.175	81.56
456.395	77.56
456.616	87.56
456.836	87.56
457.056	81.56
457.276	74.56
457.497	100.56
457.717	81.56
457.937	83.56
458.157	89.56
458.377	85.56
458.598	96.56
458.818	157.56
459.038	150.56
459.258	113.56
459.478	94.56
459.698	77.56
459.918	85.56
460.138	79.56
460.358	82.56
460.578	82.56
460.798	90.56
461.018	84.56
461.238	85.56
461.458	95.56
461.678	86.56
461.898	87.56
462.118	79.56
462.338	90.56
462.558	79.56
462.777	95.56
462.997	75.56
463.217	81.56
463.437	91.56
463.657	88.56
463.876	97.56
464.096	79.56
464.316	81.56
464.536	100.56
464.755	96.56
464.975	100.56
465.195	173.56
465.414	169.56
465.634	100.56
465.854	96.56
466.073	77.56
466.293	91.56
466.512	85.56
466.732	93.56
466.951	86.56
467.171	84.56
467.391	87.56
467.61	103.56
467.829	116.56
468.049	120.56
468.268	121.56
468.488	77.56
468.707	80.56
468.927	77.56
469.146	89.56
469.365	82.56
469.585	104.56
469.804	100.56
470.023	91.56
470.243	105.56
470.462	104.56
470.681	86.56
470.901	90.56
471.12	86.56
471.339	72.56
471.558	91.56
471.777	80.56
471.997	109.56
472.216	168.56
472.435	237.56
472.654	117.56
472.873	81.56
473.092	96.56
473.311	86.56
473.53	80.56
473.749	87.56
473.968	102.56
474.187	103.56
474.406	98.56
474.625	77.56
474.844	82.56
475.063	90.56
475.282	84.56
475.501	77.56
475.72	84.56
475.939	101.56
476.158	77.56
476.377	86.56
476.596	101.56
476.814	92.56
477.033	92.56
477.252	81.56
477.471	73.56
477.69	78.56
477.908	92.56
478.127	86.56
478.346	87.56
478.564	98.56
478.783	74.56
479.002	96.56
479.22	91.56
479.439	88.56
479.658	105.56
479.876	96.56
480.095	98.56
480.313	101.56
480.532	96.56
480.751	106.56
480.969	148.56
481.188	365.56
481.406	261.56
481.624	115.56
481.843	109.56
482.061	88.56
482.28	91.56
482.498	87.56
482.717	75.56
482.935	77.56
483.153	98.56
483.372	88.56
483.59	81.56
483.808	92.56
484.027	89.56
484.245	97.56
484.463	90.56
484.681	93.56
484.9	94.56
485.118	108.56
485.336	97.56
485.554	93.56
485.772	98.56
485.99	112.56
486.209	92.56
486.427	122.56
486.645	122.56
486.863	119.56
487.081	104.56
487.299	99.56
487.517	86.56
487.735	81.56
487.953	76.56
488.171	91.56
488.389	95.56
488.607	105.56
488.825	85.56
489.043	86.56
489.261	84.56
489.479	92.56
489.696	93.56
489.914	89.56
490.132	69.56
490.35	88.56
490.568	81.56
490.786	82.56
491.003	99.56
491.221	92.56
491.439	94.56
491.657	88.56
491.874	83.56
492.092	91.56
492.31	85.56
492.527	84.56
492.745	82.56
492.963	87.56
493.18	101.56
493.398	80.56
493.615	96.56
493.833	99.56
494.05	76.56
494.268	92.56
494.485	99.56
494.703	101.56
494.92	92.56
495.138	98.56
495.355	103.56
495.573	86.56
495.79	77.56
496.008	91.56
496.225	76.56
496.442	88.56
496.66	91.56
496.877	91.56
497.094	94.56
497.312	96.56
497.529	87.56
497.746	97.56
497.963	95.56
498.181	86.56
498.398	90.56
498.615	113.56
498.832	88.56
499.049	92.56
499.267	106.56
499.484	81.56
499.701	86.56
499.918	89.56
500.135	104.56
500.352	76.56
500.569	85.56
500.786	90.56
501.003	81.56
501.22	85.56
501.437	87.56
501.654	103.56
501.871	115.56
502.088	98.56
502.305	88.56
502.522	100.56
502.739	90.56
502.956	98.56
503.172	77.56
503.389	87.56
503.606	101.56
503.823	91.56
504.04	82.56
504.256	86.56
504.473	91.56
504.69	108.56
504.907	73.56
505.123	84.56
505.34	90.56
505.557	100.56
505.773	76.56
505.99	103.56
506.207	81.56
506.423	90.56
506.64	106.56
506.856	85.56
507.073	96.56
507.289	93.56
507.506	96.56
507.722	100.56
507.939	111.56
508.155	84.56
508.372	91.56
508.588	96.56
508.805	103.56
509.021	103.56
509.238	106.56
509.454	106.56
509.67	106.56
509.887	114.56
510.103	140.56
510.319	224.56
510.536	806.56
510.752	2738.56
510.968	782.56
511.184	170.56
511.401	104.56
511.617	82.56
511.833	100.56
512.049	98.56
512.265	94.56
512.481	87.56
512.698	100.56
512.914	88.56
513.13	98.56
513.346	84.56
513.562	84.56
513.778	88.56
513.994	94.56
514.21	104.56
514.426	110.56
514.642	135.56
514.858	126.56
515.074	169.56
515.29	493.56
515.506	1652.56
