Data from Circ_2016_H10_HRD10591_00012.txt Node
Date: Wed Jan 03 09:58:43 EST 2024
User: Yrep
Spectrometer: HR+D1059
Trigger mode: 1
Integration Time (sec): 1.000000E-1
Scans to average: 1
Electric dark correction enabled: true
Nonlinearity correction enabled: false
Boxcar width: 0
XAxis mode: Wavelengths
Number of Pixels in Spectrum: 2048
>>>>>Begin Spectral Data<<<<<
223.165	-17.94
223.4	-17.94
223.635	-17.94
223.869	-23.94
224.104	-23.94
224.338	-25.94
224.573	-29.94
224.808	-4.94
225.042	-5.94
225.277	6.06
225.511	5.06
225.746	7.06
225.98	-0.94
226.215	7.06
226.449	16.06
226.683	26.06
226.918	31.06
227.152	35.06
227.387	40.06
227.621	34.06
227.856	45.06
228.09	51.06
228.324	49.06
228.559	66.06
228.793	53.06
229.027	65.06
229.262	68.06
229.496	70.06
229.73	83.06
229.964	81.06
230.199	64.06
230.433	78.06
230.667	88.06
230.901	84.06
231.136	72.06
231.37	83.06
231.604	74.06
231.838	85.06
232.072	89.06
232.306	87.06
232.541	78.06
232.775	82.06
233.009	81.06
233.243	71.06
233.477	80.06
233.711	86.06
233.945	77.06
234.179	79.06
234.413	73.06
234.647	94.06
234.881	86.06
235.115	79.06
235.349	79.06
235.583	75.06
235.817	87.06
236.051	91.06
236.285	68.06
236.519	82.06
236.753	70.06
236.987	83.06
237.221	78.06
237.455	80.06
237.689	73.06
237.922	80.06
238.156	80.06
238.39	77.06
238.624	79.06
238.858	68.06
239.091	76.06
239.325	87.06
239.559	86.06
239.793	85.06
240.027	82.06
240.26	77.06
240.494	92.06
240.728	85.06
240.961	76.06
241.195	77.06
241.429	87.06
241.662	73.06
241.896	85.06
242.13	73.06
242.363	85.06
242.597	77.06
242.83	69.06
243.064	79.06
243.298	88.06
243.531	79.06
243.765	74.06
243.998	70.06
244.232	86.06
244.465	87.06
244.699	78.06
244.932	83.06
245.166	75.06
245.399	75.06
245.633	70.06
245.866	75.06
246.099	80.06
246.333	77.06
246.566	87.06
246.8	90.06
247.033	83.06
247.266	79.06
247.5	89.06
247.733	84.06
247.966	86.06
248.2	93.06
248.433	90.06
248.666	74.06
248.899	80.06
249.133	82.06
249.366	107.06
249.599	105.06
249.832	91.06
250.066	86.06
250.299	85.06
250.532	83.06
250.765	74.06
250.998	80.06
251.231	89.06
251.465	81.06
251.698	74.06
251.931	102.06
252.164	83.06
252.397	87.06
252.63	76.06
252.863	82.06
253.096	80.06
253.329	102.06
253.562	88.06
253.795	99.06
254.028	85.06
254.261	86.06
254.494	74.06
254.727	82.06
254.96	89.06
255.193	79.06
255.426	89.06
255.659	92.06
255.892	87.06
256.124	93.06
256.357	95.06
256.59	74.06
256.823	67.06
257.056	86.06
257.289	76.06
257.521	85.06
257.754	80.06
257.987	87.06
258.22	84.06
258.452	80.06
258.685	84.06
258.918	91.06
259.151	80.06
259.383	80.06
259.616	88.06
259.849	86.06
260.081	91.06
260.314	93.06
260.547	91.06
260.779	100.06
261.012	87.06
261.244	94.06
261.477	96.06
261.71	95.06
261.942	126.06
262.175	128.06
262.407	97.06
262.64	88.06
262.872	92.06
263.105	79.06
263.337	90.06
263.57	76.06
263.802	92.06
264.035	96.06
264.267	83.06
264.499	84.06
264.732	91.06
264.964	84.06
265.197	75.06
265.429	81.06
265.661	88.06
265.894	77.06
266.126	78.06
266.358	77.06
266.591	83.06
266.823	94.06
267.055	88.06
267.287	79.06
267.52	100.06
267.752	93.06
267.984	78.06
268.216	84.06
268.448	94.06
268.681	78.06
268.913	75.06
269.145	80.06
269.377	98.06
269.609	90.06
269.841	93.06
270.073	93.06
270.306	102.06
270.538	88.06
270.77	100.06
271.002	83.06
271.234	85.06
271.466	91.06
271.698	88.06
271.93	97.06
272.162	87.06
272.394	76.06
272.626	81.06
272.858	93.06
273.09	80.06
273.322	87.06
273.553	90.06
273.785	90.06
274.017	100.06
274.249	97.06
274.481	80.06
274.713	91.06
274.945	99.06
275.176	84.06
275.408	83.06
275.64	90.06
275.872	85.06
276.104	95.06
276.335	89.06
276.567	109.06
276.799	107.06
277.031	122.06
277.262	98.06
277.494	96.06
277.726	100.06
277.957	98.06
278.189	111.06
278.421	104.06
278.652	89.06
278.884	86.06
279.115	84.06
279.347	89.06
279.579	87.06
279.81	101.06
280.042	89.06
280.273	72.06
280.505	85.06
280.736	92.06
280.968	91.06
281.199	95.06
281.431	88.06
281.662	92.06
281.894	87.06
282.125	102.06
282.356	123.06
282.588	165.06
282.819	115.06
283.051	96.06
283.282	80.06
283.513	111.06
283.745	115.06
283.976	95.06
284.207	103.06
284.439	90.06
284.67	98.06
284.901	93.06
285.132	90.06
285.364	95.06
285.595	83.06
285.826	87.06
286.057	87.06
286.288	88.06
286.52	85.06
286.751	80.06
286.982	88.06
287.213	82.06
287.444	93.06
287.675	93.06
287.906	90.06
288.138	92.06
288.369	95.06
288.6	95.06
288.831	78.06
289.062	103.06
289.293	99.06
289.524	97.06
289.755	90.06
289.986	95.06
290.217	90.06
290.448	72.06
290.679	88.06
290.91	83.06
291.141	106.06
291.371	93.06
291.602	88.06
291.833	94.06
292.064	94.06
292.295	86.06
292.526	99.06
292.757	96.06
292.987	100.06
293.218	99.06
293.449	85.06
293.68	100.06
293.91	84.06
294.141	94.06
294.372	98.06
294.603	87.06
294.833	90.06
295.064	108.06
295.295	98.06
295.525	89.06
295.756	106.06
295.987	116.06
296.217	145.06
296.448	141.06
296.679	102.06
296.909	118.06
297.14	103.06
297.37	99.06
297.601	86.06
297.831	91.06
298.062	97.06
298.292	101.06
298.523	100.06
298.753	91.06
298.984	91.06
299.214	85.06
299.445	91.06
299.675	94.06
299.905	109.06
300.136	91.06
300.366	89.06
300.597	101.06
300.827	95.06
301.057	91.06
301.288	107.06
301.518	98.06
301.748	104.06
301.979	97.06
302.209	99.06
302.439	99.06
302.669	99.06
302.9	95.06
303.13	90.06
303.36	98.06
303.59	112.06
303.82	109.06
304.051	105.06
304.281	89.06
304.511	92.06
304.741	83.06
304.971	73.06
305.201	77.06
305.431	100.06
305.661	99.06
305.891	101.06
306.121	111.06
306.352	99.06
306.582	108.06
306.812	100.06
307.042	93.06
307.272	107.06
307.502	101.06
307.731	101.06
307.961	102.06
308.191	91.06
308.421	91.06
308.651	83.06
308.881	91.06
309.111	110.06
309.341	109.06
309.571	104.06
309.8	116.06
310.03	91.06
310.26	102.06
310.49	96.06
310.72	87.06
310.949	106.06
311.179	101.06
311.409	105.06
311.639	116.06
311.868	101.06
312.098	104.06
312.328	104.06
312.557	110.06
312.787	104.06
313.017	103.06
313.246	101.06
313.476	96.06
313.706	94.06
313.935	87.06
314.165	103.06
314.394	101.06
314.624	102.06
314.853	95.06
315.083	90.06
315.312	99.06
315.542	100.06
315.771	109.06
316.001	87.06
316.23	91.06
316.46	85.06
316.689	82.06
316.919	93.06
317.148	95.06
317.377	99.06
317.607	88.06
317.836	103.06
318.065	96.06
318.295	91.06
318.524	82.06
318.753	95.06
318.983	109.06
319.212	95.06
319.441	116.06
319.67	107.06
319.9	99.06
320.129	105.06
320.358	100.06
320.587	100.06
320.816	90.06
321.046	91.06
321.275	104.06
321.504	98.06
321.733	103.06
321.962	108.06
322.191	115.06
322.42	110.06
322.649	109.06
322.878	117.06
323.108	131.06
323.337	128.06
323.566	152.06
323.795	188.06
324.024	256.06
324.253	475.06
324.482	1081.06
324.71	2259.06
324.939	2927.06
325.168	1074.06
325.397	295.06
325.626	171.06
325.855	151.06
326.084	156.06
326.313	152.06
326.542	178.06
326.77	282.06
326.999	581.06
327.228	1204.06
327.457	2280.06
327.686	1747.06
327.914	475.06
328.143	223.06
328.372	146.06
328.6	142.06
328.829	122.06
329.058	143.06
329.287	150.06
329.515	124.06
329.744	100.06
329.972	105.06
330.201	117.06
330.43	118.06
330.658	137.06
330.887	165.06
331.115	126.06
331.344	102.06
331.572	109.06
331.801	101.06
332.03	112.06
332.258	101.06
332.486	90.06
332.715	89.06
332.943	98.06
333.172	100.06
333.4	94.06
333.629	108.06
333.857	131.06
334.085	103.06
334.314	94.06
334.542	85.06
334.771	108.06
334.999	108.06
335.227	103.06
335.455	114.06
335.684	96.06
335.912	108.06
336.14	114.06
336.369	92.06
336.597	119.06
336.825	111.06
337.053	98.06
337.281	106.06
337.51	102.06
337.738	85.06
337.966	93.06
338.194	105.06
338.422	84.06
338.65	94.06
338.878	101.06
339.106	94.06
339.334	103.06
339.562	91.06
339.79	93.06
340.018	98.06
340.246	93.06
340.474	97.06
340.702	106.06
340.93	93.06
341.158	103.06
341.386	111.06
341.614	94.06
341.842	99.06
342.07	91.06
342.298	114.06
342.526	92.06
342.754	94.06
342.981	101.06
343.209	87.06
343.437	110.06
343.665	95.06
343.893	96.06
344.12	100.06
344.348	95.06
344.576	86.06
344.804	110.06
345.031	112.06
345.259	94.06
345.487	96.06
345.714	85.06
345.942	100.06
346.17	88.06
346.397	97.06
346.625	92.06
346.853	94.06
347.08	94.06
347.308	94.06
347.535	83.06
347.763	101.06
347.99	94.06
348.218	94.06
348.445	110.06
348.673	105.06
348.9	117.06
349.128	105.06
349.355	97.06
349.583	82.06
349.81	99.06
350.037	86.06
350.265	107.06
350.492	87.06
350.72	89.06
350.947	105.06
351.174	105.06
351.402	123.06
351.629	117.06
351.856	111.06
352.083	112.06
352.311	111.06
352.538	126.06
352.765	128.06
352.992	123.06
353.22	126.06
353.447	124.06
353.674	106.06
353.901	91.06
354.128	109.06
354.355	115.06
354.583	108.06
354.81	107.06
355.037	103.06
355.264	107.06
355.491	109.06
355.718	105.06
355.945	110.06
356.172	109.06
356.399	103.06
356.626	109.06
356.853	99.06
357.08	91.06
357.307	98.06
357.534	101.06
357.761	118.06
357.988	106.06
358.215	113.06
358.441	120.06
358.668	119.06
358.895	120.06
359.122	95.06
359.349	85.06
359.576	96.06
359.802	124.06
360.029	119.06
360.256	109.06
360.483	107.06
360.709	96.06
360.936	112.06
361.163	87.06
361.39	99.06
361.616	93.06
361.843	87.06
362.07	98.06
362.296	90.06
362.523	87.06
362.749	87.06
362.976	85.06
363.203	88.06
363.429	100.06
363.656	91.06
363.882	80.06
364.109	99.06
364.335	94.06
364.562	109.06
364.788	94.06
365.015	104.06
365.241	111.06
365.468	122.06
365.694	99.06
365.92	90.06
366.147	104.06
366.373	87.06
366.599	83.06
366.826	93.06
367.052	99.06
367.278	81.06
367.505	75.06
367.731	95.06
367.957	96.06
368.184	91.06
368.41	98.06
368.636	122.06
368.862	118.06
369.089	100.06
369.315	98.06
369.541	90.06
369.767	76.06
369.993	85.06
370.219	102.06
370.445	101.06
370.672	98.06
370.898	86.06
371.124	93.06
371.35	89.06
371.576	90.06
371.802	99.06
372.028	99.06
372.254	101.06
372.48	91.06
372.706	89.06
372.932	87.06
373.158	87.06
373.384	100.06
373.61	108.06
373.835	102.06
374.061	93.06
374.287	101.06
374.513	102.06
374.739	100.06
374.965	80.06
375.191	101.06
375.416	102.06
375.642	101.06
375.868	107.06
376.094	93.06
376.319	110.06
376.545	107.06
376.771	85.06
376.997	101.06
377.222	109.06
377.448	99.06
377.674	106.06
377.899	100.06
378.125	105.06
378.35	105.06
378.576	115.06
378.802	99.06
379.027	122.06
379.253	126.06
379.478	117.06
379.704	114.06
379.929	120.06
380.155	106.06
380.38	122.06
380.606	120.06
380.831	127.06
381.057	127.06
381.282	120.06
381.507	109.06
381.733	102.06
381.958	124.06
382.184	135.06
382.409	126.06
382.634	134.06
382.86	130.06
383.085	133.06
383.31	143.06
383.535	142.06
383.761	136.06
383.986	143.06
384.211	142.06
384.436	139.06
384.662	151.06
384.887	165.06
385.112	184.06
385.337	166.06
385.562	170.06
385.787	168.06
386.013	188.06
386.238	193.06
386.463	170.06
386.688	176.06
386.913	159.06
387.138	179.06
387.363	162.06
387.588	131.06
387.813	152.06
388.038	174.06
388.263	195.06
388.488	168.06
388.713	122.06
388.938	92.06
389.163	90.06
389.387	91.06
389.612	101.06
389.837	90.06
390.062	99.06
390.287	77.06
390.512	87.06
390.736	88.06
390.961	103.06
391.186	91.06
391.411	97.06
391.636	91.06
391.86	91.06
392.085	89.06
392.31	90.06
392.534	89.06
392.759	90.06
392.984	100.06
393.208	109.06
393.433	145.06
393.658	125.06
393.882	101.06
394.107	83.06
394.331	87.06
394.556	95.06
394.78	108.06
395.005	88.06
395.229	105.06
395.454	88.06
395.678	91.06
395.903	91.06
396.127	90.06
396.352	92.06
396.576	99.06
396.801	115.06
397.025	123.06
397.249	109.06
397.474	86.06
397.698	95.06
397.922	96.06
398.147	95.06
398.371	79.06
398.595	107.06
398.82	97.06
399.044	83.06
399.268	94.06
399.492	99.06
399.717	88.06
399.941	87.06
400.165	99.06
400.389	99.06
400.613	92.06
400.837	100.06
401.062	95.06
401.286	98.06
401.51	95.06
401.734	100.06
401.958	105.06
402.182	136.06
402.406	168.06
402.63	144.06
402.854	104.06
403.078	91.06
403.302	95.06
403.526	90.06
403.75	72.06
403.974	98.06
404.198	87.06
404.422	89.06
404.645	95.06
404.869	96.06
405.093	101.06
405.317	85.06
405.541	98.06
405.765	107.06
405.988	132.06
406.212	183.06
406.436	249.06
406.66	166.06
406.883	107.06
407.107	102.06
407.331	93.06
407.555	109.06
407.778	103.06
408.002	90.06
408.226	86.06
408.449	111.06
408.673	90.06
408.896	101.06
409.12	87.06
409.344	80.06
409.567	92.06
409.791	85.06
410.014	100.06
410.238	92.06
410.461	99.06
410.685	103.06
410.908	102.06
411.132	92.06
411.355	107.06
411.578	109.06
411.802	109.06
412.025	105.06
412.249	81.06
412.472	87.06
412.695	90.06
412.919	95.06
413.142	98.06
413.365	74.06
413.589	87.06
413.812	98.06
414.035	95.06
414.258	98.06
414.482	122.06
414.705	86.06
414.928	102.06
415.151	107.06
415.374	103.06
415.597	108.06
415.821	92.06
416.044	96.06
416.267	97.06
416.49	98.06
416.713	93.06
416.936	108.06
417.159	97.06
417.382	87.06
417.605	85.06
417.828	104.06
418.051	105.06
418.274	83.06
418.497	91.06
418.72	94.06
418.943	104.06
419.166	108.06
419.389	83.06
419.611	106.06
419.834	105.06
420.057	102.06
420.28	88.06
420.503	93.06
420.726	92.06
420.948	102.06
421.171	108.06
421.394	108.06
421.617	102.06
421.839	84.06
422.062	95.06
422.285	119.06
422.507	99.06
422.73	139.06
422.953	122.06
423.175	95.06
423.398	106.06
423.621	93.06
423.843	98.06
424.066	93.06
424.288	84.06
424.511	92.06
424.733	104.06
424.956	119.06
425.178	93.06
425.401	110.06
425.623	109.06
425.846	97.06
426.068	78.06
426.291	83.06
426.513	87.06
426.735	85.06
426.958	106.06
427.18	107.06
427.402	143.06
427.625	157.06
427.847	133.06
428.069	110.06
428.292	93.06
428.514	92.06
428.736	92.06
428.958	92.06
429.181	86.06
429.403	97.06
429.625	101.06
429.847	92.06
430.069	105.06
430.292	93.06
430.514	107.06
430.736	83.06
430.958	75.06
431.18	86.06
431.402	85.06
431.624	89.06
431.846	94.06
432.068	86.06
432.29	98.06
432.512	90.06
432.734	90.06
432.956	95.06
433.178	90.06
433.4	117.06
433.622	82.06
433.844	86.06
434.066	86.06
434.287	79.06
434.509	77.06
434.731	97.06
434.953	95.06
435.175	91.06
435.397	77.06
435.618	94.06
435.84	100.06
436.062	130.06
436.284	128.06
436.505	97.06
436.727	101.06
436.949	99.06
437.17	87.06
437.392	90.06
437.614	94.06
437.835	101.06
438.057	123.06
438.278	108.06
438.5	116.06
438.721	123.06
438.943	118.06
439.165	93.06
439.386	93.06
439.608	92.06
439.829	106.06
440.05	147.06
440.272	154.06
440.493	98.06
440.715	95.06
440.936	92.06
441.158	83.06
441.379	93.06
441.6	105.06
441.822	85.06
442.043	96.06
442.264	92.06
442.486	104.06
442.707	93.06
442.928	110.06
443.149	138.06
443.371	136.06
443.592	107.06
443.813	120.06
444.034	102.06
444.255	86.06
444.476	79.06
444.698	98.06
444.919	102.06
445.14	142.06
445.361	135.06
445.582	138.06
445.803	156.06
446.024	155.06
446.245	152.06
446.466	110.06
446.687	98.06
446.908	76.06
447.129	92.06
447.35	86.06
447.571	78.06
447.792	99.06
448.013	85.06
448.234	119.06
448.455	111.06
448.675	126.06
448.896	114.06
449.117	105.06
449.338	107.06
449.559	125.06
449.779	152.06
450	99.06
450.221	95.06
450.442	94.06
450.662	105.06
450.883	119.06
451.104	114.06
451.324	100.06
451.545	98.06
451.766	88.06
451.986	87.06
452.207	101.06
452.428	101.06
452.648	106.06
452.869	123.06
453.089	126.06
453.31	127.06
453.53	90.06
453.751	101.06
453.971	109.06
454.192	122.06
454.412	100.06
454.633	89.06
454.853	97.06
455.073	95.06
455.294	90.06
455.514	100.06
455.734	97.06
455.955	82.06
456.175	85.06
456.395	80.06
456.616	82.06
456.836	84.06
457.056	93.06
457.276	83.06
457.497	94.06
457.717	102.06
457.937	99.06
458.157	94.06
458.377	75.06
458.598	105.06
458.818	172.06
459.038	175.06
459.258	134.06
459.478	100.06
459.698	94.06
459.918	99.06
460.138	108.06
460.358	101.06
460.578	82.06
460.798	84.06
461.018	110.06
461.238	89.06
461.458	82.06
461.678	95.06
461.898	79.06
462.118	84.06
462.338	76.06
462.558	76.06
462.777	84.06
462.997	85.06
463.217	88.06
463.437	89.06
463.657	86.06
463.876	79.06
464.096	93.06
464.316	98.06
464.536	93.06
464.755	108.06
464.975	105.06
465.195	169.06
465.414	168.06
465.634	101.06
465.854	92.06
466.073	93.06
466.293	95.06
466.512	83.06
466.732	79.06
466.951	88.06
467.171	99.06
467.391	87.06
467.61	100.06
467.829	87.06
468.049	79.06
468.268	86.06
468.488	78.06
468.707	90.06
468.927	78.06
469.146	83.06
469.365	85.06
469.585	98.06
469.804	96.06
470.023	102.06
470.243	99.06
470.462	98.06
470.681	129.06
470.901	87.06
471.12	94.06
471.339	88.06
471.558	95.06
471.777	87.06
471.997	85.06
472.216	86.06
472.435	102.06
472.654	86.06
472.873	102.06
473.092	94.06
473.311	78.06
473.53	98.06
473.749	86.06
473.968	97.06
474.187	94.06
474.406	105.06
474.625	80.06
474.844	95.06
475.063	80.06
475.282	93.06
475.501	96.06
475.72	92.06
475.939	88.06
476.158	88.06
476.377	84.06
476.596	80.06
476.814	112.06
477.033	90.06
477.252	93.06
477.471	89.06
477.69	95.06
477.908	92.06
478.127	101.06
478.346	98.06
478.564	89.06
478.783	102.06
479.002	95.06
479.22	99.06
479.439	110.06
479.658	118.06
479.876	102.06
480.095	77.06
480.313	95.06
480.532	84.06
480.751	98.06
480.969	88.06
481.188	126.06
481.406	114.06
481.624	96.06
481.843	78.06
482.061	91.06
482.28	106.06
482.498	106.06
482.717	100.06
482.935	90.06
483.153	87.06
483.372	92.06
483.59	89.06
483.808	81.06
484.027	93.06
484.245	99.06
484.463	98.06
484.681	100.06
484.9	88.06
485.118	102.06
485.336	94.06
485.554	104.06
485.772	92.06
485.99	116.06
486.209	130.06
486.427	119.06
486.645	122.06
486.863	119.06
487.081	120.06
487.299	101.06
487.517	104.06
487.735	96.06
487.953	113.06
488.171	100.06
488.389	99.06
488.607	116.06
488.825	94.06
489.043	95.06
489.261	92.06
489.479	87.06
489.696	87.06
489.914	77.06
490.132	80.06
490.35	95.06
490.568	109.06
490.786	81.06
491.003	91.06
491.221	88.06
491.439	85.06
491.657	94.06
491.874	92.06
492.092	82.06
492.31	96.06
492.527	106.06
492.745	87.06
492.963	91.06
493.18	103.06
493.398	97.06
493.615	86.06
493.833	104.06
494.05	95.06
494.268	94.06
494.485	106.06
494.703	83.06
494.92	95.06
495.138	91.06
495.355	107.06
495.573	98.06
495.79	100.06
496.008	103.06
496.225	87.06
496.442	97.06
496.66	88.06
496.877	99.06
497.094	78.06
497.312	92.06
497.529	90.06
497.746	96.06
497.963	92.06
498.181	109.06
498.398	98.06
498.615	135.06
498.832	104.06
499.049	93.06
499.267	89.06
499.484	83.06
499.701	75.06
499.918	97.06
500.135	75.06
500.352	76.06
500.569	100.06
500.786	93.06
501.003	100.06
501.22	96.06
501.437	90.06
501.654	99.06
501.871	103.06
502.088	86.06
502.305	91.06
502.522	92.06
502.739	86.06
502.956	84.06
503.172	94.06
503.389	104.06
503.606	112.06
503.823	112.06
504.04	92.06
504.256	78.06
504.473	90.06
504.69	94.06
504.907	104.06
505.123	96.06
505.34	85.06
505.557	91.06
505.773	101.06
505.99	90.06
506.207	91.06
506.423	88.06
506.64	94.06
506.856	98.06
507.073	95.06
507.289	93.06
507.506	87.06
507.722	108.06
507.939	130.06
508.155	105.06
508.372	93.06
508.588	98.06
508.805	94.06
509.021	104.06
509.238	110.06
509.454	96.06
509.67	114.06
509.887	122.06
510.103	139.06
510.319	232.06
510.536	898.06
510.752	3050.06
510.968	862.06
511.184	178.06
511.401	122.06
511.617	112.06
511.833	107.06
512.049	103.06
512.265	92.06
512.481	93.06
512.698	101.06
512.914	86.06
513.13	96.06
