Data from Circ_2016_H10_HRD10591_00027.txt Node
Date: Wed Jan 03 09:58:46 EST 2024
User: Yrep
Spectrometer: HR+D1059
Trigger mode: 1
Integration Time (sec): 1.000000E-1
Scans to average: 1
Electric dark correction enabled: true
Nonlinearity correction enabled: false
Boxcar width: 0
XAxis mode: Wavelengths
Number of Pixels in Spectrum: 2048
>>>>>Begin Spectral Data<<<<<
223.165	-17.06
223.4	-17.06
223.635	-17.06
223.869	-19.06
224.104	-26.06
224.338	-16.06
224.573	-12.06
224.808	-13.06
225.042	-8.06
225.277	-1.06
225.511	3.94
225.746	0.94
225.98	9.94
226.215	5.94
226.449	18.94
226.683	19.94
226.918	20.94
227.152	31.94
227.387	32.94
227.621	31.94
227.856	42.94
228.09	43.94
228.324	47.94
228.559	58.94
228.793	57.94
229.027	83.94
229.262	64.94
229.496	70.94
229.73	76.94
229.964	85.94
230.199	80.94
230.433	78.94
230.667	77.94
230.901	85.94
231.136	86.94
231.37	91.94
231.604	95.94
231.838	84.94
232.072	84.94
232.306	84.94
232.541	95.94
232.775	88.94
233.009	84.94
233.243	87.94
233.477	92.94
233.711	84.94
233.945	77.94
234.179	74.94
234.413	86.94
234.647	83.94
234.881	76.94
235.115	86.94
235.349	75.94
235.583	74.94
235.817	74.94
236.051	87.94
236.285	81.94
236.519	76.94
236.753	84.94
236.987	80.94
237.221	84.94
237.455	81.94
237.689	74.94
237.922	87.94
238.156	79.94
238.39	68.94
238.624	76.94
238.858	79.94
239.091	79.94
239.325	80.94
239.559	86.94
239.793	87.94
240.027	78.94
240.26	79.94
240.494	81.94
240.728	72.94
240.961	86.94
241.195	80.94
241.429	66.94
241.662	74.94
241.896	83.94
242.13	78.94
242.363	76.94
242.597	80.94
242.83	75.94
243.064	80.94
243.298	70.94
243.531	89.94
243.765	80.94
243.998	74.94
244.232	87.94
244.465	80.94
244.699	92.94
244.932	89.94
245.166	86.94
245.399	82.94
245.633	83.94
245.866	93.94
246.099	78.94
246.333	71.94
246.566	72.94
246.8	78.94
247.033	63.94
247.266	76.94
247.5	82.94
247.733	74.94
247.966	78.94
248.2	83.94
248.433	72.94
248.666	85.94
248.899	85.94
249.133	73.94
249.366	116.94
249.599	107.94
249.832	84.94
250.066	75.94
250.299	91.94
250.532	85.94
250.765	91.94
250.998	87.94
251.231	71.94
251.465	80.94
251.698	97.94
251.931	82.94
252.164	76.94
252.397	83.94
252.63	88.94
252.863	79.94
253.096	91.94
253.329	69.94
253.562	88.94
253.795	88.94
254.028	74.94
254.261	68.94
254.494	89.94
254.727	96.94
254.96	88.94
255.193	85.94
255.426	76.94
255.659	66.94
255.892	87.94
256.124	88.94
256.357	70.94
256.59	73.94
256.823	72.94
257.056	79.94
257.289	93.94
257.521	80.94
257.754	90.94
257.987	69.94
258.22	87.94
258.452	76.94
258.685	91.94
258.918	98.94
259.151	80.94
259.383	74.94
259.616	84.94
259.849	89.94
260.081	87.94
260.314	87.94
260.547	83.94
260.779	84.94
261.012	85.94
261.244	93.94
261.477	95.94
261.71	96.94
261.942	118.94
262.175	130.94
262.407	97.94
262.64	83.94
262.872	90.94
263.105	86.94
263.337	94.94
263.57	84.94
263.802	90.94
264.035	83.94
264.267	83.94
264.499	84.94
264.732	82.94
264.964	85.94
265.197	78.94
265.429	86.94
265.661	71.94
265.894	89.94
266.126	91.94
266.358	94.94
266.591	95.94
266.823	80.94
267.055	79.94
267.287	80.94
267.52	90.94
267.752	99.94
267.984	87.94
268.216	89.94
268.448	87.94
268.681	77.94
268.913	88.94
269.145	92.94
269.377	83.94
269.609	85.94
269.841	96.94
270.073	92.94
270.306	94.94
270.538	79.94
270.77	72.94
271.002	85.94
271.234	89.94
271.466	84.94
271.698	84.94
271.93	82.94
272.162	75.94
272.394	86.94
272.626	85.94
272.858	95.94
273.09	81.94
273.322	76.94
273.553	88.94
273.785	96.94
274.017	93.94
274.249	84.94
274.481	72.94
274.713	95.94
274.945	84.94
275.176	91.94
275.408	85.94
275.64	93.94
275.872	92.94
276.104	91.94
276.335	85.94
276.567	100.94
276.799	102.94
277.031	98.94
277.262	92.94
277.494	90.94
277.726	97.94
277.957	93.94
278.189	94.94
278.421	94.94
278.652	93.94
278.884	85.94
279.115	95.94
279.347	87.94
279.579	77.94
279.81	80.94
280.042	92.94
280.273	101.94
280.505	96.94
280.736	86.94
280.968	85.94
281.199	84.94
281.431	79.94
281.662	96.94
281.894	92.94
282.125	116.94
282.356	126.94
282.588	149.94
282.819	111.94
283.051	84.94
283.282	75.94
283.513	93.94
283.745	96.94
283.976	96.94
284.207	82.94
284.439	83.94
284.67	92.94
284.901	85.94
285.132	86.94
285.364	92.94
285.595	83.94
285.826	85.94
286.057	84.94
286.288	88.94
286.52	94.94
286.751	80.94
286.982	86.94
287.213	84.94
287.444	91.94
287.675	84.94
287.906	103.94
288.138	90.94
288.369	89.94
288.6	101.94
288.831	90.94
289.062	83.94
289.293	82.94
289.524	87.94
289.755	89.94
289.986	83.94
290.217	86.94
290.448	72.94
290.679	82.94
290.91	90.94
291.141	80.94
291.371	96.94
291.602	90.94
291.833	84.94
292.064	82.94
292.295	90.94
292.526	86.94
292.757	88.94
292.987	87.94
293.218	94.94
293.449	80.94
293.68	87.94
293.91	102.94
294.141	84.94
294.372	92.94
294.603	78.94
294.833	90.94
295.064	96.94
295.295	88.94
295.525	88.94
295.756	101.94
295.987	122.94
296.217	141.94
296.448	126.94
296.679	94.94
296.909	104.94
297.14	87.94
297.37	84.94
297.601	90.94
297.831	83.94
298.062	101.94
298.292	82.94
298.523	98.94
298.753	85.94
298.984	103.94
299.214	90.94
299.445	100.94
299.675	91.94
299.905	90.94
300.136	101.94
300.366	92.94
300.597	85.94
300.827	90.94
301.057	100.94
301.288	86.94
301.518	103.94
301.748	92.94
301.979	111.94
302.209	90.94
302.439	97.94
302.669	95.94
302.9	90.94
303.13	97.94
303.36	101.94
303.59	99.94
303.82	105.94
304.051	90.94
304.281	91.94
304.511	83.94
304.741	88.94
304.971	87.94
305.201	92.94
305.431	92.94
305.661	87.94
305.891	89.94
306.121	94.94
306.352	105.94
306.582	98.94
306.812	106.94
307.042	84.94
307.272	84.94
307.502	85.94
307.731	97.94
307.961	90.94
308.191	89.94
308.421	102.94
308.651	87.94
308.881	99.94
309.111	104.94
309.341	111.94
309.571	107.94
309.8	93.94
310.03	107.94
310.26	91.94
310.49	108.94
310.72	108.94
310.949	117.94
311.179	97.94
311.409	93.94
311.639	100.94
311.868	103.94
312.098	82.94
312.328	104.94
312.557	109.94
312.787	107.94
313.017	93.94
313.246	102.94
313.476	79.94
313.706	89.94
313.935	101.94
314.165	104.94
314.394	105.94
314.624	98.94
314.853	101.94
315.083	84.94
315.312	86.94
315.542	85.94
315.771	107.94
316.001	90.94
316.23	100.94
316.46	93.94
316.689	97.94
316.919	95.94
317.148	98.94
317.377	101.94
317.607	101.94
317.836	100.94
318.065	99.94
318.295	98.94
318.524	94.94
318.753	92.94
318.983	102.94
319.212	114.94
319.441	114.94
319.67	114.94
319.9	91.94
320.129	90.94
320.358	102.94
320.587	108.94
320.816	121.94
321.046	119.94
321.275	100.94
321.504	109.94
321.733	82.94
321.962	108.94
322.191	101.94
322.42	114.94
322.649	111.94
322.878	116.94
323.108	127.94
323.337	118.94
323.566	143.94
323.795	165.94
324.024	226.94
324.253	474.94
324.482	1021.94
324.71	2147.94
324.939	2886.94
325.168	1032.94
325.397	290.94
325.626	164.94
325.855	164.94
326.084	136.94
326.313	148.94
326.542	187.94
326.77	266.94
326.999	572.94
327.228	1172.94
327.457	2146.94
327.686	1712.94
327.914	443.94
328.143	217.94
328.372	140.94
328.6	134.94
328.829	130.94
329.058	149.94
329.287	150.94
329.515	109.94
329.744	98.94
329.972	102.94
330.201	111.94
330.43	133.94
330.658	134.94
330.887	158.94
331.115	118.94
331.344	118.94
331.572	113.94
331.801	132.94
332.03	123.94
332.258	101.94
332.486	100.94
332.715	91.94
332.943	109.94
333.172	91.94
333.4	114.94
333.629	103.94
333.857	121.94
334.085	115.94
334.314	103.94
334.542	99.94
334.771	123.94
334.999	115.94
335.227	94.94
335.455	101.94
335.684	98.94
335.912	107.94
336.14	94.94
336.369	109.94
336.597	107.94
336.825	114.94
337.053	104.94
337.281	95.94
337.51	80.94
337.738	92.94
337.966	97.94
338.194	86.94
338.422	104.94
338.65	83.94
338.878	101.94
339.106	90.94
339.334	94.94
339.562	91.94
339.79	90.94
340.018	91.94
340.246	91.94
340.474	102.94
340.702	95.94
340.93	77.94
341.158	98.94
341.386	106.94
341.614	95.94
341.842	107.94
342.07	86.94
342.298	94.94
342.526	82.94
342.754	90.94
342.981	94.94
343.209	96.94
343.437	94.94
343.665	95.94
343.893	91.94
344.12	104.94
344.348	98.94
344.576	98.94
344.804	95.94
345.031	92.94
345.259	110.94
345.487	93.94
345.714	107.94
345.942	91.94
346.17	101.94
346.397	103.94
346.625	90.94
346.853	103.94
347.08	93.94
347.308	95.94
347.535	102.94
347.763	95.94
347.99	101.94
348.218	106.94
348.445	103.94
348.673	101.94
348.9	99.94
349.128	103.94
349.355	95.94
349.583	102.94
349.81	89.94
350.037	104.94
350.265	87.94
350.492	99.94
350.72	101.94
350.947	107.94
351.174	118.94
351.402	111.94
351.629	107.94
351.856	107.94
352.083	125.94
352.311	117.94
352.538	131.94
352.765	105.94
352.992	126.94
353.22	117.94
353.447	131.94
353.674	104.94
353.901	100.94
354.128	104.94
354.355	94.94
354.583	109.94
354.81	106.94
355.037	105.94
355.264	91.94
355.491	104.94
355.718	97.94
355.945	107.94
356.172	101.94
356.399	100.94
356.626	100.94
356.853	87.94
357.08	103.94
357.307	103.94
357.534	84.94
357.761	109.94
357.988	105.94
358.215	98.94
358.441	100.94
358.668	109.94
358.895	102.94
359.122	96.94
359.349	104.94
359.576	106.94
359.802	118.94
360.029	122.94
360.256	116.94
360.483	99.94
360.709	91.94
360.936	96.94
361.163	111.94
361.39	103.94
361.616	99.94
361.843	88.94
362.07	98.94
362.296	103.94
362.523	92.94
362.749	95.94
362.976	91.94
363.203	93.94
363.429	85.94
363.656	99.94
363.882	93.94
364.109	88.94
364.335	91.94
364.562	85.94
364.788	104.94
365.015	104.94
365.241	98.94
365.468	118.94
365.694	100.94
365.92	100.94
366.147	92.94
366.373	87.94
366.599	99.94
366.826	98.94
367.052	101.94
367.278	90.94
367.505	99.94
367.731	99.94
367.957	93.94
368.184	101.94
368.41	102.94
368.636	123.94
368.862	128.94
369.089	101.94
369.315	90.94
369.541	110.94
369.767	112.94
369.993	78.94
370.219	82.94
370.445	82.94
370.672	100.94
370.898	83.94
371.124	103.94
371.35	98.94
371.576	82.94
371.802	100.94
372.028	95.94
372.254	83.94
372.48	87.94
372.706	96.94
372.932	83.94
373.158	91.94
373.384	110.94
373.61	92.94
373.835	83.94
374.061	84.94
374.287	103.94
374.513	107.94
374.739	96.94
374.965	78.94
375.191	88.94
375.416	92.94
375.642	96.94
375.868	105.94
376.094	101.94
376.319	95.94
376.545	90.94
376.771	97.94
376.997	95.94
377.222	101.94
377.448	89.94
377.674	84.94
377.899	115.94
378.125	94.94
378.35	92.94
378.576	101.94
378.802	104.94
379.027	115.94
379.253	106.94
379.478	103.94
379.704	106.94
379.929	100.94
380.155	117.94
380.38	99.94
380.606	105.94
380.831	108.94
381.057	112.94
381.282	96.94
381.507	113.94
381.733	115.94
381.958	112.94
382.184	104.94
382.409	131.94
382.634	136.94
382.86	102.94
383.085	113.94
383.31	140.94
383.535	123.94
383.761	132.94
383.986	109.94
384.211	118.94
384.436	129.94
384.662	137.94
384.887	133.94
385.112	142.94
385.337	147.94
385.562	148.94
385.787	151.94
386.013	149.94
386.238	151.94
386.463	130.94
386.688	137.94
386.913	126.94
387.138	160.94
387.363	143.94
387.588	116.94
387.813	135.94
388.038	155.94
388.263	154.94
388.488	134.94
388.713	118.94
388.938	108.94
389.163	108.94
389.387	112.94
389.612	89.94
389.837	83.94
390.062	98.94
390.287	100.94
390.512	91.94
390.736	97.94
390.961	80.94
391.186	104.94
391.411	101.94
391.636	101.94
391.86	99.94
392.085	75.94
392.31	90.94
392.534	80.94
392.759	95.94
392.984	100.94
393.208	112.94
393.433	132.94
393.658	128.94
393.882	84.94
394.107	90.94
394.331	94.94
394.556	72.94
394.78	94.94
395.005	106.94
395.229	92.94
395.454	85.94
395.678	88.94
395.903	78.94
396.127	103.94
396.352	103.94
396.576	100.94
396.801	114.94
397.025	110.94
397.249	91.94
397.474	88.94
397.698	77.94
397.922	96.94
398.147	94.94
398.371	95.94
398.595	91.94
398.82	84.94
399.044	87.94
399.268	84.94
399.492	102.94
399.717	91.94
399.941	100.94
400.165	96.94
400.389	108.94
400.613	77.94
400.837	95.94
401.062	78.94
401.286	95.94
401.51	97.94
401.734	99.94
401.958	133.94
402.182	125.94
402.406	188.94
402.63	134.94
402.854	95.94
403.078	93.94
403.302	89.94
403.526	90.94
403.75	101.94
403.974	103.94
404.198	93.94
404.422	82.94
404.645	92.94
404.869	85.94
405.093	98.94
405.317	102.94
405.541	95.94
405.765	111.94
405.988	126.94
406.212	186.94
406.436	254.94
406.66	162.94
406.883	110.94
407.107	104.94
407.331	90.94
407.555	98.94
407.778	99.94
408.002	87.94
408.226	98.94
408.449	78.94
408.673	107.94
408.896	81.94
409.12	103.94
409.344	87.94
409.567	95.94
409.791	112.94
410.014	100.94
410.238	90.94
410.461	87.94
410.685	74.94
410.908	92.94
411.132	110.94
411.355	111.94
411.578	107.94
411.802	94.94
412.025	90.94
412.249	101.94
412.472	94.94
412.695	105.94
412.919	94.94
413.142	99.94
413.365	107.94
413.589	98.94
413.812	108.94
414.035	108.94
414.258	101.94
414.482	93.94
414.705	99.94
414.928	98.94
415.151	98.94
415.374	107.94
415.597	101.94
415.821	120.94
416.044	92.94
416.267	92.94
416.49	86.94
416.713	94.94
416.936	93.94
417.159	95.94
417.382	94.94
417.605	99.94
417.828	101.94
418.051	86.94
418.274	92.94
418.497	87.94
418.72	95.94
418.943	83.94
419.166	99.94
419.389	91.94
419.611	109.94
419.834	99.94
420.057	94.94
420.28	84.94
420.503	92.94
420.726	102.94
420.948	84.94
421.171	95.94
421.394	90.94
421.617	99.94
421.839	104.94
422.062	109.94
422.285	85.94
422.507	108.94
422.73	132.94
422.953	125.94
423.175	96.94
423.398	100.94
423.621	91.94
423.843	90.94
424.066	83.94
424.288	101.94
424.511	94.94
424.733	97.94
424.956	116.94
425.178	92.94
425.401	113.94
425.623	104.94
425.846	114.94
426.068	93.94
426.291	100.94
426.513	93.94
426.735	96.94
426.958	95.94
427.18	99.94
427.402	139.94
427.625	164.94
427.847	140.94
428.069	122.94
428.292	90.94
428.514	91.94
428.736	98.94
428.958	105.94
429.181	100.94
429.403	80.94
429.625	84.94
429.847	91.94
430.069	110.94
430.292	105.94
430.514	92.94
430.736	96.94
430.958	104.94
431.18	92.94
431.402	82.94
431.624	91.94
431.846	78.94
432.068	100.94
432.29	90.94
432.512	93.94
432.734	96.94
432.956	104.94
433.178	128.94
433.4	114.94
433.622	85.94
433.844	104.94
434.066	97.94
434.287	91.94
434.509	88.94
434.731	101.94
434.953	100.94
435.175	88.94
435.397	86.94
435.618	98.94
435.84	115.94
436.062	132.94
436.284	121.94
436.505	138.94
436.727	132.94
436.949	107.94
437.17	88.94
437.392	93.94
437.614	103.94
437.835	112.94
438.057	123.94
438.278	123.94
438.5	102.94
438.721	113.94
438.943	117.94
439.165	96.94
439.386	92.94
439.608	95.94
439.829	106.94
440.05	126.94
440.272	139.94
440.493	114.94
440.715	93.94
440.936	95.94
441.158	100.94
441.379	93.94
441.6	86.94
441.822	102.94
442.043	92.94
442.264	114.94
442.486	114.94
442.707	104.94
442.928	122.94
443.149	127.94
443.371	139.94
443.592	114.94
443.813	119.94
444.034	106.94
444.255	93.94
444.476	87.94
444.698	74.94
444.919	91.94
445.14	150.94
445.361	141.94
445.582	132.94
445.803	158.94
446.024	140.94
446.245	143.94
446.466	115.94
446.687	90.94
446.908	97.94
447.129	99.94
447.35	85.94
447.571	103.94
447.792	90.94
448.013	103.94
448.234	116.94
448.455	107.94
448.675	112.94
448.896	130.94
449.117	102.94
449.338	107.94
449.559	123.94
449.779	148.94
450	108.94
450.221	103.94
450.442	95.94
450.662	88.94
450.883	98.94
451.104	107.94
451.324	93.94
451.545	100.94
451.766	80.94
451.986	94.94
452.207	90.94
452.428	97.94
452.648	108.94
452.869	107.94
453.089	114.94
453.31	126.94
453.53	87.94
453.751	96.94
453.971	94.94
454.192	104.94
454.412	107.94
454.633	91.94
454.853	91.94
455.073	101.94
455.294	89.94
455.514	87.94
455.734	87.94
455.955	94.94
456.175	91.94
456.395	101.94
456.616	99.94
456.836	106.94
457.056	86.94
457.276	93.94
457.497	79.94
457.717	86.94
457.937	94.94
458.157	88.94
458.377	94.94
458.598	113.94
458.818	162.94
459.038	171.94
459.258	146.94
459.478	94.94
459.698	82.94
459.918	87.94
460.138	87.94
460.358	99.94
460.578	85.94
460.798	86.94
461.018	74.94
461.238	91.94
461.458	80.94
461.678	89.94
461.898	95.94
462.118	72.94
462.338	100.94
462.558	94.94
462.777	80.94
462.997	95.94
463.217	81.94
463.437	87.94
463.657	90.94
463.876	83.94
464.096	74.94
464.316	84.94
464.536	99.94
464.755	96.94
464.975	101.94
465.195	171.94
465.414	176.94
465.634	110.94
465.854	87.94
466.073	86.94
466.293	85.94
466.512	79.94
466.732	84.94
466.951	85.94
467.171	90.94
467.391	95.94
467.61	95.94
467.829	86.94
468.049	88.94
468.268	99.94
468.488	96.94
468.707	94.94
468.927	91.94
469.146	94.94
469.365	86.94
469.585	100.94
469.804	99.94
470.023	99.94
470.243	99.94
470.462	83.94
470.681	125.94
470.901	90.94
471.12	74.94
471.339	97.94
471.558	93.94
471.777	84.94
471.997	82.94
472.216	100.94
472.435	116.94
472.654	81.94
472.873	99.94
473.092	94.94
473.311	92.94
473.53	70.94
473.749	78.94
473.968	90.94
474.187	101.94
474.406	98.94
474.625	101.94
474.844	89.94
475.063	99.94
475.282	81.94
475.501	84.94
475.72	94.94
475.939	94.94
476.158	79.94
476.377	86.94
476.596	82.94
476.814	98.94
477.033	82.94
477.252	96.94
477.471	93.94
477.69	81.94
477.908	90.94
478.127	106.94
478.346	92.94
478.564	91.94
478.783	107.94
479.002	99.94
479.22	101.94
479.439	99.94
479.658	112.94
479.876	94.94
480.095	95.94
480.313	89.94
480.532	80.94
480.751	84.94
480.969	95.94
481.188	133.94
481.406	121.94
481.624	95.94
481.843	90.94
482.061	89.94
482.28	77.94
482.498	88.94
482.717	95.94
482.935	88.94
483.153	79.94
483.372	103.94
483.59	96.94
483.808	75.94
484.027	95.94
484.245	90.94
484.463	85.94
484.681	104.94
484.9	108.94
485.118	103.94
485.336	109.94
485.554	101.94
485.772	110.94
485.99	97.94
486.209	106.94
486.427	118.94
486.645	110.94
486.863	100.94
487.081	117.94
487.299	99.94
487.517	110.94
487.735	91.94
487.953	107.94
488.171	95.94
488.389	96.94
488.607	89.94
488.825	106.94
489.043	104.94
489.261	91.94
489.479	86.94
489.696	88.94
489.914	102.94
490.132	99.94
490.35	94.94
490.568	100.94
490.786	132.94
491.003	91.94
491.221	92.94
491.439	93.94
491.657	96.94
491.874	108.94
492.092	103.94
492.31	101.94
492.527	76.94
492.745	92.94
492.963	87.94
493.18	89.94
493.398	92.94
493.615	108.94
493.833	87.94
494.05	77.94
494.268	89.94
494.485	84.94
494.703	73.94
494.92	95.94
495.138	84.94
495.355	86.94
495.573	107.94
495.79	84.94
496.008	80.94
496.225	93.94
496.442	99.94
496.66	94.94
496.877	81.94
497.094	90.94
497.312	69.94
497.529	97.94
497.746	107.94
497.963	71.94
498.181	93.94
498.398	107.94
498.615	118.94
498.832	111.94
499.049	89.94
499.267	101.94
499.484	91.94
499.701	88.94
499.918	94.94
500.135	88.94
500.352	88.94
500.569	90.94
500.786	87.94
501.003	93.94
501.22	85.94
501.437	107.94
501.654	79.94
501.871	111.94
502.088	103.94
502.305	93.94
502.522	86.94
502.739	92.94
502.956	95.94
503.172	101.94
503.389	99.94
503.606	115.94
503.823	82.94
504.04	96.94
504.256	98.94
504.473	91.94
504.69	84.94
504.907	80.94
505.123	88.94
505.34	94.94
505.557	89.94
505.773	86.94
505.99	106.94
506.207	97.94
506.423	94.94
506.64	91.94
506.856	74.94
507.073	100.94
507.289	98.94
507.506	89.94
507.722	127.94
507.939	110.94
508.155	100.94
508.372	96.94
508.588	99.94
508.805	96.94
509.021	97.94
509.238	102.94
509.454	84.94
509.67	113.94
509.887	111.94
510.103	138.94
510.319	228.94
510.536	851.94
510.752	2822.94
510.968	806.94
511.184	170.94
511.401	114.94
511.617	102.94
511.833	94.94
512.049	95.94
512.265	93.94
512.481	97.94
512.698	83.94
512.914	94.94
513.13	84.94
513.346	99.94
513.562	109.94
