Data from Circ_2016_H10_HRD10591_00099.txt Node
Date: Wed Jan 03 09:59:00 EST 2024
User: Yrep
Spectrometer: HR+D1059
Trigger mode: 1
Integration Time (sec): 1.000000E-1
Scans to average: 1
Electric dark correction enabled: true
Nonlinearity correction enabled: false
Boxcar width: 0
XAxis mode: Wavelengths
Number of Pixels in Spectrum: 2048
>>>>>Begin Spectral Data<<<<<
223.165	-17.94
223.4	-17.94
223.635	-17.94
223.869	-13.94
224.104	-27.94
224.338	-16.94
224.573	-11.94
224.808	-16.94
225.042	-10.94
225.277	-4.94
225.511	-2.94
225.746	3.06
225.98	5.06
226.215	11.06
226.449	34.06
226.683	16.06
226.918	26.06
227.152	29.06
227.387	35.06
227.621	33.06
227.856	42.06
228.09	44.06
228.324	62.06
228.559	56.06
228.793	157.06
229.027	431.06
229.262	528.06
229.496	625.06
229.73	820.06
229.964	827.06
230.199	539.06
230.433	494.06
230.667	466.06
230.901	455.06
231.136	423.06
231.37	450.06
231.604	451.06
231.838	436.06
232.072	454.06
232.306	459.06
232.541	466.06
232.775	478.06
233.009	484.06
233.243	476.06
233.477	472.06
233.711	506.06
233.945	516.06
234.179	530.06
234.413	506.06
234.647	525.06
234.881	504.06
235.115	536.06
235.349	545.06
235.583	579.06
235.817	599.06
236.051	623.06
236.285	613.06
236.519	604.06
236.753	732.06
236.987	937.06
237.221	1439.06
237.455	1552.06
237.689	918.06
237.922	747.06
238.156	717.06
238.39	675.06
238.624	676.06
238.858	670.06
239.091	668.06
239.325	697.06
239.559	678.06
239.793	725.06
240.027	787.06
240.26	923.06
240.494	981.06
240.728	981.06
240.961	913.06
241.195	796.06
241.429	805.06
241.662	793.06
241.896	768.06
242.13	789.06
242.363	807.06
242.597	828.06
242.83	862.06
243.064	839.06
243.298	867.06
243.531	819.06
243.765	842.06
243.998	885.06
244.232	873.06
244.465	917.06
244.699	907.06
244.932	914.06
245.166	900.06
245.399	917.06
245.633	923.06
245.866	946.06
246.099	915.06
246.333	943.06
246.566	984.06
246.8	1019.06
247.033	1000.06
247.266	1052.06
247.5	1129.06
247.733	1179.06
247.966	1193.06
248.2	1179.06
248.433	1173.06
248.666	1232.06
248.899	1369.06
249.133	1497.06
249.366	1488.06
249.599	1394.06
249.832	1301.06
250.066	1312.06
250.299	1484.06
250.532	1708.06
250.765	1821.06
250.998	1913.06
251.231	1785.06
251.465	1585.06
251.698	1479.06
251.931	1509.06
252.164	1430.06
252.397	1444.06
252.63	1468.06
252.863	1611.06
253.096	1725.06
253.329	1775.06
253.562	1669.06
253.795	1627.06
254.028	1620.06
254.261	1683.06
254.494	1890.06
254.727	2264.06
254.96	2334.06
255.193	2076.06
255.426	1919.06
255.659	1883.06
255.892	2158.06
256.124	2465.06
256.357	2251.06
256.59	1972.06
256.823	1791.06
257.056	1697.06
257.289	1671.06
257.521	1625.06
257.754	1609.06
257.987	1605.06
258.22	1623.06
258.452	1602.06
258.685	1636.06
258.918	1621.06
259.151	1635.06
259.383	1753.06
259.616	1732.06
259.849	1828.06
260.081	2036.06
260.314	2175.06
260.547	2063.06
260.779	1905.06
261.012	1822.06
261.244	1748.06
261.477	1750.06
261.71	1758.06
261.942	1801.06
262.175	1860.06
262.407	1771.06
262.64	1669.06
262.872	1683.06
263.105	1664.06
263.337	1702.06
263.57	1691.06
263.802	1729.06
264.035	1706.06
264.267	1694.06
264.499	1661.06
264.732	1698.06
264.964	1729.06
265.197	1761.06
265.429	1742.06
265.661	1751.06
265.894	1751.06
266.126	1784.06
266.358	1765.06
266.591	1783.06
266.823	1896.06
267.055	1907.06
267.287	1917.06
267.52	1856.06
267.752	1894.06
267.984	1903.06
268.216	1945.06
268.448	1993.06
268.681	2007.06
268.913	2172.06
269.145	2417.06
269.377	2395.06
269.609	2379.06
269.841	2293.06
270.073	2442.06
270.306	2711.06
270.538	2878.06
270.77	2699.06
271.002	2546.06
271.234	2507.06
271.466	2685.06
271.698	2814.06
271.93	2750.06
272.162	2791.06
272.394	2764.06
272.626	2535.06
272.858	2411.06
273.09	2301.06
273.322	2303.06
273.553	2277.06
273.785	2258.06
274.017	2315.06
274.249	2297.06
274.481	2299.06
274.713	2355.06
274.945	2341.06
275.176	2351.06
275.408	2337.06
275.64	2351.06
275.872	2369.06
276.104	2386.06
276.335	2421.06
276.567	2507.06
276.799	2699.06
277.031	2922.06
277.262	3034.06
277.494	2873.06
277.726	2699.06
277.957	2598.06
278.189	2532.06
278.421	2477.06
278.652	2442.06
278.884	2453.06
279.115	2416.06
279.347	2421.06
279.579	2415.06
279.81	2467.06
280.042	2485.06
280.273	2497.06
280.505	2516.06
280.736	2496.06
280.968	2486.06
281.199	2545.06
281.431	2557.06
281.662	2550.06
281.894	2554.06
282.125	2596.06
282.356	2778.06
282.588	2926.06
282.819	2724.06
283.051	2616.06
283.282	2563.06
283.513	2602.06
283.745	2701.06
283.976	2745.06
284.207	2717.06
284.439	2706.06
284.67	2663.06
284.901	2685.06
285.132	2669.06
285.364	2682.06
285.595	2655.06
285.826	2722.06
286.057	2746.06
286.288	2687.06
286.52	2710.06
286.751	2691.06
286.982	2771.06
287.213	2809.06
287.444	2807.06
287.675	2902.06
287.906	3005.06
288.138	3008.06
288.369	2949.06
288.6	2976.06
288.831	2924.06
289.062	2869.06
289.293	2905.06
289.524	2836.06
289.755	2855.06
289.986	2842.06
290.217	2888.06
290.448	2876.06
290.679	2869.06
290.91	2830.06
291.141	2833.06
291.371	2868.06
291.602	2849.06
291.833	2816.06
292.064	2845.06
292.295	2828.06
292.526	2830.06
292.757	2850.06
292.987	2836.06
293.218	2887.06
293.449	2915.06
293.68	2908.06
293.91	2875.06
294.141	2870.06
294.372	2859.06
294.603	2897.06
294.833	2913.06
295.064	2898.06
295.295	2957.06
295.525	3013.06
295.756	2983.06
295.987	3017.06
296.217	3297.06
296.448	3183.06
296.679	2978.06
296.909	2998.06
297.14	2981.06
297.37	3075.06
297.601	3092.06
297.831	3122.06
298.062	3111.06
298.292	3165.06
298.523	3137.06
298.753	3174.06
298.984	3131.06
299.214	3149.06
299.445	3110.06
299.675	3154.06
299.905	3183.06
300.136	3191.06
300.366	3237.06
300.597	3227.06
300.827	3367.06
301.057	3397.06
301.288	3509.06
301.518	3341.06
301.748	3418.06
301.979	3433.06
302.209	3447.06
302.439	3424.06
302.669	3385.06
302.9	3391.06
303.13	3363.06
303.36	3420.06
303.59	3416.06
303.82	3499.06
304.051	3387.06
304.281	3394.06
304.511	3345.06
304.741	3348.06
304.971	3341.06
305.201	3278.06
305.431	3385.06
305.661	3318.06
305.891	3299.06
306.121	3313.06
306.352	3411.06
306.582	3316.06
306.812	3279.06
307.042	3416.06
307.272	3381.06
307.502	3385.06
307.731	3374.06
307.961	3376.06
308.191	3409.06
308.421	3345.06
308.651	3356.06
308.881	3406.06
309.111	3382.06
309.341	3440.06
309.571	3557.06
309.8	3619.06
310.03	3724.06
310.26	3698.06
310.49	3685.06
310.72	3846.06
310.949	3917.06
311.179	3841.06
311.409	3782.06
311.639	3761.06
311.868	3770.06
312.098	3786.06
312.328	3891.06
312.557	4039.06
312.787	4080.06
313.017	4053.06
313.246	3910.06
313.476	3832.06
313.706	3877.06
313.935	3939.06
314.165	4055.06
314.394	4059.06
314.624	3980.06
314.853	3949.06
315.083	3838.06
315.312	3818.06
315.542	3870.06
315.771	3789.06
316.001	3773.06
316.23	3769.06
316.46	3760.06
316.689	3847.06
316.919	3874.06
317.148	3897.06
317.377	3830.06
317.607	3785.06
317.836	3784.06
318.065	3755.06
318.295	3738.06
318.524	3759.06
318.753	3763.06
318.983	3752.06
319.212	3753.06
319.441	3850.06
319.67	3867.06
319.9	3807.06
320.129	3787.06
320.358	3798.06
320.587	3811.06
320.816	3911.06
321.046	3934.06
321.275	3988.06
321.504	3971.06
321.733	4014.06
321.962	4050.06
322.191	4211.06
322.42	4314.06
322.649	4363.06
322.878	4433.06
323.108	4490.06
323.337	4757.06
323.566	4970.06
323.795	5298.06
324.024	5951.06
324.253	7995.06
324.482	12224.06
324.71	15597.06
324.939	15597.06
325.168	13867.06
325.397	7057.06
325.626	5581.06
325.855	5071.06
326.084	4982.06
326.313	5038.06
326.542	5204.06
326.77	6020.06
326.999	7719.06
327.228	11425.06
327.457	15255.06
327.686	14541.06
327.914	8050.06
328.143	6683.06
328.372	6317.06
328.6	5925.06
328.829	5699.06
329.058	5823.06
329.287	5762.06
329.515	5564.06
329.744	5449.06
329.972	5858.06
330.201	6504.06
330.43	6988.06
330.658	6576.06
330.887	6508.06
331.115	5849.06
331.344	5393.06
331.572	5230.06
331.801	5343.06
332.03	5326.06
332.258	5248.06
332.486	5211.06
332.715	5251.06
332.943	5444.06
333.172	5706.06
333.4	5820.06
333.629	6060.06
333.857	6342.06
334.085	6801.06
334.314	7435.06
334.542	8096.06
334.771	7769.06
334.999	6298.06
335.227	5897.06
335.455	5495.06
335.684	5397.06
335.912	5288.06
336.14	5175.06
336.369	5129.06
336.597	5254.06
336.825	5052.06
337.053	5029.06
337.281	4935.06
337.51	4867.06
337.738	4859.06
337.966	4792.06
338.194	4919.06
338.422	4755.06
338.65	4694.06
338.878	4642.06
339.106	4594.06
339.334	4629.06
339.562	4528.06
339.79	4531.06
340.018	4546.06
340.246	4564.06
340.474	4614.06
340.702	4535.06
340.93	4508.06
341.158	4603.06
341.386	4535.06
341.614	4513.06
341.842	4512.06
342.07	4447.06
342.298	4361.06
342.526	4375.06
342.754	4419.06
342.981	4392.06
343.209	4552.06
343.437	4744.06
343.665	5018.06
343.893	5197.06
344.12	5226.06
344.348	5003.06
344.576	4911.06
344.804	4787.06
345.031	4772.06
345.259	4708.06
345.487	4610.06
345.714	4435.06
345.942	4404.06
346.17	4315.06
346.397	4306.06
346.625	4300.06
346.853	4283.06
347.08	4243.06
347.308	4330.06
347.535	4424.06
347.763	4472.06
347.99	4399.06
348.218	4464.06
348.445	4485.06
348.673	4367.06
348.9	4283.06
349.128	4214.06
349.355	4173.06
349.583	4139.06
349.81	4204.06
350.037	4147.06
350.265	4106.06
350.492	4109.06
350.72	4153.06
350.947	4185.06
351.174	4335.06
351.402	4266.06
351.629	4278.06
351.856	4281.06
352.083	4325.06
352.311	4452.06
352.538	4359.06
352.765	4344.06
352.992	4271.06
353.22	4237.06
353.447	4193.06
353.674	4135.06
353.901	4116.06
354.128	4090.06
354.355	4093.06
354.583	4121.06
354.81	4025.06
355.037	4082.06
355.264	3978.06
355.491	4006.06
355.718	3975.06
355.945	3981.06
356.172	3986.06
356.399	3933.06
356.626	4016.06
356.853	4070.06
357.08	4025.06
357.307	4088.06
357.534	4016.06
357.761	4034.06
357.988	4095.06
358.215	4005.06
358.441	4043.06
358.668	4027.06
358.895	4185.06
359.122	4185.06
359.349	4236.06
359.576	4397.06
359.802	4622.06
360.029	4823.06
360.256	4731.06
360.483	4594.06
360.709	4341.06
360.936	4337.06
361.163	4233.06
361.39	4335.06
361.616	4366.06
361.843	4271.06
362.07	4322.06
362.296	4328.06
362.523	4212.06
362.749	4319.06
362.976	4207.06
363.203	4165.06
363.429	4125.06
363.656	4193.06
363.882	4148.06
364.109	4103.06
364.335	4063.06
364.562	4107.06
364.788	4130.06
365.015	4153.06
365.241	4186.06
365.468	4136.06
365.694	4193.06
365.92	4194.06
366.147	4146.06
366.373	4158.06
366.599	4114.06
366.826	4097.06
367.052	4123.06
367.278	4182.06
367.505	4218.06
367.731	4260.06
367.957	4178.06
368.184	4215.06
368.41	4292.06
368.636	4386.06
368.862	4379.06
369.089	4230.06
369.315	4232.06
369.541	4277.06
369.767	4231.06
369.993	4311.06
370.219	4248.06
370.445	4305.06
370.672	4293.06
370.898	4314.06
371.124	4320.06
371.35	4397.06
371.576	4431.06
371.802	4389.06
372.028	4355.06
372.254	4395.06
372.48	4399.06
372.706	4444.06
372.932	4631.06
373.158	4519.06
373.384	4479.06
373.61	4391.06
373.835	4433.06
374.061	4458.06
374.287	4460.06
374.513	4586.06
374.739	4735.06
374.965	4782.06
375.191	4815.06
375.416	4667.06
375.642	4623.06
375.868	4621.06
376.094	4463.06
376.319	4436.06
376.545	4465.06
376.771	4388.06
376.997	4410.06
377.222	4339.06
377.448	4350.06
377.674	4388.06
377.899	4320.06
378.125	4319.06
378.35	4322.06
378.576	4330.06
378.802	4337.06
379.027	4277.06
379.253	4355.06
379.478	4361.06
379.704	4361.06
379.929	4339.06
380.155	4320.06
380.38	4419.06
380.606	4447.06
380.831	4365.06
381.057	4426.06
381.282	4379.06
381.507	4385.06
381.733	4439.06
381.958	4461.06
382.184	4602.06
382.409	4621.06
382.634	4612.06
382.86	4657.06
383.085	4639.06
383.31	4676.06
383.535	4889.06
383.761	4906.06
383.986	4925.06
384.211	4954.06
384.436	5057.06
384.662	5171.06
384.887	5223.06
385.112	5264.06
385.337	5288.06
385.562	5247.06
385.787	5257.06
386.013	5398.06
386.238	5354.06
386.463	5328.06
386.688	5331.06
386.913	5205.06
387.138	5182.06
387.363	5255.06
387.588	5192.06
387.813	5188.06
388.038	5134.06
388.263	5227.06
388.488	5216.06
388.713	5184.06
388.938	5178.06
389.163	5218.06
389.387	5171.06
389.612	5097.06
389.837	5146.06
390.062	5106.06
390.287	5116.06
390.512	5130.06
390.736	5156.06
390.961	5285.06
391.186	5415.06
391.411	5509.06
391.636	5644.06
391.86	5779.06
392.085	5815.06
392.31	5681.06
392.534	5610.06
392.759	5570.06
392.984	5457.06
393.208	5468.06
393.433	5473.06
393.658	5344.06
393.882	5393.06
394.107	5412.06
394.331	5434.06
394.556	5509.06
394.78	5466.06
395.005	5566.06
395.229	5520.06
395.454	5747.06
395.678	5876.06
395.903	5865.06
396.127	5921.06
396.352	5734.06
396.576	5548.06
396.801	5458.06
397.025	5588.06
397.249	5721.06
397.474	5848.06
397.698	5848.06
397.922	5999.06
398.147	6143.06
398.371	6231.06
398.595	6312.06
398.82	6658.06
399.044	7195.06
399.268	7912.06
399.492	8983.06
399.717	9571.06
399.941	9316.06
400.165	8860.06
400.389	8281.06
400.613	7227.06
400.837	6878.06
401.062	6747.06
401.286	6509.06
401.51	6494.06
401.734	6565.06
401.958	6642.06
402.182	6826.06
402.406	6815.06
402.63	6883.06
402.854	7069.06
403.078	7093.06
403.302	7246.06
403.526	7338.06
403.75	7342.06
403.974	7436.06
404.198	7535.06
404.422	7621.06
404.645	7518.06
404.869	7646.06
405.093	8083.06
405.317	8517.06
405.541	8381.06
405.765	7659.06
405.988	7459.06
406.212	7571.06
406.436	7804.06
406.66	7833.06
406.883	7823.06
407.107	8468.06
407.331	9003.06
407.555	9439.06
407.778	9175.06
408.002	8380.06
408.226	8000.06
408.449	7879.06
408.673	7689.06
408.896	7874.06
409.12	8043.06
409.344	7579.06
409.567	7222.06
409.791	7247.06
410.014	7091.06
410.238	7047.06
410.461	7122.06
410.685	7123.06
410.908	7287.06
411.132	7398.06
411.355	7522.06
411.578	7113.06
411.802	6928.06
412.025	7022.06
412.249	7298.06
412.472	7715.06
412.695	7977.06
412.919	7360.06
413.142	7024.06
413.365	6808.06
413.589	6791.06
413.812	6604.06
414.035	6444.06
414.258	6527.06
414.482	6481.06
414.705	6575.06
414.928	6556.06
415.151	6489.06
415.374	6468.06
415.597	6415.06
415.821	6314.06
416.044	6427.06
416.267	6325.06
416.49	6283.06
416.713	6170.06
416.936	6317.06
417.159	6335.06
417.382	6470.06
417.605	6537.06
417.828	6677.06
418.051	6694.06
418.274	6674.06
418.497	6380.06
418.72	6655.06
418.943	6532.06
419.166	7004.06
419.389	7427.06
419.611	7303.06
419.834	7085.06
420.057	7123.06
420.28	7082.06
420.503	6935.06
420.726	6829.06
420.948	6845.06
421.171	7276.06
421.394	7254.06
421.617	6651.06
421.839	6652.06
422.062	6763.06
422.285	6867.06
422.507	7549.06
422.73	8079.06
422.953	7448.06
423.175	7090.06
423.398	7114.06
423.621	7027.06
423.843	7334.06
424.066	7274.06
424.288	7223.06
424.511	7347.06
424.733	7902.06
424.956	8370.06
425.178	7884.06
425.401	8047.06
425.623	7851.06
425.846	6931.06
426.068	6796.06
426.291	6686.06
426.513	6698.06
426.735	6840.06
426.958	7313.06
427.18	8187.06
427.402	9377.06
427.625	9601.06
427.847	8309.06
428.069	7643.06
428.292	6864.06
428.514	6289.06
428.736	6213.06
428.958	6096.06
429.181	5909.06
429.403	5946.06
429.625	6181.06
429.847	6418.06
430.069	7007.06
430.292	6584.06
430.514	5978.06
430.736	5984.06
430.958	5892.06
431.18	5713.06
431.402	5744.06
431.624	5773.06
431.846	5789.06
432.068	5835.06
432.29	5891.06
432.512	5823.06
432.734	5882.06
432.956	5887.06
433.178	6005.06
433.4	5930.06
433.622	5815.06
433.844	5833.06
434.066	5905.06
434.287	6009.06
434.509	6193.06
434.731	6406.06
434.953	6503.06
435.175	6620.06
435.397	6865.06
435.618	6815.06
435.84	7211.06
436.062	8034.06
436.284	7964.06
436.505	6713.06
436.727	6351.06
436.949	6082.06
437.17	5972.06
437.392	5845.06
437.614	6091.06
437.835	6516.06
438.057	7568.06
438.278	8331.06
438.5	8191.06
438.721	8988.06
438.943	7894.06
439.165	6463.06
439.386	6361.06
439.608	6435.06
439.829	6534.06
440.05	6967.06
440.272	7247.06
440.493	6554.06
440.715	6250.06
440.936	6131.06
441.158	6234.06
441.379	6342.06
441.6	6621.06
441.822	6923.06
442.043	7407.06
442.264	8222.06
442.486	7892.06
442.707	6957.06
442.928	6733.06
443.149	7061.06
443.371	7402.06
443.592	7769.06
443.813	8864.06
444.034	8771.06
444.255	7641.06
444.476	7397.06
444.698	7559.06
444.919	7669.06
445.14	7447.06
445.361	7467.06
445.582	7635.06
445.803	8269.06
446.024	9075.06
446.245	8581.06
446.466	7680.06
446.687	6571.06
446.908	6317.06
447.129	5907.06
447.35	5759.06
447.571	5716.06
447.792	5626.06
448.013	5725.06
448.234	5980.06
448.455	6683.06
448.675	7978.06
448.896	8476.06
449.117	6911.06
449.338	7179.06
449.559	8492.06
449.779	8766.06
450	6668.06
450.221	5845.06
450.442	5602.06
450.662	5619.06
450.883	5616.06
451.104	5822.06
451.324	5634.06
451.545	5463.06
451.766	5241.06
451.986	5221.06
452.207	5175.06
452.428	5091.06
452.648	5185.06
452.869	5223.06
453.089	5304.06
453.31	5361.06
453.53	5237.06
453.751	5178.06
453.971	5169.06
454.192	5250.06
454.412	5108.06
454.633	5031.06
454.853	5030.06
455.073	5043.06
455.294	5487.06
455.514	6048.06
455.734	5521.06
455.955	4873.06
456.175	4804.06
456.395	4729.06
456.616	4732.06
456.836	4745.06
457.056	4679.06
457.276	4659.06
457.497	4796.06
457.717	4751.06
457.937	4932.06
458.157	4969.06
458.377	5042.06
458.598	5452.06
458.818	6235.06
459.038	6991.06
459.258	6875.06
459.478	6105.06
459.698	5950.06
459.918	5992.06
460.138	6132.06
460.358	6314.06
460.578	6290.06
460.798	6396.06
461.018	6432.06
461.238	6286.06
461.458	6295.06
461.678	6267.06
461.898	6351.06
462.118	6438.06
462.338	6757.06
462.558	6909.06
462.777	7143.06
462.997	7749.06
463.217	8083.06
463.437	7946.06
463.657	7497.06
463.876	7146.06
464.096	7269.06
464.316	7280.06
464.536	7250.06
464.755	7135.06
464.975	7043.06
465.195	7250.06
465.414	7309.06
465.634	6356.06
465.854	5988.06
466.073	5749.06
466.293	5493.06
466.512	5360.06
466.732	5359.06
466.951	5317.06
467.171	5369.06
467.391	5397.06
467.61	5496.06
467.829	5500.06
468.049	5551.06
468.268	5535.06
468.488	5292.06
468.707	5187.06
468.927	5108.06
469.146	5085.06
469.365	5215.06
469.585	5187.06
469.804	5388.06
470.023	5569.06
470.243	5547.06
470.462	5698.06
470.681	5763.06
470.901	5688.06
471.12	5535.06
471.339	5483.06
471.558	5529.06
471.777	5331.06
471.997	5324.06
472.216	5750.06
472.435	6591.06
472.654	5940.06
472.873	5410.06
473.092	5297.06
473.311	5296.06
473.53	5300.06
473.749	5369.06
473.968	5974.06
474.187	6999.06
474.406	6504.06
474.625	5472.06
474.844	5275.06
475.063	5184.06
475.282	5142.06
475.501	5206.06
475.72	5249.06
475.939	5313.06
476.158	5327.06
476.377	5373.06
476.596	5304.06
476.814	5517.06
477.033	5526.06
477.252	5580.06
477.471	5618.06
477.69	5815.06
477.908	5878.06
478.127	6032.06
478.346	6072.06
478.564	6185.06
478.783	6276.06
479.002	6388.06
479.22	6393.06
479.439	6575.06
479.658	6667.06
479.876	6773.06
480.095	6988.06
480.313	7514.06
480.532	7290.06
480.751	7272.06
480.969	7655.06
481.188	9304.06
481.406	9265.06
481.624	7536.06
481.843	6847.06
482.061	6611.06
482.28	6424.06
482.498	6318.06
482.717	6209.06
482.935	6173.06
483.153	6145.06
483.372	6111.06
483.59	6111.06
483.808	6178.06
484.027	6071.06
484.245	6220.06
484.463	6138.06
484.681	6233.06
484.9	6313.06
485.118	6336.06
485.336	6366.06
485.554	6496.06
485.772	6531.06
485.99	6548.06
486.209	6584.06
486.427	6644.06
486.645	6709.06
486.863	6807.06
487.081	6696.06
487.299	6583.06
487.517	6608.06
487.735	6512.06
