Data from Circ_2016_H10_HRD10591_00029.txt Node
Date: Wed Jan 03 09:58:46 EST 2024
User: Yrep
Spectrometer: HR+D1059
Trigger mode: 1
Integration Time (sec): 1.000000E-1
Scans to average: 1
Electric dark correction enabled: true
Nonlinearity correction enabled: false
Boxcar width: 0
XAxis mode: Wavelengths
Number of Pixels in Spectrum: 2048
>>>>>Begin Spectral Data<<<<<
223.165	-23.38
223.4	-23.38
223.635	-23.38
223.869	-21.38
224.104	-24.38
224.338	-12.38
224.573	-11.38
224.808	-12.38
225.042	-17.38
225.277	2.62
225.511	11.62
225.746	8.62
225.98	4.62
226.215	8.62
226.449	29.62
226.683	20.62
226.918	17.62
227.152	18.62
227.387	29.62
227.621	43.62
227.856	52.62
228.09	47.62
228.324	47.62
228.559	64.62
228.793	56.62
229.027	74.62
229.262	74.62
229.496	83.62
229.73	93.62
229.964	92.62
230.199	79.62
230.433	68.62
230.667	76.62
230.901	84.62
231.136	78.62
231.37	75.62
231.604	81.62
231.838	86.62
232.072	73.62
232.306	90.62
232.541	88.62
232.775	88.62
233.009	85.62
233.243	70.62
233.477	71.62
233.711	85.62
233.945	85.62
234.179	95.62
234.413	72.62
234.647	74.62
234.881	80.62
235.115	79.62
235.349	79.62
235.583	70.62
235.817	80.62
236.051	75.62
236.285	69.62
236.519	78.62
236.753	80.62
236.987	76.62
237.221	102.62
237.455	88.62
237.689	86.62
237.922	78.62
238.156	61.62
238.39	74.62
238.624	79.62
238.858	71.62
239.091	73.62
239.325	72.62
239.559	83.62
239.793	77.62
240.027	86.62
240.26	61.62
240.494	79.62
240.728	84.62
240.961	77.62
241.195	88.62
241.429	80.62
241.662	81.62
241.896	82.62
242.13	88.62
242.363	84.62
242.597	79.62
242.83	69.62
243.064	87.62
243.298	82.62
243.531	73.62
243.765	82.62
243.998	87.62
244.232	85.62
244.465	101.62
244.699	76.62
244.932	82.62
245.166	81.62
245.399	73.62
245.633	77.62
245.866	84.62
246.099	68.62
246.333	81.62
246.566	74.62
246.8	79.62
247.033	78.62
247.266	80.62
247.5	74.62
247.733	81.62
247.966	81.62
248.2	76.62
248.433	77.62
248.666	71.62
248.899	81.62
249.133	96.62
249.366	97.62
249.599	87.62
249.832	85.62
250.066	85.62
250.299	81.62
250.532	80.62
250.765	82.62
250.998	88.62
251.231	80.62
251.465	86.62
251.698	81.62
251.931	93.62
252.164	81.62
252.397	94.62
252.63	80.62
252.863	75.62
253.096	79.62
253.329	70.62
253.562	78.62
253.795	80.62
254.028	88.62
254.261	90.62
254.494	76.62
254.727	66.62
254.96	75.62
255.193	69.62
255.426	87.62
255.659	91.62
255.892	75.62
256.124	88.62
256.357	74.62
256.59	77.62
256.823	85.62
257.056	84.62
257.289	87.62
257.521	79.62
257.754	79.62
257.987	91.62
258.22	80.62
258.452	83.62
258.685	71.62
258.918	85.62
259.151	76.62
259.383	86.62
259.616	88.62
259.849	77.62
260.081	80.62
260.314	84.62
260.547	86.62
260.779	76.62
261.012	78.62
261.244	90.62
261.477	85.62
261.71	104.62
261.942	107.62
262.175	128.62
262.407	83.62
262.64	86.62
262.872	79.62
263.105	70.62
263.337	86.62
263.57	85.62
263.802	98.62
264.035	84.62
264.267	84.62
264.499	76.62
264.732	70.62
264.964	84.62
265.197	103.62
265.429	74.62
265.661	98.62
265.894	84.62
266.126	80.62
266.358	83.62
266.591	86.62
266.823	89.62
267.055	92.62
267.287	88.62
267.52	79.62
267.752	85.62
267.984	67.62
268.216	87.62
268.448	100.62
268.681	82.62
268.913	80.62
269.145	73.62
269.377	76.62
269.609	92.62
269.841	84.62
270.073	86.62
270.306	87.62
270.538	98.62
270.77	80.62
271.002	80.62
271.234	83.62
271.466	71.62
271.698	84.62
271.93	93.62
272.162	84.62
272.394	95.62
272.626	86.62
272.858	77.62
273.09	94.62
273.322	86.62
273.553	95.62
273.785	95.62
274.017	75.62
274.249	87.62
274.481	79.62
274.713	93.62
274.945	91.62
275.176	83.62
275.408	79.62
275.64	80.62
275.872	85.62
276.104	84.62
276.335	87.62
276.567	106.62
276.799	105.62
277.031	113.62
277.262	92.62
277.494	92.62
277.726	93.62
277.957	75.62
278.189	83.62
278.421	84.62
278.652	85.62
278.884	82.62
279.115	62.62
279.347	80.62
279.579	89.62
279.81	90.62
280.042	83.62
280.273	87.62
280.505	87.62
280.736	90.62
280.968	94.62
281.199	74.62
281.431	76.62
281.662	85.62
281.894	91.62
282.125	89.62
282.356	118.62
282.588	132.62
282.819	115.62
283.051	101.62
283.282	80.62
283.513	81.62
283.745	92.62
283.976	93.62
284.207	79.62
284.439	79.62
284.67	88.62
284.901	88.62
285.132	81.62
285.364	86.62
285.595	96.62
285.826	94.62
286.057	87.62
286.288	85.62
286.52	89.62
286.751	89.62
286.982	71.62
287.213	85.62
287.444	84.62
287.675	95.62
287.906	92.62
288.138	108.62
288.369	99.62
288.6	91.62
288.831	76.62
289.062	90.62
289.293	79.62
289.524	67.62
289.755	102.62
289.986	87.62
290.217	96.62
290.448	88.62
290.679	104.62
290.91	88.62
291.141	87.62
291.371	95.62
291.602	75.62
291.833	79.62
292.064	81.62
292.295	96.62
292.526	94.62
292.757	84.62
292.987	80.62
293.218	88.62
293.449	97.62
293.68	84.62
293.91	78.62
294.141	87.62
294.372	98.62
294.603	90.62
294.833	72.62
295.064	77.62
295.295	85.62
295.525	107.62
295.756	105.62
295.987	109.62
296.217	120.62
296.448	122.62
296.679	94.62
296.909	85.62
297.14	90.62
297.37	86.62
297.601	88.62
297.831	82.62
298.062	93.62
298.292	99.62
298.523	95.62
298.753	90.62
298.984	85.62
299.214	88.62
299.445	78.62
299.675	87.62
299.905	104.62
300.136	90.62
300.366	102.62
300.597	97.62
300.827	90.62
301.057	116.62
301.288	118.62
301.518	110.62
301.748	78.62
301.979	100.62
302.209	94.62
302.439	90.62
302.669	99.62
302.9	92.62
303.13	85.62
303.36	90.62
303.59	105.62
303.82	113.62
304.051	98.62
304.281	92.62
304.511	93.62
304.741	82.62
304.971	91.62
305.201	95.62
305.431	85.62
305.661	98.62
305.891	93.62
306.121	99.62
306.352	92.62
306.582	97.62
306.812	96.62
307.042	109.62
307.272	98.62
307.502	98.62
307.731	83.62
307.961	87.62
308.191	92.62
308.421	94.62
308.651	93.62
308.881	94.62
309.111	94.62
309.341	95.62
309.571	98.62
309.8	93.62
310.03	105.62
310.26	99.62
310.49	107.62
310.72	99.62
310.949	98.62
311.179	87.62
311.409	98.62
311.639	88.62
311.868	104.62
312.098	98.62
312.328	103.62
312.557	92.62
312.787	118.62
313.017	114.62
313.246	100.62
313.476	82.62
313.706	99.62
313.935	92.62
314.165	101.62
314.394	104.62
314.624	90.62
314.853	102.62
315.083	84.62
315.312	88.62
315.542	106.62
315.771	104.62
316.001	83.62
316.23	88.62
316.46	87.62
316.689	96.62
316.919	99.62
317.148	93.62
317.377	94.62
317.607	86.62
317.836	94.62
318.065	94.62
318.295	81.62
318.524	82.62
318.753	88.62
318.983	85.62
319.212	105.62
319.441	97.62
319.67	103.62
319.9	99.62
320.129	101.62
320.358	97.62
320.587	97.62
320.816	96.62
321.046	95.62
321.275	101.62
321.504	95.62
321.733	98.62
321.962	78.62
322.191	109.62
322.42	89.62
322.649	101.62
322.878	136.62
323.108	132.62
323.337	121.62
323.566	143.62
323.795	164.62
324.024	233.62
324.253	455.62
324.482	959.62
324.71	1976.62
324.939	2535.62
325.168	917.62
325.397	268.62
325.626	165.62
325.855	133.62
326.084	132.62
326.313	134.62
326.542	154.62
326.77	248.62
326.999	514.62
327.228	1125.62
327.457	2024.62
327.686	1619.62
327.914	418.62
328.143	205.62
328.372	147.62
328.6	139.62
328.829	103.62
329.058	139.62
329.287	148.62
329.515	121.62
329.744	101.62
329.972	92.62
330.201	105.62
330.43	110.62
330.658	119.62
330.887	148.62
331.115	134.62
331.344	99.62
331.572	120.62
331.801	103.62
332.03	108.62
332.258	90.62
332.486	96.62
332.715	100.62
332.943	92.62
333.172	92.62
333.4	104.62
333.629	112.62
333.857	107.62
334.085	108.62
334.314	110.62
334.542	105.62
334.771	101.62
334.999	96.62
335.227	100.62
335.455	102.62
335.684	88.62
335.912	94.62
336.14	98.62
336.369	95.62
336.597	84.62
336.825	110.62
337.053	94.62
337.281	83.62
337.51	80.62
337.738	91.62
337.966	98.62
338.194	95.62
338.422	96.62
338.65	108.62
338.878	104.62
339.106	115.62
339.334	103.62
339.562	96.62
339.79	87.62
340.018	83.62
340.246	86.62
340.474	92.62
340.702	99.62
340.93	100.62
341.158	93.62
341.386	99.62
341.614	106.62
341.842	101.62
342.07	95.62
342.298	86.62
342.526	93.62
342.754	95.62
342.981	94.62
343.209	105.62
343.437	111.62
343.665	96.62
343.893	101.62
344.12	101.62
344.348	98.62
344.576	85.62
344.804	95.62
345.031	109.62
345.259	111.62
345.487	93.62
345.714	93.62
345.942	102.62
346.17	93.62
346.397	93.62
346.625	96.62
346.853	104.62
347.08	105.62
347.308	96.62
347.535	111.62
347.763	84.62
347.99	106.62
348.218	102.62
348.445	116.62
348.673	114.62
348.9	104.62
349.128	93.62
349.355	99.62
349.583	92.62
349.81	95.62
350.037	92.62
350.265	94.62
350.492	102.62
350.72	95.62
350.947	103.62
351.174	120.62
351.402	121.62
351.629	120.62
351.856	118.62
352.083	96.62
352.311	111.62
352.538	111.62
352.765	118.62
352.992	111.62
353.22	100.62
353.447	95.62
353.674	101.62
353.901	100.62
354.128	118.62
354.355	97.62
354.583	94.62
354.81	107.62
355.037	106.62
355.264	91.62
355.491	112.62
355.718	93.62
355.945	89.62
356.172	93.62
356.399	107.62
356.626	92.62
356.853	113.62
357.08	92.62
357.307	92.62
357.534	98.62
357.761	98.62
357.988	105.62
358.215	103.62
358.441	104.62
358.668	111.62
358.895	114.62
359.122	99.62
359.349	98.62
359.576	89.62
359.802	101.62
360.029	118.62
360.256	116.62
360.483	97.62
360.709	98.62
360.936	103.62
361.163	105.62
361.39	102.62
361.616	100.62
361.843	105.62
362.07	95.62
362.296	101.62
362.523	93.62
362.749	92.62
362.976	95.62
363.203	89.62
363.429	80.62
363.656	95.62
363.882	78.62
364.109	101.62
364.335	116.62
364.562	92.62
364.788	98.62
365.015	85.62
365.241	100.62
365.468	104.62
365.694	110.62
365.92	102.62
366.147	108.62
366.373	83.62
366.599	98.62
366.826	82.62
367.052	80.62
367.278	87.62
367.505	98.62
367.731	99.62
367.957	101.62
368.184	91.62
368.41	95.62
368.636	110.62
368.862	113.62
369.089	117.62
369.315	93.62
369.541	105.62
369.767	78.62
369.993	96.62
370.219	89.62
370.445	95.62
370.672	102.62
370.898	93.62
371.124	98.62
371.35	91.62
371.576	83.62
371.802	81.62
372.028	93.62
372.254	91.62
372.48	103.62
372.706	98.62
372.932	91.62
373.158	91.62
373.384	78.62
373.61	81.62
373.835	108.62
374.061	107.62
374.287	100.62
374.513	95.62
374.739	84.62
374.965	80.62
375.191	86.62
375.416	85.62
375.642	100.62
375.868	89.62
376.094	78.62
376.319	75.62
376.545	96.62
376.771	101.62
376.997	88.62
377.222	100.62
377.448	106.62
377.674	110.62
377.899	107.62
378.125	87.62
378.35	99.62
378.576	100.62
378.802	99.62
379.027	100.62
379.253	97.62
379.478	92.62
379.704	101.62
379.929	102.62
380.155	109.62
380.38	102.62
380.606	114.62
380.831	117.62
381.057	110.62
381.282	110.62
381.507	122.62
381.733	112.62
381.958	103.62
382.184	118.62
382.409	118.62
382.634	125.62
382.86	99.62
383.085	130.62
383.31	110.62
383.535	118.62
383.761	119.62
383.986	110.62
384.211	114.62
384.436	124.62
384.662	119.62
384.887	135.62
385.112	136.62
385.337	132.62
385.562	115.62
385.787	134.62
386.013	142.62
386.238	145.62
386.463	130.62
386.688	152.62
386.913	143.62
387.138	150.62
387.363	139.62
387.588	117.62
387.813	110.62
388.038	141.62
388.263	156.62
388.488	152.62
388.713	110.62
388.938	92.62
389.163	88.62
389.387	109.62
389.612	97.62
389.837	92.62
390.062	92.62
390.287	96.62
390.512	86.62
390.736	90.62
390.961	91.62
391.186	103.62
391.411	100.62
391.636	97.62
391.86	88.62
392.085	75.62
392.31	64.62
392.534	96.62
392.759	98.62
392.984	80.62
393.208	108.62
393.433	107.62
393.658	90.62
393.882	92.62
394.107	76.62
394.331	79.62
394.556	75.62
394.78	93.62
395.005	93.62
395.229	99.62
395.454	99.62
395.678	95.62
395.903	86.62
396.127	88.62
396.352	96.62
396.576	93.62
396.801	106.62
397.025	92.62
397.249	99.62
397.474	98.62
397.698	106.62
397.922	96.62
398.147	101.62
398.371	78.62
398.595	88.62
398.82	88.62
399.044	102.62
399.268	80.62
399.492	89.62
399.717	86.62
399.941	89.62
400.165	93.62
400.389	94.62
400.613	93.62
400.837	86.62
401.062	94.62
401.286	91.62
401.51	83.62
401.734	94.62
401.958	107.62
402.182	132.62
402.406	144.62
402.63	129.62
402.854	98.62
403.078	87.62
403.302	90.62
403.526	99.62
403.75	77.62
403.974	108.62
404.198	90.62
404.422	83.62
404.645	93.62
404.869	85.62
405.093	90.62
405.317	96.62
405.541	101.62
405.765	102.62
405.988	125.62
406.212	167.62
406.436	236.62
406.66	155.62
406.883	112.62
407.107	89.62
407.331	103.62
407.555	86.62
407.778	91.62
408.002	88.62
408.226	93.62
408.449	91.62
408.673	95.62
408.896	108.62
409.12	101.62
409.344	79.62
409.567	86.62
409.791	95.62
410.014	102.62
410.238	92.62
410.461	95.62
410.685	99.62
410.908	114.62
411.132	105.62
411.355	109.62
411.578	97.62
411.802	80.62
412.025	88.62
412.249	91.62
412.472	90.62
412.695	96.62
412.919	87.62
413.142	88.62
413.365	95.62
413.589	84.62
413.812	92.62
414.035	89.62
414.258	83.62
414.482	90.62
414.705	103.62
414.928	87.62
415.151	89.62
415.374	96.62
415.597	94.62
415.821	95.62
416.044	90.62
416.267	96.62
416.49	85.62
416.713	111.62
416.936	111.62
417.159	85.62
417.382	93.62
417.605	84.62
417.828	99.62
418.051	93.62
418.274	99.62
418.497	86.62
418.72	99.62
418.943	79.62
419.166	92.62
419.389	93.62
419.611	96.62
419.834	90.62
420.057	84.62
420.28	91.62
420.503	78.62
420.726	83.62
420.948	108.62
421.171	94.62
421.394	93.62
421.617	98.62
421.839	83.62
422.062	90.62
422.285	96.62
422.507	100.62
422.73	122.62
422.953	89.62
423.175	108.62
423.398	81.62
423.621	87.62
423.843	87.62
424.066	69.62
424.288	101.62
424.511	76.62
424.733	108.62
424.956	103.62
425.178	111.62
425.401	110.62
425.623	84.62
425.846	89.62
426.068	84.62
426.291	92.62
426.513	83.62
426.735	91.62
426.958	103.62
427.18	109.62
427.402	152.62
427.625	168.62
427.847	144.62
428.069	102.62
428.292	88.62
428.514	104.62
428.736	73.62
428.958	81.62
429.181	86.62
429.403	84.62
429.625	91.62
429.847	104.62
430.069	105.62
430.292	106.62
430.514	109.62
430.736	88.62
430.958	94.62
431.18	81.62
431.402	94.62
431.624	100.62
431.846	78.62
432.068	80.62
432.29	87.62
432.512	89.62
432.734	86.62
432.956	91.62
433.178	112.62
433.4	89.62
433.622	96.62
433.844	92.62
434.066	87.62
434.287	86.62
434.509	95.62
434.731	97.62
434.953	89.62
435.175	95.62
435.397	88.62
435.618	115.62
435.84	102.62
436.062	119.62
436.284	118.62
436.505	108.62
436.727	103.62
436.949	97.62
437.17	94.62
437.392	80.62
437.614	102.62
437.835	119.62
438.057	116.62
438.278	103.62
438.5	103.62
438.721	114.62
438.943	113.62
439.165	99.62
439.386	91.62
439.608	90.62
439.829	99.62
440.05	122.62
440.272	148.62
440.493	86.62
440.715	108.62
440.936	98.62
441.158	91.62
441.379	94.62
441.6	96.62
441.822	105.62
442.043	103.62
442.264	94.62
442.486	114.62
442.707	89.62
442.928	113.62
443.149	140.62
443.371	134.62
443.592	105.62
443.813	112.62
444.034	107.62
444.255	96.62
444.476	80.62
444.698	87.62
444.919	100.62
445.14	123.62
445.361	123.62
445.582	119.62
445.803	144.62
446.024	148.62
446.245	156.62
446.466	119.62
446.687	84.62
446.908	95.62
447.129	89.62
447.35	88.62
447.571	97.62
447.792	95.62
448.013	110.62
448.234	111.62
448.455	97.62
448.675	124.62
448.896	118.62
449.117	95.62
449.338	111.62
449.559	130.62
449.779	138.62
450	101.62
450.221	91.62
450.442	87.62
450.662	101.62
450.883	110.62
451.104	138.62
451.324	85.62
451.545	90.62
451.766	90.62
451.986	87.62
452.207	99.62
452.428	101.62
452.648	106.62
452.869	126.62
453.089	114.62
453.31	103.62
453.53	96.62
453.751	89.62
453.971	102.62
454.192	114.62
454.412	89.62
454.633	78.62
454.853	94.62
455.073	98.62
455.294	90.62
455.514	99.62
455.734	95.62
455.955	78.62
456.175	86.62
456.395	86.62
456.616	86.62
456.836	76.62
457.056	77.62
457.276	87.62
457.497	86.62
457.717	96.62
457.937	92.62
458.157	93.62
458.377	92.62
458.598	118.62
458.818	137.62
459.038	155.62
459.258	124.62
459.478	99.62
459.698	89.62
459.918	93.62
460.138	71.62
460.358	85.62
460.578	98.62
460.798	106.62
461.018	100.62
461.238	89.62
461.458	85.62
461.678	94.62
461.898	96.62
462.118	90.62
462.338	78.62
462.558	82.62
462.777	89.62
462.997	93.62
463.217	91.62
463.437	80.62
463.657	90.62
463.876	77.62
464.096	78.62
464.316	92.62
464.536	97.62
464.755	99.62
464.975	126.62
465.195	178.62
465.414	163.62
465.634	86.62
465.854	87.62
466.073	98.62
466.293	93.62
466.512	99.62
466.732	89.62
466.951	94.62
467.171	97.62
467.391	96.62
467.61	112.62
467.829	105.62
468.049	85.62
468.268	77.62
468.488	80.62
468.707	87.62
468.927	83.62
469.146	79.62
469.365	87.62
469.585	83.62
469.804	107.62
470.023	109.62
470.243	96.62
470.462	97.62
470.681	98.62
470.901	77.62
471.12	99.62
471.339	99.62
471.558	95.62
471.777	93.62
471.997	93.62
472.216	82.62
472.435	107.62
472.654	91.62
472.873	87.62
473.092	96.62
473.311	98.62
473.53	80.62
473.749	99.62
473.968	90.62
474.187	98.62
474.406	99.62
474.625	91.62
474.844	86.62
475.063	82.62
475.282	86.62
475.501	98.62
475.72	92.62
475.939	86.62
476.158	96.62
476.377	94.62
476.596	80.62
476.814	108.62
477.033	97.62
477.252	86.62
477.471	79.62
477.69	79.62
477.908	89.62
478.127	89.62
478.346	103.62
478.564	76.62
478.783	86.62
479.002	98.62
479.22	85.62
479.439	86.62
479.658	122.62
479.876	96.62
480.095	86.62
480.313	93.62
480.532	84.62
480.751	84.62
480.969	105.62
481.188	119.62
481.406	104.62
481.624	111.62
481.843	94.62
482.061	89.62
482.28	79.62
482.498	86.62
482.717	88.62
482.935	95.62
483.153	90.62
483.372	96.62
483.59	82.62
483.808	97.62
484.027	102.62
484.245	102.62
484.463	87.62
484.681	106.62
484.9	95.62
485.118	100.62
485.336	114.62
485.554	114.62
485.772	117.62
485.99	111.62
486.209	134.62
486.427	115.62
486.645	115.62
486.863	131.62
487.081	83.62
487.299	103.62
487.517	95.62
487.735	102.62
487.953	117.62
488.171	106.62
488.389	98.62
488.607	87.62
488.825	87.62
489.043	92.62
489.261	95.62
489.479	90.62
489.696	86.62
489.914	101.62
490.132	89.62
490.35	92.62
490.568	85.62
490.786	78.62
491.003	99.62
491.221	106.62
491.439	107.62
491.657	100.62
491.874	98.62
492.092	90.62
492.31	97.62
492.527	90.62
492.745	89.62
492.963	94.62
493.18	85.62
493.398	97.62
493.615	101.62
493.833	98.62
494.05	90.62
494.268	90.62
494.485	93.62
494.703	95.62
494.92	83.62
495.138	92.62
495.355	96.62
495.573	98.62
495.79	96.62
496.008	89.62
496.225	93.62
496.442	86.62
496.66	86.62
496.877	96.62
497.094	92.62
497.312	98.62
497.529	98.62
497.746	87.62
497.963	95.62
498.181	99.62
498.398	82.62
498.615	117.62
498.832	110.62
499.049	90.62
499.267	100.62
499.484	101.62
499.701	88.62
499.918	91.62
500.135	87.62
500.352	84.62
500.569	88.62
500.786	95.62
501.003	94.62
501.22	92.62
501.437	95.62
501.654	96.62
501.871	106.62
502.088	93.62
502.305	94.62
502.522	100.62
502.739	98.62
502.956	94.62
503.172	103.62
503.389	94.62
503.606	98.62
503.823	95.62
504.04	84.62
504.256	102.62
504.473	93.62
504.69	93.62
504.907	77.62
505.123	92.62
505.34	72.62
505.557	89.62
505.773	95.62
505.99	85.62
506.207	82.62
506.423	100.62
506.64	100.62
506.856	99.62
507.073	93.62
507.289	92.62
507.506	92.62
507.722	107.62
507.939	111.62
508.155	99.62
508.372	83.62
508.588	79.62
508.805	105.62
509.021	94.62
509.238	92.62
509.454	102.62
509.67	92.62
509.887	110.62
510.103	143.62
510.319	218.62
510.536	735.62
510.752	2427.62
510.968	690.62
511.184	150.62
511.401	114.62
511.617	95.62
511.833	87.62
512.049	85.62
512.265	98.62
512.481	95.62
512.698	104.62
512.914	106.62
513.13	91.62
513.346	88.62
513.562	102.62
513.778	109.62
513.994	92.62
514.21	101.62
514.426	130.62
