Data from Circ_2016_H10_HRD10591_00015.txt Node
Date: Wed Jan 03 09:58:43 EST 2024
User: Yrep
Spectrometer: HR+D1059
Trigger mode: 1
Integration Time (sec): 1.000000E-1
Scans to average: 1
Electric dark correction enabled: true
Nonlinearity correction enabled: false
Boxcar width: 0
XAxis mode: Wavelengths
Number of Pixels in Spectrum: 2048
>>>>>Begin Spectral Data<<<<<
223.165	-23.38
223.4	-23.38
223.635	-23.38
223.869	-15.38
224.104	-28.38
224.338	-3.38
224.573	-10.38
224.808	-20.38
225.042	-14.38
225.277	2.62
225.511	-12.38
225.746	8.62
225.98	9.62
226.215	3.62
226.449	24.62
226.683	27.62
226.918	24.62
227.152	26.62
227.387	39.62
227.621	42.62
227.856	49.62
228.09	52.62
228.324	59.62
228.559	57.62
228.793	54.62
229.027	52.62
229.262	58.62
229.496	78.62
229.73	82.62
229.964	74.62
230.199	72.62
230.433	75.62
230.667	68.62
230.901	70.62
231.136	79.62
231.37	80.62
231.604	82.62
231.838	68.62
232.072	85.62
232.306	75.62
232.541	76.62
232.775	71.62
233.009	79.62
233.243	80.62
233.477	90.62
233.711	73.62
233.945	71.62
234.179	80.62
234.413	91.62
234.647	72.62
234.881	73.62
235.115	82.62
235.349	85.62
235.583	81.62
235.817	63.62
236.051	76.62
236.285	71.62
236.519	76.62
236.753	78.62
236.987	75.62
237.221	76.62
237.455	88.62
237.689	86.62
237.922	80.62
238.156	76.62
238.39	73.62
238.624	76.62
238.858	71.62
239.091	74.62
239.325	89.62
239.559	81.62
239.793	74.62
240.027	80.62
240.26	80.62
240.494	73.62
240.728	75.62
240.961	80.62
241.195	86.62
241.429	77.62
241.662	83.62
241.896	80.62
242.13	71.62
242.363	64.62
242.597	79.62
242.83	62.62
243.064	73.62
243.298	75.62
243.531	79.62
243.765	72.62
243.998	96.62
244.232	79.62
244.465	99.62
244.699	67.62
244.932	94.62
245.166	63.62
245.399	81.62
245.633	73.62
245.866	68.62
246.099	91.62
246.333	74.62
246.566	70.62
246.8	70.62
247.033	77.62
247.266	83.62
247.5	63.62
247.733	76.62
247.966	76.62
248.2	84.62
248.433	82.62
248.666	84.62
248.899	84.62
249.133	91.62
249.366	105.62
249.599	83.62
249.832	81.62
250.066	72.62
250.299	78.62
250.532	72.62
250.765	67.62
250.998	81.62
251.231	62.62
251.465	78.62
251.698	84.62
251.931	76.62
252.164	80.62
252.397	66.62
252.63	74.62
252.863	79.62
253.096	78.62
253.329	75.62
253.562	81.62
253.795	74.62
254.028	91.62
254.261	72.62
254.494	63.62
254.727	83.62
254.96	66.62
255.193	75.62
255.426	84.62
255.659	78.62
255.892	83.62
256.124	89.62
256.357	78.62
256.59	76.62
256.823	75.62
257.056	88.62
257.289	85.62
257.521	88.62
257.754	85.62
257.987	69.62
258.22	74.62
258.452	76.62
258.685	75.62
258.918	85.62
259.151	78.62
259.383	83.62
259.616	83.62
259.849	75.62
260.081	92.62
260.314	78.62
260.547	84.62
260.779	76.62
261.012	86.62
261.244	87.62
261.477	87.62
261.71	114.62
261.942	114.62
262.175	115.62
262.407	94.62
262.64	73.62
262.872	94.62
263.105	85.62
263.337	88.62
263.57	86.62
263.802	79.62
264.035	75.62
264.267	71.62
264.499	86.62
264.732	88.62
264.964	79.62
265.197	82.62
265.429	82.62
265.661	91.62
265.894	87.62
266.126	91.62
266.358	65.62
266.591	77.62
266.823	79.62
267.055	78.62
267.287	82.62
267.52	88.62
267.752	89.62
267.984	74.62
268.216	77.62
268.448	81.62
268.681	85.62
268.913	82.62
269.145	91.62
269.377	78.62
269.609	79.62
269.841	83.62
270.073	97.62
270.306	93.62
270.538	89.62
270.77	85.62
271.002	87.62
271.234	83.62
271.466	79.62
271.698	73.62
271.93	82.62
272.162	73.62
272.394	73.62
272.626	70.62
272.858	81.62
273.09	75.62
273.322	94.62
273.553	94.62
273.785	79.62
274.017	76.62
274.249	67.62
274.481	91.62
274.713	83.62
274.945	83.62
275.176	90.62
275.408	91.62
275.64	80.62
275.872	80.62
276.104	86.62
276.335	98.62
276.567	95.62
276.799	110.62
277.031	95.62
277.262	95.62
277.494	92.62
277.726	59.62
277.957	94.62
278.189	66.62
278.421	91.62
278.652	86.62
278.884	71.62
279.115	79.62
279.347	94.62
279.579	82.62
279.81	74.62
280.042	88.62
280.273	87.62
280.505	89.62
280.736	85.62
280.968	63.62
281.199	85.62
281.431	79.62
281.662	84.62
281.894	78.62
282.125	91.62
282.356	113.62
282.588	148.62
282.819	111.62
283.051	91.62
283.282	74.62
283.513	93.62
283.745	99.62
283.976	73.62
284.207	76.62
284.439	92.62
284.67	83.62
284.901	94.62
285.132	93.62
285.364	93.62
285.595	85.62
285.826	92.62
286.057	88.62
286.288	96.62
286.52	94.62
286.751	80.62
286.982	106.62
287.213	98.62
287.444	86.62
287.675	78.62
287.906	76.62
288.138	75.62
288.369	78.62
288.6	85.62
288.831	85.62
289.062	75.62
289.293	99.62
289.524	81.62
289.755	96.62
289.986	100.62
290.217	89.62
290.448	84.62
290.679	76.62
290.91	88.62
291.141	80.62
291.371	93.62
291.602	99.62
291.833	85.62
292.064	89.62
292.295	79.62
292.526	90.62
292.757	95.62
292.987	83.62
293.218	68.62
293.449	86.62
293.68	93.62
293.91	71.62
294.141	76.62
294.372	80.62
294.603	92.62
294.833	94.62
295.064	90.62
295.295	90.62
295.525	78.62
295.756	93.62
295.987	106.62
296.217	138.62
296.448	138.62
296.679	87.62
296.909	90.62
297.14	92.62
297.37	102.62
297.601	77.62
297.831	90.62
298.062	82.62
298.292	97.62
298.523	81.62
298.753	91.62
298.984	94.62
299.214	87.62
299.445	105.62
299.675	88.62
299.905	100.62
300.136	95.62
300.366	97.62
300.597	87.62
300.827	80.62
301.057	90.62
301.288	95.62
301.518	91.62
301.748	74.62
301.979	80.62
302.209	90.62
302.439	91.62
302.669	88.62
302.9	89.62
303.13	88.62
303.36	80.62
303.59	98.62
303.82	100.62
304.051	101.62
304.281	79.62
304.511	92.62
304.741	91.62
304.971	88.62
305.201	80.62
305.431	91.62
305.661	79.62
305.891	80.62
306.121	92.62
306.352	86.62
306.582	102.62
306.812	104.62
307.042	84.62
307.272	87.62
307.502	86.62
307.731	89.62
307.961	84.62
308.191	91.62
308.421	86.62
308.651	87.62
308.881	84.62
309.111	82.62
309.341	95.62
309.571	113.62
309.8	101.62
310.03	90.62
310.26	83.62
310.49	107.62
310.72	95.62
310.949	104.62
311.179	92.62
311.409	88.62
311.639	91.62
311.868	101.62
312.098	95.62
312.328	104.62
312.557	111.62
312.787	105.62
313.017	102.62
313.246	89.62
313.476	75.62
313.706	80.62
313.935	95.62
314.165	93.62
314.394	101.62
314.624	99.62
314.853	93.62
315.083	85.62
315.312	104.62
315.542	90.62
315.771	95.62
316.001	92.62
316.23	96.62
316.46	94.62
316.689	95.62
316.919	92.62
317.148	84.62
317.377	91.62
317.607	100.62
317.836	78.62
318.065	93.62
318.295	74.62
318.524	91.62
318.753	89.62
318.983	82.62
319.212	95.62
319.441	106.62
319.67	103.62
319.9	91.62
320.129	83.62
320.358	91.62
320.587	94.62
320.816	91.62
321.046	88.62
321.275	98.62
321.504	94.62
321.733	96.62
321.962	89.62
322.191	94.62
322.42	107.62
322.649	108.62
322.878	110.62
323.108	113.62
323.337	123.62
323.566	133.62
323.795	156.62
324.024	230.62
324.253	439.62
324.482	972.62
324.71	1988.62
324.939	2694.62
325.168	972.62
325.397	258.62
325.626	164.62
325.855	144.62
326.084	128.62
326.313	138.62
326.542	154.62
326.77	245.62
326.999	545.62
327.228	1128.62
327.457	2043.62
327.686	1604.62
327.914	413.62
328.143	202.62
328.372	153.62
328.6	137.62
328.829	119.62
329.058	129.62
329.287	144.62
329.515	119.62
329.744	108.62
329.972	107.62
330.201	109.62
330.43	104.62
330.658	115.62
330.887	142.62
331.115	139.62
331.344	99.62
331.572	111.62
331.801	101.62
332.03	87.62
332.258	98.62
332.486	90.62
332.715	97.62
332.943	85.62
333.172	95.62
333.4	97.62
333.629	100.62
333.857	102.62
334.085	99.62
334.314	99.62
334.542	85.62
334.771	84.62
334.999	87.62
335.227	91.62
335.455	90.62
335.684	97.62
335.912	116.62
336.14	91.62
336.369	100.62
336.597	104.62
336.825	91.62
337.053	86.62
337.281	91.62
337.51	98.62
337.738	102.62
337.966	92.62
338.194	84.62
338.422	80.62
338.65	88.62
338.878	86.62
339.106	80.62
339.334	100.62
339.562	88.62
339.79	91.62
340.018	106.62
340.246	98.62
340.474	75.62
340.702	92.62
340.93	88.62
341.158	88.62
341.386	100.62
341.614	105.62
341.842	104.62
342.07	104.62
342.298	83.62
342.526	79.62
342.754	98.62
342.981	86.62
343.209	68.62
343.437	96.62
343.665	93.62
343.893	92.62
344.12	104.62
344.348	90.62
344.576	96.62
344.804	101.62
345.031	79.62
345.259	92.62
345.487	97.62
345.714	102.62
345.942	85.62
346.17	81.62
346.397	84.62
346.625	92.62
346.853	88.62
347.08	95.62
347.308	91.62
347.535	96.62
347.763	82.62
347.99	96.62
348.218	103.62
348.445	107.62
348.673	88.62
348.9	94.62
349.128	92.62
349.355	93.62
349.583	89.62
349.81	92.62
350.037	108.62
350.265	98.62
350.492	91.62
350.72	100.62
350.947	103.62
351.174	100.62
351.402	112.62
351.629	105.62
351.856	86.62
352.083	92.62
352.311	114.62
352.538	110.62
352.765	106.62
352.992	98.62
353.22	108.62
353.447	107.62
353.674	103.62
353.901	92.62
354.128	99.62
354.355	87.62
354.583	91.62
354.81	116.62
355.037	99.62
355.264	91.62
355.491	92.62
355.718	86.62
355.945	98.62
356.172	98.62
356.399	99.62
356.626	86.62
356.853	97.62
357.08	96.62
357.307	86.62
357.534	83.62
357.761	94.62
357.988	97.62
358.215	103.62
358.441	96.62
358.668	116.62
358.895	103.62
359.122	100.62
359.349	105.62
359.576	88.62
359.802	106.62
360.029	111.62
360.256	115.62
360.483	106.62
360.709	76.62
360.936	99.62
361.163	88.62
361.39	92.62
361.616	87.62
361.843	89.62
362.07	80.62
362.296	95.62
362.523	86.62
362.749	85.62
362.976	87.62
363.203	84.62
363.429	94.62
363.656	87.62
363.882	104.62
364.109	94.62
364.335	90.62
364.562	89.62
364.788	96.62
365.015	102.62
365.241	94.62
365.468	97.62
365.694	102.62
365.92	86.62
366.147	88.62
366.373	82.62
366.599	99.62
366.826	83.62
367.052	73.62
367.278	92.62
367.505	85.62
367.731	94.62
367.957	83.62
368.184	98.62
368.41	73.62
368.636	118.62
368.862	95.62
369.089	111.62
369.315	91.62
369.541	95.62
369.767	98.62
369.993	98.62
370.219	77.62
370.445	82.62
370.672	101.62
370.898	80.62
371.124	75.62
371.35	94.62
371.576	69.62
371.802	86.62
372.028	90.62
372.254	87.62
372.48	92.62
372.706	100.62
372.932	85.62
373.158	66.62
373.384	94.62
373.61	88.62
373.835	96.62
374.061	88.62
374.287	100.62
374.513	106.62
374.739	96.62
374.965	96.62
375.191	90.62
375.416	88.62
375.642	84.62
375.868	94.62
376.094	93.62
376.319	81.62
376.545	99.62
376.771	89.62
376.997	101.62
377.222	88.62
377.448	96.62
377.674	105.62
377.899	103.62
378.125	97.62
378.35	98.62
378.576	95.62
378.802	100.62
379.027	119.62
379.253	98.62
379.478	95.62
379.704	92.62
379.929	112.62
380.155	105.62
380.38	107.62
380.606	117.62
380.831	114.62
381.057	113.62
381.282	113.62
381.507	119.62
381.733	118.62
381.958	117.62
382.184	103.62
382.409	117.62
382.634	114.62
382.86	128.62
383.085	132.62
383.31	127.62
383.535	132.62
383.761	139.62
383.986	137.62
384.211	133.62
384.436	137.62
384.662	127.62
384.887	144.62
385.112	160.62
385.337	154.62
385.562	141.62
385.787	137.62
386.013	170.62
386.238	175.62
386.463	146.62
386.688	139.62
386.913	147.62
387.138	179.62
387.363	151.62
387.588	126.62
387.813	131.62
388.038	144.62
388.263	200.62
388.488	188.62
388.713	109.62
388.938	87.62
389.163	89.62
389.387	108.62
389.612	103.62
389.837	88.62
390.062	77.62
390.287	92.62
390.512	85.62
390.736	89.62
390.961	85.62
391.186	98.62
391.411	75.62
391.636	101.62
391.86	82.62
392.085	70.62
392.31	77.62
392.534	95.62
392.759	90.62
392.984	78.62
393.208	96.62
393.433	121.62
393.658	103.62
393.882	82.62
394.107	91.62
394.331	97.62
394.556	105.62
394.78	101.62
395.005	92.62
395.229	86.62
395.454	91.62
395.678	93.62
395.903	80.62
396.127	87.62
396.352	91.62
396.576	84.62
396.801	98.62
397.025	106.62
397.249	91.62
397.474	79.62
397.698	76.62
397.922	78.62
398.147	94.62
398.371	108.62
398.595	82.62
398.82	82.62
399.044	74.62
399.268	79.62
399.492	74.62
399.717	72.62
399.941	89.62
400.165	98.62
400.389	74.62
400.613	74.62
400.837	105.62
401.062	91.62
401.286	75.62
401.51	87.62
401.734	89.62
401.958	105.62
402.182	127.62
402.406	148.62
402.63	116.62
402.854	86.62
403.078	78.62
403.302	87.62
403.526	88.62
403.75	94.62
403.974	86.62
404.198	90.62
404.422	87.62
404.645	86.62
404.869	92.62
405.093	87.62
405.317	86.62
405.541	95.62
405.765	101.62
405.988	116.62
406.212	160.62
406.436	226.62
406.66	153.62
406.883	91.62
407.107	87.62
407.331	99.62
407.555	99.62
407.778	97.62
408.002	82.62
408.226	78.62
408.449	80.62
408.673	88.62
408.896	99.62
409.12	87.62
409.344	89.62
409.567	86.62
409.791	91.62
410.014	87.62
410.238	90.62
410.461	98.62
410.685	103.62
410.908	103.62
411.132	96.62
411.355	115.62
411.578	110.62
411.802	88.62
412.025	86.62
412.249	97.62
412.472	76.62
412.695	88.62
412.919	100.62
413.142	77.62
413.365	94.62
413.589	86.62
413.812	88.62
414.035	93.62
414.258	87.62
414.482	92.62
414.705	91.62
414.928	96.62
415.151	111.62
415.374	106.62
415.597	96.62
415.821	106.62
416.044	89.62
416.267	81.62
416.49	91.62
416.713	100.62
416.936	91.62
417.159	91.62
417.382	93.62
417.605	96.62
417.828	97.62
418.051	93.62
418.274	103.62
418.497	82.62
418.72	83.62
418.943	84.62
419.166	97.62
419.389	89.62
419.611	105.62
419.834	97.62
420.057	84.62
420.28	84.62
420.503	86.62
420.726	87.62
420.948	83.62
421.171	111.62
421.394	88.62
421.617	100.62
421.839	75.62
422.062	99.62
422.285	85.62
422.507	104.62
422.73	132.62
422.953	113.62
423.175	100.62
423.398	81.62
423.621	80.62
423.843	84.62
424.066	92.62
424.288	91.62
424.511	108.62
424.733	97.62
424.956	107.62
425.178	97.62
425.401	95.62
425.623	95.62
425.846	100.62
426.068	94.62
426.291	91.62
426.513	92.62
426.735	96.62
426.958	87.62
427.18	106.62
427.402	140.62
427.625	181.62
427.847	122.62
428.069	95.62
428.292	83.62
428.514	91.62
428.736	79.62
428.958	90.62
429.181	88.62
429.403	70.62
429.625	99.62
429.847	78.62
430.069	110.62
430.292	100.62
430.514	82.62
430.736	88.62
430.958	82.62
431.18	74.62
431.402	74.62
431.624	83.62
431.846	80.62
432.068	100.62
432.29	87.62
432.512	100.62
432.734	103.62
432.956	99.62
433.178	96.62
433.4	93.62
433.622	82.62
433.844	94.62
434.066	90.62
434.287	90.62
434.509	73.62
434.731	91.62
434.953	94.62
435.175	84.62
435.397	79.62
435.618	93.62
435.84	103.62
436.062	126.62
436.284	126.62
436.505	102.62
436.727	87.62
436.949	89.62
437.17	66.62
437.392	98.62
437.614	97.62
437.835	104.62
438.057	116.62
438.278	122.62
438.5	103.62
438.721	120.62
438.943	102.62
439.165	75.62
439.386	72.62
439.608	83.62
439.829	96.62
440.05	131.62
440.272	153.62
440.493	92.62
440.715	83.62
440.936	72.62
441.158	82.62
441.379	92.62
441.6	101.62
441.822	89.62
442.043	95.62
442.264	104.62
442.486	106.62
442.707	105.62
442.928	116.62
443.149	146.62
443.371	128.62
443.592	102.62
443.813	105.62
444.034	111.62
444.255	83.62
444.476	92.62
444.698	98.62
444.919	93.62
445.14	133.62
445.361	124.62
445.582	124.62
445.803	147.62
446.024	139.62
446.245	124.62
446.466	102.62
446.687	96.62
446.908	86.62
447.129	86.62
447.35	86.62
447.571	98.62
447.792	84.62
448.013	110.62
448.234	99.62
448.455	107.62
448.675	116.62
448.896	117.62
449.117	100.62
449.338	100.62
449.559	137.62
449.779	136.62
450	99.62
450.221	87.62
450.442	91.62
450.662	92.62
450.883	91.62
451.104	114.62
451.324	104.62
451.545	92.62
451.766	103.62
451.986	92.62
452.207	82.62
452.428	90.62
452.648	91.62
452.869	117.62
453.089	110.62
453.31	110.62
453.53	100.62
453.751	86.62
453.971	112.62
454.192	112.62
454.412	101.62
454.633	83.62
454.853	94.62
455.073	79.62
455.294	78.62
455.514	99.62
455.734	97.62
455.955	91.62
456.175	97.62
456.395	71.62
456.616	93.62
456.836	90.62
457.056	91.62
457.276	82.62
457.497	104.62
457.717	81.62
457.937	75.62
458.157	98.62
458.377	83.62
458.598	105.62
458.818	154.62
459.038	171.62
459.258	118.62
459.478	94.62
459.698	84.62
459.918	79.62
460.138	86.62
460.358	92.62
460.578	92.62
460.798	76.62
461.018	98.62
461.238	87.62
461.458	76.62
461.678	82.62
461.898	77.62
462.118	91.62
462.338	86.62
462.558	83.62
462.777	80.62
462.997	75.62
463.217	80.62
463.437	86.62
463.657	79.62
463.876	85.62
464.096	90.62
464.316	96.62
464.536	91.62
464.755	91.62
464.975	117.62
465.195	170.62
465.414	170.62
465.634	96.62
465.854	74.62
466.073	95.62
466.293	82.62
466.512	79.62
466.732	83.62
466.951	75.62
467.171	80.62
467.391	83.62
467.61	94.62
467.829	87.62
468.049	87.62
468.268	88.62
468.488	78.62
468.707	97.62
468.927	86.62
469.146	81.62
469.365	84.62
469.585	88.62
469.804	89.62
470.023	92.62
470.243	95.62
470.462	99.62
470.681	108.62
470.901	91.62
471.12	87.62
471.339	79.62
471.558	91.62
471.777	96.62
471.997	90.62
472.216	90.62
472.435	91.62
472.654	92.62
472.873	90.62
473.092	86.62
473.311	95.62
473.53	83.62
473.749	94.62
473.968	91.62
474.187	100.62
474.406	95.62
474.625	107.62
474.844	96.62
475.063	76.62
475.282	88.62
475.501	77.62
475.72	82.62
475.939	92.62
476.158	87.62
476.377	86.62
476.596	88.62
476.814	78.62
477.033	83.62
477.252	99.62
477.471	83.62
477.69	77.62
477.908	85.62
478.127	86.62
478.346	99.62
478.564	89.62
478.783	105.62
479.002	99.62
479.22	98.62
479.439	86.62
479.658	103.62
479.876	101.62
480.095	101.62
480.313	94.62
480.532	82.62
480.751	85.62
480.969	91.62
481.188	107.62
481.406	103.62
481.624	88.62
481.843	82.62
482.061	95.62
482.28	95.62
482.498	97.62
482.717	76.62
482.935	81.62
483.153	95.62
483.372	87.62
483.59	88.62
483.808	96.62
484.027	90.62
484.245	88.62
484.463	86.62
484.681	81.62
484.9	99.62
485.118	101.62
485.336	101.62
485.554	96.62
485.772	122.62
485.99	115.62
486.209	106.62
486.427	119.62
486.645	118.62
486.863	126.62
487.081	98.62
487.299	97.62
487.517	100.62
487.735	87.62
487.953	100.62
488.171	95.62
488.389	85.62
488.607	88.62
488.825	78.62
489.043	74.62
489.261	82.62
489.479	84.62
489.696	113.62
489.914	78.62
490.132	72.62
490.35	86.62
490.568	92.62
490.786	89.62
491.003	90.62
491.221	80.62
491.439	91.62
491.657	99.62
491.874	79.62
492.092	84.62
492.31	95.62
492.527	87.62
492.745	96.62
492.963	97.62
493.18	104.62
493.398	84.62
493.615	101.62
493.833	92.62
494.05	89.62
494.268	105.62
494.485	93.62
494.703	95.62
494.92	67.62
495.138	86.62
495.355	78.62
495.573	97.62
495.79	99.62
496.008	92.62
496.225	97.62
496.442	90.62
496.66	87.62
496.877	113.62
497.094	105.62
497.312	102.62
497.529	98.62
497.746	97.62
497.963	95.62
498.181	89.62
498.398	92.62
498.615	110.62
498.832	105.62
499.049	86.62
499.267	91.62
499.484	87.62
499.701	90.62
499.918	95.62
500.135	80.62
500.352	90.62
500.569	102.62
500.786	94.62
501.003	94.62
501.22	84.62
501.437	99.62
501.654	93.62
501.871	104.62
502.088	94.62
502.305	105.62
502.522	94.62
502.739	86.62
502.956	90.62
503.172	92.62
503.389	91.62
503.606	109.62
503.823	80.62
504.04	99.62
504.256	91.62
504.473	87.62
504.69	80.62
504.907	91.62
505.123	87.62
505.34	75.62
505.557	94.62
505.773	104.62
505.99	82.62
506.207	87.62
506.423	95.62
506.64	103.62
506.856	99.62
507.073	107.62
507.289	98.62
507.506	109.62
507.722	112.62
507.939	100.62
508.155	91.62
508.372	96.62
508.588	100.62
508.805	96.62
509.021	91.62
509.238	97.62
509.454	95.62
509.67	96.62
509.887	131.62
510.103	138.62
510.319	231.62
510.536	809.62
510.752	2718.62
510.968	764.62
511.184	172.62
511.401	99.62
511.617	99.62
511.833	104.62
512.049	87.62
512.265	84.62
512.481	101.62
512.698	93.62
512.914	90.62
513.13	81.62
513.346	84.62
513.562	94.62
513.778	96.62
513.994	94.62
514.21	96.62
514.426	132.62
514.642	141.62
514.858	123.62
515.074	180.62
515.29	494.62
515.506	1648.62
