Data from Circ_2016_H10_HRD10591_00032.txt Node
Date: Wed Jan 03 09:58:47 EST 2024
User: Yrep
Spectrometer: HR+D1059
Trigger mode: 1
Integration Time (sec): 1.000000E-1
Scans to average: 1
Electric dark correction enabled: true
Nonlinearity correction enabled: false
Boxcar width: 0
XAxis mode: Wavelengths
Number of Pixels in Spectrum: 2048
>>>>>Begin Spectral Data<<<<<
223.165	-7.5
223.4	-7.5
223.635	-7.5
223.869	-20.5
224.104	-20.5
224.338	-22.5
224.573	-3.5
224.808	-8.5
225.042	-9.5
225.277	-14.5
225.511	-7.5
225.746	1.5
225.98	16.5
226.215	5.5
226.449	9.5
226.683	32.5
226.918	10.5
227.152	38.5
227.387	22.5
227.621	41.5
227.856	41.5
228.09	56.5
228.324	59.5
228.559	68.5
228.793	59.5
229.027	53.5
229.262	59.5
229.496	77.5
229.73	67.5
229.964	80.5
230.199	75.5
230.433	66.5
230.667	77.5
230.901	86.5
231.136	73.5
231.37	69.5
231.604	76.5
231.838	81.5
232.072	95.5
232.306	87.5
232.541	84.5
232.775	87.5
233.009	74.5
233.243	86.5
233.477	86.5
233.711	75.5
233.945	78.5
234.179	87.5
234.413	89.5
234.647	89.5
234.881	80.5
235.115	86.5
235.349	81.5
235.583	76.5
235.817	80.5
236.051	77.5
236.285	74.5
236.519	74.5
236.753	75.5
236.987	76.5
237.221	82.5
237.455	90.5
237.689	72.5
237.922	73.5
238.156	76.5
238.39	75.5
238.624	82.5
238.858	81.5
239.091	75.5
239.325	79.5
239.559	77.5
239.793	77.5
240.027	74.5
240.26	68.5
240.494	73.5
240.728	80.5
240.961	86.5
241.195	74.5
241.429	70.5
241.662	88.5
241.896	87.5
242.13	78.5
242.363	78.5
242.597	92.5
242.83	81.5
243.064	77.5
243.298	68.5
243.531	88.5
243.765	87.5
243.998	75.5
244.232	80.5
244.465	89.5
244.699	74.5
244.932	76.5
245.166	83.5
245.399	82.5
245.633	74.5
245.866	74.5
246.099	82.5
246.333	81.5
246.566	86.5
246.8	84.5
247.033	72.5
247.266	96.5
247.5	76.5
247.733	86.5
247.966	90.5
248.2	76.5
248.433	75.5
248.666	81.5
248.899	88.5
249.133	73.5
249.366	104.5
249.599	104.5
249.832	76.5
250.066	78.5
250.299	86.5
250.532	72.5
250.765	77.5
250.998	77.5
251.231	81.5
251.465	87.5
251.698	61.5
251.931	74.5
252.164	70.5
252.397	75.5
252.63	85.5
252.863	66.5
253.096	81.5
253.329	92.5
253.562	81.5
253.795	77.5
254.028	94.5
254.261	79.5
254.494	85.5
254.727	77.5
254.96	80.5
255.193	79.5
255.426	77.5
255.659	91.5
255.892	77.5
256.124	79.5
256.357	78.5
256.59	72.5
256.823	78.5
257.056	71.5
257.289	76.5
257.521	86.5
257.754	84.5
257.987	68.5
258.22	88.5
258.452	77.5
258.685	69.5
258.918	70.5
259.151	81.5
259.383	85.5
259.616	81.5
259.849	86.5
260.081	79.5
260.314	76.5
260.547	75.5
260.779	72.5
261.012	92.5
261.244	96.5
261.477	94.5
261.71	112.5
261.942	119.5
262.175	120.5
262.407	88.5
262.64	76.5
262.872	89.5
263.105	80.5
263.337	88.5
263.57	87.5
263.802	90.5
264.035	97.5
264.267	74.5
264.499	84.5
264.732	77.5
264.964	73.5
265.197	80.5
265.429	83.5
265.661	86.5
265.894	80.5
266.126	93.5
266.358	75.5
266.591	82.5
266.823	77.5
267.055	88.5
267.287	88.5
267.52	74.5
267.752	85.5
267.984	89.5
268.216	84.5
268.448	81.5
268.681	83.5
268.913	71.5
269.145	75.5
269.377	81.5
269.609	80.5
269.841	96.5
270.073	72.5
270.306	86.5
270.538	73.5
270.77	86.5
271.002	82.5
271.234	87.5
271.466	91.5
271.698	73.5
271.93	88.5
272.162	82.5
272.394	85.5
272.626	80.5
272.858	88.5
273.09	97.5
273.322	88.5
273.553	81.5
273.785	88.5
274.017	77.5
274.249	86.5
274.481	83.5
274.713	90.5
274.945	80.5
275.176	88.5
275.408	94.5
275.64	103.5
275.872	78.5
276.104	100.5
276.335	101.5
276.567	101.5
276.799	102.5
277.031	100.5
277.262	88.5
277.494	84.5
277.726	93.5
277.957	85.5
278.189	89.5
278.421	80.5
278.652	69.5
278.884	81.5
279.115	88.5
279.347	79.5
279.579	83.5
279.81	100.5
280.042	81.5
280.273	85.5
280.505	85.5
280.736	85.5
280.968	78.5
281.199	81.5
281.431	86.5
281.662	90.5
281.894	104.5
282.125	106.5
282.356	130.5
282.588	134.5
282.819	104.5
283.051	68.5
283.282	82.5
283.513	75.5
283.745	88.5
283.976	87.5
284.207	91.5
284.439	87.5
284.67	71.5
284.901	86.5
285.132	81.5
285.364	97.5
285.595	92.5
285.826	77.5
286.057	84.5
286.288	78.5
286.52	85.5
286.751	80.5
286.982	85.5
287.213	80.5
287.444	91.5
287.675	81.5
287.906	100.5
288.138	91.5
288.369	87.5
288.6	81.5
288.831	84.5
289.062	99.5
289.293	95.5
289.524	82.5
289.755	90.5
289.986	82.5
290.217	93.5
290.448	92.5
290.679	82.5
290.91	90.5
291.141	99.5
291.371	84.5
291.602	71.5
291.833	77.5
292.064	85.5
292.295	98.5
292.526	94.5
292.757	86.5
292.987	77.5
293.218	93.5
293.449	83.5
293.68	94.5
293.91	81.5
294.141	96.5
294.372	84.5
294.603	91.5
294.833	87.5
295.064	78.5
295.295	90.5
295.525	92.5
295.756	97.5
295.987	121.5
296.217	150.5
296.448	132.5
296.679	96.5
296.909	82.5
297.14	78.5
297.37	90.5
297.601	92.5
297.831	78.5
298.062	93.5
298.292	94.5
298.523	78.5
298.753	85.5
298.984	92.5
299.214	82.5
299.445	84.5
299.675	98.5
299.905	101.5
300.136	84.5
300.366	89.5
300.597	80.5
300.827	100.5
301.057	106.5
301.288	114.5
301.518	113.5
301.748	95.5
301.979	107.5
302.209	93.5
302.439	85.5
302.669	81.5
302.9	84.5
303.13	92.5
303.36	91.5
303.59	100.5
303.82	116.5
304.051	100.5
304.281	78.5
304.511	95.5
304.741	78.5
304.971	81.5
305.201	98.5
305.431	90.5
305.661	101.5
305.891	90.5
306.121	101.5
306.352	91.5
306.582	100.5
306.812	86.5
307.042	78.5
307.272	105.5
307.502	97.5
307.731	102.5
307.961	90.5
308.191	102.5
308.421	85.5
308.651	86.5
308.881	95.5
309.111	89.5
309.341	98.5
309.571	112.5
309.8	105.5
310.03	107.5
310.26	114.5
310.49	88.5
310.72	109.5
310.949	109.5
311.179	107.5
311.409	103.5
311.639	110.5
311.868	92.5
312.098	87.5
312.328	118.5
312.557	105.5
312.787	104.5
313.017	114.5
313.246	92.5
313.476	86.5
313.706	89.5
313.935	90.5
314.165	90.5
314.394	107.5
314.624	118.5
314.853	104.5
315.083	100.5
315.312	90.5
315.542	107.5
315.771	91.5
316.001	96.5
316.23	83.5
316.46	80.5
316.689	89.5
316.919	98.5
317.148	92.5
317.377	96.5
317.607	99.5
317.836	104.5
318.065	83.5
318.295	83.5
318.524	79.5
318.753	86.5
318.983	96.5
319.212	106.5
319.441	116.5
319.67	112.5
319.9	102.5
320.129	113.5
320.358	94.5
320.587	106.5
320.816	96.5
321.046	106.5
321.275	100.5
321.504	100.5
321.733	107.5
321.962	117.5
322.191	130.5
322.42	99.5
322.649	114.5
322.878	110.5
323.108	122.5
323.337	137.5
323.566	149.5
323.795	171.5
324.024	233.5
324.253	510.5
324.482	1104.5
324.71	2330.5
324.939	2990.5
325.168	1070.5
325.397	295.5
325.626	176.5
325.855	150.5
326.084	126.5
326.313	153.5
326.542	152.5
326.77	282.5
326.999	598.5
327.228	1256.5
327.457	2284.5
327.686	1777.5
327.914	456.5
328.143	223.5
328.372	165.5
328.6	140.5
328.829	116.5
329.058	133.5
329.287	149.5
329.515	126.5
329.744	107.5
329.972	106.5
330.201	105.5
330.43	119.5
330.658	139.5
330.887	168.5
331.115	128.5
331.344	104.5
331.572	106.5
331.801	120.5
332.03	112.5
332.258	96.5
332.486	93.5
332.715	85.5
332.943	99.5
333.172	92.5
333.4	98.5
333.629	102.5
333.857	107.5
334.085	122.5
334.314	99.5
334.542	124.5
334.771	109.5
334.999	92.5
335.227	105.5
335.455	88.5
335.684	97.5
335.912	82.5
336.14	112.5
336.369	106.5
336.597	113.5
336.825	103.5
337.053	103.5
337.281	98.5
337.51	88.5
337.738	97.5
337.966	83.5
338.194	98.5
338.422	107.5
338.65	87.5
338.878	89.5
339.106	81.5
339.334	98.5
339.562	88.5
339.79	96.5
340.018	97.5
340.246	94.5
340.474	93.5
340.702	97.5
340.93	101.5
341.158	89.5
341.386	93.5
341.614	93.5
341.842	73.5
342.07	94.5
342.298	95.5
342.526	86.5
342.754	94.5
342.981	93.5
343.209	96.5
343.437	97.5
343.665	87.5
343.893	87.5
344.12	108.5
344.348	85.5
344.576	90.5
344.804	92.5
345.031	104.5
345.259	87.5
345.487	92.5
345.714	90.5
345.942	94.5
346.17	103.5
346.397	96.5
346.625	84.5
346.853	86.5
347.08	87.5
347.308	112.5
347.535	108.5
347.763	116.5
347.99	105.5
348.218	107.5
348.445	107.5
348.673	114.5
348.9	99.5
349.128	93.5
349.355	82.5
349.583	89.5
349.81	85.5
350.037	90.5
350.265	96.5
350.492	81.5
350.72	93.5
350.947	98.5
351.174	114.5
351.402	116.5
351.629	91.5
351.856	106.5
352.083	112.5
352.311	103.5
352.538	120.5
352.765	114.5
352.992	137.5
353.22	131.5
353.447	113.5
353.674	109.5
353.901	102.5
354.128	93.5
354.355	94.5
354.583	115.5
354.81	99.5
355.037	92.5
355.264	99.5
355.491	96.5
355.718	97.5
355.945	100.5
356.172	92.5
356.399	105.5
356.626	108.5
356.853	109.5
357.08	93.5
357.307	96.5
357.534	98.5
357.761	90.5
357.988	95.5
358.215	107.5
358.441	102.5
358.668	86.5
358.895	103.5
359.122	88.5
359.349	92.5
359.576	103.5
359.802	101.5
360.029	131.5
360.256	123.5
360.483	115.5
360.709	81.5
360.936	100.5
361.163	97.5
361.39	92.5
361.616	86.5
361.843	94.5
362.07	106.5
362.296	106.5
362.523	88.5
362.749	98.5
362.976	89.5
363.203	85.5
363.429	90.5
363.656	101.5
363.882	87.5
364.109	92.5
364.335	84.5
364.562	94.5
364.788	92.5
365.015	104.5
365.241	93.5
365.468	109.5
365.694	95.5
365.92	97.5
366.147	99.5
366.373	94.5
366.599	98.5
366.826	88.5
367.052	95.5
367.278	85.5
367.505	94.5
367.731	99.5
367.957	101.5
368.184	100.5
368.41	103.5
368.636	107.5
368.862	117.5
369.089	125.5
369.315	96.5
369.541	76.5
369.767	99.5
369.993	105.5
370.219	84.5
370.445	80.5
370.672	81.5
370.898	102.5
371.124	105.5
371.35	78.5
371.576	93.5
371.802	84.5
372.028	99.5
372.254	94.5
372.48	94.5
372.706	98.5
372.932	84.5
373.158	97.5
373.384	90.5
373.61	96.5
373.835	93.5
374.061	88.5
374.287	101.5
374.513	97.5
374.739	98.5
374.965	76.5
375.191	84.5
375.416	100.5
375.642	90.5
375.868	95.5
376.094	101.5
376.319	89.5
376.545	75.5
376.771	99.5
376.997	89.5
377.222	93.5
377.448	91.5
377.674	90.5
377.899	92.5
378.125	90.5
378.35	97.5
378.576	88.5
378.802	88.5
379.027	90.5
379.253	99.5
379.478	102.5
379.704	97.5
379.929	83.5
380.155	105.5
380.38	92.5
380.606	115.5
380.831	93.5
381.057	91.5
381.282	113.5
381.507	112.5
381.733	120.5
381.958	108.5
382.184	116.5
382.409	112.5
382.634	117.5
382.86	106.5
383.085	115.5
383.31	101.5
383.535	118.5
383.761	120.5
383.986	106.5
384.211	108.5
384.436	114.5
384.662	116.5
384.887	129.5
385.112	136.5
385.337	136.5
385.562	131.5
385.787	124.5
386.013	126.5
386.238	147.5
386.463	132.5
386.688	133.5
386.913	116.5
387.138	117.5
387.363	117.5
387.588	127.5
387.813	114.5
388.038	141.5
388.263	147.5
388.488	127.5
388.713	105.5
388.938	99.5
389.163	107.5
389.387	103.5
389.612	99.5
389.837	92.5
390.062	95.5
390.287	97.5
390.512	87.5
390.736	85.5
390.961	99.5
391.186	93.5
391.411	106.5
391.636	93.5
391.86	78.5
392.085	83.5
392.31	90.5
392.534	61.5
392.759	83.5
392.984	111.5
393.208	109.5
393.433	136.5
393.658	116.5
393.882	84.5
394.107	78.5
394.331	96.5
394.556	84.5
394.78	93.5
395.005	80.5
395.229	85.5
395.454	92.5
395.678	86.5
395.903	80.5
396.127	87.5
396.352	114.5
396.576	99.5
396.801	112.5
397.025	98.5
397.249	85.5
397.474	93.5
397.698	87.5
397.922	85.5
398.147	85.5
398.371	71.5
398.595	93.5
398.82	87.5
399.044	95.5
399.268	102.5
399.492	91.5
399.717	92.5
399.941	84.5
400.165	92.5
400.389	90.5
400.613	90.5
400.837	90.5
401.062	87.5
401.286	82.5
401.51	85.5
401.734	99.5
401.958	93.5
402.182	128.5
402.406	184.5
402.63	147.5
402.854	109.5
403.078	83.5
403.302	101.5
403.526	86.5
403.75	83.5
403.974	75.5
404.198	91.5
404.422	86.5
404.645	93.5
404.869	94.5
405.093	90.5
405.317	106.5
405.541	91.5
405.765	108.5
405.988	135.5
406.212	204.5
406.436	264.5
406.66	157.5
406.883	114.5
407.107	108.5
407.331	100.5
407.555	117.5
407.778	116.5
408.002	98.5
408.226	103.5
408.449	94.5
408.673	83.5
408.896	105.5
409.12	108.5
409.344	87.5
409.567	80.5
409.791	98.5
410.014	96.5
410.238	86.5
410.461	106.5
410.685	114.5
410.908	102.5
411.132	114.5
411.355	113.5
411.578	102.5
411.802	80.5
412.025	93.5
412.249	94.5
412.472	93.5
412.695	98.5
412.919	101.5
413.142	97.5
413.365	84.5
413.589	102.5
413.812	82.5
414.035	96.5
414.258	100.5
414.482	96.5
414.705	88.5
414.928	97.5
415.151	100.5
415.374	91.5
415.597	89.5
415.821	90.5
416.044	93.5
416.267	89.5
416.49	89.5
416.713	77.5
416.936	101.5
417.159	99.5
417.382	84.5
417.605	87.5
417.828	96.5
418.051	101.5
418.274	88.5
418.497	92.5
418.72	89.5
418.943	91.5
419.166	83.5
419.389	82.5
419.611	92.5
419.834	88.5
420.057	74.5
420.28	78.5
420.503	99.5
420.726	78.5
420.948	86.5
421.171	104.5
421.394	99.5
421.617	86.5
421.839	90.5
422.062	99.5
422.285	107.5
422.507	113.5
422.73	113.5
422.953	108.5
423.175	91.5
423.398	79.5
423.621	92.5
423.843	97.5
424.066	85.5
424.288	91.5
424.511	93.5
424.733	90.5
424.956	123.5
425.178	103.5
425.401	96.5
425.623	99.5
425.846	101.5
426.068	105.5
426.291	94.5
426.513	96.5
426.735	78.5
426.958	76.5
427.18	111.5
427.402	154.5
427.625	198.5
427.847	148.5
428.069	112.5
428.292	81.5
428.514	96.5
428.736	93.5
428.958	87.5
429.181	92.5
429.403	88.5
429.625	82.5
429.847	106.5
430.069	109.5
430.292	93.5
430.514	94.5
430.736	72.5
430.958	93.5
431.18	88.5
431.402	81.5
431.624	82.5
431.846	84.5
432.068	83.5
432.29	92.5
432.512	105.5
432.734	88.5
432.956	97.5
433.178	104.5
433.4	107.5
433.622	109.5
433.844	96.5
434.066	96.5
434.287	75.5
434.509	92.5
434.731	89.5
434.953	88.5
435.175	77.5
435.397	95.5
435.618	98.5
435.84	109.5
436.062	114.5
436.284	112.5
436.505	89.5
436.727	103.5
436.949	103.5
437.17	93.5
437.392	81.5
437.614	89.5
437.835	106.5
438.057	128.5
438.278	107.5
438.5	113.5
438.721	139.5
438.943	108.5
439.165	78.5
439.386	96.5
439.608	97.5
439.829	105.5
440.05	145.5
440.272	162.5
440.493	109.5
440.715	75.5
440.936	94.5
441.158	90.5
441.379	99.5
441.6	83.5
441.822	88.5
442.043	99.5
442.264	97.5
442.486	105.5
442.707	104.5
442.928	116.5
443.149	133.5
443.371	158.5
443.592	120.5
443.813	113.5
444.034	122.5
444.255	90.5
444.476	82.5
444.698	78.5
444.919	84.5
445.14	133.5
445.361	120.5
445.582	136.5
445.803	155.5
446.024	152.5
446.245	151.5
446.466	131.5
446.687	93.5
446.908	97.5
447.129	79.5
447.35	85.5
447.571	91.5
447.792	83.5
448.013	92.5
448.234	113.5
448.455	109.5
448.675	114.5
448.896	142.5
449.117	106.5
449.338	118.5
449.559	145.5
449.779	152.5
450	96.5
450.221	84.5
450.442	87.5
450.662	115.5
450.883	108.5
451.104	124.5
451.324	99.5
451.545	93.5
451.766	75.5
451.986	85.5
452.207	91.5
452.428	104.5
452.648	123.5
452.869	109.5
453.089	113.5
453.31	124.5
453.53	100.5
453.751	101.5
453.971	108.5
454.192	115.5
454.412	99.5
454.633	97.5
454.853	86.5
455.073	93.5
455.294	80.5
455.514	104.5
455.734	91.5
455.955	78.5
456.175	91.5
456.395	85.5
456.616	91.5
456.836	86.5
457.056	76.5
457.276	94.5
457.497	84.5
457.717	96.5
457.937	87.5
458.157	93.5
458.377	90.5
458.598	109.5
458.818	168.5
459.038	192.5
459.258	134.5
459.478	106.5
459.698	89.5
459.918	97.5
460.138	89.5
460.358	87.5
460.578	96.5
460.798	91.5
461.018	94.5
461.238	98.5
461.458	103.5
461.678	89.5
461.898	89.5
462.118	82.5
462.338	98.5
462.558	77.5
462.777	99.5
462.997	83.5
463.217	87.5
463.437	76.5
463.657	97.5
463.876	85.5
464.096	85.5
464.316	96.5
464.536	100.5
464.755	109.5
464.975	116.5
465.195	200.5
465.414	188.5
465.634	101.5
465.854	77.5
466.073	93.5
466.293	87.5
466.512	94.5
466.732	80.5
466.951	86.5
467.171	94.5
467.391	92.5
467.61	108.5
467.829	88.5
468.049	79.5
468.268	73.5
468.488	83.5
468.707	93.5
468.927	91.5
469.146	96.5
469.365	106.5
469.585	85.5
469.804	92.5
470.023	91.5
470.243	99.5
470.462	97.5
470.681	121.5
470.901	89.5
471.12	90.5
471.339	80.5
471.558	92.5
471.777	95.5
471.997	78.5
472.216	95.5
472.435	119.5
472.654	87.5
472.873	99.5
473.092	92.5
473.311	91.5
473.53	87.5
473.749	94.5
473.968	92.5
474.187	105.5
474.406	87.5
474.625	77.5
474.844	98.5
475.063	94.5
475.282	85.5
475.501	81.5
475.72	93.5
475.939	92.5
476.158	82.5
476.377	96.5
476.596	88.5
476.814	100.5
477.033	108.5
477.252	82.5
477.471	91.5
477.69	85.5
477.908	73.5
478.127	94.5
478.346	83.5
478.564	79.5
478.783	105.5
479.002	108.5
479.22	90.5
479.439	95.5
479.658	120.5
479.876	109.5
480.095	101.5
480.313	87.5
480.532	91.5
480.751	75.5
480.969	94.5
481.188	109.5
481.406	120.5
481.624	94.5
481.843	83.5
482.061	91.5
482.28	100.5
482.498	93.5
482.717	88.5
482.935	102.5
483.153	98.5
483.372	96.5
483.59	101.5
483.808	93.5
484.027	90.5
484.245	98.5
484.463	86.5
484.681	92.5
484.9	96.5
485.118	88.5
485.336	97.5
485.554	88.5
485.772	92.5
485.99	108.5
486.209	109.5
486.427	89.5
486.645	103.5
486.863	109.5
487.081	101.5
487.299	92.5
487.517	105.5
487.735	79.5
487.953	77.5
488.171	89.5
488.389	91.5
488.607	96.5
488.825	87.5
489.043	97.5
489.261	86.5
489.479	93.5
489.696	93.5
489.914	87.5
490.132	96.5
490.35	95.5
490.568	85.5
490.786	88.5
491.003	90.5
491.221	91.5
491.439	88.5
491.657	98.5
491.874	86.5
492.092	73.5
492.31	89.5
492.527	91.5
492.745	82.5
492.963	76.5
493.18	103.5
493.398	85.5
493.615	102.5
493.833	100.5
494.05	95.5
494.268	86.5
494.485	89.5
494.703	94.5
494.92	94.5
495.138	84.5
495.355	99.5
495.573	101.5
495.79	91.5
496.008	83.5
496.225	98.5
496.442	92.5
496.66	89.5
496.877	75.5
497.094	99.5
497.312	81.5
497.529	97.5
497.746	98.5
497.963	85.5
498.181	93.5
498.398	109.5
498.615	105.5
498.832	106.5
499.049	90.5
499.267	93.5
499.484	85.5
499.701	89.5
499.918	93.5
500.135	91.5
500.352	98.5
500.569	91.5
500.786	87.5
501.003	87.5
501.22	103.5
501.437	86.5
501.654	81.5
501.871	115.5
502.088	98.5
502.305	100.5
502.522	80.5
502.739	89.5
502.956	91.5
503.172	86.5
503.389	98.5
503.606	114.5
503.823	100.5
504.04	105.5
504.256	107.5
504.473	98.5
504.69	90.5
504.907	92.5
505.123	87.5
505.34	91.5
505.557	97.5
505.773	100.5
505.99	97.5
506.207	95.5
506.423	94.5
506.64	94.5
506.856	81.5
507.073	83.5
507.289	83.5
507.506	111.5
507.722	111.5
507.939	108.5
508.155	94.5
508.372	93.5
508.588	98.5
508.805	106.5
509.021	96.5
509.238	94.5
509.454	110.5
509.67	113.5
509.887	106.5
510.103	152.5
510.319	250.5
510.536	893.5
510.752	3132.5
510.968	885.5
511.184	183.5
511.401	126.5
511.617	107.5
511.833	88.5
512.049	91.5
512.265	95.5
512.481	88.5
512.698	88.5
512.914	98.5
513.13	95.5
513.346	93.5
513.562	103.5
513.778	85.5
513.994	114.5
514.21	116.5
514.426	125.5
514.642	142.5
514.858	142.5
515.074	200.5
515.29	592.5
515.506	2040.5
515.721	733.5
515.937	189.5
516.153	123.5
516.369	104.5
516.585	86.5
516.801	94.5
517.016	104.5
517.232	109.5
517.448	98.5
517.664	107.5
517.879	83.5
518.095	95.5
518.311	81.5
518.527	95.5
518.742	80.5
518.958	90.5
519.173	93.5
519.389	88.5
519.605	83.5
519.82	88.5
520.036	99.5
520.251	120.5
520.467	114.5
520.682	121.5
520.898	108.5
521.113	117.5
521.329	148.5
521.544	249.5
521.76	764.5
521.975	3378.5
522.19	2048.5
522.406	400.5
522.621	131.5
522.836	120.5
523.052	93.5
523.267	94.5
523.482	97.5
523.698	112.5
523.913	116.5
524.128	99.5
524.343	106.5
524.559	100.5
524.774	94.5
524.989	96.5
525.204	104.5
525.419	103.5
525.634	85.5
525.849	90.5
526.064	84.5
526.28	92.5
526.495	78.5
526.71	85.5
526.925	82.5
527.14	77.5
527.355	90.5
527.57	81.5
527.785	75.5
527.999	89.5
528.214	86.5
528.429	94.5
528.644	97.5
528.859	98.5
529.074	108.5
529.289	141.5
529.503	217.5
529.718	96.5
529.933	99.5
530.148	98.5
530.363	99.5
530.577	91.5
530.792	93.5
531.007	100.5
531.221	86.5
531.436	90.5
531.651	92.5
531.865	87.5
532.08	83.5
532.295	89.5
532.509	96.5
532.724	75.5
532.938	91.5
533.153	72.5
533.367	97.5
533.582	96.5
533.796	104.5
