Data from Circ_2016_H10_HRD10591_00016.txt Node
Date: Wed Jan 03 09:58:43 EST 2024
User: Yrep
Spectrometer: HR+D1059
Trigger mode: 1
Integration Time (sec): 1.000000E-1
Scans to average: 1
Electric dark correction enabled: true
Nonlinearity correction enabled: false
Boxcar width: 0
XAxis mode: Wavelengths
Number of Pixels in Spectrum: 2048
>>>>>Begin Spectral Data<<<<<
223.165	-7.94
223.4	-7.94
223.635	-7.94
223.869	-15.94
224.104	-21.94
224.338	-34.94
224.573	-0.94
224.808	-3.94
225.042	-17.94
225.277	-6.94
225.511	0.06
225.746	0.06
225.98	3.06
226.215	8.06
226.449	27.06
226.683	28.06
226.918	20.06
227.152	24.06
227.387	30.06
227.621	24.06
227.856	44.06
228.09	48.06
228.324	54.06
228.559	58.06
228.793	67.06
229.027	48.06
229.262	66.06
229.496	73.06
229.73	74.06
229.964	96.06
230.199	68.06
230.433	79.06
230.667	72.06
230.901	83.06
231.136	74.06
231.37	81.06
231.604	73.06
231.838	83.06
232.072	75.06
232.306	95.06
232.541	66.06
232.775	86.06
233.009	64.06
233.243	86.06
233.477	74.06
233.711	86.06
233.945	82.06
234.179	80.06
234.413	83.06
234.647	77.06
234.881	89.06
235.115	81.06
235.349	73.06
235.583	71.06
235.817	90.06
236.051	82.06
236.285	83.06
236.519	101.06
236.753	66.06
236.987	78.06
237.221	72.06
237.455	79.06
237.689	92.06
237.922	73.06
238.156	72.06
238.39	84.06
238.624	84.06
238.858	73.06
239.091	73.06
239.325	69.06
239.559	92.06
239.793	86.06
240.027	66.06
240.26	79.06
240.494	86.06
240.728	64.06
240.961	67.06
241.195	81.06
241.429	74.06
241.662	70.06
241.896	79.06
242.13	79.06
242.363	76.06
242.597	79.06
242.83	74.06
243.064	68.06
243.298	81.06
243.531	83.06
243.765	83.06
243.998	88.06
244.232	87.06
244.465	93.06
244.699	80.06
244.932	64.06
245.166	79.06
245.399	70.06
245.633	78.06
245.866	82.06
246.099	79.06
246.333	76.06
246.566	75.06
246.8	92.06
247.033	96.06
247.266	70.06
247.5	85.06
247.733	82.06
247.966	77.06
248.2	90.06
248.433	57.06
248.666	70.06
248.899	86.06
249.133	99.06
249.366	96.06
249.599	98.06
249.832	88.06
250.066	68.06
250.299	80.06
250.532	88.06
250.765	69.06
250.998	75.06
251.231	78.06
251.465	77.06
251.698	82.06
251.931	69.06
252.164	82.06
252.397	85.06
252.63	77.06
252.863	73.06
253.096	87.06
253.329	78.06
253.562	86.06
253.795	83.06
254.028	77.06
254.261	82.06
254.494	86.06
254.727	80.06
254.96	67.06
255.193	82.06
255.426	73.06
255.659	78.06
255.892	82.06
256.124	74.06
256.357	88.06
256.59	72.06
256.823	89.06
257.056	87.06
257.289	81.06
257.521	76.06
257.754	76.06
257.987	65.06
258.22	77.06
258.452	85.06
258.685	92.06
258.918	82.06
259.151	73.06
259.383	73.06
259.616	84.06
259.849	78.06
260.081	82.06
260.314	92.06
260.547	80.06
260.779	66.06
261.012	92.06
261.244	73.06
261.477	90.06
261.71	96.06
261.942	110.06
262.175	101.06
262.407	92.06
262.64	99.06
262.872	76.06
263.105	90.06
263.337	96.06
263.57	87.06
263.802	92.06
264.035	81.06
264.267	78.06
264.499	83.06
264.732	81.06
264.964	74.06
265.197	84.06
265.429	76.06
265.661	92.06
265.894	81.06
266.126	86.06
266.358	98.06
266.591	83.06
266.823	84.06
267.055	77.06
267.287	69.06
267.52	86.06
267.752	97.06
267.984	84.06
268.216	86.06
268.448	80.06
268.681	84.06
268.913	88.06
269.145	86.06
269.377	92.06
269.609	76.06
269.841	81.06
270.073	78.06
270.306	86.06
270.538	76.06
270.77	67.06
271.002	90.06
271.234	83.06
271.466	82.06
271.698	84.06
271.93	78.06
272.162	84.06
272.394	77.06
272.626	88.06
272.858	66.06
273.09	87.06
273.322	92.06
273.553	89.06
273.785	94.06
274.017	77.06
274.249	82.06
274.481	93.06
274.713	92.06
274.945	82.06
275.176	82.06
275.408	100.06
275.64	82.06
275.872	89.06
276.104	91.06
276.335	88.06
276.567	100.06
276.799	89.06
277.031	82.06
277.262	72.06
277.494	82.06
277.726	93.06
277.957	88.06
278.189	85.06
278.421	95.06
278.652	95.06
278.884	76.06
279.115	73.06
279.347	84.06
279.579	94.06
279.81	88.06
280.042	75.06
280.273	86.06
280.505	80.06
280.736	79.06
280.968	89.06
281.199	98.06
281.431	81.06
281.662	79.06
281.894	78.06
282.125	89.06
282.356	114.06
282.588	127.06
282.819	104.06
283.051	106.06
283.282	81.06
283.513	84.06
283.745	91.06
283.976	93.06
284.207	85.06
284.439	81.06
284.67	81.06
284.901	87.06
285.132	89.06
285.364	74.06
285.595	91.06
285.826	76.06
286.057	89.06
286.288	90.06
286.52	97.06
286.751	90.06
286.982	76.06
287.213	86.06
287.444	84.06
287.675	85.06
287.906	77.06
288.138	86.06
288.369	106.06
288.6	94.06
288.831	96.06
289.062	86.06
289.293	101.06
289.524	86.06
289.755	78.06
289.986	93.06
290.217	75.06
290.448	80.06
290.679	81.06
290.91	80.06
291.141	84.06
291.371	99.06
291.602	91.06
291.833	90.06
292.064	85.06
292.295	93.06
292.526	89.06
292.757	94.06
292.987	88.06
293.218	93.06
293.449	90.06
293.68	83.06
293.91	101.06
294.141	104.06
294.372	78.06
294.603	85.06
294.833	74.06
295.064	91.06
295.295	86.06
295.525	94.06
295.756	99.06
295.987	118.06
296.217	145.06
296.448	123.06
296.679	97.06
296.909	82.06
297.14	91.06
297.37	96.06
297.601	81.06
297.831	97.06
298.062	95.06
298.292	78.06
298.523	91.06
298.753	92.06
298.984	83.06
299.214	87.06
299.445	93.06
299.675	92.06
299.905	89.06
300.136	87.06
300.366	88.06
300.597	75.06
300.827	87.06
301.057	105.06
301.288	105.06
301.518	96.06
301.748	94.06
301.979	96.06
302.209	95.06
302.439	83.06
302.669	94.06
302.9	92.06
303.13	90.06
303.36	92.06
303.59	89.06
303.82	102.06
304.051	91.06
304.281	85.06
304.511	94.06
304.741	72.06
304.971	91.06
305.201	92.06
305.431	88.06
305.661	104.06
305.891	90.06
306.121	100.06
306.352	92.06
306.582	114.06
306.812	90.06
307.042	99.06
307.272	90.06
307.502	91.06
307.731	93.06
307.961	77.06
308.191	84.06
308.421	99.06
308.651	81.06
308.881	92.06
309.111	89.06
309.341	92.06
309.571	95.06
309.8	86.06
310.03	107.06
310.26	98.06
310.49	79.06
310.72	88.06
310.949	109.06
311.179	76.06
311.409	100.06
311.639	90.06
311.868	98.06
312.098	105.06
312.328	101.06
312.557	93.06
312.787	107.06
313.017	115.06
313.246	90.06
313.476	88.06
313.706	104.06
313.935	86.06
314.165	92.06
314.394	100.06
314.624	80.06
314.853	83.06
315.083	97.06
315.312	86.06
315.542	96.06
315.771	90.06
316.001	89.06
316.23	77.06
316.46	88.06
316.689	92.06
316.919	91.06
317.148	99.06
317.377	98.06
317.607	93.06
317.836	89.06
318.065	96.06
318.295	87.06
318.524	84.06
318.753	105.06
318.983	91.06
319.212	96.06
319.441	113.06
319.67	101.06
319.9	77.06
320.129	110.06
320.358	85.06
320.587	84.06
320.816	90.06
321.046	92.06
321.275	97.06
321.504	109.06
321.733	90.06
321.962	105.06
322.191	101.06
322.42	98.06
322.649	118.06
322.878	123.06
323.108	117.06
323.337	113.06
323.566	128.06
323.795	152.06
324.024	215.06
324.253	436.06
324.482	928.06
324.71	1920.06
324.939	2593.06
325.168	932.06
325.397	261.06
325.626	164.06
325.855	141.06
326.084	125.06
326.313	148.06
326.542	161.06
326.77	258.06
326.999	514.06
327.228	1076.06
327.457	1949.06
327.686	1586.06
327.914	396.06
328.143	203.06
328.372	153.06
328.6	131.06
328.829	114.06
329.058	120.06
329.287	132.06
329.515	102.06
329.744	97.06
329.972	97.06
330.201	86.06
330.43	115.06
330.658	120.06
330.887	138.06
331.115	115.06
331.344	101.06
331.572	90.06
331.801	93.06
332.03	109.06
332.258	90.06
332.486	86.06
332.715	96.06
332.943	111.06
333.172	114.06
333.4	107.06
333.629	107.06
333.857	114.06
334.085	113.06
334.314	78.06
334.542	96.06
334.771	91.06
334.999	96.06
335.227	98.06
335.455	99.06
335.684	87.06
335.912	93.06
336.14	90.06
336.369	98.06
336.597	99.06
336.825	112.06
337.053	99.06
337.281	98.06
337.51	89.06
337.738	99.06
337.966	85.06
338.194	95.06
338.422	108.06
338.65	87.06
338.878	101.06
339.106	94.06
339.334	97.06
339.562	86.06
339.79	89.06
340.018	84.06
340.246	99.06
340.474	85.06
340.702	104.06
340.93	101.06
341.158	120.06
341.386	88.06
341.614	100.06
341.842	97.06
342.07	94.06
342.298	98.06
342.526	93.06
342.754	84.06
342.981	76.06
343.209	80.06
343.437	89.06
343.665	99.06
343.893	90.06
344.12	96.06
344.348	83.06
344.576	81.06
344.804	84.06
345.031	108.06
345.259	89.06
345.487	93.06
345.714	83.06
345.942	89.06
346.17	89.06
346.397	88.06
346.625	96.06
346.853	98.06
347.08	84.06
347.308	92.06
347.535	104.06
347.763	106.06
347.99	87.06
348.218	105.06
348.445	99.06
348.673	107.06
348.9	110.06
349.128	81.06
349.355	98.06
349.583	93.06
349.81	94.06
350.037	107.06
350.265	92.06
350.492	90.06
350.72	105.06
350.947	97.06
351.174	118.06
351.402	109.06
351.629	101.06
351.856	112.06
352.083	108.06
352.311	115.06
352.538	124.06
352.765	107.06
352.992	108.06
353.22	130.06
353.447	109.06
353.674	103.06
353.901	97.06
354.128	96.06
354.355	97.06
354.583	99.06
354.81	100.06
355.037	101.06
355.264	95.06
355.491	98.06
355.718	94.06
355.945	114.06
356.172	115.06
356.399	100.06
356.626	88.06
356.853	87.06
357.08	100.06
357.307	94.06
357.534	90.06
357.761	98.06
357.988	85.06
358.215	119.06
358.441	109.06
358.668	116.06
358.895	93.06
359.122	86.06
359.349	94.06
359.576	102.06
359.802	112.06
360.029	118.06
360.256	107.06
360.483	102.06
360.709	101.06
360.936	96.06
361.163	99.06
361.39	93.06
361.616	89.06
361.843	88.06
362.07	99.06
362.296	108.06
362.523	79.06
362.749	94.06
362.976	84.06
363.203	84.06
363.429	76.06
363.656	86.06
363.882	100.06
364.109	95.06
364.335	105.06
364.562	97.06
364.788	96.06
365.015	89.06
365.241	83.06
365.468	105.06
365.694	105.06
365.92	101.06
366.147	86.06
366.373	94.06
366.599	85.06
366.826	90.06
367.052	91.06
367.278	88.06
367.505	89.06
367.731	97.06
367.957	81.06
368.184	107.06
368.41	86.06
368.636	99.06
368.862	105.06
369.089	120.06
369.315	101.06
369.541	96.06
369.767	84.06
369.993	93.06
370.219	96.06
370.445	92.06
370.672	109.06
370.898	90.06
371.124	80.06
371.35	96.06
371.576	77.06
371.802	97.06
372.028	109.06
372.254	90.06
372.48	95.06
372.706	92.06
372.932	83.06
373.158	91.06
373.384	88.06
373.61	91.06
373.835	99.06
374.061	98.06
374.287	82.06
374.513	97.06
374.739	89.06
374.965	75.06
375.191	88.06
375.416	75.06
375.642	95.06
375.868	92.06
376.094	107.06
376.319	99.06
376.545	97.06
376.771	93.06
376.997	88.06
377.222	107.06
377.448	107.06
377.674	89.06
377.899	98.06
378.125	111.06
378.35	105.06
378.576	102.06
378.802	89.06
379.027	98.06
379.253	103.06
379.478	113.06
379.704	101.06
379.929	102.06
380.155	103.06
380.38	95.06
380.606	96.06
380.831	111.06
381.057	99.06
381.282	117.06
381.507	117.06
381.733	108.06
381.958	118.06
382.184	113.06
382.409	124.06
382.634	130.06
382.86	138.06
383.085	131.06
383.31	110.06
383.535	153.06
383.761	121.06
383.986	129.06
384.211	127.06
384.436	127.06
384.662	129.06
384.887	139.06
385.112	157.06
385.337	157.06
385.562	145.06
385.787	141.06
386.013	149.06
386.238	166.06
386.463	151.06
386.688	136.06
386.913	147.06
387.138	148.06
387.363	135.06
387.588	117.06
387.813	137.06
388.038	168.06
388.263	155.06
388.488	178.06
388.713	108.06
388.938	70.06
389.163	98.06
389.387	88.06
389.612	91.06
389.837	98.06
390.062	103.06
390.287	96.06
390.512	83.06
390.736	83.06
390.961	100.06
391.186	89.06
391.411	87.06
391.636	98.06
391.86	91.06
392.085	76.06
392.31	91.06
392.534	109.06
392.759	101.06
392.984	96.06
393.208	104.06
393.433	129.06
393.658	109.06
393.882	82.06
394.107	91.06
394.331	78.06
394.556	88.06
394.78	93.06
395.005	87.06
395.229	92.06
395.454	89.06
395.678	102.06
395.903	86.06
396.127	86.06
396.352	84.06
396.576	93.06
396.801	105.06
397.025	108.06
397.249	86.06
397.474	86.06
397.698	82.06
397.922	86.06
398.147	95.06
398.371	87.06
398.595	100.06
398.82	93.06
399.044	88.06
399.268	77.06
399.492	86.06
399.717	100.06
399.941	94.06
400.165	87.06
400.389	93.06
400.613	83.06
400.837	95.06
401.062	90.06
401.286	104.06
401.51	95.06
401.734	98.06
401.958	98.06
402.182	112.06
402.406	158.06
402.63	109.06
402.854	97.06
403.078	84.06
403.302	95.06
403.526	78.06
403.75	96.06
403.974	89.06
404.198	81.06
404.422	85.06
404.645	103.06
404.869	82.06
405.093	97.06
405.317	95.06
405.541	96.06
405.765	113.06
405.988	136.06
406.212	170.06
406.436	233.06
406.66	148.06
406.883	115.06
407.107	96.06
407.331	100.06
407.555	104.06
407.778	89.06
408.002	100.06
408.226	89.06
408.449	100.06
408.673	101.06
408.896	100.06
409.12	100.06
409.344	87.06
409.567	78.06
409.791	85.06
410.014	94.06
410.238	93.06
410.461	100.06
410.685	89.06
410.908	96.06
411.132	107.06
411.355	93.06
411.578	83.06
411.802	97.06
412.025	94.06
412.249	90.06
412.472	86.06
412.695	96.06
412.919	78.06
413.142	96.06
413.365	97.06
413.589	89.06
413.812	89.06
414.035	93.06
414.258	90.06
414.482	81.06
414.705	107.06
414.928	102.06
415.151	120.06
415.374	93.06
415.597	96.06
415.821	93.06
416.044	87.06
416.267	93.06
416.49	92.06
416.713	100.06
416.936	83.06
417.159	98.06
417.382	87.06
417.605	103.06
417.828	99.06
418.051	101.06
418.274	88.06
418.497	91.06
418.72	74.06
418.943	90.06
419.166	76.06
419.389	92.06
419.611	89.06
419.834	91.06
420.057	96.06
420.28	93.06
420.503	74.06
420.726	85.06
420.948	112.06
421.171	103.06
421.394	87.06
421.617	92.06
421.839	96.06
422.062	95.06
422.285	100.06
422.507	102.06
422.73	124.06
422.953	115.06
423.175	107.06
423.398	88.06
423.621	90.06
423.843	97.06
424.066	83.06
424.288	95.06
424.511	98.06
424.733	101.06
424.956	104.06
425.178	100.06
425.401	105.06
425.623	94.06
425.846	96.06
426.068	99.06
426.291	87.06
426.513	94.06
426.735	97.06
426.958	100.06
427.18	94.06
427.402	129.06
427.625	166.06
427.847	135.06
428.069	82.06
428.292	89.06
428.514	86.06
428.736	84.06
428.958	72.06
429.181	89.06
429.403	86.06
429.625	79.06
429.847	97.06
430.069	91.06
430.292	78.06
430.514	75.06
430.736	64.06
430.958	97.06
431.18	82.06
431.402	66.06
431.624	96.06
431.846	97.06
432.068	82.06
432.29	83.06
432.512	85.06
432.734	93.06
432.956	79.06
433.178	91.06
433.4	102.06
433.622	94.06
433.844	93.06
434.066	99.06
434.287	80.06
434.509	90.06
434.731	96.06
434.953	93.06
435.175	94.06
435.397	90.06
435.618	91.06
435.84	89.06
436.062	125.06
436.284	124.06
436.505	110.06
436.727	115.06
436.949	100.06
437.17	84.06
437.392	69.06
437.614	89.06
437.835	110.06
438.057	121.06
438.278	108.06
438.5	97.06
438.721	117.06
438.943	94.06
439.165	105.06
439.386	106.06
439.608	91.06
439.829	96.06
440.05	126.06
440.272	146.06
440.493	97.06
440.715	88.06
440.936	92.06
441.158	77.06
441.379	100.06
441.6	99.06
441.822	88.06
442.043	94.06
442.264	103.06
442.486	94.06
442.707	105.06
442.928	101.06
443.149	135.06
443.371	139.06
443.592	113.06
443.813	108.06
444.034	107.06
444.255	87.06
444.476	94.06
444.698	92.06
444.919	98.06
445.14	129.06
445.361	124.06
445.582	113.06
445.803	144.06
446.024	131.06
446.245	135.06
446.466	102.06
446.687	91.06
446.908	94.06
447.129	111.06
447.35	81.06
447.571	86.06
447.792	86.06
448.013	101.06
448.234	129.06
448.455	100.06
448.675	113.06
448.896	120.06
449.117	102.06
449.338	120.06
449.559	134.06
449.779	131.06
450	95.06
450.221	91.06
450.442	86.06
450.662	91.06
450.883	100.06
451.104	108.06
451.324	97.06
451.545	92.06
451.766	83.06
451.986	89.06
452.207	76.06
452.428	90.06
452.648	89.06
452.869	103.06
453.089	104.06
453.31	114.06
453.53	97.06
453.751	87.06
453.971	96.06
454.192	117.06
454.412	92.06
454.633	90.06
454.853	84.06
455.073	85.06
455.294	92.06
455.514	104.06
455.734	91.06
455.955	93.06
456.175	96.06
456.395	100.06
456.616	90.06
456.836	84.06
457.056	85.06
457.276	81.06
457.497	84.06
457.717	83.06
457.937	87.06
458.157	83.06
458.377	92.06
458.598	110.06
458.818	160.06
459.038	158.06
459.258	115.06
459.478	89.06
459.698	89.06
459.918	84.06
460.138	82.06
460.358	78.06
460.578	92.06
460.798	79.06
461.018	105.06
461.238	104.06
461.458	93.06
461.678	84.06
461.898	82.06
462.118	84.06
462.338	92.06
462.558	82.06
462.777	71.06
462.997	81.06
463.217	76.06
463.437	93.06
463.657	97.06
463.876	93.06
464.096	84.06
464.316	81.06
464.536	92.06
464.755	75.06
464.975	103.06
465.195	178.06
465.414	148.06
465.634	88.06
465.854	88.06
466.073	81.06
466.293	94.06
466.512	97.06
466.732	76.06
466.951	84.06
467.171	86.06
467.391	97.06
467.61	101.06
467.829	101.06
468.049	89.06
468.268	93.06
468.488	87.06
468.707	88.06
468.927	78.06
469.146	88.06
469.365	93.06
469.585	90.06
469.804	98.06
470.023	98.06
470.243	81.06
470.462	99.06
470.681	99.06
470.901	90.06
471.12	95.06
471.339	102.06
471.558	82.06
471.777	89.06
471.997	81.06
472.216	76.06
472.435	89.06
472.654	86.06
472.873	82.06
473.092	77.06
473.311	92.06
473.53	81.06
473.749	90.06
473.968	86.06
474.187	105.06
474.406	94.06
474.625	96.06
474.844	96.06
475.063	87.06
475.282	98.06
475.501	96.06
475.72	96.06
475.939	90.06
476.158	81.06
476.377	90.06
476.596	87.06
476.814	118.06
477.033	97.06
477.252	100.06
477.471	83.06
477.69	90.06
477.908	81.06
478.127	78.06
478.346	75.06
478.564	84.06
478.783	96.06
479.002	96.06
479.22	91.06
479.439	102.06
479.658	109.06
479.876	91.06
480.095	94.06
480.313	92.06
480.532	94.06
480.751	89.06
480.969	97.06
481.188	93.06
481.406	95.06
481.624	92.06
481.843	84.06
482.061	84.06
482.28	82.06
482.498	92.06
482.717	78.06
482.935	90.06
483.153	95.06
483.372	76.06
483.59	93.06
483.808	79.06
484.027	86.06
484.245	88.06
484.463	93.06
484.681	105.06
484.9	92.06
485.118	82.06
485.336	81.06
485.554	101.06
485.772	88.06
485.99	101.06
486.209	109.06
486.427	107.06
486.645	132.06
486.863	119.06
487.081	97.06
487.299	99.06
487.517	96.06
487.735	92.06
487.953	95.06
488.171	89.06
488.389	102.06
488.607	100.06
488.825	95.06
489.043	87.06
489.261	97.06
489.479	79.06
489.696	86.06
489.914	97.06
490.132	79.06
490.35	81.06
490.568	95.06
490.786	98.06
491.003	93.06
491.221	93.06
491.439	84.06
491.657	92.06
491.874	91.06
492.092	90.06
492.31	97.06
492.527	76.06
492.745	87.06
492.963	96.06
493.18	98.06
493.398	87.06
493.615	102.06
493.833	89.06
494.05	85.06
494.268	74.06
494.485	91.06
494.703	90.06
494.92	98.06
495.138	81.06
495.355	94.06
495.573	98.06
495.79	107.06
496.008	94.06
496.225	101.06
496.442	75.06
496.66	93.06
496.877	80.06
497.094	89.06
497.312	76.06
497.529	84.06
497.746	89.06
497.963	102.06
498.181	100.06
498.398	109.06
498.615	124.06
498.832	113.06
499.049	98.06
499.267	93.06
499.484	97.06
499.701	85.06
499.918	84.06
500.135	84.06
500.352	78.06
500.569	98.06
500.786	94.06
501.003	78.06
501.22	85.06
501.437	99.06
501.654	92.06
501.871	109.06
502.088	96.06
502.305	86.06
502.522	93.06
502.739	98.06
502.956	102.06
503.172	97.06
503.389	97.06
503.606	102.06
503.823	112.06
504.04	93.06
504.256	90.06
504.473	85.06
504.69	83.06
504.907	93.06
505.123	93.06
505.34	101.06
505.557	89.06
505.773	88.06
505.99	86.06
506.207	84.06
506.423	77.06
506.64	86.06
506.856	82.06
507.073	77.06
507.289	84.06
507.506	96.06
507.722	113.06
507.939	112.06
508.155	85.06
508.372	86.06
508.588	96.06
508.805	106.06
509.021	94.06
509.238	119.06
509.454	107.06
509.67	101.06
509.887	109.06
510.103	118.06
510.319	206.06
510.536	743.06
510.752	2684.06
510.968	760.06
511.184	170.06
511.401	99.06
511.617	97.06
511.833	99.06
512.049	88.06
512.265	90.06
512.481	85.06
512.698	101.06
512.914	93.06
513.13	96.06
513.346	82.06
513.562	92.06
513.778	101.06
513.994	100.06
514.21	104.06
514.426	122.06
514.642	127.06
514.858	128.06
515.074	170.06
515.29	464.06
