Data from Circ_2016_H10_HRD10591_00033.txt Node
Date: Wed Jan 03 09:58:47 EST 2024
User: Yrep
Spectrometer: HR+D1059
Trigger mode: 1
Integration Time (sec): 1.000000E-1
Scans to average: 1
Electric dark correction enabled: true
Nonlinearity correction enabled: false
Boxcar width: 0
XAxis mode: Wavelengths
Number of Pixels in Spectrum: 2048
>>>>>Begin Spectral Data<<<<<
223.165	-19.94
223.4	-19.94
223.635	-19.94
223.869	-19.94
224.104	-1.94
224.338	-11.94
224.573	-12.94
224.808	-14.94
225.042	-8.94
225.277	-5.94
225.511	-0.94
225.746	2.06
225.98	-3.94
226.215	10.06
226.449	17.06
226.683	0.06
226.918	31.06
227.152	41.06
227.387	53.06
227.621	30.06
227.856	54.06
228.09	58.06
228.324	44.06
228.559	64.06
228.793	61.06
229.027	61.06
229.262	70.06
229.496	80.06
229.73	83.06
229.964	91.06
230.199	82.06
230.433	85.06
230.667	88.06
230.901	85.06
231.136	85.06
231.37	93.06
231.604	83.06
231.838	80.06
232.072	77.06
232.306	79.06
232.541	80.06
232.775	77.06
233.009	78.06
233.243	85.06
233.477	70.06
233.711	78.06
233.945	85.06
234.179	78.06
234.413	85.06
234.647	84.06
234.881	90.06
235.115	84.06
235.349	87.06
235.583	83.06
235.817	85.06
236.051	78.06
236.285	82.06
236.519	85.06
236.753	66.06
236.987	85.06
237.221	86.06
237.455	77.06
237.689	71.06
237.922	71.06
238.156	83.06
238.39	74.06
238.624	74.06
238.858	83.06
239.091	77.06
239.325	75.06
239.559	78.06
239.793	80.06
240.027	76.06
240.26	90.06
240.494	81.06
240.728	77.06
240.961	80.06
241.195	83.06
241.429	77.06
241.662	82.06
241.896	90.06
242.13	84.06
242.363	80.06
242.597	73.06
242.83	87.06
243.064	74.06
243.298	68.06
243.531	77.06
243.765	86.06
243.998	73.06
244.232	92.06
244.465	85.06
244.699	85.06
244.932	72.06
245.166	70.06
245.399	74.06
245.633	74.06
245.866	88.06
246.099	82.06
246.333	67.06
246.566	78.06
246.8	74.06
247.033	91.06
247.266	80.06
247.5	77.06
247.733	92.06
247.966	72.06
248.2	80.06
248.433	85.06
248.666	84.06
248.899	81.06
249.133	78.06
249.366	108.06
249.599	105.06
249.832	83.06
250.066	82.06
250.299	78.06
250.532	92.06
250.765	71.06
250.998	84.06
251.231	88.06
251.465	83.06
251.698	92.06
251.931	71.06
252.164	75.06
252.397	85.06
252.63	86.06
252.863	89.06
253.096	68.06
253.329	76.06
253.562	90.06
253.795	76.06
254.028	85.06
254.261	79.06
254.494	94.06
254.727	70.06
254.96	88.06
255.193	87.06
255.426	90.06
255.659	88.06
255.892	71.06
256.124	93.06
256.357	82.06
256.59	70.06
256.823	89.06
257.056	98.06
257.289	90.06
257.521	78.06
257.754	76.06
257.987	83.06
258.22	83.06
258.452	89.06
258.685	78.06
258.918	85.06
259.151	75.06
259.383	82.06
259.616	90.06
259.849	84.06
260.081	87.06
260.314	83.06
260.547	91.06
260.779	80.06
261.012	93.06
261.244	89.06
261.477	93.06
261.71	100.06
261.942	130.06
262.175	137.06
262.407	103.06
262.64	83.06
262.872	86.06
263.105	77.06
263.337	96.06
263.57	89.06
263.802	80.06
264.035	76.06
264.267	74.06
264.499	97.06
264.732	84.06
264.964	96.06
265.197	93.06
265.429	81.06
265.661	89.06
265.894	86.06
266.126	80.06
266.358	79.06
266.591	82.06
266.823	70.06
267.055	90.06
267.287	78.06
267.52	91.06
267.752	91.06
267.984	78.06
268.216	75.06
268.448	91.06
268.681	89.06
268.913	79.06
269.145	87.06
269.377	86.06
269.609	85.06
269.841	88.06
270.073	91.06
270.306	76.06
270.538	82.06
270.77	84.06
271.002	87.06
271.234	86.06
271.466	91.06
271.698	81.06
271.93	83.06
272.162	102.06
272.394	99.06
272.626	91.06
272.858	92.06
273.09	85.06
273.322	80.06
273.553	68.06
273.785	101.06
274.017	83.06
274.249	83.06
274.481	85.06
274.713	92.06
274.945	83.06
275.176	88.06
275.408	92.06
275.64	103.06
275.872	84.06
276.104	77.06
276.335	91.06
276.567	96.06
276.799	107.06
277.031	114.06
277.262	92.06
277.494	88.06
277.726	86.06
277.957	88.06
278.189	89.06
278.421	91.06
278.652	91.06
278.884	82.06
279.115	91.06
279.347	85.06
279.579	68.06
279.81	84.06
280.042	95.06
280.273	100.06
280.505	88.06
280.736	91.06
280.968	100.06
281.199	85.06
281.431	96.06
281.662	100.06
281.894	91.06
282.125	100.06
282.356	115.06
282.588	164.06
282.819	117.06
283.051	104.06
283.282	76.06
283.513	99.06
283.745	107.06
283.976	88.06
284.207	90.06
284.439	85.06
284.67	99.06
284.901	79.06
285.132	88.06
285.364	103.06
285.595	89.06
285.826	91.06
286.057	97.06
286.288	84.06
286.52	77.06
286.751	87.06
286.982	83.06
287.213	80.06
287.444	95.06
287.675	100.06
287.906	88.06
288.138	86.06
288.369	94.06
288.6	105.06
288.831	77.06
289.062	84.06
289.293	89.06
289.524	111.06
289.755	106.06
289.986	93.06
290.217	91.06
290.448	79.06
290.679	81.06
290.91	91.06
291.141	93.06
291.371	96.06
291.602	100.06
291.833	100.06
292.064	86.06
292.295	100.06
292.526	94.06
292.757	97.06
292.987	90.06
293.218	85.06
293.449	83.06
293.68	83.06
293.91	85.06
294.141	92.06
294.372	88.06
294.603	101.06
294.833	92.06
295.064	71.06
295.295	98.06
295.525	81.06
295.756	109.06
295.987	127.06
296.217	156.06
296.448	155.06
296.679	103.06
296.909	101.06
297.14	80.06
297.37	107.06
297.601	91.06
297.831	94.06
298.062	99.06
298.292	94.06
298.523	96.06
298.753	98.06
298.984	95.06
299.214	81.06
299.445	76.06
299.675	113.06
299.905	106.06
300.136	99.06
300.366	98.06
300.597	83.06
300.827	106.06
301.057	111.06
301.288	103.06
301.518	105.06
301.748	95.06
301.979	104.06
302.209	86.06
302.439	84.06
302.669	100.06
302.9	90.06
303.13	86.06
303.36	79.06
303.59	102.06
303.82	111.06
304.051	109.06
304.281	81.06
304.511	98.06
304.741	90.06
304.971	99.06
305.201	91.06
305.431	101.06
305.661	90.06
305.891	85.06
306.121	116.06
306.352	118.06
306.582	102.06
306.812	96.06
307.042	96.06
307.272	100.06
307.502	90.06
307.731	110.06
307.961	98.06
308.191	79.06
308.421	97.06
308.651	94.06
308.881	84.06
309.111	95.06
309.341	90.06
309.571	110.06
309.8	108.06
310.03	106.06
310.26	104.06
310.49	104.06
310.72	94.06
310.949	101.06
311.179	127.06
311.409	96.06
311.639	84.06
311.868	100.06
312.098	112.06
312.328	90.06
312.557	110.06
312.787	106.06
313.017	102.06
313.246	104.06
313.476	95.06
313.706	101.06
313.935	100.06
314.165	98.06
314.394	104.06
314.624	105.06
314.853	111.06
315.083	95.06
315.312	96.06
315.542	99.06
315.771	104.06
316.001	95.06
316.23	95.06
316.46	67.06
316.689	74.06
316.919	89.06
317.148	93.06
317.377	89.06
317.607	88.06
317.836	103.06
318.065	86.06
318.295	80.06
318.524	99.06
318.753	95.06
318.983	111.06
319.212	110.06
319.441	114.06
319.67	127.06
319.9	92.06
320.129	105.06
320.358	111.06
320.587	105.06
320.816	105.06
321.046	100.06
321.275	114.06
321.504	99.06
321.733	104.06
321.962	113.06
322.191	118.06
322.42	111.06
322.649	102.06
322.878	138.06
323.108	122.06
323.337	152.06
323.566	155.06
323.795	194.06
324.024	271.06
324.253	533.06
324.482	1172.06
324.71	2472.06
324.939	3189.06
325.168	1166.06
325.397	326.06
325.626	186.06
325.855	142.06
326.084	137.06
326.313	155.06
326.542	184.06
326.77	298.06
326.999	628.06
327.228	1318.06
327.457	2442.06
327.686	1835.06
327.914	487.06
328.143	232.06
328.372	169.06
328.6	147.06
328.829	149.06
329.058	154.06
329.287	168.06
329.515	134.06
329.744	110.06
329.972	107.06
330.201	102.06
330.43	131.06
330.658	138.06
330.887	173.06
331.115	130.06
331.344	114.06
331.572	104.06
331.801	111.06
332.03	109.06
332.258	100.06
332.486	120.06
332.715	91.06
332.943	109.06
333.172	107.06
333.4	102.06
333.629	118.06
333.857	128.06
334.085	119.06
334.314	89.06
334.542	118.06
334.771	108.06
334.999	121.06
335.227	101.06
335.455	104.06
335.684	111.06
335.912	96.06
336.14	110.06
336.369	98.06
336.597	107.06
336.825	103.06
337.053	97.06
337.281	94.06
337.51	105.06
337.738	99.06
337.966	95.06
338.194	101.06
338.422	104.06
338.65	102.06
338.878	103.06
339.106	108.06
339.334	102.06
339.562	104.06
339.79	90.06
340.018	96.06
340.246	100.06
340.474	104.06
340.702	99.06
340.93	99.06
341.158	102.06
341.386	96.06
341.614	107.06
341.842	101.06
342.07	98.06
342.298	102.06
342.526	107.06
342.754	84.06
342.981	95.06
343.209	98.06
343.437	110.06
343.665	89.06
343.893	107.06
344.12	76.06
344.348	96.06
344.576	94.06
344.804	96.06
345.031	100.06
345.259	106.06
345.487	89.06
345.714	96.06
345.942	98.06
346.17	85.06
346.397	91.06
346.625	99.06
346.853	94.06
347.08	93.06
347.308	97.06
347.535	105.06
347.763	90.06
347.99	109.06
348.218	93.06
348.445	110.06
348.673	104.06
348.9	100.06
349.128	92.06
349.355	102.06
349.583	86.06
349.81	103.06
350.037	102.06
350.265	102.06
350.492	103.06
350.72	82.06
350.947	115.06
351.174	110.06
351.402	128.06
351.629	100.06
351.856	101.06
352.083	103.06
352.311	129.06
352.538	134.06
352.765	127.06
352.992	123.06
353.22	125.06
353.447	104.06
353.674	100.06
353.901	83.06
354.128	85.06
354.355	101.06
354.583	109.06
354.81	111.06
355.037	118.06
355.264	105.06
355.491	106.06
355.718	108.06
355.945	102.06
356.172	116.06
356.399	107.06
356.626	104.06
356.853	86.06
357.08	104.06
357.307	97.06
357.534	110.06
357.761	103.06
357.988	98.06
358.215	103.06
358.441	86.06
358.668	105.06
358.895	106.06
359.122	104.06
359.349	86.06
359.576	88.06
359.802	119.06
360.029	127.06
360.256	118.06
360.483	112.06
360.709	99.06
360.936	106.06
361.163	114.06
361.39	87.06
361.616	98.06
361.843	94.06
362.07	94.06
362.296	94.06
362.523	117.06
362.749	93.06
362.976	77.06
363.203	82.06
363.429	89.06
363.656	86.06
363.882	98.06
364.109	82.06
364.335	98.06
364.562	91.06
364.788	95.06
365.015	108.06
365.241	103.06
365.468	128.06
365.694	106.06
365.92	101.06
366.147	101.06
366.373	106.06
366.599	106.06
366.826	103.06
367.052	91.06
367.278	89.06
367.505	94.06
367.731	93.06
367.957	96.06
368.184	94.06
368.41	105.06
368.636	116.06
368.862	122.06
369.089	122.06
369.315	115.06
369.541	90.06
369.767	96.06
369.993	93.06
370.219	84.06
370.445	100.06
370.672	81.06
370.898	87.06
371.124	116.06
371.35	110.06
371.576	91.06
371.802	81.06
372.028	98.06
372.254	100.06
372.48	87.06
372.706	95.06
372.932	87.06
373.158	91.06
373.384	101.06
373.61	89.06
373.835	96.06
374.061	97.06
374.287	95.06
374.513	93.06
374.739	91.06
374.965	99.06
375.191	95.06
375.416	89.06
375.642	100.06
375.868	91.06
376.094	99.06
376.319	90.06
376.545	101.06
376.771	101.06
376.997	82.06
377.222	95.06
377.448	99.06
377.674	90.06
377.899	99.06
378.125	101.06
378.35	90.06
378.576	107.06
378.802	90.06
379.027	87.06
379.253	95.06
379.478	85.06
379.704	106.06
379.929	109.06
380.155	118.06
380.38	93.06
380.606	102.06
380.831	101.06
381.057	120.06
381.282	111.06
381.507	109.06
381.733	108.06
381.958	117.06
382.184	108.06
382.409	107.06
382.634	106.06
382.86	106.06
383.085	116.06
383.31	101.06
383.535	111.06
383.761	114.06
383.986	110.06
384.211	125.06
384.436	118.06
384.662	117.06
384.887	130.06
385.112	125.06
385.337	137.06
385.562	140.06
385.787	137.06
386.013	129.06
386.238	146.06
386.463	139.06
386.688	133.06
386.913	119.06
387.138	134.06
387.363	123.06
387.588	117.06
387.813	123.06
388.038	128.06
388.263	158.06
388.488	136.06
388.713	76.06
388.938	102.06
389.163	109.06
389.387	91.06
389.612	91.06
389.837	101.06
390.062	91.06
390.287	102.06
390.512	92.06
390.736	96.06
390.961	90.06
391.186	90.06
391.411	105.06
391.636	104.06
391.86	83.06
392.085	95.06
392.31	82.06
392.534	91.06
392.759	93.06
392.984	94.06
393.208	108.06
393.433	112.06
393.658	100.06
393.882	84.06
394.107	77.06
394.331	96.06
394.556	90.06
394.78	85.06
395.005	79.06
395.229	88.06
395.454	94.06
395.678	87.06
395.903	101.06
396.127	87.06
396.352	94.06
396.576	97.06
396.801	88.06
397.025	105.06
397.249	99.06
397.474	98.06
397.698	93.06
397.922	94.06
398.147	90.06
398.371	85.06
398.595	101.06
398.82	98.06
399.044	84.06
399.268	96.06
399.492	99.06
399.717	100.06
399.941	74.06
400.165	93.06
400.389	91.06
400.613	97.06
400.837	90.06
401.062	99.06
401.286	91.06
401.51	102.06
401.734	105.06
401.958	99.06
402.182	138.06
402.406	185.06
402.63	134.06
402.854	101.06
403.078	90.06
403.302	100.06
403.526	86.06
403.75	84.06
403.974	101.06
404.198	93.06
404.422	83.06
404.645	81.06
404.869	99.06
405.093	90.06
405.317	110.06
405.541	94.06
405.765	106.06
405.988	136.06
406.212	195.06
406.436	270.06
406.66	176.06
406.883	114.06
407.107	90.06
407.331	92.06
407.555	100.06
407.778	110.06
408.002	102.06
408.226	83.06
408.449	99.06
408.673	106.06
408.896	98.06
409.12	104.06
409.344	84.06
409.567	91.06
409.791	85.06
410.014	102.06
410.238	102.06
410.461	86.06
410.685	107.06
410.908	97.06
411.132	94.06
411.355	100.06
411.578	111.06
411.802	91.06
412.025	102.06
412.249	95.06
412.472	93.06
412.695	105.06
412.919	90.06
413.142	94.06
413.365	91.06
413.589	71.06
413.812	90.06
414.035	86.06
414.258	93.06
414.482	103.06
414.705	90.06
414.928	83.06
415.151	92.06
415.374	95.06
415.597	87.06
415.821	90.06
416.044	108.06
416.267	82.06
416.49	92.06
416.713	108.06
416.936	89.06
417.159	91.06
417.382	90.06
417.605	109.06
417.828	93.06
418.051	105.06
418.274	81.06
418.497	79.06
418.72	99.06
418.943	96.06
419.166	86.06
419.389	98.06
419.611	88.06
419.834	83.06
420.057	88.06
420.28	88.06
420.503	87.06
420.726	88.06
420.948	93.06
421.171	87.06
421.394	106.06
421.617	95.06
421.839	91.06
422.062	93.06
422.285	94.06
422.507	106.06
422.73	119.06
422.953	102.06
423.175	96.06
423.398	90.06
423.621	87.06
423.843	97.06
424.066	92.06
424.288	102.06
424.511	86.06
424.733	104.06
424.956	114.06
425.178	98.06
425.401	105.06
425.623	109.06
425.846	92.06
426.068	101.06
426.291	106.06
426.513	92.06
426.735	84.06
426.958	101.06
427.18	107.06
427.402	158.06
427.625	206.06
427.847	152.06
428.069	116.06
428.292	87.06
428.514	84.06
428.736	76.06
428.958	90.06
429.181	83.06
429.403	95.06
429.625	87.06
429.847	91.06
430.069	99.06
430.292	89.06
430.514	88.06
430.736	94.06
430.958	80.06
431.18	82.06
431.402	89.06
431.624	79.06
431.846	99.06
432.068	86.06
432.29	94.06
432.512	105.06
432.734	74.06
432.956	85.06
433.178	91.06
433.4	98.06
433.622	99.06
433.844	82.06
434.066	110.06
434.287	96.06
434.509	91.06
434.731	94.06
434.953	90.06
435.175	93.06
435.397	102.06
435.618	96.06
435.84	104.06
436.062	142.06
436.284	114.06
436.505	126.06
436.727	105.06
436.949	82.06
437.17	90.06
437.392	103.06
437.614	106.06
437.835	130.06
438.057	125.06
438.278	109.06
438.5	111.06
438.721	124.06
438.943	112.06
439.165	96.06
439.386	90.06
439.608	88.06
439.829	108.06
440.05	127.06
440.272	168.06
440.493	105.06
440.715	90.06
440.936	100.06
441.158	82.06
441.379	91.06
441.6	103.06
441.822	93.06
442.043	103.06
442.264	106.06
442.486	97.06
442.707	90.06
442.928	118.06
443.149	158.06
443.371	144.06
443.592	96.06
443.813	128.06
444.034	118.06
444.255	88.06
444.476	103.06
444.698	88.06
444.919	89.06
445.14	142.06
445.361	119.06
445.582	133.06
445.803	160.06
446.024	163.06
446.245	155.06
446.466	123.06
446.687	99.06
446.908	100.06
447.129	94.06
447.35	93.06
447.571	108.06
447.792	95.06
448.013	99.06
448.234	111.06
448.455	100.06
448.675	122.06
448.896	130.06
449.117	103.06
449.338	101.06
449.559	127.06
449.779	146.06
450	96.06
450.221	89.06
450.442	107.06
450.662	95.06
450.883	125.06
451.104	134.06
451.324	103.06
451.545	99.06
451.766	91.06
451.986	93.06
452.207	82.06
452.428	86.06
452.648	92.06
452.869	140.06
453.089	122.06
453.31	128.06
453.53	79.06
453.751	95.06
453.971	107.06
454.192	120.06
454.412	102.06
454.633	77.06
454.853	95.06
455.073	85.06
455.294	84.06
455.514	94.06
455.734	90.06
455.955	96.06
456.175	99.06
456.395	92.06
456.616	92.06
456.836	91.06
457.056	92.06
457.276	83.06
457.497	79.06
457.717	76.06
457.937	93.06
458.157	100.06
458.377	88.06
458.598	134.06
458.818	194.06
459.038	199.06
459.258	130.06
459.478	79.06
459.698	94.06
459.918	95.06
460.138	93.06
460.358	88.06
460.578	87.06
460.798	92.06
461.018	88.06
461.238	89.06
461.458	74.06
461.678	91.06
461.898	95.06
462.118	96.06
462.338	91.06
462.558	91.06
462.777	78.06
462.997	81.06
463.217	88.06
463.437	97.06
463.657	86.06
463.876	98.06
464.096	94.06
464.316	102.06
464.536	114.06
464.755	100.06
464.975	116.06
465.195	188.06
465.414	195.06
465.634	106.06
465.854	97.06
466.073	103.06
466.293	107.06
466.512	85.06
466.732	75.06
466.951	105.06
467.171	87.06
467.391	98.06
467.61	120.06
467.829	107.06
468.049	97.06
468.268	94.06
468.488	95.06
468.707	92.06
468.927	94.06
469.146	87.06
469.365	80.06
469.585	90.06
469.804	109.06
470.023	93.06
470.243	99.06
470.462	107.06
470.681	129.06
470.901	98.06
471.12	88.06
471.339	87.06
471.558	87.06
471.777	103.06
471.997	89.06
472.216	92.06
472.435	103.06
472.654	86.06
472.873	91.06
473.092	88.06
473.311	83.06
473.53	94.06
473.749	80.06
473.968	103.06
474.187	116.06
474.406	103.06
474.625	80.06
474.844	75.06
475.063	88.06
475.282	94.06
475.501	82.06
475.72	89.06
475.939	99.06
476.158	100.06
476.377	76.06
476.596	85.06
476.814	98.06
477.033	100.06
477.252	103.06
477.471	79.06
477.69	79.06
477.908	98.06
478.127	85.06
478.346	95.06
478.564	76.06
478.783	85.06
479.002	88.06
479.22	96.06
479.439	126.06
479.658	110.06
479.876	102.06
480.095	94.06
480.313	92.06
480.532	90.06
480.751	86.06
480.969	116.06
481.188	123.06
481.406	115.06
481.624	97.06
481.843	92.06
482.061	85.06
482.28	84.06
482.498	88.06
482.717	88.06
482.935	86.06
483.153	89.06
483.372	85.06
483.59	94.06
483.808	98.06
484.027	83.06
484.245	90.06
484.463	92.06
484.681	115.06
484.9	105.06
485.118	104.06
485.336	101.06
485.554	96.06
485.772	100.06
485.99	114.06
486.209	117.06
486.427	106.06
486.645	116.06
486.863	130.06
487.081	110.06
487.299	119.06
487.517	101.06
487.735	91.06
487.953	81.06
488.171	111.06
488.389	98.06
488.607	98.06
488.825	118.06
489.043	86.06
489.261	100.06
489.479	88.06
489.696	92.06
489.914	82.06
490.132	87.06
490.35	91.06
490.568	91.06
490.786	86.06
491.003	86.06
491.221	80.06
491.439	106.06
491.657	100.06
491.874	84.06
492.092	88.06
492.31	109.06
492.527	95.06
492.745	91.06
492.963	81.06
493.18	84.06
493.398	94.06
493.615	96.06
493.833	88.06
494.05	89.06
494.268	98.06
494.485	95.06
494.703	90.06
494.92	96.06
495.138	91.06
495.355	86.06
495.573	100.06
495.79	84.06
496.008	90.06
496.225	88.06
496.442	85.06
496.66	86.06
496.877	85.06
497.094	94.06
497.312	98.06
497.529	99.06
497.746	93.06
497.963	88.06
498.181	92.06
498.398	100.06
498.615	121.06
498.832	109.06
499.049	99.06
499.267	94.06
499.484	91.06
499.701	89.06
499.918	91.06
500.135	98.06
500.352	86.06
500.569	100.06
500.786	90.06
501.003	99.06
501.22	89.06
501.437	98.06
501.654	104.06
501.871	119.06
502.088	99.06
502.305	91.06
502.522	85.06
502.739	80.06
502.956	75.06
503.172	118.06
503.389	107.06
503.606	118.06
503.823	112.06
504.04	102.06
504.256	93.06
504.473	112.06
504.69	100.06
504.907	92.06
505.123	104.06
505.34	96.06
505.557	90.06
505.773	94.06
505.99	88.06
506.207	86.06
506.423	94.06
506.64	94.06
506.856	104.06
507.073	79.06
507.289	92.06
507.506	90.06
507.722	125.06
507.939	124.06
508.155	104.06
508.372	86.06
508.588	88.06
508.805	94.06
509.021	93.06
509.238	116.06
509.454	106.06
509.67	94.06
509.887	106.06
510.103	145.06
510.319	237.06
510.536	934.06
510.752	3214.06
510.968	876.06
511.184	181.06
511.401	121.06
511.617	91.06
511.833	101.06
512.049	107.06
512.265	102.06
512.481	90.06
512.698	107.06
512.914	99.06
513.13	110.06
