Data from Circ_2016_H10_HRD10591_00093.txt Node
Date: Wed Jan 03 09:58:59 EST 2024
User: Yrep
Spectrometer: HR+D1059
Trigger mode: 1
Integration Time (sec): 1.000000E-1
Scans to average: 1
Electric dark correction enabled: true
Nonlinearity correction enabled: false
Boxcar width: 0
XAxis mode: Wavelengths
Number of Pixels in Spectrum: 2048
>>>>>Begin Spectral Data<<<<<
223.165	-16.56
223.4	-16.56
223.635	-16.56
223.869	-25.56
224.104	-4.56
224.338	-17.56
224.573	-19.56
224.808	-10.56
225.042	-4.56
225.277	-12.56
225.511	-8.56
225.746	22.44
225.98	-2.56
226.215	4.44
226.449	5.44
226.683	16.44
226.918	33.44
227.152	40.44
227.387	33.44
227.621	51.44
227.856	36.44
228.09	38.44
228.324	51.44
228.559	66.44
228.793	49.44
229.027	55.44
229.262	59.44
229.496	87.44
229.73	80.44
229.964	84.44
230.199	66.44
230.433	85.44
230.667	77.44
230.901	74.44
231.136	80.44
231.37	100.44
231.604	72.44
231.838	70.44
232.072	77.44
232.306	73.44
232.541	83.44
232.775	83.44
233.009	80.44
233.243	76.44
233.477	84.44
233.711	98.44
233.945	84.44
234.179	90.44
234.413	88.44
234.647	83.44
234.881	71.44
235.115	80.44
235.349	73.44
235.583	94.44
235.817	79.44
236.051	82.44
236.285	77.44
236.519	79.44
236.753	83.44
236.987	85.44
237.221	91.44
237.455	99.44
237.689	80.44
237.922	78.44
238.156	71.44
238.39	80.44
238.624	85.44
238.858	77.44
239.091	90.44
239.325	76.44
239.559	84.44
239.793	79.44
240.027	84.44
240.26	80.44
240.494	86.44
240.728	74.44
240.961	77.44
241.195	90.44
241.429	90.44
241.662	74.44
241.896	92.44
242.13	91.44
242.363	82.44
242.597	75.44
242.83	89.44
243.064	80.44
243.298	74.44
243.531	82.44
243.765	85.44
243.998	80.44
244.232	95.44
244.465	88.44
244.699	92.44
244.932	77.44
245.166	80.44
245.399	83.44
245.633	84.44
245.866	82.44
246.099	78.44
246.333	81.44
246.566	78.44
246.8	73.44
247.033	95.44
247.266	93.44
247.5	91.44
247.733	86.44
247.966	80.44
248.2	81.44
248.433	75.44
248.666	77.44
248.899	88.44
249.133	87.44
249.366	104.44
249.599	100.44
249.832	74.44
250.066	77.44
250.299	73.44
250.532	91.44
250.765	79.44
250.998	77.44
251.231	78.44
251.465	81.44
251.698	66.44
251.931	73.44
252.164	83.44
252.397	90.44
252.63	88.44
252.863	90.44
253.096	73.44
253.329	71.44
253.562	79.44
253.795	90.44
254.028	86.44
254.261	84.44
254.494	83.44
254.727	69.44
254.96	76.44
255.193	80.44
255.426	87.44
255.659	94.44
255.892	81.44
256.124	86.44
256.357	71.44
256.59	76.44
256.823	81.44
257.056	82.44
257.289	78.44
257.521	86.44
257.754	93.44
257.987	83.44
258.22	76.44
258.452	82.44
258.685	88.44
258.918	92.44
259.151	68.44
259.383	87.44
259.616	91.44
259.849	85.44
260.081	93.44
260.314	71.44
260.547	86.44
260.779	79.44
261.012	84.44
261.244	89.44
261.477	90.44
261.71	98.44
261.942	115.44
262.175	128.44
262.407	92.44
262.64	75.44
262.872	84.44
263.105	78.44
263.337	81.44
263.57	80.44
263.802	87.44
264.035	66.44
264.267	77.44
264.499	83.44
264.732	89.44
264.964	97.44
265.197	84.44
265.429	90.44
265.661	87.44
265.894	100.44
266.126	86.44
266.358	70.44
266.591	78.44
266.823	88.44
267.055	79.44
267.287	95.44
267.52	83.44
267.752	77.44
267.984	78.44
268.216	77.44
268.448	100.44
268.681	85.44
268.913	92.44
269.145	75.44
269.377	70.44
269.609	85.44
269.841	69.44
270.073	85.44
270.306	90.44
270.538	85.44
270.77	74.44
271.002	86.44
271.234	85.44
271.466	85.44
271.698	87.44
271.93	97.44
272.162	79.44
272.394	87.44
272.626	90.44
272.858	90.44
273.09	89.44
273.322	102.44
273.553	80.44
273.785	80.44
274.017	82.44
274.249	88.44
274.481	81.44
274.713	93.44
274.945	90.44
275.176	77.44
275.408	103.44
275.64	95.44
275.872	86.44
276.104	88.44
276.335	93.44
276.567	96.44
276.799	106.44
277.031	102.44
277.262	108.44
277.494	95.44
277.726	88.44
277.957	92.44
278.189	84.44
278.421	86.44
278.652	81.44
278.884	90.44
279.115	85.44
279.347	98.44
279.579	70.44
279.81	85.44
280.042	120.44
280.273	106.44
280.505	78.44
280.736	88.44
280.968	93.44
281.199	95.44
281.431	98.44
281.662	87.44
281.894	87.44
282.125	93.44
282.356	126.44
282.588	150.44
282.819	116.44
283.051	101.44
283.282	97.44
283.513	85.44
283.745	87.44
283.976	86.44
284.207	91.44
284.439	93.44
284.67	91.44
284.901	82.44
285.132	85.44
285.364	95.44
285.595	78.44
285.826	83.44
286.057	81.44
286.288	66.44
286.52	66.44
286.751	92.44
286.982	88.44
287.213	94.44
287.444	91.44
287.675	82.44
287.906	81.44
288.138	92.44
288.369	95.44
288.6	97.44
288.831	91.44
289.062	105.44
289.293	96.44
289.524	79.44
289.755	93.44
289.986	98.44
290.217	98.44
290.448	89.44
290.679	91.44
290.91	77.44
291.141	87.44
291.371	86.44
291.602	79.44
291.833	83.44
292.064	97.44
292.295	79.44
292.526	91.44
292.757	78.44
292.987	92.44
293.218	86.44
293.449	89.44
293.68	99.44
293.91	92.44
294.141	90.44
294.372	83.44
294.603	91.44
294.833	80.44
295.064	79.44
295.295	98.44
295.525	115.44
295.756	95.44
295.987	107.44
296.217	156.44
296.448	130.44
296.679	99.44
296.909	86.44
297.14	84.44
297.37	91.44
297.601	87.44
297.831	92.44
298.062	90.44
298.292	81.44
298.523	85.44
298.753	99.44
298.984	102.44
299.214	98.44
299.445	96.44
299.675	97.44
299.905	103.44
300.136	90.44
300.366	88.44
300.597	98.44
300.827	108.44
301.057	102.44
301.288	101.44
301.518	97.44
301.748	102.44
301.979	104.44
302.209	87.44
302.439	98.44
302.669	110.44
302.9	99.44
303.13	89.44
303.36	99.44
303.59	112.44
303.82	112.44
304.051	107.44
304.281	104.44
304.511	87.44
304.741	93.44
304.971	102.44
305.201	85.44
305.431	85.44
305.661	80.44
305.891	103.44
306.121	109.44
306.352	99.44
306.582	105.44
306.812	109.44
307.042	93.44
307.272	95.44
307.502	94.44
307.731	98.44
307.961	92.44
308.191	90.44
308.421	97.44
308.651	92.44
308.881	111.44
309.111	92.44
309.341	103.44
309.571	87.44
309.8	106.44
310.03	91.44
310.26	108.44
310.49	101.44
310.72	109.44
310.949	102.44
311.179	105.44
311.409	88.44
311.639	84.44
311.868	101.44
312.098	104.44
312.328	101.44
312.557	103.44
312.787	114.44
313.017	97.44
313.246	100.44
313.476	97.44
313.706	95.44
313.935	105.44
314.165	112.44
314.394	100.44
314.624	88.44
314.853	100.44
315.083	105.44
315.312	89.44
315.542	109.44
315.771	100.44
316.001	96.44
316.23	95.44
316.46	86.44
316.689	100.44
316.919	103.44
317.148	95.44
317.377	92.44
317.607	115.44
317.836	110.44
318.065	93.44
318.295	85.44
318.524	86.44
318.753	91.44
318.983	91.44
319.212	100.44
319.441	119.44
319.67	105.44
319.9	99.44
320.129	76.44
320.358	100.44
320.587	105.44
320.816	101.44
321.046	100.44
321.275	95.44
321.504	93.44
321.733	102.44
321.962	94.44
322.191	117.44
322.42	104.44
322.649	106.44
322.878	118.44
323.108	106.44
323.337	116.44
323.566	148.44
323.795	163.44
324.024	238.44
324.253	451.44
324.482	994.44
324.71	2052.44
324.939	2639.44
325.168	955.44
325.397	308.44
325.626	152.44
325.855	140.44
326.084	121.44
326.313	138.44
326.542	171.44
326.77	252.44
326.999	554.44
327.228	1133.44
327.457	2079.44
327.686	1583.44
327.914	430.44
328.143	228.44
328.372	187.44
328.6	145.44
328.829	134.44
329.058	132.44
329.287	130.44
329.515	111.44
329.744	102.44
329.972	134.44
330.201	167.44
330.43	184.44
330.658	158.44
330.887	153.44
331.115	124.44
331.344	108.44
331.572	104.44
331.801	109.44
332.03	103.44
332.258	92.44
332.486	98.44
332.715	94.44
332.943	95.44
333.172	112.44
333.4	97.44
333.629	99.44
333.857	106.44
334.085	131.44
334.314	156.44
334.542	222.44
334.771	204.44
334.999	118.44
335.227	103.44
335.455	96.44
335.684	103.44
335.912	96.44
336.14	104.44
336.369	106.44
336.597	96.44
336.825	86.44
337.053	75.44
337.281	83.44
337.51	95.44
337.738	101.44
337.966	109.44
338.194	104.44
338.422	98.44
338.65	92.44
338.878	95.44
339.106	90.44
339.334	92.44
339.562	98.44
339.79	94.44
340.018	104.44
340.246	92.44
340.474	90.44
340.702	99.44
340.93	98.44
341.158	88.44
341.386	95.44
341.614	91.44
341.842	97.44
342.07	87.44
342.298	94.44
342.526	88.44
342.754	93.44
342.981	86.44
343.209	98.44
343.437	96.44
343.665	94.44
343.893	91.44
344.12	85.44
344.348	90.44
344.576	102.44
344.804	99.44
345.031	95.44
345.259	102.44
345.487	110.44
345.714	100.44
345.942	90.44
346.17	93.44
346.397	95.44
346.625	88.44
346.853	82.44
347.08	92.44
347.308	101.44
347.535	97.44
347.763	104.44
347.99	94.44
348.218	111.44
348.445	115.44
348.673	108.44
348.9	88.44
349.128	93.44
349.355	92.44
349.583	96.44
349.81	89.44
350.037	97.44
350.265	98.44
350.492	85.44
350.72	95.44
350.947	103.44
351.174	102.44
351.402	118.44
351.629	106.44
351.856	98.44
352.083	116.44
352.311	92.44
352.538	103.44
352.765	111.44
352.992	127.44
353.22	118.44
353.447	100.44
353.674	107.44
353.901	94.44
354.128	103.44
354.355	94.44
354.583	91.44
354.81	115.44
355.037	95.44
355.264	87.44
355.491	79.44
355.718	96.44
355.945	80.44
356.172	83.44
356.399	87.44
356.626	93.44
356.853	82.44
357.08	90.44
357.307	117.44
357.534	86.44
357.761	97.44
357.988	84.44
358.215	100.44
358.441	92.44
358.668	93.44
358.895	76.44
359.122	101.44
359.349	98.44
359.576	94.44
359.802	99.44
360.029	118.44
360.256	100.44
360.483	100.44
360.709	91.44
360.936	92.44
361.163	105.44
361.39	88.44
361.616	102.44
361.843	87.44
362.07	95.44
362.296	91.44
362.523	91.44
362.749	91.44
362.976	96.44
363.203	101.44
363.429	80.44
363.656	83.44
363.882	95.44
364.109	82.44
364.335	91.44
364.562	83.44
364.788	98.44
365.015	111.44
365.241	95.44
365.468	116.44
365.694	105.44
365.92	94.44
366.147	101.44
366.373	94.44
366.599	82.44
366.826	88.44
367.052	83.44
367.278	84.44
367.505	94.44
367.731	99.44
367.957	108.44
368.184	98.44
368.41	102.44
368.636	101.44
368.862	127.44
369.089	108.44
369.315	87.44
369.541	83.44
369.767	91.44
369.993	87.44
370.219	90.44
370.445	89.44
370.672	92.44
370.898	105.44
371.124	90.44
371.35	100.44
371.576	93.44
371.802	114.44
372.028	84.44
372.254	80.44
372.48	83.44
372.706	93.44
372.932	81.44
373.158	90.44
373.384	86.44
373.61	100.44
373.835	86.44
374.061	93.44
374.287	92.44
374.513	101.44
374.739	78.44
374.965	90.44
375.191	96.44
375.416	101.44
375.642	88.44
375.868	102.44
376.094	103.44
376.319	116.44
376.545	96.44
376.771	93.44
376.997	100.44
377.222	93.44
377.448	95.44
377.674	77.44
377.899	94.44
378.125	85.44
378.35	90.44
378.576	93.44
378.802	80.44
379.027	86.44
379.253	107.44
379.478	85.44
379.704	85.44
379.929	88.44
380.155	97.44
380.38	98.44
380.606	89.44
380.831	99.44
381.057	95.44
381.282	99.44
381.507	98.44
381.733	100.44
381.958	102.44
382.184	105.44
382.409	96.44
382.634	109.44
382.86	98.44
383.085	102.44
383.31	97.44
383.535	97.44
383.761	110.44
383.986	102.44
384.211	87.44
384.436	104.44
384.662	92.44
384.887	90.44
385.112	114.44
385.337	103.44
385.562	105.44
385.787	98.44
386.013	131.44
386.238	125.44
386.463	105.44
386.688	111.44
386.913	95.44
387.138	115.44
387.363	91.44
387.588	102.44
387.813	96.44
388.038	109.44
388.263	113.44
388.488	111.44
388.713	94.44
388.938	91.44
389.163	111.44
389.387	101.44
389.612	85.44
389.837	98.44
390.062	76.44
390.287	87.44
390.512	106.44
390.736	103.44
390.961	87.44
391.186	79.44
391.411	79.44
391.636	81.44
391.86	84.44
392.085	84.44
392.31	102.44
392.534	98.44
392.759	98.44
392.984	94.44
393.208	82.44
393.433	74.44
393.658	78.44
393.882	94.44
394.107	95.44
394.331	71.44
394.556	71.44
394.78	104.44
395.005	94.44
395.229	83.44
395.454	95.44
395.678	82.44
395.903	78.44
396.127	76.44
396.352	93.44
396.576	99.44
396.801	84.44
397.025	100.44
397.249	90.44
397.474	77.44
397.698	85.44
397.922	90.44
398.147	87.44
398.371	97.44
398.595	77.44
398.82	94.44
399.044	70.44
399.268	83.44
399.492	85.44
399.717	91.44
399.941	96.44
400.165	89.44
400.389	89.44
400.613	91.44
400.837	79.44
401.062	88.44
401.286	93.44
401.51	93.44
401.734	83.44
401.958	102.44
402.182	135.44
402.406	164.44
402.63	130.44
402.854	96.44
403.078	98.44
403.302	90.44
403.526	86.44
403.75	78.44
403.974	101.44
404.198	84.44
404.422	81.44
404.645	92.44
404.869	86.44
405.093	101.44
405.317	110.44
405.541	104.44
405.765	103.44
405.988	123.44
406.212	172.44
406.436	238.44
406.66	156.44
406.883	110.44
407.107	95.44
407.331	89.44
407.555	101.44
407.778	95.44
408.002	94.44
408.226	100.44
408.449	90.44
408.673	98.44
408.896	95.44
409.12	98.44
409.344	98.44
409.567	100.44
409.791	99.44
410.014	104.44
410.238	97.44
410.461	97.44
410.685	109.44
410.908	93.44
411.132	100.44
411.355	94.44
411.578	94.44
411.802	91.44
412.025	84.44
412.249	100.44
412.472	99.44
412.695	94.44
412.919	95.44
413.142	89.44
413.365	82.44
413.589	93.44
413.812	98.44
414.035	91.44
414.258	93.44
414.482	102.44
414.705	86.44
414.928	99.44
415.151	100.44
415.374	99.44
415.597	100.44
415.821	84.44
416.044	92.44
416.267	99.44
416.49	85.44
416.713	77.44
416.936	77.44
417.159	95.44
417.382	84.44
417.605	102.44
417.828	97.44
418.051	100.44
418.274	82.44
418.497	94.44
418.72	83.44
418.943	82.44
419.166	98.44
419.389	80.44
419.611	82.44
419.834	95.44
420.057	81.44
420.28	80.44
420.503	84.44
420.726	97.44
420.948	91.44
421.171	95.44
421.394	99.44
421.617	92.44
421.839	74.44
422.062	94.44
422.285	88.44
422.507	95.44
422.73	91.44
422.953	101.44
423.175	96.44
423.398	98.44
423.621	79.44
423.843	86.44
424.066	74.44
424.288	94.44
424.511	84.44
424.733	110.44
424.956	106.44
425.178	100.44
425.401	94.44
425.623	95.44
425.846	70.44
426.068	81.44
426.291	89.44
426.513	100.44
426.735	96.44
426.958	83.44
427.18	100.44
427.402	145.44
427.625	174.44
427.847	144.44
428.069	115.44
428.292	94.44
428.514	95.44
428.736	92.44
428.958	83.44
429.181	90.44
429.403	88.44
429.625	79.44
429.847	90.44
430.069	107.44
430.292	100.44
430.514	83.44
430.736	104.44
430.958	98.44
431.18	82.44
431.402	83.44
431.624	75.44
431.846	74.44
432.068	86.44
432.29	78.44
432.512	99.44
432.734	91.44
432.956	92.44
433.178	89.44
433.4	100.44
433.622	93.44
433.844	86.44
434.066	96.44
434.287	112.44
434.509	90.44
434.731	77.44
434.953	92.44
435.175	89.44
435.397	88.44
435.618	93.44
435.84	110.44
436.062	126.44
436.284	114.44
436.505	90.44
436.727	107.44
436.949	96.44
437.17	86.44
437.392	81.44
437.614	90.44
437.835	123.44
438.057	126.44
438.278	104.44
438.5	89.44
438.721	121.44
438.943	104.44
439.165	92.44
439.386	86.44
439.608	83.44
439.829	97.44
440.05	114.44
440.272	152.44
440.493	114.44
440.715	83.44
440.936	86.44
441.158	85.44
441.379	95.44
441.6	86.44
441.822	99.44
442.043	101.44
442.264	87.44
442.486	90.44
442.707	104.44
442.928	124.44
443.149	135.44
443.371	130.44
443.592	106.44
443.813	118.44
444.034	118.44
444.255	90.44
444.476	86.44
444.698	83.44
444.919	70.44
445.14	135.44
445.361	139.44
445.582	120.44
445.803	138.44
446.024	148.44
446.245	135.44
446.466	118.44
446.687	106.44
446.908	90.44
447.129	91.44
447.35	83.44
447.571	80.44
447.792	101.44
448.013	101.44
448.234	101.44
448.455	102.44
448.675	115.44
448.896	132.44
449.117	102.44
449.338	98.44
449.559	120.44
449.779	144.44
450	91.44
450.221	93.44
450.442	79.44
450.662	100.44
450.883	99.44
451.104	114.44
451.324	100.44
451.545	99.44
451.766	95.44
451.986	92.44
452.207	75.44
452.428	88.44
452.648	95.44
452.869	124.44
453.089	119.44
453.31	110.44
453.53	86.44
453.751	90.44
453.971	92.44
454.192	122.44
454.412	90.44
454.633	85.44
454.853	99.44
455.073	78.44
455.294	106.44
455.514	103.44
455.734	85.44
455.955	83.44
456.175	86.44
456.395	77.44
456.616	82.44
456.836	79.44
457.056	86.44
457.276	87.44
457.497	87.44
457.717	94.44
457.937	100.44
458.157	96.44
458.377	93.44
458.598	110.44
458.818	163.44
459.038	167.44
459.258	139.44
459.478	91.44
459.698	96.44
459.918	88.44
460.138	105.44
460.358	78.44
460.578	86.44
460.798	90.44
461.018	94.44
461.238	84.44
461.458	77.44
461.678	78.44
461.898	80.44
462.118	89.44
462.338	86.44
462.558	83.44
462.777	75.44
462.997	82.44
463.217	93.44
463.437	89.44
463.657	87.44
463.876	90.44
464.096	86.44
464.316	107.44
464.536	111.44
464.755	99.44
464.975	114.44
465.195	189.44
465.414	180.44
465.634	113.44
465.854	87.44
466.073	75.44
466.293	93.44
466.512	91.44
466.732	85.44
466.951	99.44
467.171	99.44
467.391	107.44
467.61	103.44
467.829	103.44
468.049	105.44
468.268	142.44
468.488	95.44
468.707	85.44
468.927	88.44
469.146	79.44
469.365	93.44
469.585	83.44
469.804	89.44
470.023	94.44
470.243	92.44
470.462	95.44
470.681	108.44
470.901	92.44
471.12	100.44
471.339	100.44
471.558	87.44
471.777	102.44
471.997	111.44
472.216	172.44
472.435	255.44
472.654	132.44
472.873	96.44
473.092	83.44
473.311	80.44
473.53	86.44
473.749	92.44
473.968	100.44
474.187	105.44
474.406	104.44
474.625	88.44
474.844	95.44
475.063	84.44
475.282	83.44
475.501	88.44
475.72	73.44
475.939	90.44
476.158	86.44
476.377	92.44
476.596	92.44
476.814	100.44
477.033	107.44
477.252	109.44
477.471	93.44
477.69	100.44
477.908	96.44
478.127	105.44
478.346	92.44
478.564	103.44
478.783	95.44
479.002	90.44
479.22	93.44
479.439	99.44
479.658	105.44
479.876	103.44
480.095	102.44
480.313	91.44
480.532	87.44
480.751	116.44
480.969	168.44
481.188	402.44
481.406	272.44
481.624	118.44
481.843	90.44
482.061	90.44
482.28	83.44
482.498	92.44
482.717	94.44
482.935	84.44
483.153	92.44
483.372	97.44
483.59	79.44
483.808	92.44
484.027	84.44
484.245	92.44
484.463	101.44
484.681	89.44
484.9	98.44
485.118	100.44
485.336	95.44
485.554	92.44
485.772	101.44
485.99	96.44
486.209	105.44
486.427	96.44
486.645	99.44
486.863	111.44
487.081	110.44
487.299	109.44
487.517	105.44
487.735	89.44
487.953	99.44
488.171	99.44
488.389	110.44
488.607	106.44
488.825	109.44
489.043	95.44
489.261	91.44
489.479	80.44
489.696	87.44
489.914	94.44
490.132	90.44
490.35	76.44
490.568	84.44
490.786	91.44
491.003	95.44
491.221	87.44
491.439	86.44
491.657	100.44
491.874	87.44
492.092	85.44
492.31	96.44
492.527	96.44
492.745	99.44
492.963	86.44
493.18	89.44
493.398	86.44
493.615	96.44
493.833	95.44
494.05	81.44
494.268	109.44
494.485	83.44
494.703	87.44
494.92	100.44
495.138	95.44
495.355	91.44
495.573	87.44
495.79	95.44
496.008	88.44
496.225	78.44
496.442	102.44
496.66	93.44
496.877	95.44
497.094	88.44
497.312	90.44
497.529	86.44
497.746	92.44
497.963	80.44
498.181	87.44
498.398	101.44
498.615	120.44
498.832	109.44
499.049	97.44
499.267	94.44
499.484	86.44
499.701	86.44
499.918	100.44
500.135	91.44
500.352	85.44
500.569	96.44
500.786	94.44
501.003	96.44
501.22	88.44
501.437	105.44
501.654	105.44
501.871	96.44
502.088	96.44
502.305	104.44
502.522	90.44
502.739	82.44
502.956	90.44
503.172	90.44
503.389	97.44
503.606	107.44
503.823	87.44
504.04	95.44
504.256	76.44
504.473	96.44
504.69	100.44
504.907	87.44
505.123	87.44
505.34	83.44
505.557	100.44
505.773	108.44
505.99	84.44
506.207	95.44
506.423	86.44
506.64	89.44
506.856	101.44
507.073	90.44
507.289	89.44
507.506	116.44
507.722	119.44
507.939	125.44
508.155	105.44
508.372	87.44
508.588	98.44
508.805	100.44
509.021	93.44
509.238	103.44
509.454	98.44
509.67	112.44
509.887	113.44
510.103	135.44
510.319	227.44
510.536	837.44
510.752	2901.44
510.968	821.44
511.184	170.44
511.401	122.44
511.617	91.44
511.833	89.44
512.049	95.44
512.265	87.44
512.481	97.44
512.698	86.44
512.914	94.44
513.13	108.44
513.346	88.44
513.562	94.44
513.778	112.44
513.994	103.44
514.21	103.44
514.426	115.44
514.642	138.44
