Data from Circ_2016_H10_HRD10591_00065.txt Node
Date: Wed Jan 03 09:58:53 EST 2024
User: Yrep
Spectrometer: HR+D1059
Trigger mode: 1
Integration Time (sec): 1.000000E-1
Scans to average: 1
Electric dark correction enabled: true
Nonlinearity correction enabled: false
Boxcar width: 0
XAxis mode: Wavelengths
Number of Pixels in Spectrum: 2048
>>>>>Begin Spectral Data<<<<<
223.165	-15.81
223.4	-15.81
223.635	-15.81
223.869	-17.81
224.104	-21.81
224.338	-20.81
224.573	-20.81
224.808	-8.81
225.042	-2.81
225.277	-15.81
225.511	-6.81
225.746	-4.81
225.98	24.19
226.215	14.19
226.449	16.19
226.683	18.19
226.918	26.19
227.152	37.19
227.387	38.19
227.621	34.19
227.856	47.19
228.09	51.19
228.324	66.19
228.559	54.19
228.793	57.19
229.027	42.19
229.262	56.19
229.496	75.19
229.73	72.19
229.964	85.19
230.199	88.19
230.433	82.19
230.667	76.19
230.901	64.19
231.136	81.19
231.37	78.19
231.604	80.19
231.838	75.19
232.072	72.19
232.306	74.19
232.541	74.19
232.775	78.19
233.009	73.19
233.243	79.19
233.477	78.19
233.711	83.19
233.945	83.19
234.179	84.19
234.413	79.19
234.647	85.19
234.881	77.19
235.115	78.19
235.349	69.19
235.583	85.19
235.817	78.19
236.051	83.19
236.285	77.19
236.519	83.19
236.753	84.19
236.987	74.19
237.221	99.19
237.455	97.19
237.689	91.19
237.922	67.19
238.156	73.19
238.39	72.19
238.624	69.19
238.858	65.19
239.091	66.19
239.325	73.19
239.559	70.19
239.793	77.19
240.027	70.19
240.26	68.19
240.494	75.19
240.728	78.19
240.961	90.19
241.195	83.19
241.429	69.19
241.662	83.19
241.896	66.19
242.13	78.19
242.363	89.19
242.597	85.19
242.83	80.19
243.064	72.19
243.298	73.19
243.531	73.19
243.765	79.19
243.998	72.19
244.232	70.19
244.465	76.19
244.699	77.19
244.932	64.19
245.166	72.19
245.399	66.19
245.633	75.19
245.866	60.19
246.099	80.19
246.333	71.19
246.566	72.19
246.8	84.19
247.033	72.19
247.266	75.19
247.5	74.19
247.733	81.19
247.966	70.19
248.2	88.19
248.433	85.19
248.666	74.19
248.899	86.19
249.133	82.19
249.366	91.19
249.599	89.19
249.832	89.19
250.066	81.19
250.299	83.19
250.532	84.19
250.765	74.19
250.998	70.19
251.231	67.19
251.465	78.19
251.698	90.19
251.931	82.19
252.164	74.19
252.397	77.19
252.63	70.19
252.863	68.19
253.096	78.19
253.329	75.19
253.562	78.19
253.795	76.19
254.028	69.19
254.261	64.19
254.494	73.19
254.727	80.19
254.96	84.19
255.193	90.19
255.426	77.19
255.659	82.19
255.892	86.19
256.124	81.19
256.357	81.19
256.59	58.19
256.823	77.19
257.056	72.19
257.289	74.19
257.521	77.19
257.754	78.19
257.987	68.19
258.22	71.19
258.452	80.19
258.685	77.19
258.918	84.19
259.151	88.19
259.383	72.19
259.616	80.19
259.849	84.19
260.081	92.19
260.314	88.19
260.547	82.19
260.779	70.19
261.012	84.19
261.244	78.19
261.477	89.19
261.71	103.19
261.942	121.19
262.175	100.19
262.407	86.19
262.64	80.19
262.872	94.19
263.105	84.19
263.337	85.19
263.57	76.19
263.802	86.19
264.035	84.19
264.267	82.19
264.499	82.19
264.732	79.19
264.964	84.19
265.197	80.19
265.429	89.19
265.661	84.19
265.894	76.19
266.126	91.19
266.358	77.19
266.591	68.19
266.823	89.19
267.055	80.19
267.287	78.19
267.52	88.19
267.752	91.19
267.984	82.19
268.216	85.19
268.448	87.19
268.681	75.19
268.913	85.19
269.145	90.19
269.377	83.19
269.609	82.19
269.841	85.19
270.073	78.19
270.306	84.19
270.538	75.19
270.77	89.19
271.002	73.19
271.234	88.19
271.466	87.19
271.698	77.19
271.93	94.19
272.162	81.19
272.394	89.19
272.626	81.19
272.858	82.19
273.09	80.19
273.322	74.19
273.553	74.19
273.785	71.19
274.017	87.19
274.249	84.19
274.481	98.19
274.713	75.19
274.945	84.19
275.176	78.19
275.408	87.19
275.64	84.19
275.872	85.19
276.104	98.19
276.335	95.19
276.567	94.19
276.799	119.19
277.031	117.19
277.262	85.19
277.494	99.19
277.726	86.19
277.957	94.19
278.189	87.19
278.421	85.19
278.652	84.19
278.884	86.19
279.115	81.19
279.347	89.19
279.579	104.19
279.81	88.19
280.042	84.19
280.273	89.19
280.505	92.19
280.736	75.19
280.968	93.19
281.199	82.19
281.431	97.19
281.662	77.19
281.894	88.19
282.125	103.19
282.356	105.19
282.588	131.19
282.819	107.19
283.051	88.19
283.282	80.19
283.513	71.19
283.745	77.19
283.976	85.19
284.207	86.19
284.439	79.19
284.67	66.19
284.901	81.19
285.132	87.19
285.364	81.19
285.595	83.19
285.826	86.19
286.057	91.19
286.288	88.19
286.52	84.19
286.751	94.19
286.982	88.19
287.213	87.19
287.444	92.19
287.675	93.19
287.906	90.19
288.138	100.19
288.369	104.19
288.6	77.19
288.831	74.19
289.062	88.19
289.293	85.19
289.524	83.19
289.755	78.19
289.986	93.19
290.217	93.19
290.448	88.19
290.679	102.19
290.91	83.19
291.141	87.19
291.371	96.19
291.602	84.19
291.833	80.19
292.064	75.19
292.295	65.19
292.526	86.19
292.757	90.19
292.987	98.19
293.218	84.19
293.449	87.19
293.68	96.19
293.91	89.19
294.141	88.19
294.372	99.19
294.603	99.19
294.833	86.19
295.064	78.19
295.295	85.19
295.525	91.19
295.756	95.19
295.987	121.19
296.217	142.19
296.448	138.19
296.679	101.19
296.909	80.19
297.14	92.19
297.37	86.19
297.601	84.19
297.831	88.19
298.062	90.19
298.292	90.19
298.523	84.19
298.753	86.19
298.984	85.19
299.214	72.19
299.445	95.19
299.675	93.19
299.905	95.19
300.136	85.19
300.366	92.19
300.597	108.19
300.827	86.19
301.057	96.19
301.288	107.19
301.518	89.19
301.748	81.19
301.979	78.19
302.209	88.19
302.439	89.19
302.669	77.19
302.9	75.19
303.13	91.19
303.36	75.19
303.59	102.19
303.82	109.19
304.051	86.19
304.281	103.19
304.511	98.19
304.741	84.19
304.971	92.19
305.201	90.19
305.431	93.19
305.661	82.19
305.891	94.19
306.121	89.19
306.352	99.19
306.582	98.19
306.812	96.19
307.042	109.19
307.272	103.19
307.502	102.19
307.731	68.19
307.961	101.19
308.191	85.19
308.421	102.19
308.651	88.19
308.881	89.19
309.111	96.19
309.341	90.19
309.571	96.19
309.8	86.19
310.03	106.19
310.26	117.19
310.49	89.19
310.72	99.19
310.949	96.19
311.179	102.19
311.409	76.19
311.639	96.19
311.868	93.19
312.098	100.19
312.328	92.19
312.557	103.19
312.787	91.19
313.017	103.19
313.246	103.19
313.476	83.19
313.706	98.19
313.935	97.19
314.165	84.19
314.394	88.19
314.624	86.19
314.853	102.19
315.083	100.19
315.312	95.19
315.542	76.19
315.771	91.19
316.001	82.19
316.23	87.19
316.46	103.19
316.689	97.19
316.919	93.19
317.148	101.19
317.377	93.19
317.607	77.19
317.836	90.19
318.065	84.19
318.295	83.19
318.524	85.19
318.753	93.19
318.983	98.19
319.212	103.19
319.441	120.19
319.67	90.19
319.9	92.19
320.129	89.19
320.358	83.19
320.587	98.19
320.816	104.19
321.046	97.19
321.275	99.19
321.504	105.19
321.733	101.19
321.962	97.19
322.191	99.19
322.42	93.19
322.649	116.19
322.878	106.19
323.108	101.19
323.337	116.19
323.566	128.19
323.795	157.19
324.024	208.19
324.253	437.19
324.482	926.19
324.71	1884.19
324.939	2529.19
325.168	917.19
325.397	247.19
325.626	145.19
325.855	129.19
326.084	148.19
326.313	144.19
326.542	146.19
326.77	246.19
326.999	498.19
327.228	1053.19
327.457	1912.19
327.686	1525.19
327.914	404.19
328.143	199.19
328.372	173.19
328.6	124.19
328.829	120.19
329.058	119.19
329.287	131.19
329.515	121.19
329.744	106.19
329.972	102.19
330.201	134.19
330.43	150.19
330.658	142.19
330.887	141.19
331.115	124.19
331.344	85.19
331.572	100.19
331.801	84.19
332.03	116.19
332.258	92.19
332.486	94.19
332.715	93.19
332.943	102.19
333.172	104.19
333.4	97.19
333.629	108.19
333.857	128.19
334.085	114.19
334.314	139.19
334.542	157.19
334.771	160.19
334.999	111.19
335.227	89.19
335.455	98.19
335.684	99.19
335.912	99.19
336.14	101.19
336.369	105.19
336.597	96.19
336.825	106.19
337.053	72.19
337.281	84.19
337.51	86.19
337.738	80.19
337.966	89.19
338.194	99.19
338.422	111.19
338.65	88.19
338.878	78.19
339.106	101.19
339.334	97.19
339.562	85.19
339.79	79.19
340.018	90.19
340.246	93.19
340.474	101.19
340.702	88.19
340.93	81.19
341.158	94.19
341.386	113.19
341.614	92.19
341.842	87.19
342.07	99.19
342.298	85.19
342.526	102.19
342.754	89.19
342.981	77.19
343.209	92.19
343.437	101.19
343.665	89.19
343.893	100.19
344.12	106.19
344.348	93.19
344.576	78.19
344.804	98.19
345.031	89.19
345.259	99.19
345.487	96.19
345.714	91.19
345.942	82.19
346.17	92.19
346.397	89.19
346.625	82.19
346.853	101.19
347.08	71.19
347.308	93.19
347.535	82.19
347.763	100.19
347.99	101.19
348.218	106.19
348.445	108.19
348.673	91.19
348.9	97.19
349.128	93.19
349.355	91.19
349.583	84.19
349.81	105.19
350.037	102.19
350.265	104.19
350.492	94.19
350.72	84.19
350.947	97.19
351.174	101.19
351.402	93.19
351.629	96.19
351.856	107.19
352.083	110.19
352.311	103.19
352.538	101.19
352.765	97.19
352.992	108.19
353.22	107.19
353.447	100.19
353.674	97.19
353.901	89.19
354.128	101.19
354.355	99.19
354.583	87.19
354.81	102.19
355.037	101.19
355.264	89.19
355.491	82.19
355.718	98.19
355.945	100.19
356.172	89.19
356.399	101.19
356.626	89.19
356.853	93.19
357.08	89.19
357.307	99.19
357.534	92.19
357.761	108.19
357.988	102.19
358.215	90.19
358.441	91.19
358.668	91.19
358.895	77.19
359.122	99.19
359.349	95.19
359.576	93.19
359.802	95.19
360.029	110.19
360.256	113.19
360.483	101.19
360.709	97.19
360.936	75.19
361.163	105.19
361.39	92.19
361.616	84.19
361.843	91.19
362.07	93.19
362.296	105.19
362.523	89.19
362.749	99.19
362.976	83.19
363.203	89.19
363.429	94.19
363.656	105.19
363.882	71.19
364.109	85.19
364.335	97.19
364.562	102.19
364.788	98.19
365.015	91.19
365.241	105.19
365.468	103.19
365.694	93.19
365.92	92.19
366.147	87.19
366.373	89.19
366.599	73.19
366.826	88.19
367.052	86.19
367.278	94.19
367.505	89.19
367.731	93.19
367.957	80.19
368.184	93.19
368.41	108.19
368.636	106.19
368.862	109.19
369.089	108.19
369.315	91.19
369.541	91.19
369.767	90.19
369.993	91.19
370.219	82.19
370.445	97.19
370.672	91.19
370.898	78.19
371.124	92.19
371.35	91.19
371.576	77.19
371.802	84.19
372.028	77.19
372.254	82.19
372.48	88.19
372.706	85.19
372.932	78.19
373.158	89.19
373.384	91.19
373.61	80.19
373.835	89.19
374.061	86.19
374.287	90.19
374.513	89.19
374.739	82.19
374.965	82.19
375.191	88.19
375.416	88.19
375.642	96.19
375.868	96.19
376.094	87.19
376.319	92.19
376.545	90.19
376.771	89.19
376.997	93.19
377.222	97.19
377.448	85.19
377.674	92.19
377.899	101.19
378.125	90.19
378.35	99.19
378.576	80.19
378.802	97.19
379.027	112.19
379.253	92.19
379.478	88.19
379.704	104.19
379.929	91.19
380.155	88.19
380.38	91.19
380.606	101.19
380.831	102.19
381.057	91.19
381.282	103.19
381.507	102.19
381.733	105.19
381.958	104.19
382.184	100.19
382.409	93.19
382.634	110.19
382.86	101.19
383.085	101.19
383.31	101.19
383.535	97.19
383.761	92.19
383.986	86.19
384.211	103.19
384.436	96.19
384.662	103.19
384.887	113.19
385.112	123.19
385.337	101.19
385.562	114.19
385.787	104.19
386.013	119.19
386.238	132.19
386.463	128.19
386.688	122.19
386.913	112.19
387.138	115.19
387.363	118.19
387.588	100.19
387.813	104.19
388.038	124.19
388.263	121.19
388.488	127.19
388.713	90.19
388.938	81.19
389.163	106.19
389.387	100.19
389.612	91.19
389.837	92.19
390.062	93.19
390.287	104.19
390.512	93.19
390.736	99.19
390.961	91.19
391.186	94.19
391.411	88.19
391.636	93.19
391.86	98.19
392.085	83.19
392.31	96.19
392.534	78.19
392.759	97.19
392.984	73.19
393.208	82.19
393.433	96.19
393.658	99.19
393.882	86.19
394.107	95.19
394.331	81.19
394.556	97.19
394.78	82.19
395.005	93.19
395.229	95.19
395.454	90.19
395.678	85.19
395.903	81.19
396.127	108.19
396.352	91.19
396.576	89.19
396.801	95.19
397.025	97.19
397.249	82.19
397.474	82.19
397.698	89.19
397.922	87.19
398.147	80.19
398.371	89.19
398.595	81.19
398.82	90.19
399.044	85.19
399.268	91.19
399.492	86.19
399.717	100.19
399.941	93.19
400.165	92.19
400.389	105.19
400.613	82.19
400.837	80.19
401.062	97.19
401.286	85.19
401.51	89.19
401.734	84.19
401.958	100.19
402.182	124.19
402.406	170.19
402.63	130.19
402.854	101.19
403.078	83.19
403.302	77.19
403.526	91.19
403.75	89.19
403.974	90.19
404.198	89.19
404.422	76.19
404.645	83.19
404.869	77.19
405.093	112.19
405.317	106.19
405.541	101.19
405.765	100.19
405.988	119.19
406.212	161.19
406.436	226.19
406.66	158.19
406.883	87.19
407.107	93.19
407.331	106.19
407.555	99.19
407.778	105.19
408.002	93.19
408.226	86.19
408.449	87.19
408.673	99.19
408.896	96.19
409.12	101.19
409.344	106.19
409.567	94.19
409.791	96.19
410.014	99.19
410.238	99.19
410.461	98.19
410.685	89.19
410.908	91.19
411.132	98.19
411.355	82.19
411.578	96.19
411.802	103.19
412.025	101.19
412.249	91.19
412.472	88.19
412.695	90.19
412.919	89.19
413.142	97.19
413.365	88.19
413.589	73.19
413.812	91.19
414.035	105.19
414.258	88.19
414.482	90.19
414.705	80.19
414.928	102.19
415.151	92.19
415.374	96.19
415.597	100.19
415.821	100.19
416.044	86.19
416.267	104.19
416.49	81.19
416.713	76.19
416.936	95.19
417.159	90.19
417.382	86.19
417.605	83.19
417.828	89.19
418.051	85.19
418.274	85.19
418.497	92.19
418.72	87.19
418.943	86.19
419.166	80.19
419.389	79.19
419.611	90.19
419.834	112.19
420.057	88.19
420.28	84.19
420.503	84.19
420.726	78.19
420.948	98.19
421.171	83.19
421.394	88.19
421.617	98.19
421.839	102.19
422.062	85.19
422.285	102.19
422.507	83.19
422.73	104.19
422.953	102.19
423.175	87.19
423.398	84.19
423.621	96.19
423.843	85.19
424.066	93.19
424.288	96.19
424.511	95.19
424.733	93.19
424.956	106.19
425.178	100.19
425.401	109.19
425.623	97.19
425.846	100.19
426.068	93.19
426.291	92.19
426.513	84.19
426.735	102.19
426.958	99.19
427.18	107.19
427.402	142.19
427.625	184.19
427.847	139.19
428.069	100.19
428.292	72.19
428.514	80.19
428.736	86.19
428.958	91.19
429.181	91.19
429.403	85.19
429.625	82.19
429.847	94.19
430.069	92.19
430.292	94.19
430.514	92.19
430.736	72.19
430.958	88.19
431.18	73.19
431.402	83.19
431.624	85.19
431.846	90.19
432.068	88.19
432.29	65.19
432.512	83.19
432.734	90.19
432.956	80.19
433.178	105.19
433.4	105.19
433.622	97.19
433.844	99.19
434.066	86.19
434.287	79.19
434.509	88.19
434.731	88.19
434.953	81.19
435.175	87.19
435.397	97.19
435.618	91.19
435.84	117.19
436.062	146.19
436.284	129.19
436.505	105.19
436.727	114.19
436.949	94.19
437.17	78.19
437.392	82.19
437.614	82.19
437.835	102.19
438.057	120.19
438.278	121.19
438.5	90.19
438.721	124.19
438.943	99.19
439.165	87.19
439.386	101.19
439.608	97.19
439.829	104.19
440.05	114.19
440.272	146.19
440.493	108.19
440.715	91.19
440.936	84.19
441.158	97.19
441.379	94.19
441.6	78.19
441.822	89.19
442.043	105.19
442.264	106.19
442.486	116.19
442.707	93.19
442.928	118.19
443.149	131.19
443.371	128.19
443.592	114.19
443.813	105.19
444.034	107.19
444.255	95.19
444.476	93.19
444.698	72.19
444.919	90.19
445.14	152.19
445.361	130.19
445.582	114.19
445.803	137.19
446.024	135.19
446.245	136.19
446.466	103.19
446.687	100.19
446.908	75.19
447.129	85.19
447.35	80.19
447.571	100.19
447.792	106.19
448.013	99.19
448.234	101.19
448.455	103.19
448.675	108.19
448.896	120.19
449.117	86.19
449.338	101.19
449.559	134.19
449.779	136.19
450	93.19
450.221	76.19
450.442	90.19
450.662	85.19
450.883	114.19
451.104	105.19
451.324	85.19
451.545	81.19
451.766	102.19
451.986	90.19
452.207	88.19
452.428	84.19
452.648	96.19
452.869	120.19
453.089	123.19
453.31	117.19
453.53	97.19
453.751	86.19
453.971	94.19
454.192	103.19
454.412	99.19
454.633	76.19
454.853	82.19
455.073	84.19
455.294	82.19
455.514	95.19
455.734	99.19
455.955	88.19
456.175	67.19
456.395	86.19
456.616	71.19
456.836	88.19
457.056	78.19
457.276	83.19
457.497	80.19
457.717	75.19
457.937	95.19
458.157	87.19
458.377	97.19
458.598	105.19
458.818	148.19
459.038	166.19
459.258	120.19
459.478	93.19
459.698	81.19
459.918	80.19
460.138	89.19
460.358	73.19
460.578	85.19
460.798	83.19
461.018	78.19
461.238	83.19
461.458	82.19
461.678	82.19
461.898	92.19
462.118	86.19
462.338	90.19
462.558	92.19
462.777	96.19
462.997	95.19
463.217	93.19
463.437	76.19
463.657	82.19
463.876	87.19
464.096	85.19
464.316	89.19
464.536	102.19
464.755	98.19
464.975	105.19
465.195	161.19
465.414	166.19
465.634	97.19
465.854	89.19
466.073	85.19
466.293	89.19
466.512	78.19
466.732	70.19
466.951	88.19
467.171	102.19
467.391	92.19
467.61	92.19
467.829	92.19
468.049	102.19
468.268	115.19
468.488	106.19
468.707	84.19
468.927	78.19
469.146	78.19
469.365	80.19
469.585	87.19
469.804	93.19
470.023	87.19
470.243	91.19
470.462	92.19
470.681	104.19
470.901	83.19
471.12	72.19
471.339	87.19
471.558	98.19
471.777	91.19
471.997	98.19
472.216	122.19
472.435	179.19
472.654	99.19
472.873	100.19
473.092	73.19
473.311	81.19
473.53	87.19
473.749	85.19
473.968	87.19
474.187	118.19
474.406	91.19
474.625	93.19
474.844	98.19
475.063	71.19
475.282	78.19
475.501	85.19
475.72	90.19
475.939	77.19
476.158	92.19
476.377	98.19
476.596	88.19
476.814	84.19
477.033	93.19
477.252	88.19
477.471	97.19
477.69	79.19
477.908	80.19
478.127	76.19
478.346	94.19
478.564	87.19
478.783	97.19
479.002	98.19
479.22	81.19
479.439	101.19
479.658	99.19
479.876	91.19
480.095	85.19
480.313	87.19
480.532	88.19
480.751	98.19
480.969	136.19
481.188	273.19
481.406	203.19
481.624	110.19
481.843	89.19
482.061	91.19
482.28	91.19
482.498	82.19
482.717	101.19
482.935	96.19
483.153	78.19
483.372	86.19
483.59	94.19
483.808	99.19
484.027	76.19
484.245	85.19
484.463	81.19
484.681	98.19
484.9	97.19
485.118	91.19
485.336	93.19
485.554	99.19
485.772	99.19
485.99	98.19
486.209	99.19
486.427	110.19
486.645	124.19
486.863	114.19
487.081	100.19
487.299	91.19
487.517	83.19
487.735	100.19
487.953	96.19
488.171	109.19
488.389	98.19
488.607	97.19
488.825	96.19
489.043	91.19
489.261	84.19
489.479	92.19
489.696	90.19
489.914	72.19
490.132	94.19
490.35	86.19
490.568	92.19
490.786	86.19
491.003	86.19
491.221	77.19
491.439	83.19
491.657	96.19
491.874	93.19
492.092	89.19
492.31	86.19
492.527	89.19
492.745	97.19
492.963	93.19
493.18	90.19
493.398	102.19
493.615	96.19
493.833	97.19
494.05	96.19
494.268	97.19
494.485	87.19
494.703	98.19
494.92	89.19
495.138	98.19
495.355	99.19
495.573	105.19
495.79	89.19
496.008	92.19
496.225	90.19
496.442	91.19
496.66	95.19
496.877	102.19
497.094	102.19
497.312	93.19
497.529	103.19
497.746	96.19
497.963	95.19
498.181	85.19
498.398	103.19
498.615	105.19
498.832	104.19
499.049	92.19
499.267	85.19
499.484	88.19
499.701	94.19
499.918	94.19
500.135	91.19
500.352	88.19
500.569	95.19
500.786	84.19
501.003	90.19
501.22	91.19
501.437	89.19
501.654	98.19
501.871	108.19
502.088	95.19
502.305	86.19
502.522	88.19
502.739	92.19
502.956	92.19
503.172	85.19
503.389	93.19
503.606	96.19
503.823	88.19
504.04	91.19
504.256	93.19
504.473	84.19
504.69	83.19
504.907	92.19
505.123	86.19
505.34	79.19
505.557	96.19
505.773	85.19
505.99	67.19
506.207	81.19
506.423	99.19
506.64	84.19
506.856	93.19
507.073	96.19
507.289	80.19
507.506	98.19
507.722	93.19
507.939	101.19
508.155	88.19
508.372	86.19
508.588	99.19
508.805	100.19
509.021	105.19
509.238	99.19
509.454	100.19
509.67	103.19
509.887	108.19
510.103	136.19
510.319	212.19
510.536	796.19
510.752	2638.19
510.968	774.19
511.184	162.19
511.401	103.19
511.617	104.19
511.833	103.19
512.049	94.19
512.265	97.19
512.481	93.19
512.698	97.19
512.914	96.19
513.13	88.19
513.346	91.19
513.562	95.19
513.778	89.19
513.994	88.19
514.21	100.19
514.426	106.19
514.642	128.19
514.858	118.19
515.074	169.19
515.29	464.19
