Data from Circ_2016_H10_HRD10591_00051.txt Node
Date: Wed Jan 03 09:58:50 EST 2024
User: Yrep
Spectrometer: HR+D1059
Trigger mode: 1
Integration Time (sec): 1.000000E-1
Scans to average: 1
Electric dark correction enabled: true
Nonlinearity correction enabled: false
Boxcar width: 0
XAxis mode: Wavelengths
Number of Pixels in Spectrum: 2048
>>>>>Begin Spectral Data<<<<<
223.165	-15.06
223.4	-15.06
223.635	-15.06
223.869	-21.06
224.104	-18.06
224.338	-25.06
224.573	-10.06
224.808	-10.06
225.042	-9.06
225.277	-11.06
225.511	-9.06
225.746	3.94
225.98	10.94
226.215	16.94
226.449	13.94
226.683	22.94
226.918	26.94
227.152	32.94
227.387	21.94
227.621	28.94
227.856	44.94
228.09	40.94
228.324	51.94
228.559	58.94
228.793	52.94
229.027	45.94
229.262	63.94
229.496	62.94
229.73	74.94
229.964	80.94
230.199	75.94
230.433	64.94
230.667	79.94
230.901	75.94
231.136	82.94
231.37	69.94
231.604	71.94
231.838	74.94
232.072	94.94
232.306	79.94
232.541	83.94
232.775	66.94
233.009	78.94
233.243	97.94
233.477	65.94
233.711	73.94
233.945	75.94
234.179	76.94
234.413	81.94
234.647	77.94
234.881	87.94
235.115	76.94
235.349	87.94
235.583	73.94
235.817	81.94
236.051	78.94
236.285	82.94
236.519	79.94
236.753	70.94
236.987	84.94
237.221	85.94
237.455	73.94
237.689	70.94
237.922	72.94
238.156	70.94
238.39	67.94
238.624	82.94
238.858	79.94
239.091	75.94
239.325	71.94
239.559	63.94
239.793	85.94
240.027	72.94
240.26	83.94
240.494	89.94
240.728	74.94
240.961	59.94
241.195	73.94
241.429	69.94
241.662	56.94
241.896	71.94
242.13	74.94
242.363	82.94
242.597	73.94
242.83	79.94
243.064	92.94
243.298	74.94
243.531	69.94
243.765	73.94
243.998	76.94
244.232	80.94
244.465	74.94
244.699	71.94
244.932	79.94
245.166	78.94
245.399	77.94
245.633	71.94
245.866	64.94
246.099	82.94
246.333	67.94
246.566	78.94
246.8	74.94
247.033	73.94
247.266	89.94
247.5	70.94
247.733	73.94
247.966	80.94
248.2	76.94
248.433	90.94
248.666	86.94
248.899	67.94
249.133	72.94
249.366	93.94
249.599	90.94
249.832	74.94
250.066	78.94
250.299	81.94
250.532	83.94
250.765	72.94
250.998	66.94
251.231	71.94
251.465	77.94
251.698	66.94
251.931	73.94
252.164	85.94
252.397	68.94
252.63	75.94
252.863	71.94
253.096	85.94
253.329	84.94
253.562	78.94
253.795	67.94
254.028	79.94
254.261	85.94
254.494	78.94
254.727	89.94
254.96	84.94
255.193	75.94
255.426	72.94
255.659	79.94
255.892	79.94
256.124	83.94
256.357	68.94
256.59	83.94
256.823	67.94
257.056	66.94
257.289	72.94
257.521	85.94
257.754	64.94
257.987	76.94
258.22	88.94
258.452	87.94
258.685	80.94
258.918	74.94
259.151	80.94
259.383	90.94
259.616	73.94
259.849	65.94
260.081	82.94
260.314	83.94
260.547	87.94
260.779	82.94
261.012	86.94
261.244	80.94
261.477	85.94
261.71	91.94
261.942	100.94
262.175	118.94
262.407	101.94
262.64	80.94
262.872	83.94
263.105	79.94
263.337	61.94
263.57	71.94
263.802	73.94
264.035	80.94
264.267	74.94
264.499	73.94
264.732	93.94
264.964	76.94
265.197	94.94
265.429	89.94
265.661	79.94
265.894	67.94
266.126	82.94
266.358	80.94
266.591	88.94
266.823	79.94
267.055	84.94
267.287	94.94
267.52	81.94
267.752	57.94
267.984	89.94
268.216	84.94
268.448	68.94
268.681	87.94
268.913	72.94
269.145	80.94
269.377	78.94
269.609	77.94
269.841	84.94
270.073	88.94
270.306	77.94
270.538	89.94
270.77	67.94
271.002	75.94
271.234	85.94
271.466	69.94
271.698	88.94
271.93	83.94
272.162	79.94
272.394	73.94
272.626	86.94
272.858	86.94
273.09	72.94
273.322	99.94
273.553	81.94
273.785	80.94
274.017	68.94
274.249	79.94
274.481	87.94
274.713	62.94
274.945	77.94
275.176	85.94
275.408	82.94
275.64	74.94
275.872	76.94
276.104	89.94
276.335	89.94
276.567	84.94
276.799	102.94
277.031	95.94
277.262	100.94
277.494	93.94
277.726	75.94
277.957	78.94
278.189	78.94
278.421	84.94
278.652	77.94
278.884	80.94
279.115	75.94
279.347	86.94
279.579	75.94
279.81	94.94
280.042	97.94
280.273	93.94
280.505	85.94
280.736	73.94
280.968	70.94
281.199	82.94
281.431	79.94
281.662	84.94
281.894	78.94
282.125	94.94
282.356	121.94
282.588	132.94
282.819	124.94
283.051	96.94
283.282	83.94
283.513	85.94
283.745	77.94
283.976	87.94
284.207	81.94
284.439	92.94
284.67	69.94
284.901	82.94
285.132	87.94
285.364	82.94
285.595	73.94
285.826	81.94
286.057	88.94
286.288	79.94
286.52	85.94
286.751	91.94
286.982	81.94
287.213	77.94
287.444	96.94
287.675	73.94
287.906	89.94
288.138	75.94
288.369	89.94
288.6	102.94
288.831	85.94
289.062	96.94
289.293	86.94
289.524	83.94
289.755	82.94
289.986	72.94
290.217	96.94
290.448	80.94
290.679	75.94
290.91	86.94
291.141	78.94
291.371	78.94
291.602	83.94
291.833	88.94
292.064	84.94
292.295	91.94
292.526	96.94
292.757	91.94
292.987	83.94
293.218	77.94
293.449	74.94
293.68	77.94
293.91	78.94
294.141	82.94
294.372	96.94
294.603	82.94
294.833	95.94
295.064	81.94
295.295	81.94
295.525	71.94
295.756	101.94
295.987	99.94
296.217	125.94
296.448	107.94
296.679	91.94
296.909	93.94
297.14	103.94
297.37	75.94
297.601	81.94
297.831	93.94
298.062	86.94
298.292	72.94
298.523	85.94
298.753	80.94
298.984	86.94
299.214	95.94
299.445	101.94
299.675	84.94
299.905	93.94
300.136	78.94
300.366	79.94
300.597	82.94
300.827	88.94
301.057	110.94
301.288	125.94
301.518	99.94
301.748	94.94
301.979	114.94
302.209	93.94
302.439	105.94
302.669	105.94
302.9	90.94
303.13	82.94
303.36	75.94
303.59	90.94
303.82	101.94
304.051	90.94
304.281	93.94
304.511	100.94
304.741	84.94
304.971	80.94
305.201	83.94
305.431	92.94
305.661	82.94
305.891	81.94
306.121	106.94
306.352	104.94
306.582	111.94
306.812	86.94
307.042	88.94
307.272	93.94
307.502	94.94
307.731	89.94
307.961	79.94
308.191	85.94
308.421	90.94
308.651	91.94
308.881	93.94
309.111	83.94
309.341	106.94
309.571	96.94
309.8	81.94
310.03	110.94
310.26	87.94
310.49	93.94
310.72	98.94
310.949	95.94
311.179	96.94
311.409	82.94
311.639	94.94
311.868	103.94
312.098	78.94
312.328	94.94
312.557	96.94
312.787	109.94
313.017	101.94
313.246	75.94
313.476	81.94
313.706	89.94
313.935	99.94
314.165	95.94
314.394	105.94
314.624	88.94
314.853	83.94
315.083	96.94
315.312	83.94
315.542	83.94
315.771	98.94
316.001	92.94
316.23	104.94
316.46	102.94
316.689	79.94
316.919	88.94
317.148	93.94
317.377	87.94
317.607	87.94
317.836	91.94
318.065	78.94
318.295	91.94
318.524	83.94
318.753	100.94
318.983	76.94
319.212	94.94
319.441	104.94
319.67	102.94
319.9	99.94
320.129	97.94
320.358	88.94
320.587	96.94
320.816	104.94
321.046	91.94
321.275	100.94
321.504	86.94
321.733	96.94
321.962	94.94
322.191	81.94
322.42	100.94
322.649	109.94
322.878	104.94
323.108	115.94
323.337	118.94
323.566	118.94
323.795	156.94
324.024	191.94
324.253	397.94
324.482	850.94
324.71	1717.94
324.939	2319.94
325.168	846.94
325.397	242.94
325.626	155.94
325.855	127.94
326.084	126.94
326.313	151.94
326.542	152.94
326.77	231.94
326.999	458.94
327.228	970.94
327.457	1785.94
327.686	1440.94
327.914	381.94
328.143	189.94
328.372	154.94
328.6	123.94
328.829	106.94
329.058	138.94
329.287	118.94
329.515	102.94
329.744	119.94
329.972	94.94
330.201	115.94
330.43	131.94
330.658	125.94
330.887	124.94
331.115	121.94
331.344	103.94
331.572	100.94
331.801	87.94
332.03	104.94
332.258	87.94
332.486	98.94
332.715	83.94
332.943	82.94
333.172	90.94
333.4	101.94
333.629	102.94
333.857	115.94
334.085	100.94
334.314	109.94
334.542	135.94
334.771	127.94
334.999	93.94
335.227	95.94
335.455	90.94
335.684	105.94
335.912	97.94
336.14	89.94
336.369	77.94
336.597	94.94
336.825	103.94
337.053	95.94
337.281	86.94
337.51	98.94
337.738	89.94
337.966	69.94
338.194	80.94
338.422	96.94
338.65	88.94
338.878	113.94
339.106	71.94
339.334	72.94
339.562	91.94
339.79	89.94
340.018	94.94
340.246	91.94
340.474	96.94
340.702	93.94
340.93	83.94
341.158	89.94
341.386	95.94
341.614	83.94
341.842	95.94
342.07	101.94
342.298	88.94
342.526	69.94
342.754	79.94
342.981	81.94
343.209	77.94
343.437	86.94
343.665	70.94
343.893	96.94
344.12	92.94
344.348	93.94
344.576	85.94
344.804	74.94
345.031	106.94
345.259	102.94
345.487	99.94
345.714	82.94
345.942	101.94
346.17	97.94
346.397	78.94
346.625	81.94
346.853	89.94
347.08	89.94
347.308	85.94
347.535	93.94
347.763	85.94
347.99	94.94
348.218	99.94
348.445	85.94
348.673	95.94
348.9	97.94
349.128	87.94
349.355	100.94
349.583	86.94
349.81	85.94
350.037	85.94
350.265	91.94
350.492	85.94
350.72	91.94
350.947	93.94
351.174	94.94
351.402	99.94
351.629	100.94
351.856	102.94
352.083	90.94
352.311	86.94
352.538	91.94
352.765	97.94
352.992	98.94
353.22	95.94
353.447	99.94
353.674	119.94
353.901	87.94
354.128	77.94
354.355	89.94
354.583	87.94
354.81	94.94
355.037	108.94
355.264	98.94
355.491	96.94
355.718	75.94
355.945	81.94
356.172	100.94
356.399	93.94
356.626	93.94
356.853	85.94
357.08	94.94
357.307	105.94
357.534	82.94
357.761	94.94
357.988	107.94
358.215	88.94
358.441	96.94
358.668	88.94
358.895	80.94
359.122	82.94
359.349	94.94
359.576	101.94
359.802	93.94
360.029	99.94
360.256	98.94
360.483	97.94
360.709	104.94
360.936	81.94
361.163	98.94
361.39	93.94
361.616	92.94
361.843	88.94
362.07	88.94
362.296	88.94
362.523	91.94
362.749	101.94
362.976	96.94
363.203	91.94
363.429	84.94
363.656	80.94
363.882	88.94
364.109	86.94
364.335	85.94
364.562	88.94
364.788	90.94
365.015	93.94
365.241	84.94
365.468	92.94
365.694	105.94
365.92	81.94
366.147	83.94
366.373	81.94
366.599	72.94
366.826	77.94
367.052	96.94
367.278	80.94
367.505	84.94
367.731	86.94
367.957	87.94
368.184	85.94
368.41	94.94
368.636	106.94
368.862	104.94
369.089	118.94
369.315	86.94
369.541	73.94
369.767	82.94
369.993	94.94
370.219	103.94
370.445	86.94
370.672	73.94
370.898	72.94
371.124	86.94
371.35	82.94
371.576	83.94
371.802	79.94
372.028	93.94
372.254	76.94
372.48	93.94
372.706	77.94
372.932	90.94
373.158	82.94
373.384	83.94
373.61	82.94
373.835	88.94
374.061	87.94
374.287	81.94
374.513	89.94
374.739	69.94
374.965	85.94
375.191	87.94
375.416	103.94
375.642	81.94
375.868	81.94
376.094	89.94
376.319	83.94
376.545	82.94
376.771	86.94
376.997	100.94
377.222	88.94
377.448	94.94
377.674	100.94
377.899	81.94
378.125	84.94
378.35	98.94
378.576	73.94
378.802	98.94
379.027	75.94
379.253	93.94
379.478	83.94
379.704	81.94
379.929	87.94
380.155	95.94
380.38	110.94
380.606	92.94
380.831	76.94
381.057	104.94
381.282	100.94
381.507	93.94
381.733	106.94
381.958	96.94
382.184	82.94
382.409	98.94
382.634	97.94
382.86	101.94
383.085	112.94
383.31	94.94
383.535	117.94
383.761	97.94
383.986	106.94
384.211	99.94
384.436	102.94
384.662	89.94
384.887	105.94
385.112	104.94
385.337	93.94
385.562	123.94
385.787	112.94
386.013	109.94
386.238	122.94
386.463	107.94
386.688	117.94
386.913	106.94
387.138	115.94
387.363	113.94
387.588	110.94
387.813	109.94
388.038	100.94
388.263	122.94
388.488	117.94
388.713	98.94
388.938	101.94
389.163	87.94
389.387	88.94
389.612	104.94
389.837	89.94
390.062	94.94
390.287	79.94
390.512	89.94
390.736	76.94
390.961	87.94
391.186	88.94
391.411	78.94
391.636	86.94
391.86	75.94
392.085	94.94
392.31	88.94
392.534	86.94
392.759	77.94
392.984	85.94
393.208	80.94
393.433	93.94
393.658	84.94
393.882	72.94
394.107	82.94
394.331	71.94
394.556	89.94
394.78	83.94
395.005	86.94
395.229	90.94
395.454	88.94
395.678	85.94
395.903	94.94
396.127	73.94
396.352	78.94
396.576	81.94
396.801	90.94
397.025	87.94
397.249	87.94
397.474	86.94
397.698	85.94
397.922	99.94
398.147	85.94
398.371	82.94
398.595	58.94
398.82	71.94
399.044	82.94
399.268	92.94
399.492	72.94
399.717	75.94
399.941	84.94
400.165	97.94
400.389	88.94
400.613	91.94
400.837	80.94
401.062	86.94
401.286	94.94
401.51	71.94
401.734	91.94
401.958	87.94
402.182	127.94
402.406	138.94
402.63	118.94
402.854	83.94
403.078	93.94
403.302	94.94
403.526	97.94
403.75	81.94
403.974	80.94
404.198	83.94
404.422	72.94
404.645	77.94
404.869	83.94
405.093	80.94
405.317	85.94
405.541	104.94
405.765	101.94
405.988	110.94
406.212	149.94
406.436	209.94
406.66	131.94
406.883	93.94
407.107	87.94
407.331	90.94
407.555	90.94
407.778	96.94
408.002	101.94
408.226	91.94
408.449	76.94
408.673	71.94
408.896	88.94
409.12	91.94
409.344	82.94
409.567	86.94
409.791	95.94
410.014	79.94
410.238	97.94
410.461	84.94
410.685	96.94
410.908	98.94
411.132	104.94
411.355	101.94
411.578	88.94
411.802	90.94
412.025	95.94
412.249	102.94
412.472	94.94
412.695	89.94
412.919	82.94
413.142	80.94
413.365	98.94
413.589	83.94
413.812	88.94
414.035	97.94
414.258	83.94
414.482	98.94
414.705	89.94
414.928	95.94
415.151	97.94
415.374	86.94
415.597	102.94
415.821	94.94
416.044	95.94
416.267	91.94
416.49	93.94
416.713	91.94
416.936	91.94
417.159	102.94
417.382	75.94
417.605	84.94
417.828	73.94
418.051	90.94
418.274	85.94
418.497	80.94
418.72	88.94
418.943	74.94
419.166	89.94
419.389	81.94
419.611	82.94
419.834	87.94
420.057	73.94
420.28	87.94
420.503	74.94
420.726	78.94
420.948	88.94
421.171	75.94
421.394	87.94
421.617	93.94
421.839	90.94
422.062	81.94
422.285	81.94
422.507	93.94
422.73	101.94
422.953	105.94
423.175	89.94
423.398	74.94
423.621	85.94
423.843	89.94
424.066	75.94
424.288	69.94
424.511	92.94
424.733	91.94
424.956	106.94
425.178	99.94
425.401	104.94
425.623	98.94
425.846	83.94
426.068	92.94
426.291	95.94
426.513	100.94
426.735	90.94
426.958	94.94
427.18	110.94
427.402	122.94
427.625	166.94
427.847	122.94
428.069	98.94
428.292	90.94
428.514	93.94
428.736	71.94
428.958	86.94
429.181	91.94
429.403	91.94
429.625	91.94
429.847	87.94
430.069	98.94
430.292	86.94
430.514	94.94
430.736	88.94
430.958	77.94
431.18	75.94
431.402	71.94
431.624	73.94
431.846	90.94
432.068	93.94
432.29	88.94
432.512	94.94
432.734	85.94
432.956	77.94
433.178	101.94
433.4	98.94
433.622	89.94
433.844	91.94
434.066	80.94
434.287	90.94
434.509	80.94
434.731	84.94
434.953	74.94
435.175	95.94
435.397	103.94
435.618	92.94
435.84	97.94
436.062	124.94
436.284	109.94
436.505	91.94
436.727	111.94
436.949	100.94
437.17	79.94
437.392	81.94
437.614	79.94
437.835	96.94
438.057	108.94
438.278	106.94
438.5	115.94
438.721	102.94
438.943	91.94
439.165	86.94
439.386	84.94
439.608	94.94
439.829	90.94
440.05	123.94
440.272	129.94
440.493	104.94
440.715	82.94
440.936	87.94
441.158	91.94
441.379	93.94
441.6	95.94
441.822	100.94
442.043	110.94
442.264	93.94
442.486	86.94
442.707	74.94
442.928	98.94
443.149	110.94
443.371	125.94
443.592	103.94
443.813	99.94
444.034	105.94
444.255	80.94
444.476	96.94
444.698	100.94
444.919	95.94
445.14	119.94
445.361	110.94
445.582	114.94
445.803	119.94
446.024	125.94
446.245	138.94
446.466	99.94
446.687	79.94
446.908	76.94
447.129	85.94
447.35	82.94
447.571	79.94
447.792	86.94
448.013	121.94
448.234	110.94
448.455	88.94
448.675	108.94
448.896	123.94
449.117	93.94
449.338	98.94
449.559	110.94
449.779	121.94
450	75.94
450.221	73.94
450.442	83.94
450.662	88.94
450.883	99.94
451.104	112.94
451.324	74.94
451.545	90.94
451.766	74.94
451.986	65.94
452.207	81.94
452.428	78.94
452.648	78.94
452.869	103.94
453.089	127.94
453.31	113.94
453.53	81.94
453.751	85.94
453.971	95.94
454.192	107.94
454.412	94.94
454.633	65.94
454.853	74.94
455.073	95.94
455.294	88.94
455.514	95.94
455.734	82.94
455.955	95.94
456.175	81.94
456.395	78.94
456.616	84.94
456.836	98.94
457.056	97.94
457.276	74.94
457.497	84.94
457.717	88.94
457.937	74.94
458.157	98.94
458.377	73.94
458.598	91.94
458.818	126.94
459.038	158.94
459.258	103.94
459.478	82.94
459.698	86.94
459.918	81.94
460.138	93.94
460.358	75.94
460.578	88.94
460.798	93.94
461.018	73.94
461.238	65.94
461.458	75.94
461.678	74.94
461.898	85.94
462.118	91.94
462.338	78.94
462.558	87.94
462.777	90.94
462.997	76.94
463.217	82.94
463.437	87.94
463.657	86.94
463.876	81.94
464.096	95.94
464.316	86.94
464.536	80.94
464.755	98.94
464.975	102.94
465.195	169.94
465.414	137.94
465.634	87.94
465.854	83.94
466.073	90.94
466.293	81.94
466.512	77.94
466.732	90.94
466.951	82.94
467.171	78.94
467.391	94.94
467.61	94.94
467.829	97.94
468.049	109.94
468.268	85.94
468.488	89.94
468.707	84.94
468.927	68.94
469.146	84.94
469.365	74.94
469.585	86.94
469.804	96.94
470.023	98.94
470.243	82.94
470.462	102.94
470.681	104.94
470.901	77.94
471.12	78.94
471.339	93.94
471.558	99.94
471.777	97.94
471.997	92.94
472.216	102.94
472.435	140.94
472.654	96.94
472.873	82.94
473.092	82.94
473.311	82.94
473.53	81.94
473.749	88.94
473.968	93.94
474.187	101.94
474.406	82.94
474.625	96.94
474.844	93.94
475.063	80.94
475.282	87.94
475.501	86.94
475.72	95.94
475.939	94.94
476.158	86.94
476.377	82.94
476.596	85.94
476.814	83.94
477.033	77.94
477.252	94.94
477.471	75.94
477.69	88.94
477.908	94.94
478.127	87.94
478.346	79.94
478.564	96.94
478.783	91.94
479.002	78.94
479.22	69.94
479.439	89.94
479.658	81.94
479.876	91.94
480.095	82.94
480.313	90.94
480.532	86.94
480.751	88.94
480.969	116.94
481.188	206.94
481.406	151.94
481.624	94.94
481.843	85.94
482.061	70.94
482.28	81.94
482.498	95.94
482.717	82.94
482.935	99.94
483.153	95.94
483.372	89.94
483.59	81.94
483.808	86.94
484.027	80.94
484.245	93.94
484.463	90.94
484.681	103.94
484.9	85.94
485.118	108.94
485.336	94.94
485.554	97.94
485.772	90.94
485.99	107.94
486.209	105.94
486.427	96.94
486.645	107.94
486.863	112.94
487.081	90.94
487.299	85.94
487.517	94.94
487.735	91.94
487.953	86.94
488.171	86.94
488.389	106.94
488.607	77.94
488.825	83.94
489.043	94.94
489.261	87.94
489.479	79.94
489.696	75.94
489.914	84.94
490.132	95.94
490.35	105.94
490.568	81.94
490.786	93.94
491.003	94.94
491.221	77.94
491.439	78.94
491.657	78.94
491.874	90.94
492.092	99.94
492.31	90.94
492.527	90.94
492.745	70.94
492.963	75.94
493.18	105.94
493.398	82.94
493.615	101.94
493.833	85.94
494.05	93.94
494.268	102.94
494.485	108.94
494.703	94.94
494.92	85.94
495.138	72.94
495.355	87.94
495.573	85.94
495.79	83.94
496.008	87.94
496.225	98.94
496.442	88.94
496.66	87.94
496.877	99.94
497.094	81.94
497.312	90.94
497.529	86.94
497.746	89.94
497.963	81.94
498.181	95.94
498.398	111.94
498.615	99.94
498.832	113.94
499.049	102.94
499.267	74.94
499.484	88.94
499.701	92.94
499.918	103.94
500.135	84.94
500.352	81.94
500.569	86.94
500.786	82.94
501.003	83.94
501.22	99.94
501.437	96.94
501.654	93.94
501.871	94.94
502.088	82.94
502.305	79.94
502.522	82.94
502.739	85.94
502.956	95.94
503.172	88.94
503.389	91.94
503.606	85.94
503.823	95.94
504.04	83.94
504.256	78.94
504.473	72.94
504.69	85.94
504.907	95.94
505.123	93.94
505.34	96.94
505.557	103.94
505.773	75.94
505.99	87.94
506.207	80.94
506.423	95.94
506.64	97.94
506.856	94.94
507.073	91.94
507.289	84.94
507.506	96.94
507.722	107.94
507.939	102.94
508.155	86.94
508.372	82.94
508.588	87.94
508.805	85.94
509.021	88.94
509.238	96.94
509.454	96.94
509.67	91.94
509.887	104.94
510.103	133.94
510.319	205.94
510.536	751.94
510.752	2439.94
510.968	695.94
511.184	168.94
511.401	106.94
511.617	93.94
511.833	102.94
512.049	92.94
512.265	90.94
512.481	75.94
512.698	78.94
512.914	93.94
513.13	90.94
513.346	70.94
513.562	93.94
513.778	90.94
513.994	100.94
514.21	102.94
514.426	119.94
514.642	121.94
514.858	112.94
515.074	144.94
515.29	402.94
515.506	1416.94
515.721	566.94
515.937	154.94
516.153	111.94
516.369	97.94
