Data from Circ_2016_H10_HRD10591_00024.txt Node
Date: Wed Jan 03 09:58:45 EST 2024
User: Yrep
Spectrometer: HR+D1059
Trigger mode: 1
Integration Time (sec): 1.000000E-1
Scans to average: 1
Electric dark correction enabled: true
Nonlinearity correction enabled: false
Boxcar width: 0
XAxis mode: Wavelengths
Number of Pixels in Spectrum: 2048
>>>>>Begin Spectral Data<<<<<
223.165	-11.38
223.4	-11.38
223.635	-11.38
223.869	-25.38
224.104	-6.38
224.338	-21.38
224.573	-31.38
224.808	-8.38
225.042	-9.38
225.277	-20.38
225.511	8.62
225.746	-9.38
225.98	8.62
226.215	15.62
226.449	20.62
226.683	28.62
226.918	36.62
227.152	24.62
227.387	31.62
227.621	32.62
227.856	44.62
228.09	38.62
228.324	53.62
228.559	58.62
228.793	68.62
229.027	56.62
229.262	83.62
229.496	82.62
229.73	94.62
229.964	91.62
230.199	69.62
230.433	76.62
230.667	80.62
230.901	83.62
231.136	77.62
231.37	83.62
231.604	92.62
231.838	95.62
232.072	71.62
232.306	79.62
232.541	65.62
232.775	77.62
233.009	87.62
233.243	90.62
233.477	80.62
233.711	84.62
233.945	78.62
234.179	83.62
234.413	84.62
234.647	73.62
234.881	86.62
235.115	90.62
235.349	74.62
235.583	83.62
235.817	72.62
236.051	86.62
236.285	87.62
236.519	85.62
236.753	81.62
236.987	72.62
237.221	82.62
237.455	77.62
237.689	86.62
237.922	73.62
238.156	86.62
238.39	83.62
238.624	82.62
238.858	86.62
239.091	80.62
239.325	67.62
239.559	82.62
239.793	106.62
240.027	87.62
240.26	79.62
240.494	70.62
240.728	71.62
240.961	88.62
241.195	74.62
241.429	74.62
241.662	76.62
241.896	79.62
242.13	86.62
242.363	70.62
242.597	72.62
242.83	77.62
243.064	72.62
243.298	78.62
243.531	81.62
243.765	70.62
243.998	69.62
244.232	75.62
244.465	68.62
244.699	90.62
244.932	70.62
245.166	84.62
245.399	72.62
245.633	76.62
245.866	77.62
246.099	65.62
246.333	78.62
246.566	66.62
246.8	74.62
247.033	82.62
247.266	78.62
247.5	92.62
247.733	81.62
247.966	84.62
248.2	86.62
248.433	75.62
248.666	87.62
248.899	81.62
249.133	92.62
249.366	108.62
249.599	110.62
249.832	79.62
250.066	91.62
250.299	78.62
250.532	78.62
250.765	79.62
250.998	92.62
251.231	74.62
251.465	82.62
251.698	70.62
251.931	84.62
252.164	69.62
252.397	76.62
252.63	84.62
252.863	78.62
253.096	75.62
253.329	79.62
253.562	80.62
253.795	81.62
254.028	75.62
254.261	77.62
254.494	58.62
254.727	89.62
254.96	101.62
255.193	87.62
255.426	77.62
255.659	84.62
255.892	82.62
256.124	62.62
256.357	78.62
256.59	85.62
256.823	91.62
257.056	83.62
257.289	83.62
257.521	74.62
257.754	75.62
257.987	83.62
258.22	90.62
258.452	74.62
258.685	84.62
258.918	104.62
259.151	80.62
259.383	86.62
259.616	67.62
259.849	81.62
260.081	98.62
260.314	88.62
260.547	70.62
260.779	87.62
261.012	85.62
261.244	75.62
261.477	106.62
261.71	85.62
261.942	133.62
262.175	145.62
262.407	100.62
262.64	82.62
262.872	103.62
263.105	89.62
263.337	82.62
263.57	100.62
263.802	82.62
264.035	83.62
264.267	79.62
264.499	84.62
264.732	99.62
264.964	86.62
265.197	88.62
265.429	80.62
265.661	83.62
265.894	90.62
266.126	90.62
266.358	80.62
266.591	79.62
266.823	90.62
267.055	73.62
267.287	80.62
267.52	84.62
267.752	84.62
267.984	80.62
268.216	77.62
268.448	90.62
268.681	84.62
268.913	83.62
269.145	83.62
269.377	78.62
269.609	83.62
269.841	92.62
270.073	91.62
270.306	75.62
270.538	85.62
270.77	79.62
271.002	77.62
271.234	86.62
271.466	85.62
271.698	88.62
271.93	82.62
272.162	90.62
272.394	91.62
272.626	101.62
272.858	86.62
273.09	88.62
273.322	70.62
273.553	86.62
273.785	94.62
274.017	84.62
274.249	79.62
274.481	84.62
274.713	85.62
274.945	86.62
275.176	98.62
275.408	72.62
275.64	80.62
275.872	88.62
276.104	103.62
276.335	98.62
276.567	114.62
276.799	128.62
277.031	103.62
277.262	108.62
277.494	80.62
277.726	83.62
277.957	99.62
278.189	85.62
278.421	86.62
278.652	84.62
278.884	82.62
279.115	85.62
279.347	76.62
279.579	76.62
279.81	84.62
280.042	72.62
280.273	85.62
280.505	85.62
280.736	102.62
280.968	93.62
281.199	75.62
281.431	95.62
281.662	87.62
281.894	90.62
282.125	100.62
282.356	135.62
282.588	171.62
282.819	118.62
283.051	90.62
283.282	88.62
283.513	92.62
283.745	96.62
283.976	83.62
284.207	85.62
284.439	78.62
284.67	78.62
284.901	83.62
285.132	89.62
285.364	80.62
285.595	87.62
285.826	78.62
286.057	95.62
286.288	94.62
286.52	94.62
286.751	92.62
286.982	82.62
287.213	82.62
287.444	77.62
287.675	108.62
287.906	96.62
288.138	98.62
288.369	86.62
288.6	82.62
288.831	78.62
289.062	84.62
289.293	88.62
289.524	91.62
289.755	90.62
289.986	90.62
290.217	76.62
290.448	84.62
290.679	85.62
290.91	88.62
291.141	80.62
291.371	83.62
291.602	90.62
291.833	61.62
292.064	76.62
292.295	83.62
292.526	89.62
292.757	86.62
292.987	102.62
293.218	100.62
293.449	78.62
293.68	76.62
293.91	80.62
294.141	82.62
294.372	86.62
294.603	88.62
294.833	90.62
295.064	93.62
295.295	89.62
295.525	101.62
295.756	105.62
295.987	130.62
296.217	181.62
296.448	150.62
296.679	104.62
296.909	125.62
297.14	89.62
297.37	81.62
297.601	82.62
297.831	102.62
298.062	93.62
298.292	91.62
298.523	100.62
298.753	94.62
298.984	91.62
299.214	98.62
299.445	92.62
299.675	92.62
299.905	99.62
300.136	101.62
300.366	90.62
300.597	77.62
300.827	103.62
301.057	106.62
301.288	111.62
301.518	96.62
301.748	90.62
301.979	111.62
302.209	98.62
302.439	89.62
302.669	100.62
302.9	98.62
303.13	93.62
303.36	109.62
303.59	99.62
303.82	112.62
304.051	95.62
304.281	91.62
304.511	97.62
304.741	95.62
304.971	85.62
305.201	83.62
305.431	82.62
305.661	89.62
305.891	83.62
306.121	100.62
306.352	117.62
306.582	125.62
306.812	105.62
307.042	91.62
307.272	78.62
307.502	85.62
307.731	94.62
307.961	83.62
308.191	94.62
308.421	102.62
308.651	95.62
308.881	84.62
309.111	106.62
309.341	97.62
309.571	99.62
309.8	101.62
310.03	99.62
310.26	94.62
310.49	92.62
310.72	114.62
310.949	113.62
311.179	108.62
311.409	106.62
311.639	98.62
311.868	96.62
312.098	101.62
312.328	83.62
312.557	121.62
312.787	116.62
313.017	98.62
313.246	102.62
313.476	92.62
313.706	98.62
313.935	109.62
314.165	114.62
314.394	90.62
314.624	100.62
314.853	106.62
315.083	103.62
315.312	92.62
315.542	95.62
315.771	96.62
316.001	95.62
316.23	97.62
316.46	97.62
316.689	109.62
316.919	97.62
317.148	101.62
317.377	98.62
317.607	88.62
317.836	98.62
318.065	103.62
318.295	107.62
318.524	102.62
318.753	99.62
318.983	104.62
319.212	123.62
319.441	115.62
319.67	105.62
319.9	106.62
320.129	88.62
320.358	102.62
320.587	107.62
320.816	110.62
321.046	109.62
321.275	107.62
321.504	94.62
321.733	112.62
321.962	111.62
322.191	125.62
322.42	118.62
322.649	128.62
322.878	127.62
323.108	108.62
323.337	146.62
323.566	169.62
323.795	192.62
324.024	266.62
324.253	563.62
324.482	1222.62
324.71	2590.62
324.939	3388.62
325.168	1210.62
325.397	340.62
325.626	180.62
325.855	159.62
326.084	158.62
326.313	153.62
326.542	185.62
326.77	305.62
326.999	638.62
327.228	1364.62
327.457	2546.62
327.686	1988.62
327.914	518.62
328.143	240.62
328.372	184.62
328.6	151.62
328.829	134.62
329.058	169.62
329.287	152.62
329.515	118.62
329.744	123.62
329.972	114.62
330.201	107.62
330.43	126.62
330.658	137.62
330.887	169.62
331.115	143.62
331.344	105.62
331.572	101.62
331.801	117.62
332.03	102.62
332.258	109.62
332.486	105.62
332.715	103.62
332.943	87.62
333.172	100.62
333.4	105.62
333.629	118.62
333.857	124.62
334.085	112.62
334.314	104.62
334.542	117.62
334.771	106.62
334.999	111.62
335.227	115.62
335.455	108.62
335.684	114.62
335.912	100.62
336.14	112.62
336.369	108.62
336.597	103.62
336.825	111.62
337.053	92.62
337.281	90.62
337.51	91.62
337.738	99.62
337.966	102.62
338.194	98.62
338.422	102.62
338.65	102.62
338.878	88.62
339.106	94.62
339.334	94.62
339.562	85.62
339.79	106.62
340.018	99.62
340.246	96.62
340.474	93.62
340.702	85.62
340.93	89.62
341.158	86.62
341.386	93.62
341.614	112.62
341.842	115.62
342.07	111.62
342.298	106.62
342.526	100.62
342.754	89.62
342.981	88.62
343.209	93.62
343.437	98.62
343.665	79.62
343.893	97.62
344.12	84.62
344.348	93.62
344.576	93.62
344.804	102.62
345.031	106.62
345.259	119.62
345.487	87.62
345.714	96.62
345.942	89.62
346.17	103.62
346.397	99.62
346.625	93.62
346.853	83.62
347.08	93.62
347.308	98.62
347.535	104.62
347.763	104.62
347.99	93.62
348.218	89.62
348.445	102.62
348.673	115.62
348.9	107.62
349.128	100.62
349.355	90.62
349.583	88.62
349.81	98.62
350.037	106.62
350.265	91.62
350.492	92.62
350.72	99.62
350.947	95.62
351.174	119.62
351.402	119.62
351.629	119.62
351.856	100.62
352.083	109.62
352.311	116.62
352.538	106.62
352.765	110.62
352.992	131.62
353.22	130.62
353.447	115.62
353.674	115.62
353.901	88.62
354.128	105.62
354.355	110.62
354.583	104.62
354.81	114.62
355.037	102.62
355.264	100.62
355.491	107.62
355.718	103.62
355.945	79.62
356.172	93.62
356.399	86.62
356.626	84.62
356.853	94.62
357.08	107.62
357.307	84.62
357.534	97.62
357.761	91.62
357.988	103.62
358.215	105.62
358.441	116.62
358.668	93.62
358.895	104.62
359.122	99.62
359.349	99.62
359.576	113.62
359.802	107.62
360.029	122.62
360.256	118.62
360.483	121.62
360.709	83.62
360.936	96.62
361.163	112.62
361.39	105.62
361.616	98.62
361.843	109.62
362.07	96.62
362.296	97.62
362.523	91.62
362.749	109.62
362.976	99.62
363.203	101.62
363.429	96.62
363.656	102.62
363.882	105.62
364.109	102.62
364.335	95.62
364.562	83.62
364.788	106.62
365.015	97.62
365.241	104.62
365.468	118.62
365.694	105.62
365.92	110.62
366.147	98.62
366.373	92.62
366.599	99.62
366.826	105.62
367.052	84.62
367.278	101.62
367.505	111.62
367.731	109.62
367.957	107.62
368.184	98.62
368.41	97.62
368.636	117.62
368.862	130.62
369.089	111.62
369.315	88.62
369.541	98.62
369.767	83.62
369.993	96.62
370.219	107.62
370.445	105.62
370.672	98.62
370.898	91.62
371.124	95.62
371.35	93.62
371.576	92.62
371.802	81.62
372.028	98.62
372.254	84.62
372.48	92.62
372.706	94.62
372.932	98.62
373.158	97.62
373.384	91.62
373.61	93.62
373.835	91.62
374.061	96.62
374.287	86.62
374.513	107.62
374.739	86.62
374.965	103.62
375.191	93.62
375.416	91.62
375.642	97.62
375.868	87.62
376.094	102.62
376.319	88.62
376.545	89.62
376.771	94.62
376.997	90.62
377.222	97.62
377.448	99.62
377.674	97.62
377.899	96.62
378.125	101.62
378.35	109.62
378.576	107.62
378.802	99.62
379.027	102.62
379.253	107.62
379.478	108.62
379.704	101.62
379.929	110.62
380.155	99.62
380.38	106.62
380.606	111.62
380.831	120.62
381.057	112.62
381.282	106.62
381.507	102.62
381.733	104.62
381.958	96.62
382.184	112.62
382.409	134.62
382.634	125.62
382.86	121.62
383.085	116.62
383.31	118.62
383.535	129.62
383.761	119.62
383.986	116.62
384.211	110.62
384.436	124.62
384.662	134.62
384.887	143.62
385.112	150.62
385.337	143.62
385.562	138.62
385.787	134.62
386.013	144.62
386.238	154.62
386.463	145.62
386.688	153.62
386.913	137.62
387.138	150.62
387.363	130.62
387.588	117.62
387.813	122.62
388.038	131.62
388.263	162.62
388.488	148.62
388.713	91.62
388.938	100.62
389.163	91.62
389.387	102.62
389.612	88.62
389.837	89.62
390.062	87.62
390.287	91.62
390.512	93.62
390.736	100.62
390.961	103.62
391.186	110.62
391.411	88.62
391.636	93.62
391.86	93.62
392.085	92.62
392.31	86.62
392.534	87.62
392.759	92.62
392.984	95.62
393.208	111.62
393.433	111.62
393.658	134.62
393.882	95.62
394.107	96.62
394.331	86.62
394.556	96.62
394.78	98.62
395.005	87.62
395.229	86.62
395.454	77.62
395.678	94.62
395.903	101.62
396.127	88.62
396.352	98.62
396.576	80.62
396.801	92.62
397.025	103.62
397.249	79.62
397.474	92.62
397.698	96.62
397.922	95.62
398.147	97.62
398.371	95.62
398.595	92.62
398.82	93.62
399.044	89.62
399.268	75.62
399.492	98.62
399.717	94.62
399.941	90.62
400.165	91.62
400.389	103.62
400.613	84.62
400.837	90.62
401.062	85.62
401.286	101.62
401.51	84.62
401.734	102.62
401.958	110.62
402.182	158.62
402.406	182.62
402.63	138.62
402.854	105.62
403.078	97.62
403.302	110.62
403.526	82.62
403.75	101.62
403.974	79.62
404.198	82.62
404.422	98.62
404.645	99.62
404.869	99.62
405.093	90.62
405.317	112.62
405.541	115.62
405.765	110.62
405.988	134.62
406.212	232.62
406.436	326.62
406.66	196.62
406.883	120.62
407.107	105.62
407.331	98.62
407.555	108.62
407.778	101.62
408.002	93.62
408.226	102.62
408.449	99.62
408.673	100.62
408.896	106.62
409.12	101.62
409.344	93.62
409.567	94.62
409.791	95.62
410.014	95.62
410.238	90.62
410.461	106.62
410.685	95.62
410.908	101.62
411.132	99.62
411.355	102.62
411.578	125.62
411.802	94.62
412.025	90.62
412.249	86.62
412.472	83.62
412.695	90.62
412.919	96.62
413.142	80.62
413.365	90.62
413.589	99.62
413.812	116.62
414.035	100.62
414.258	96.62
414.482	103.62
414.705	102.62
414.928	94.62
415.151	110.62
415.374	103.62
415.597	96.62
415.821	96.62
416.044	84.62
416.267	79.62
416.49	88.62
416.713	94.62
416.936	86.62
417.159	94.62
417.382	102.62
417.605	94.62
417.828	103.62
418.051	106.62
418.274	90.62
418.497	95.62
418.72	90.62
418.943	79.62
419.166	99.62
419.389	76.62
419.611	80.62
419.834	83.62
420.057	105.62
420.28	79.62
420.503	96.62
420.726	74.62
420.948	83.62
421.171	92.62
421.394	110.62
421.617	108.62
421.839	87.62
422.062	93.62
422.285	99.62
422.507	118.62
422.73	131.62
422.953	124.62
423.175	94.62
423.398	76.62
423.621	73.62
423.843	74.62
424.066	94.62
424.288	76.62
424.511	94.62
424.733	109.62
424.956	122.62
425.178	107.62
425.401	103.62
425.623	109.62
425.846	86.62
426.068	104.62
426.291	92.62
426.513	92.62
426.735	95.62
426.958	95.62
427.18	120.62
427.402	172.62
427.625	206.62
427.847	158.62
428.069	108.62
428.292	103.62
428.514	82.62
428.736	77.62
428.958	82.62
429.181	63.62
429.403	81.62
429.625	98.62
429.847	88.62
430.069	94.62
430.292	83.62
430.514	107.62
430.736	109.62
430.958	77.62
431.18	90.62
431.402	96.62
431.624	93.62
431.846	80.62
432.068	106.62
432.29	86.62
432.512	101.62
432.734	90.62
432.956	105.62
433.178	111.62
433.4	94.62
433.622	100.62
433.844	94.62
434.066	96.62
434.287	105.62
434.509	102.62
434.731	107.62
434.953	100.62
435.175	93.62
435.397	87.62
435.618	79.62
435.84	99.62
436.062	124.62
436.284	130.62
436.505	108.62
436.727	99.62
436.949	82.62
437.17	102.62
437.392	91.62
437.614	82.62
437.835	105.62
438.057	131.62
438.278	110.62
438.5	114.62
438.721	122.62
438.943	118.62
439.165	93.62
439.386	92.62
439.608	89.62
439.829	106.62
440.05	144.62
440.272	166.62
440.493	111.62
440.715	95.62
440.936	98.62
441.158	96.62
441.379	86.62
441.6	105.62
441.822	103.62
442.043	90.62
442.264	91.62
442.486	97.62
442.707	103.62
442.928	104.62
443.149	158.62
443.371	161.62
443.592	132.62
443.813	124.62
444.034	119.62
444.255	85.62
444.476	83.62
444.698	104.62
444.919	69.62
445.14	139.62
445.361	139.62
445.582	145.62
445.803	172.62
446.024	164.62
446.245	148.62
446.466	119.62
446.687	93.62
446.908	102.62
447.129	111.62
447.35	101.62
447.571	90.62
447.792	102.62
448.013	114.62
448.234	132.62
448.455	95.62
448.675	126.62
448.896	142.62
449.117	99.62
449.338	117.62
449.559	148.62
449.779	156.62
450	99.62
450.221	95.62
450.442	88.62
450.662	104.62
450.883	116.62
451.104	111.62
451.324	104.62
451.545	90.62
451.766	99.62
451.986	95.62
452.207	104.62
452.428	103.62
452.648	124.62
452.869	128.62
453.089	137.62
453.31	135.62
453.53	120.62
453.751	111.62
453.971	104.62
454.192	137.62
454.412	106.62
454.633	90.62
454.853	89.62
455.073	87.62
455.294	86.62
455.514	112.62
455.734	82.62
455.955	86.62
456.175	99.62
456.395	96.62
456.616	95.62
456.836	84.62
457.056	93.62
457.276	92.62
457.497	98.62
457.717	82.62
457.937	92.62
458.157	107.62
458.377	95.62
458.598	108.62
458.818	186.62
459.038	201.62
459.258	132.62
459.478	94.62
459.698	90.62
459.918	91.62
460.138	78.62
460.358	81.62
460.578	82.62
460.798	87.62
461.018	92.62
461.238	80.62
461.458	93.62
461.678	93.62
461.898	90.62
462.118	98.62
462.338	87.62
462.558	74.62
462.777	80.62
462.997	91.62
463.217	92.62
463.437	101.62
463.657	83.62
463.876	92.62
464.096	89.62
464.316	95.62
464.536	104.62
464.755	105.62
464.975	127.62
465.195	215.62
465.414	226.62
465.634	83.62
465.854	94.62
466.073	100.62
466.293	103.62
466.512	85.62
466.732	71.62
466.951	101.62
467.171	103.62
467.391	108.62
467.61	117.62
467.829	110.62
468.049	96.62
468.268	106.62
468.488	88.62
468.707	78.62
468.927	90.62
469.146	88.62
469.365	80.62
469.585	86.62
469.804	105.62
470.023	103.62
470.243	100.62
470.462	106.62
470.681	136.62
470.901	101.62
471.12	93.62
471.339	90.62
471.558	85.62
471.777	95.62
471.997	90.62
472.216	94.62
472.435	108.62
472.654	92.62
472.873	93.62
473.092	88.62
473.311	89.62
473.53	88.62
473.749	109.62
473.968	93.62
474.187	103.62
474.406	108.62
474.625	99.62
474.844	98.62
475.063	93.62
475.282	92.62
475.501	90.62
475.72	96.62
475.939	82.62
476.158	93.62
476.377	103.62
476.596	92.62
476.814	88.62
477.033	95.62
477.252	105.62
477.471	99.62
477.69	101.62
477.908	85.62
478.127	96.62
478.346	89.62
478.564	107.62
478.783	93.62
479.002	97.62
479.22	105.62
479.439	106.62
479.658	108.62
479.876	98.62
480.095	95.62
480.313	99.62
480.532	97.62
480.751	94.62
480.969	94.62
481.188	127.62
481.406	108.62
481.624	82.62
481.843	85.62
482.061	91.62
482.28	92.62
482.498	100.62
482.717	99.62
482.935	93.62
483.153	80.62
483.372	90.62
483.59	90.62
483.808	82.62
484.027	95.62
484.245	92.62
484.463	104.62
484.681	101.62
484.9	95.62
485.118	116.62
485.336	93.62
485.554	114.62
485.772	94.62
485.99	110.62
486.209	122.62
486.427	102.62
486.645	121.62
486.863	128.62
487.081	125.62
487.299	102.62
487.517	98.62
487.735	103.62
487.953	91.62
488.171	94.62
488.389	110.62
488.607	107.62
488.825	115.62
489.043	94.62
489.261	88.62
489.479	107.62
489.696	89.62
489.914	94.62
490.132	95.62
490.35	93.62
490.568	98.62
490.786	91.62
491.003	94.62
491.221	95.62
491.439	86.62
491.657	93.62
491.874	94.62
492.092	78.62
492.31	93.62
492.527	96.62
492.745	78.62
492.963	109.62
493.18	94.62
493.398	85.62
493.615	90.62
493.833	101.62
494.05	97.62
494.268	97.62
494.485	104.62
494.703	94.62
494.92	75.62
495.138	93.62
495.355	88.62
495.573	82.62
495.79	89.62
496.008	105.62
496.225	78.62
496.442	91.62
496.66	114.62
496.877	80.62
497.094	104.62
497.312	80.62
497.529	98.62
497.746	87.62
497.963	84.62
498.181	103.62
498.398	97.62
498.615	119.62
498.832	106.62
499.049	89.62
499.267	91.62
499.484	90.62
499.701	90.62
499.918	101.62
500.135	83.62
500.352	90.62
500.569	94.62
500.786	104.62
501.003	89.62
501.22	99.62
501.437	109.62
501.654	110.62
501.871	137.62
502.088	98.62
502.305	95.62
502.522	106.62
502.739	102.62
502.956	72.62
503.172	99.62
503.389	106.62
503.606	126.62
503.823	99.62
504.04	96.62
504.256	100.62
504.473	93.62
504.69	103.62
504.907	100.62
505.123	89.62
505.34	95.62
505.557	99.62
505.773	92.62
505.99	98.62
506.207	99.62
506.423	96.62
506.64	98.62
506.856	91.62
507.073	110.62
507.289	112.62
507.506	92.62
507.722	136.62
507.939	124.62
508.155	97.62
508.372	90.62
508.588	107.62
508.805	94.62
509.021	101.62
509.238	125.62
509.454	110.62
509.67	92.62
509.887	130.62
510.103	159.62
510.319	270.62
510.536	1106.62
510.752	3770.62
510.968	1068.62
511.184	197.62
511.401	130.62
511.617	104.62
511.833	98.62
512.049	91.62
512.265	88.62
512.481	111.62
512.698	100.62
512.914	99.62
