Data from Circ_2016_H10_HRD10591_00054.txt Node
Date: Wed Jan 03 09:58:51 EST 2024
User: Yrep
Spectrometer: HR+D1059
Trigger mode: 1
Integration Time (sec): 1.000000E-1
Scans to average: 1
Electric dark correction enabled: true
Nonlinearity correction enabled: false
Boxcar width: 0
XAxis mode: Wavelengths
Number of Pixels in Spectrum: 2048
>>>>>Begin Spectral Data<<<<<
223.165	-12.81
223.4	-12.81
223.635	-12.81
223.869	-22.81
224.104	-13.81
224.338	4.19
224.573	-23.81
224.808	-7.81
225.042	-23.81
225.277	3.19
225.511	-7.81
225.746	5.19
225.98	4.19
226.215	15.19
226.449	3.19
226.683	18.19
226.918	13.19
227.152	46.19
227.387	35.19
227.621	45.19
227.856	44.19
228.09	34.19
228.324	36.19
228.559	58.19
228.793	51.19
229.027	60.19
229.262	61.19
229.496	76.19
229.73	80.19
229.964	83.19
230.199	91.19
230.433	80.19
230.667	77.19
230.901	80.19
231.136	77.19
231.37	86.19
231.604	86.19
231.838	92.19
232.072	76.19
232.306	74.19
232.541	70.19
232.775	68.19
233.009	69.19
233.243	85.19
233.477	76.19
233.711	86.19
233.945	83.19
234.179	71.19
234.413	93.19
234.647	82.19
234.881	66.19
235.115	81.19
235.349	77.19
235.583	77.19
235.817	65.19
236.051	86.19
236.285	78.19
236.519	74.19
236.753	83.19
236.987	63.19
237.221	80.19
237.455	71.19
237.689	84.19
237.922	85.19
238.156	77.19
238.39	70.19
238.624	70.19
238.858	67.19
239.091	74.19
239.325	89.19
239.559	81.19
239.793	81.19
240.027	80.19
240.26	73.19
240.494	76.19
240.728	72.19
240.961	72.19
241.195	76.19
241.429	90.19
241.662	80.19
241.896	79.19
242.13	68.19
242.363	79.19
242.597	67.19
242.83	67.19
243.064	89.19
243.298	74.19
243.531	79.19
243.765	72.19
243.998	75.19
244.232	89.19
244.465	84.19
244.699	76.19
244.932	77.19
245.166	85.19
245.399	68.19
245.633	72.19
245.866	80.19
246.099	71.19
246.333	74.19
246.566	83.19
246.8	62.19
247.033	71.19
247.266	58.19
247.5	81.19
247.733	84.19
247.966	74.19
248.2	79.19
248.433	58.19
248.666	77.19
248.899	70.19
249.133	86.19
249.366	95.19
249.599	100.19
249.832	86.19
250.066	81.19
250.299	71.19
250.532	87.19
250.765	76.19
250.998	60.19
251.231	68.19
251.465	71.19
251.698	91.19
251.931	88.19
252.164	90.19
252.397	62.19
252.63	74.19
252.863	85.19
253.096	81.19
253.329	76.19
253.562	81.19
253.795	93.19
254.028	95.19
254.261	72.19
254.494	78.19
254.727	69.19
254.96	81.19
255.193	67.19
255.426	85.19
255.659	90.19
255.892	78.19
256.124	72.19
256.357	73.19
256.59	74.19
256.823	75.19
257.056	69.19
257.289	79.19
257.521	72.19
257.754	77.19
257.987	86.19
258.22	71.19
258.452	93.19
258.685	77.19
258.918	80.19
259.151	76.19
259.383	73.19
259.616	76.19
259.849	79.19
260.081	82.19
260.314	96.19
260.547	82.19
260.779	91.19
261.012	87.19
261.244	84.19
261.477	83.19
261.71	103.19
261.942	106.19
262.175	102.19
262.407	92.19
262.64	87.19
262.872	65.19
263.105	86.19
263.337	75.19
263.57	67.19
263.802	85.19
264.035	86.19
264.267	80.19
264.499	79.19
264.732	84.19
264.964	82.19
265.197	82.19
265.429	84.19
265.661	84.19
265.894	86.19
266.126	80.19
266.358	74.19
266.591	83.19
266.823	82.19
267.055	76.19
267.287	81.19
267.52	77.19
267.752	83.19
267.984	93.19
268.216	88.19
268.448	79.19
268.681	79.19
268.913	76.19
269.145	77.19
269.377	87.19
269.609	86.19
269.841	83.19
270.073	72.19
270.306	85.19
270.538	89.19
270.77	88.19
271.002	90.19
271.234	72.19
271.466	92.19
271.698	82.19
271.93	82.19
272.162	78.19
272.394	95.19
272.626	83.19
272.858	79.19
273.09	85.19
273.322	81.19
273.553	84.19
273.785	75.19
274.017	88.19
274.249	85.19
274.481	91.19
274.713	85.19
274.945	88.19
275.176	85.19
275.408	82.19
275.64	80.19
275.872	80.19
276.104	88.19
276.335	81.19
276.567	89.19
276.799	118.19
277.031	96.19
277.262	86.19
277.494	85.19
277.726	77.19
277.957	81.19
278.189	84.19
278.421	80.19
278.652	80.19
278.884	68.19
279.115	77.19
279.347	80.19
279.579	75.19
279.81	77.19
280.042	81.19
280.273	91.19
280.505	90.19
280.736	84.19
280.968	91.19
281.199	84.19
281.431	89.19
281.662	93.19
281.894	83.19
282.125	87.19
282.356	114.19
282.588	117.19
282.819	113.19
283.051	81.19
283.282	76.19
283.513	84.19
283.745	95.19
283.976	80.19
284.207	89.19
284.439	75.19
284.67	84.19
284.901	75.19
285.132	72.19
285.364	89.19
285.595	79.19
285.826	80.19
286.057	82.19
286.288	91.19
286.52	81.19
286.751	86.19
286.982	78.19
287.213	82.19
287.444	76.19
287.675	77.19
287.906	95.19
288.138	89.19
288.369	79.19
288.6	78.19
288.831	74.19
289.062	74.19
289.293	88.19
289.524	90.19
289.755	92.19
289.986	78.19
290.217	76.19
290.448	79.19
290.679	86.19
290.91	83.19
291.141	85.19
291.371	95.19
291.602	78.19
291.833	82.19
292.064	85.19
292.295	97.19
292.526	88.19
292.757	72.19
292.987	77.19
293.218	78.19
293.449	92.19
293.68	92.19
293.91	79.19
294.141	80.19
294.372	73.19
294.603	105.19
294.833	100.19
295.064	91.19
295.295	102.19
295.525	97.19
295.756	92.19
295.987	115.19
296.217	151.19
296.448	127.19
296.679	95.19
296.909	93.19
297.14	93.19
297.37	69.19
297.601	77.19
297.831	88.19
298.062	92.19
298.292	85.19
298.523	76.19
298.753	85.19
298.984	88.19
299.214	96.19
299.445	98.19
299.675	100.19
299.905	93.19
300.136	88.19
300.366	71.19
300.597	93.19
300.827	102.19
301.057	95.19
301.288	112.19
301.518	89.19
301.748	88.19
301.979	77.19
302.209	80.19
302.439	95.19
302.669	82.19
302.9	84.19
303.13	85.19
303.36	98.19
303.59	98.19
303.82	103.19
304.051	86.19
304.281	93.19
304.511	116.19
304.741	96.19
304.971	84.19
305.201	89.19
305.431	88.19
305.661	93.19
305.891	87.19
306.121	83.19
306.352	95.19
306.582	102.19
306.812	81.19
307.042	82.19
307.272	102.19
307.502	91.19
307.731	104.19
307.961	101.19
308.191	91.19
308.421	95.19
308.651	96.19
308.881	85.19
309.111	106.19
309.341	80.19
309.571	82.19
309.8	107.19
310.03	95.19
310.26	83.19
310.49	81.19
310.72	97.19
310.949	93.19
311.179	100.19
311.409	87.19
311.639	98.19
311.868	101.19
312.098	90.19
312.328	93.19
312.557	104.19
312.787	99.19
313.017	102.19
313.246	91.19
313.476	84.19
313.706	108.19
313.935	92.19
314.165	101.19
314.394	99.19
314.624	93.19
314.853	94.19
315.083	87.19
315.312	91.19
315.542	86.19
315.771	104.19
316.001	83.19
316.23	85.19
316.46	89.19
316.689	87.19
316.919	91.19
317.148	90.19
317.377	91.19
317.607	98.19
317.836	93.19
318.065	76.19
318.295	81.19
318.524	93.19
318.753	89.19
318.983	92.19
319.212	96.19
319.441	106.19
319.67	89.19
319.9	92.19
320.129	91.19
320.358	98.19
320.587	96.19
320.816	88.19
321.046	97.19
321.275	105.19
321.504	100.19
321.733	91.19
321.962	106.19
322.191	103.19
322.42	94.19
322.649	100.19
322.878	105.19
323.108	123.19
323.337	119.19
323.566	133.19
323.795	137.19
324.024	201.19
324.253	404.19
324.482	798.19
324.71	1632.19
324.939	2156.19
325.168	834.19
325.397	237.19
325.626	154.19
325.855	117.19
326.084	131.19
326.313	128.19
326.542	161.19
326.77	223.19
326.999	442.19
327.228	977.19
327.457	1695.19
327.686	1347.19
327.914	368.19
328.143	172.19
328.372	146.19
328.6	109.19
328.829	122.19
329.058	121.19
329.287	118.19
329.515	113.19
329.744	108.19
329.972	111.19
330.201	113.19
330.43	135.19
330.658	130.19
330.887	130.19
331.115	130.19
331.344	90.19
331.572	113.19
331.801	96.19
332.03	111.19
332.258	102.19
332.486	90.19
332.715	106.19
332.943	107.19
333.172	96.19
333.4	99.19
333.629	103.19
333.857	102.19
334.085	104.19
334.314	117.19
334.542	141.19
334.771	142.19
334.999	95.19
335.227	77.19
335.455	94.19
335.684	100.19
335.912	91.19
336.14	99.19
336.369	93.19
336.597	107.19
336.825	99.19
337.053	101.19
337.281	97.19
337.51	84.19
337.738	105.19
337.966	91.19
338.194	96.19
338.422	106.19
338.65	113.19
338.878	89.19
339.106	77.19
339.334	93.19
339.562	89.19
339.79	94.19
340.018	87.19
340.246	107.19
340.474	96.19
340.702	91.19
340.93	85.19
341.158	90.19
341.386	90.19
341.614	91.19
341.842	101.19
342.07	83.19
342.298	91.19
342.526	91.19
342.754	88.19
342.981	85.19
343.209	89.19
343.437	92.19
343.665	111.19
343.893	84.19
344.12	99.19
344.348	99.19
344.576	100.19
344.804	110.19
345.031	96.19
345.259	120.19
345.487	98.19
345.714	94.19
345.942	76.19
346.17	92.19
346.397	77.19
346.625	87.19
346.853	100.19
347.08	100.19
347.308	87.19
347.535	96.19
347.763	96.19
347.99	95.19
348.218	107.19
348.445	98.19
348.673	98.19
348.9	89.19
349.128	88.19
349.355	98.19
349.583	87.19
349.81	98.19
350.037	91.19
350.265	98.19
350.492	104.19
350.72	95.19
350.947	99.19
351.174	107.19
351.402	96.19
351.629	106.19
351.856	87.19
352.083	99.19
352.311	105.19
352.538	101.19
352.765	118.19
352.992	115.19
353.22	122.19
353.447	103.19
353.674	92.19
353.901	94.19
354.128	106.19
354.355	91.19
354.583	101.19
354.81	87.19
355.037	97.19
355.264	91.19
355.491	95.19
355.718	91.19
355.945	102.19
356.172	96.19
356.399	97.19
356.626	83.19
356.853	100.19
357.08	83.19
357.307	105.19
357.534	84.19
357.761	97.19
357.988	103.19
358.215	88.19
358.441	105.19
358.668	86.19
358.895	86.19
359.122	90.19
359.349	93.19
359.576	94.19
359.802	124.19
360.029	116.19
360.256	112.19
360.483	85.19
360.709	91.19
360.936	84.19
361.163	89.19
361.39	101.19
361.616	98.19
361.843	92.19
362.07	91.19
362.296	88.19
362.523	85.19
362.749	93.19
362.976	89.19
363.203	84.19
363.429	90.19
363.656	96.19
363.882	88.19
364.109	88.19
364.335	79.19
364.562	93.19
364.788	93.19
365.015	101.19
365.241	84.19
365.468	105.19
365.694	99.19
365.92	93.19
366.147	91.19
366.373	98.19
366.599	83.19
366.826	81.19
367.052	87.19
367.278	95.19
367.505	82.19
367.731	91.19
367.957	99.19
368.184	95.19
368.41	99.19
368.636	105.19
368.862	108.19
369.089	103.19
369.315	95.19
369.541	77.19
369.767	87.19
369.993	93.19
370.219	79.19
370.445	83.19
370.672	83.19
370.898	87.19
371.124	86.19
371.35	87.19
371.576	99.19
371.802	72.19
372.028	90.19
372.254	72.19
372.48	90.19
372.706	83.19
372.932	75.19
373.158	79.19
373.384	75.19
373.61	91.19
373.835	87.19
374.061	92.19
374.287	90.19
374.513	83.19
374.739	89.19
374.965	94.19
375.191	69.19
375.416	88.19
375.642	76.19
375.868	90.19
376.094	91.19
376.319	80.19
376.545	92.19
376.771	86.19
376.997	86.19
377.222	89.19
377.448	86.19
377.674	90.19
377.899	97.19
378.125	96.19
378.35	86.19
378.576	88.19
378.802	102.19
379.027	93.19
379.253	93.19
379.478	87.19
379.704	100.19
379.929	91.19
380.155	101.19
380.38	102.19
380.606	96.19
380.831	100.19
381.057	109.19
381.282	101.19
381.507	93.19
381.733	90.19
381.958	95.19
382.184	105.19
382.409	101.19
382.634	113.19
382.86	112.19
383.085	111.19
383.31	95.19
383.535	116.19
383.761	95.19
383.986	114.19
384.211	117.19
384.436	106.19
384.662	115.19
384.887	116.19
385.112	120.19
385.337	119.19
385.562	106.19
385.787	122.19
386.013	120.19
386.238	137.19
386.463	101.19
386.688	131.19
386.913	116.19
387.138	115.19
387.363	116.19
387.588	92.19
387.813	111.19
388.038	125.19
388.263	132.19
388.488	118.19
388.713	92.19
388.938	80.19
389.163	103.19
389.387	99.19
389.612	82.19
389.837	99.19
390.062	91.19
390.287	80.19
390.512	90.19
390.736	86.19
390.961	90.19
391.186	79.19
391.411	85.19
391.636	88.19
391.86	88.19
392.085	88.19
392.31	113.19
392.534	105.19
392.759	93.19
392.984	83.19
393.208	101.19
393.433	99.19
393.658	89.19
393.882	86.19
394.107	73.19
394.331	78.19
394.556	84.19
394.78	103.19
395.005	102.19
395.229	86.19
395.454	88.19
395.678	79.19
395.903	81.19
396.127	82.19
396.352	96.19
396.576	86.19
396.801	95.19
397.025	94.19
397.249	91.19
397.474	99.19
397.698	80.19
397.922	91.19
398.147	89.19
398.371	83.19
398.595	87.19
398.82	73.19
399.044	79.19
399.268	85.19
399.492	98.19
399.717	94.19
399.941	94.19
400.165	104.19
400.389	92.19
400.613	91.19
400.837	94.19
401.062	79.19
401.286	65.19
401.51	92.19
401.734	101.19
401.958	107.19
402.182	125.19
402.406	150.19
402.63	116.19
402.854	86.19
403.078	86.19
403.302	87.19
403.526	86.19
403.75	80.19
403.974	74.19
404.198	89.19
404.422	91.19
404.645	80.19
404.869	83.19
405.093	96.19
405.317	102.19
405.541	89.19
405.765	101.19
405.988	112.19
406.212	169.19
406.436	218.19
406.66	153.19
406.883	119.19
407.107	109.19
407.331	80.19
407.555	99.19
407.778	88.19
408.002	93.19
408.226	96.19
408.449	92.19
408.673	86.19
408.896	98.19
409.12	94.19
409.344	84.19
409.567	86.19
409.791	89.19
410.014	96.19
410.238	91.19
410.461	81.19
410.685	84.19
410.908	105.19
411.132	101.19
411.355	98.19
411.578	85.19
411.802	96.19
412.025	85.19
412.249	92.19
412.472	104.19
412.695	99.19
412.919	80.19
413.142	103.19
413.365	85.19
413.589	91.19
413.812	108.19
414.035	94.19
414.258	88.19
414.482	90.19
414.705	88.19
414.928	98.19
415.151	90.19
415.374	97.19
415.597	103.19
415.821	75.19
416.044	85.19
416.267	89.19
416.49	90.19
416.713	94.19
416.936	90.19
417.159	96.19
417.382	83.19
417.605	83.19
417.828	89.19
418.051	95.19
418.274	97.19
418.497	81.19
418.72	85.19
418.943	88.19
419.166	78.19
419.389	85.19
419.611	95.19
419.834	101.19
420.057	89.19
420.28	84.19
420.503	82.19
420.726	82.19
420.948	81.19
421.171	83.19
421.394	85.19
421.617	89.19
421.839	80.19
422.062	91.19
422.285	94.19
422.507	108.19
422.73	102.19
422.953	92.19
423.175	79.19
423.398	83.19
423.621	92.19
423.843	82.19
424.066	74.19
424.288	89.19
424.511	84.19
424.733	75.19
424.956	97.19
425.178	98.19
425.401	101.19
425.623	96.19
425.846	83.19
426.068	102.19
426.291	84.19
426.513	85.19
426.735	81.19
426.958	89.19
427.18	106.19
427.402	124.19
427.625	175.19
427.847	138.19
428.069	129.19
428.292	87.19
428.514	85.19
428.736	98.19
428.958	74.19
429.181	83.19
429.403	86.19
429.625	88.19
429.847	95.19
430.069	98.19
430.292	97.19
430.514	87.19
430.736	75.19
430.958	103.19
431.18	88.19
431.402	96.19
431.624	73.19
431.846	76.19
432.068	74.19
432.29	63.19
432.512	85.19
432.734	73.19
432.956	78.19
433.178	90.19
433.4	105.19
433.622	82.19
433.844	71.19
434.066	91.19
434.287	89.19
434.509	85.19
434.731	99.19
434.953	81.19
435.175	91.19
435.397	83.19
435.618	87.19
435.84	102.19
436.062	121.19
436.284	117.19
436.505	87.19
436.727	113.19
436.949	95.19
437.17	92.19
437.392	72.19
437.614	84.19
437.835	96.19
438.057	111.19
438.278	116.19
438.5	101.19
438.721	116.19
438.943	106.19
439.165	90.19
439.386	80.19
439.608	90.19
439.829	103.19
440.05	126.19
440.272	142.19
440.493	75.19
440.715	83.19
440.936	77.19
441.158	88.19
441.379	90.19
441.6	98.19
441.822	78.19
442.043	93.19
442.264	75.19
442.486	101.19
442.707	80.19
442.928	99.19
443.149	127.19
443.371	116.19
443.592	107.19
443.813	98.19
444.034	100.19
444.255	96.19
444.476	83.19
444.698	87.19
444.919	91.19
445.14	120.19
445.361	122.19
445.582	95.19
445.803	133.19
446.024	140.19
446.245	133.19
446.466	111.19
446.687	73.19
446.908	106.19
447.129	85.19
447.35	85.19
447.571	83.19
447.792	91.19
448.013	109.19
448.234	109.19
448.455	114.19
448.675	109.19
448.896	118.19
449.117	96.19
449.338	106.19
449.559	128.19
449.779	136.19
450	83.19
450.221	86.19
450.442	92.19
450.662	85.19
450.883	114.19
451.104	114.19
451.324	89.19
451.545	97.19
451.766	83.19
451.986	79.19
452.207	93.19
452.428	90.19
452.648	96.19
452.869	110.19
453.089	118.19
453.31	115.19
453.53	70.19
453.751	82.19
453.971	100.19
454.192	110.19
454.412	84.19
454.633	72.19
454.853	97.19
455.073	85.19
455.294	92.19
455.514	102.19
455.734	86.19
455.955	92.19
456.175	75.19
456.395	75.19
456.616	70.19
456.836	88.19
457.056	93.19
457.276	80.19
457.497	80.19
457.717	89.19
457.937	74.19
458.157	71.19
458.377	83.19
458.598	107.19
458.818	144.19
459.038	136.19
459.258	109.19
459.478	88.19
459.698	83.19
459.918	85.19
460.138	86.19
460.358	85.19
460.578	79.19
460.798	94.19
461.018	79.19
461.238	92.19
461.458	94.19
461.678	84.19
461.898	76.19
462.118	87.19
462.338	75.19
462.558	92.19
462.777	79.19
462.997	88.19
463.217	91.19
463.437	90.19
463.657	91.19
463.876	95.19
464.096	89.19
464.316	89.19
464.536	88.19
464.755	85.19
464.975	105.19
465.195	142.19
465.414	153.19
465.634	96.19
465.854	97.19
466.073	86.19
466.293	87.19
466.512	70.19
466.732	79.19
466.951	79.19
467.171	96.19
467.391	94.19
467.61	98.19
467.829	112.19
468.049	98.19
468.268	90.19
468.488	85.19
468.707	79.19
468.927	94.19
469.146	83.19
469.365	82.19
469.585	90.19
469.804	78.19
470.023	94.19
470.243	82.19
470.462	87.19
470.681	104.19
470.901	73.19
471.12	87.19
471.339	100.19
471.558	98.19
471.777	99.19
471.997	90.19
472.216	88.19
472.435	144.19
472.654	99.19
472.873	85.19
473.092	92.19
473.311	101.19
473.53	87.19
473.749	100.19
473.968	99.19
474.187	102.19
474.406	83.19
474.625	81.19
474.844	73.19
475.063	98.19
475.282	85.19
475.501	68.19
475.72	70.19
475.939	77.19
476.158	81.19
476.377	96.19
476.596	110.19
476.814	87.19
477.033	77.19
477.252	74.19
477.471	89.19
477.69	71.19
477.908	83.19
478.127	98.19
478.346	75.19
478.564	93.19
478.783	90.19
479.002	97.19
479.22	80.19
479.439	98.19
479.658	96.19
479.876	85.19
480.095	94.19
480.313	76.19
480.532	91.19
480.751	102.19
480.969	110.19
481.188	189.19
481.406	173.19
481.624	108.19
481.843	75.19
482.061	76.19
482.28	71.19
482.498	81.19
482.717	90.19
482.935	93.19
483.153	87.19
483.372	81.19
483.59	88.19
483.808	76.19
484.027	88.19
484.245	100.19
484.463	88.19
484.681	92.19
484.9	90.19
485.118	77.19
485.336	91.19
485.554	104.19
485.772	107.19
485.99	98.19
486.209	114.19
486.427	97.19
486.645	102.19
486.863	107.19
487.081	116.19
487.299	102.19
487.517	104.19
487.735	95.19
487.953	83.19
488.171	95.19
488.389	97.19
488.607	90.19
488.825	87.19
489.043	92.19
489.261	85.19
489.479	93.19
489.696	88.19
489.914	106.19
490.132	91.19
490.35	92.19
490.568	87.19
490.786	79.19
491.003	88.19
491.221	91.19
491.439	90.19
491.657	92.19
491.874	88.19
492.092	85.19
492.31	86.19
492.527	72.19
492.745	87.19
492.963	88.19
493.18	91.19
493.398	99.19
493.615	79.19
493.833	101.19
494.05	95.19
494.268	96.19
494.485	93.19
494.703	103.19
494.92	85.19
495.138	81.19
495.355	103.19
495.573	98.19
495.79	90.19
496.008	90.19
496.225	96.19
496.442	65.19
496.66	88.19
496.877	89.19
497.094	97.19
497.312	94.19
497.529	94.19
497.746	84.19
497.963	91.19
498.181	101.19
498.398	94.19
498.615	91.19
498.832	103.19
499.049	106.19
499.267	87.19
499.484	82.19
499.701	94.19
499.918	99.19
500.135	85.19
500.352	93.19
500.569	95.19
500.786	98.19
501.003	80.19
501.22	84.19
501.437	90.19
501.654	82.19
501.871	106.19
502.088	90.19
502.305	93.19
502.522	83.19
502.739	90.19
502.956	85.19
503.172	87.19
503.389	95.19
503.606	95.19
503.823	88.19
504.04	89.19
504.256	94.19
504.473	91.19
504.69	91.19
504.907	84.19
505.123	84.19
505.34	95.19
505.557	90.19
505.773	86.19
505.99	93.19
506.207	98.19
506.423	100.19
506.64	92.19
506.856	104.19
507.073	78.19
507.289	95.19
507.506	101.19
507.722	108.19
507.939	99.19
508.155	97.19
508.372	101.19
508.588	91.19
508.805	87.19
509.021	84.19
509.238	111.19
509.454	104.19
509.67	106.19
509.887	94.19
510.103	124.19
510.319	207.19
510.536	715.19
510.752	2408.19
510.968	694.19
511.184	148.19
511.401	111.19
511.617	99.19
511.833	87.19
512.049	108.19
512.265	107.19
512.481	98.19
512.698	84.19
512.914	93.19
513.13	91.19
513.346	95.19
513.562	95.19
513.778	95.19
513.994	89.19
514.21	115.19
514.426	118.19
514.642	139.19
514.858	123.19
515.074	166.19
515.29	425.19
515.506	1459.19
515.721	567.19
515.937	164.19
