Data from Circ_2016_H10_HRD10591_00040.txt Node
Date: Wed Jan 03 09:58:48 EST 2024
User: Yrep
Spectrometer: HR+D1059
Trigger mode: 1
Integration Time (sec): 1.000000E-1
Scans to average: 1
Electric dark correction enabled: true
Nonlinearity correction enabled: false
Boxcar width: 0
XAxis mode: Wavelengths
Number of Pixels in Spectrum: 2048
>>>>>Begin Spectral Data<<<<<
223.165	-22
223.4	-22
223.635	-22
223.869	-30
224.104	-18
224.338	-20
224.573	-6
224.808	-16
225.042	1
225.277	4
225.511	-3
225.746	12
225.98	15
226.215	8
226.449	14
226.683	15
226.918	14
227.152	32
227.387	23
227.621	36
227.856	53
228.09	38
228.324	44
228.559	50
228.793	66
229.027	61
229.262	67
229.496	74
229.73	95
229.964	91
230.199	76
230.433	76
230.667	76
230.901	101
231.136	75
231.37	75
231.604	83
231.838	72
232.072	87
232.306	88
232.541	86
232.775	73
233.009	79
233.243	75
233.477	87
233.711	83
233.945	78
234.179	87
234.413	98
234.647	90
234.881	78
235.115	75
235.349	79
235.583	83
235.817	73
236.051	77
236.285	81
236.519	86
236.753	82
236.987	86
237.221	95
237.455	91
237.689	66
237.922	76
238.156	73
238.39	88
238.624	84
238.858	87
239.091	82
239.325	92
239.559	66
239.793	76
240.027	73
240.26	82
240.494	84
240.728	84
240.961	76
241.195	77
241.429	70
241.662	69
241.896	85
242.13	75
242.363	72
242.597	67
242.83	77
243.064	71
243.298	85
243.531	84
243.765	77
243.998	91
244.232	94
244.465	77
244.699	74
244.932	93
245.166	82
245.399	90
245.633	79
245.866	82
246.099	78
246.333	78
246.566	89
246.8	78
247.033	101
247.266	75
247.5	84
247.733	73
247.966	92
248.2	78
248.433	85
248.666	72
248.899	77
249.133	100
249.366	101
249.599	93
249.832	87
250.066	89
250.299	95
250.532	88
250.765	84
250.998	70
251.231	87
251.465	86
251.698	87
251.931	92
252.164	96
252.397	65
252.63	74
252.863	72
253.096	99
253.329	101
253.562	93
253.795	79
254.028	82
254.261	86
254.494	81
254.727	83
254.96	74
255.193	80
255.426	76
255.659	80
255.892	85
256.124	86
256.357	79
256.59	82
256.823	84
257.056	85
257.289	89
257.521	91
257.754	88
257.987	92
258.22	85
258.452	88
258.685	89
258.918	90
259.151	93
259.383	89
259.616	81
259.849	85
260.081	72
260.314	77
260.547	80
260.779	102
261.012	80
261.244	76
261.477	80
261.71	108
261.942	118
262.175	119
262.407	99
262.64	84
262.872	83
263.105	84
263.337	95
263.57	88
263.802	74
264.035	77
264.267	74
264.499	84
264.732	86
264.964	83
265.197	93
265.429	93
265.661	74
265.894	79
266.126	80
266.358	97
266.591	85
266.823	86
267.055	84
267.287	92
267.52	75
267.752	82
267.984	83
268.216	68
268.448	90
268.681	98
268.913	82
269.145	79
269.377	100
269.609	79
269.841	75
270.073	98
270.306	91
270.538	97
270.77	88
271.002	96
271.234	91
271.466	79
271.698	85
271.93	90
272.162	84
272.394	77
272.626	92
272.858	91
273.09	85
273.322	84
273.553	90
273.785	87
274.017	80
274.249	77
274.481	76
274.713	81
274.945	85
275.176	91
275.408	95
275.64	87
275.872	84
276.104	83
276.335	98
276.567	119
276.799	109
277.031	116
277.262	88
277.494	100
277.726	91
277.957	91
278.189	77
278.421	83
278.652	79
278.884	72
279.115	101
279.347	95
279.579	89
279.81	87
280.042	92
280.273	77
280.505	97
280.736	99
280.968	84
281.199	85
281.431	107
281.662	93
281.894	83
282.125	110
282.356	125
282.588	147
282.819	120
283.051	82
283.282	91
283.513	94
283.745	90
283.976	74
284.207	86
284.439	80
284.67	93
284.901	82
285.132	97
285.364	93
285.595	75
285.826	96
286.057	91
286.288	90
286.52	92
286.751	83
286.982	94
287.213	92
287.444	92
287.675	95
287.906	96
288.138	75
288.369	86
288.6	95
288.831	90
289.062	94
289.293	96
289.524	96
289.755	86
289.986	76
290.217	86
290.448	86
290.679	88
290.91	87
291.141	70
291.371	91
291.602	93
291.833	92
292.064	87
292.295	92
292.526	93
292.757	86
292.987	90
293.218	92
293.449	94
293.68	93
293.91	80
294.141	96
294.372	88
294.603	83
294.833	88
295.064	87
295.295	93
295.525	91
295.756	99
295.987	111
296.217	153
296.448	133
296.679	96
296.909	98
297.14	90
297.37	93
297.601	82
297.831	100
298.062	100
298.292	89
298.523	94
298.753	99
298.984	103
299.214	91
299.445	101
299.675	98
299.905	104
300.136	109
300.366	82
300.597	92
300.827	107
301.057	98
301.288	103
301.518	116
301.748	92
301.979	94
302.209	93
302.439	87
302.669	93
302.9	101
303.13	98
303.36	82
303.59	119
303.82	108
304.051	96
304.281	85
304.511	86
304.741	95
304.971	78
305.201	87
305.431	91
305.661	94
305.891	86
306.121	91
306.352	108
306.582	119
306.812	94
307.042	90
307.272	93
307.502	102
307.731	88
307.961	86
308.191	91
308.421	93
308.651	101
308.881	92
309.111	103
309.341	106
309.571	87
309.8	98
310.03	109
310.26	103
310.49	95
310.72	108
310.949	101
311.179	111
311.409	96
311.639	96
311.868	97
312.098	95
312.328	100
312.557	108
312.787	112
313.017	107
313.246	95
313.476	86
313.706	89
313.935	103
314.165	122
314.394	110
314.624	101
314.853	109
315.083	95
315.312	99
315.542	77
315.771	93
316.001	70
316.23	86
316.46	84
316.689	88
316.919	99
317.148	108
317.377	95
317.607	108
317.836	103
318.065	102
318.295	98
318.524	89
318.753	95
318.983	111
319.212	96
319.441	101
319.67	95
319.9	94
320.129	103
320.358	103
320.587	105
320.816	102
321.046	112
321.275	104
321.504	84
321.733	103
321.962	110
322.191	107
322.42	121
322.649	110
322.878	125
323.108	122
323.337	138
323.566	143
323.795	165
324.024	234
324.253	503
324.482	1071
324.71	2193
324.939	2824
325.168	1024
325.397	300
325.626	166
325.855	136
326.084	137
326.313	149
326.542	181
326.77	278
326.999	526
327.228	1190
327.457	2186
327.686	1682
327.914	434
328.143	224
328.372	166
328.6	139
328.829	121
329.058	155
329.287	142
329.515	102
329.744	106
329.972	98
330.201	131
330.43	126
330.658	135
330.887	166
331.115	131
331.344	100
331.572	106
331.801	99
332.03	106
332.258	102
332.486	110
332.715	103
332.943	86
333.172	89
333.4	94
333.629	110
333.857	111
334.085	105
334.314	112
334.542	115
334.771	103
334.999	115
335.227	103
335.455	92
335.684	113
335.912	106
336.14	107
336.369	108
336.597	107
336.825	90
337.053	80
337.281	94
337.51	102
337.738	91
337.966	98
338.194	102
338.422	96
338.65	100
338.878	96
339.106	91
339.334	91
339.562	77
339.79	98
340.018	107
340.246	99
340.474	100
340.702	102
340.93	83
341.158	88
341.386	94
341.614	101
341.842	76
342.07	87
342.298	102
342.526	98
342.754	101
342.981	89
343.209	83
343.437	92
343.665	83
343.893	83
344.12	105
344.348	104
344.576	93
344.804	106
345.031	105
345.259	101
345.487	100
345.714	96
345.942	98
346.17	106
346.397	95
346.625	84
346.853	102
347.08	99
347.308	101
347.535	105
347.763	115
347.99	73
348.218	110
348.445	113
348.673	99
348.9	101
349.128	95
349.355	110
349.583	81
349.81	95
350.037	107
350.265	116
350.492	99
350.72	90
350.947	94
351.174	105
351.402	108
351.629	111
351.856	98
352.083	105
352.311	100
352.538	108
352.765	123
352.992	124
353.22	118
353.447	96
353.674	106
353.901	86
354.128	98
354.355	80
354.583	97
354.81	102
355.037	98
355.264	100
355.491	95
355.718	99
355.945	90
356.172	97
356.399	96
356.626	91
356.853	84
357.08	88
357.307	78
357.534	75
357.761	102
357.988	104
358.215	108
358.441	107
358.668	109
358.895	104
359.122	105
359.349	93
359.576	108
359.802	125
360.029	144
360.256	109
360.483	103
360.709	90
360.936	85
361.163	95
361.39	86
361.616	100
361.843	92
362.07	92
362.296	102
362.523	94
362.749	100
362.976	87
363.203	97
363.429	99
363.656	89
363.882	92
364.109	98
364.335	83
364.562	98
364.788	106
365.015	89
365.241	106
365.468	117
365.694	114
365.92	92
366.147	106
366.373	100
366.599	95
366.826	96
367.052	96
367.278	92
367.505	81
367.731	110
367.957	86
368.184	84
368.41	95
368.636	112
368.862	120
369.089	103
369.315	96
369.541	86
369.767	102
369.993	86
370.219	118
370.445	100
370.672	93
370.898	90
371.124	91
371.35	90
371.576	92
371.802	98
372.028	93
372.254	92
372.48	90
372.706	96
372.932	106
373.158	79
373.384	93
373.61	89
373.835	96
374.061	84
374.287	92
374.513	106
374.739	79
374.965	98
375.191	103
375.416	97
375.642	86
375.868	83
376.094	99
376.319	104
376.545	98
376.771	102
376.997	107
377.222	107
377.448	103
377.674	105
377.899	95
378.125	93
378.35	97
378.576	104
378.802	94
379.027	86
379.253	100
379.478	88
379.704	114
379.929	95
380.155	103
380.38	100
380.606	111
380.831	95
381.057	108
381.282	95
381.507	107
381.733	112
381.958	112
382.184	93
382.409	111
382.634	125
382.86	109
383.085	115
383.31	100
383.535	100
383.761	112
383.986	107
384.211	115
384.436	127
384.662	105
384.887	122
385.112	132
385.337	129
385.562	131
385.787	103
386.013	136
386.238	138
386.463	119
386.688	134
386.913	134
387.138	122
387.363	114
387.588	112
387.813	116
388.038	130
388.263	138
388.488	130
388.713	124
388.938	104
389.163	98
389.387	98
389.612	93
389.837	96
390.062	101
390.287	101
390.512	106
390.736	88
390.961	102
391.186	98
391.411	112
391.636	95
391.86	93
392.085	90
392.31	90
392.534	94
392.759	86
392.984	82
393.208	77
393.433	97
393.658	103
393.882	96
394.107	91
394.331	88
394.556	84
394.78	96
395.005	93
395.229	90
395.454	99
395.678	87
395.903	92
396.127	99
396.352	96
396.576	103
396.801	97
397.025	91
397.249	90
397.474	94
397.698	80
397.922	80
398.147	77
398.371	74
398.595	84
398.82	77
399.044	80
399.268	83
399.492	96
399.717	104
399.941	98
400.165	100
400.389	82
400.613	86
400.837	91
401.062	87
401.286	110
401.51	104
401.734	105
401.958	110
402.182	133
402.406	171
402.63	124
402.854	101
403.078	88
403.302	86
403.526	98
403.75	91
403.974	92
404.198	92
404.422	100
404.645	85
404.869	103
405.093	108
405.317	108
405.541	109
405.765	101
405.988	115
406.212	205
406.436	267
406.66	169
406.883	116
407.107	97
407.331	95
407.555	119
407.778	100
408.002	94
408.226	95
408.449	91
408.673	78
408.896	91
409.12	103
409.344	95
409.567	86
409.791	95
410.014	96
410.238	91
410.461	106
410.685	83
410.908	114
411.132	92
411.355	99
411.578	90
411.802	85
412.025	86
412.249	80
412.472	96
412.695	91
412.919	85
413.142	83
413.365	104
413.589	94
413.812	95
414.035	86
414.258	92
414.482	86
414.705	91
414.928	90
415.151	94
415.374	104
415.597	92
415.821	97
416.044	89
416.267	89
416.49	93
416.713	73
416.936	100
417.159	93
417.382	93
417.605	96
417.828	109
418.051	94
418.274	82
418.497	84
418.72	94
418.943	93
419.166	89
419.389	85
419.611	93
419.834	77
420.057	95
420.28	93
420.503	97
420.726	88
420.948	91
421.171	93
421.394	114
421.617	106
421.839	86
422.062	79
422.285	106
422.507	113
422.73	132
422.953	114
423.175	94
423.398	91
423.621	90
423.843	89
424.066	88
424.288	98
424.511	93
424.733	104
424.956	116
425.178	103
425.401	99
425.623	98
425.846	92
426.068	107
426.291	100
426.513	86
426.735	88
426.958	92
427.18	111
427.402	142
427.625	196
427.847	134
428.069	122
428.292	91
428.514	85
428.736	102
428.958	98
429.181	75
429.403	89
429.625	75
429.847	85
430.069	103
430.292	108
430.514	91
430.736	89
430.958	89
431.18	82
431.402	93
431.624	92
431.846	94
432.068	88
432.29	79
432.512	99
432.734	92
432.956	90
433.178	101
433.4	104
433.622	102
433.844	88
434.066	87
434.287	95
434.509	89
434.731	91
434.953	92
435.175	86
435.397	93
435.618	111
435.84	120
436.062	135
436.284	123
436.505	113
436.727	101
436.949	84
437.17	81
437.392	84
437.614	94
437.835	114
438.057	128
438.278	116
438.5	104
438.721	135
438.943	104
439.165	90
439.386	93
439.608	87
439.829	126
440.05	146
440.272	154
440.493	111
440.715	75
440.936	88
441.158	96
441.379	97
441.6	96
441.822	90
442.043	96
442.264	105
442.486	98
442.707	107
442.928	122
443.149	141
443.371	147
443.592	109
443.813	131
444.034	102
444.255	90
444.476	101
444.698	96
444.919	94
445.14	135
445.361	132
445.582	120
445.803	144
446.024	145
446.245	152
446.466	108
446.687	89
446.908	74
447.129	88
447.35	70
447.571	103
447.792	96
448.013	89
448.234	126
448.455	108
448.675	111
448.896	131
449.117	100
449.338	138
449.559	131
449.779	149
450	95
450.221	94
450.442	76
450.662	87
450.883	127
451.104	110
451.324	116
451.545	101
451.766	77
451.986	93
452.207	93
452.428	94
452.648	96
452.869	115
453.089	136
453.31	129
453.53	107
453.751	101
453.971	117
454.192	108
454.412	91
454.633	82
454.853	100
455.073	87
455.294	98
455.514	103
455.734	95
455.955	98
456.175	83
456.395	88
456.616	88
456.836	88
457.056	74
457.276	82
457.497	93
457.717	94
457.937	95
458.157	77
458.377	84
458.598	134
458.818	169
459.038	167
459.258	135
459.478	103
459.698	91
459.918	87
460.138	92
460.358	95
460.578	90
460.798	110
461.018	99
461.238	75
461.458	85
461.678	98
461.898	90
462.118	75
462.338	95
462.558	85
462.777	89
462.997	85
463.217	85
463.437	97
463.657	93
463.876	93
464.096	88
464.316	111
464.536	92
464.755	102
464.975	116
465.195	196
465.414	183
465.634	111
465.854	96
466.073	98
466.293	93
466.512	89
466.732	85
466.951	84
467.171	93
467.391	95
467.61	99
467.829	97
468.049	95
468.268	97
468.488	88
468.707	88
468.927	75
469.146	97
469.365	69
469.585	81
469.804	104
470.023	98
470.243	98
470.462	99
470.681	118
470.901	95
471.12	99
471.339	83
471.558	95
471.777	89
471.997	78
472.216	104
472.435	137
472.654	86
472.873	97
473.092	92
473.311	80
473.53	91
473.749	94
473.968	86
474.187	111
474.406	95
474.625	103
474.844	92
475.063	82
475.282	85
475.501	79
475.72	92
475.939	87
476.158	89
476.377	96
476.596	90
476.814	88
477.033	91
477.252	92
477.471	88
477.69	84
477.908	88
478.127	92
478.346	94
478.564	88
478.783	93
479.002	96
479.22	87
479.439	103
479.658	108
479.876	111
480.095	101
480.313	103
480.532	91
480.751	81
480.969	104
481.188	151
481.406	148
481.624	80
481.843	100
482.061	77
482.28	85
482.498	83
482.717	86
482.935	105
483.153	89
483.372	85
483.59	92
483.808	98
484.027	105
484.245	96
484.463	102
484.681	105
484.9	100
485.118	91
485.336	99
485.554	92
485.772	118
485.99	108
486.209	108
486.427	112
486.645	118
486.863	116
487.081	118
487.299	90
487.517	90
487.735	100
487.953	102
488.171	96
488.389	104
488.607	109
488.825	93
489.043	100
489.261	93
489.479	90
489.696	85
489.914	76
490.132	81
490.35	91
490.568	94
490.786	95
491.003	99
491.221	96
491.439	91
491.657	110
491.874	89
492.092	111
492.31	90
492.527	95
492.745	90
492.963	81
493.18	84
493.398	99
493.615	106
493.833	96
494.05	96
494.268	99
494.485	100
494.703	102
494.92	93
495.138	95
495.355	81
495.573	85
495.79	100
496.008	91
496.225	86
496.442	85
496.66	87
496.877	91
497.094	86
497.312	102
497.529	103
497.746	94
497.963	102
498.181	87
498.398	94
498.615	112
498.832	107
499.049	95
499.267	88
499.484	100
499.701	99
499.918	76
500.135	88
500.352	92
500.569	86
500.786	77
501.003	100
501.22	83
501.437	99
501.654	103
501.871	120
502.088	103
502.305	89
502.522	87
502.739	108
502.956	105
503.172	88
503.389	92
503.606	109
503.823	112
504.04	97
504.256	94
504.473	94
504.69	92
504.907	86
505.123	88
505.34	94
505.557	88
505.773	92
505.99	86
506.207	82
506.423	89
506.64	92
506.856	102
507.073	102
507.289	95
507.506	94
507.722	125
507.939	118
508.155	91
508.372	99
508.588	106
508.805	80
509.021	96
509.238	99
509.454	91
509.67	115
509.887	110
510.103	144
510.319	235
510.536	890
510.752	3070
510.968	829
511.184	169
511.401	110
511.617	100
511.833	101
512.049	94
512.265	99
512.481	79
512.698	87
512.914	91
513.13	91
513.346	96
513.562	105
513.778	101
513.994	100
514.21	106
514.426	134
514.642	138
514.858	138
515.074	170
515.29	590
515.506	1967
515.721	731
515.937	173
516.153	113
516.369	108
516.585	112
516.801	104
517.016	99
517.232	104
517.448	99
517.664	98
517.879	79
518.095	93
518.311	101
518.527	76
518.742	74
518.958	92
519.173	95
519.389	97
519.605	94
519.82	104
520.036	120
520.251	135
520.467	127
520.682	111
520.898	113
521.113	132
521.329	155
521.544	253
521.76	697
521.975	3192
522.19	1950
522.406	407
522.621	118
522.836	114
523.052	103
523.267	99
523.482	104
523.698	108
523.913	110
524.128	108
524.343	102
524.559	100
524.774	86
524.989	101
525.204	95
525.419	101
525.634	109
525.849	98
526.064	97
526.28	101
526.495	92
526.71	91
526.925	88
527.14	94
527.355	105
527.57	89
527.785	86
527.999	93
528.214	103
528.429	116
528.644	94
528.859	89
529.074	116
529.289	138
529.503	226
529.718	128
529.933	93
530.148	91
530.363	99
530.577	90
530.792	85
531.007	97
531.221	103
531.436	104
531.651	87
531.865	96
532.08	84
532.295	93
532.509	96
532.724	96
532.938	118
533.153	97
533.367	104
533.582	84
533.796	100
534.011	96
534.225	98
534.44	92
534.654	99
534.868	89
535.083	92
535.297	83
535.511	109
535.726	116
535.94	114
536.154	92
536.369	89
536.583	93
536.797	96
537.011	102
537.225	87
537.44	106
537.654	88
537.868	90
538.082	85
538.296	88
538.51	96
538.724	83
538.938	96
539.153	97
539.367	93
539.581	99
539.795	77
540.009	104
540.222	98
540.436	85
540.65	91
540.864	93
541.078	105
541.292	98
541.506	99
541.72	90
541.934	91
542.147	92
542.361	101
542.575	91
542.789	86
543.002	86
543.216	87
543.43	96
543.644	102
543.857	85
544.071	97
544.285	86
544.498	84
544.712	91
544.925	91
545.139	68
545.352	87
545.566	87
545.779	99
545.993	84
546.206	88
546.42	86
546.633	84
546.847	101
547.06	75
547.274	77
547.487	85
547.7	86
547.914	85
548.127	86
548.34	93
548.554	85
548.767	88
548.98	89
549.193	90
549.407	111
549.62	89
549.833	82
550.046	94
550.259	96
550.473	86
550.686	100
550.899	102
551.112	100
551.325	96
551.538	86
551.751	95
551.964	88
552.177	101
552.39	94
552.603	93
552.816	105
553.029	105
553.242	93
553.455	97
553.667	110
553.88	100
554.093	80
554.306	98
554.519	88
554.732	94
554.944	94
555.157	91
555.37	79
555.583	99
555.795	94
556.008	94
556.221	95
556.433	91
556.646	97
556.859	87
557.071	94
557.284	89
557.496	112
557.709	85
557.921	91
558.134	109
558.346	94
558.559	94
558.771	83
558.984	91
559.196	81
559.409	79
559.621	91
559.833	82
560.046	95
560.258	91
560.47	81
560.683	93
560.895	92
561.107	100
561.32	107
561.532	99
561.744	78
561.956	88
562.168	85
562.381	101
562.593	101
562.805	97
563.017	89
563.229	95
563.441	94
563.653	102
563.865	107
564.077	95
564.289	78
564.501	86
564.713	92
564.925	105
565.137	102
565.349	88
565.561	85
565.773	86
565.985	88
566.197	99
566.408	105
566.62	93
566.832	86
567.044	99
567.255	84
567.467	88
567.679	85
567.891	97
568.102	102
568.314	90
568.526	99
568.737	98
568.949	88
569.161	90
569.372	81
569.584	93
569.795	97
570.007	133
570.218	296
570.43	143
570.641	109
570.853	95
571.064	80
571.276	93
571.487	87
571.698	86
571.91	85
572.121	93
572.333	92
572.544	90
572.755	89
572.966	80
573.178	99
573.389	98
573.6	88
573.811	92
574.023	90
574.234	93
574.445	98
574.656	96
574.867	86
575.078	82
575.289	97
575.501	92
575.712	90
575.923	98
576.134	104
576.345	86
576.556	91
576.767	93
576.978	94
577.188	100
577.399	101
577.61	103
577.821	97
578.032	123
578.243	296
578.454	938
578.665	258
578.875	112
579.086	78
579.297	98
579.508	92
579.718	90
579.929	92
580.14	93
580.35	91
580.561	99
580.772	84
580.982	96
581.193	93
581.403	97
