Data from Circ_2016_H10_HRD10591_00078.txt Node
Date: Wed Jan 03 09:58:56 EST 2024
User: Yrep
Spectrometer: HR+D1059
Trigger mode: 1
Integration Time (sec): 1.000000E-1
Scans to average: 1
Electric dark correction enabled: true
Nonlinearity correction enabled: false
Boxcar width: 0
XAxis mode: Wavelengths
Number of Pixels in Spectrum: 2048
>>>>>Begin Spectral Data<<<<<
223.165	-11.06
223.4	-11.06
223.635	-11.06
223.869	-26.06
224.104	-10.06
224.338	-16.06
224.573	-14.06
224.808	-5.06
225.042	-7.06
225.277	-13.06
225.511	-9.06
225.746	-12.06
225.98	1.94
226.215	1.94
226.449	35.94
226.683	28.94
226.918	17.94
227.152	36.94
227.387	47.94
227.621	32.94
227.856	41.94
228.09	49.94
228.324	45.94
228.559	53.94
228.793	53.94
229.027	59.94
229.262	70.94
229.496	70.94
229.73	77.94
229.964	78.94
230.199	74.94
230.433	82.94
230.667	87.94
230.901	80.94
231.136	75.94
231.37	89.94
231.604	84.94
231.838	77.94
232.072	74.94
232.306	81.94
232.541	77.94
232.775	77.94
233.009	81.94
233.243	70.94
233.477	76.94
233.711	83.94
233.945	93.94
234.179	80.94
234.413	85.94
234.647	79.94
234.881	82.94
235.115	76.94
235.349	81.94
235.583	93.94
235.817	92.94
236.051	83.94
236.285	77.94
236.519	82.94
236.753	73.94
236.987	94.94
237.221	78.94
237.455	82.94
237.689	69.94
237.922	77.94
238.156	83.94
238.39	82.94
238.624	72.94
238.858	79.94
239.091	85.94
239.325	78.94
239.559	81.94
239.793	80.94
240.027	84.94
240.26	86.94
240.494	69.94
240.728	79.94
240.961	83.94
241.195	84.94
241.429	86.94
241.662	63.94
241.896	81.94
242.13	89.94
242.363	74.94
242.597	77.94
242.83	76.94
243.064	84.94
243.298	81.94
243.531	92.94
243.765	76.94
243.998	67.94
244.232	88.94
244.465	72.94
244.699	86.94
244.932	77.94
245.166	88.94
245.399	85.94
245.633	73.94
245.866	85.94
246.099	68.94
246.333	68.94
246.566	77.94
246.8	64.94
247.033	73.94
247.266	75.94
247.5	75.94
247.733	80.94
247.966	84.94
248.2	79.94
248.433	82.94
248.666	79.94
248.899	86.94
249.133	81.94
249.366	102.94
249.599	99.94
249.832	87.94
250.066	97.94
250.299	68.94
250.532	65.94
250.765	83.94
250.998	82.94
251.231	83.94
251.465	75.94
251.698	91.94
251.931	90.94
252.164	84.94
252.397	91.94
252.63	86.94
252.863	84.94
253.096	86.94
253.329	77.94
253.562	83.94
253.795	79.94
254.028	82.94
254.261	69.94
254.494	94.94
254.727	101.94
254.96	81.94
255.193	86.94
255.426	77.94
255.659	91.94
255.892	86.94
256.124	79.94
256.357	82.94
256.59	81.94
256.823	88.94
257.056	88.94
257.289	81.94
257.521	86.94
257.754	91.94
257.987	87.94
258.22	74.94
258.452	91.94
258.685	80.94
258.918	75.94
259.151	89.94
259.383	81.94
259.616	75.94
259.849	71.94
260.081	91.94
260.314	85.94
260.547	90.94
260.779	80.94
261.012	81.94
261.244	98.94
261.477	86.94
261.71	90.94
261.942	124.94
262.175	111.94
262.407	89.94
262.64	84.94
262.872	91.94
263.105	78.94
263.337	98.94
263.57	80.94
263.802	85.94
264.035	79.94
264.267	81.94
264.499	89.94
264.732	84.94
264.964	78.94
265.197	85.94
265.429	79.94
265.661	86.94
265.894	88.94
266.126	91.94
266.358	85.94
266.591	77.94
266.823	93.94
267.055	86.94
267.287	103.94
267.52	83.94
267.752	97.94
267.984	88.94
268.216	97.94
268.448	85.94
268.681	88.94
268.913	79.94
269.145	80.94
269.377	105.94
269.609	75.94
269.841	83.94
270.073	86.94
270.306	89.94
270.538	82.94
270.77	95.94
271.002	94.94
271.234	90.94
271.466	94.94
271.698	91.94
271.93	90.94
272.162	74.94
272.394	92.94
272.626	83.94
272.858	96.94
273.09	82.94
273.322	86.94
273.553	76.94
273.785	82.94
274.017	73.94
274.249	83.94
274.481	82.94
274.713	89.94
274.945	97.94
275.176	93.94
275.408	81.94
275.64	91.94
275.872	98.94
276.104	89.94
276.335	100.94
276.567	103.94
276.799	104.94
277.031	100.94
277.262	91.94
277.494	91.94
277.726	91.94
277.957	80.94
278.189	95.94
278.421	84.94
278.652	94.94
278.884	78.94
279.115	78.94
279.347	92.94
279.579	94.94
279.81	86.94
280.042	86.94
280.273	103.94
280.505	89.94
280.736	78.94
280.968	89.94
281.199	77.94
281.431	90.94
281.662	92.94
281.894	102.94
282.125	82.94
282.356	121.94
282.588	130.94
282.819	98.94
283.051	102.94
283.282	76.94
283.513	85.94
283.745	86.94
283.976	75.94
284.207	88.94
284.439	91.94
284.67	77.94
284.901	86.94
285.132	88.94
285.364	84.94
285.595	74.94
285.826	75.94
286.057	97.94
286.288	80.94
286.52	89.94
286.751	74.94
286.982	92.94
287.213	68.94
287.444	106.94
287.675	89.94
287.906	78.94
288.138	89.94
288.369	92.94
288.6	102.94
288.831	79.94
289.062	107.94
289.293	82.94
289.524	93.94
289.755	76.94
289.986	87.94
290.217	103.94
290.448	82.94
290.679	86.94
290.91	85.94
291.141	84.94
291.371	74.94
291.602	85.94
291.833	78.94
292.064	94.94
292.295	84.94
292.526	84.94
292.757	91.94
292.987	88.94
293.218	85.94
293.449	87.94
293.68	90.94
293.91	107.94
294.141	98.94
294.372	90.94
294.603	96.94
294.833	93.94
295.064	94.94
295.295	91.94
295.525	94.94
295.756	100.94
295.987	97.94
296.217	144.94
296.448	139.94
296.679	103.94
296.909	93.94
297.14	83.94
297.37	84.94
297.601	99.94
297.831	81.94
298.062	99.94
298.292	86.94
298.523	105.94
298.753	77.94
298.984	104.94
299.214	96.94
299.445	79.94
299.675	99.94
299.905	87.94
300.136	74.94
300.366	90.94
300.597	88.94
300.827	93.94
301.057	87.94
301.288	94.94
301.518	93.94
301.748	92.94
301.979	91.94
302.209	103.94
302.439	94.94
302.669	92.94
302.9	97.94
303.13	100.94
303.36	96.94
303.59	104.94
303.82	106.94
304.051	79.94
304.281	90.94
304.511	89.94
304.741	90.94
304.971	93.94
305.201	98.94
305.431	101.94
305.661	78.94
305.891	91.94
306.121	104.94
306.352	97.94
306.582	104.94
306.812	93.94
307.042	95.94
307.272	102.94
307.502	91.94
307.731	80.94
307.961	94.94
308.191	99.94
308.421	91.94
308.651	89.94
308.881	103.94
309.111	102.94
309.341	97.94
309.571	90.94
309.8	89.94
310.03	91.94
310.26	97.94
310.49	96.94
310.72	101.94
310.949	100.94
311.179	98.94
311.409	90.94
311.639	97.94
311.868	95.94
312.098	98.94
312.328	91.94
312.557	106.94
312.787	101.94
313.017	102.94
313.246	91.94
313.476	83.94
313.706	85.94
313.935	91.94
314.165	85.94
314.394	102.94
314.624	106.94
314.853	107.94
315.083	101.94
315.312	94.94
315.542	85.94
315.771	91.94
316.001	95.94
316.23	96.94
316.46	82.94
316.689	96.94
316.919	108.94
317.148	81.94
317.377	97.94
317.607	103.94
317.836	100.94
318.065	90.94
318.295	95.94
318.524	92.94
318.753	95.94
318.983	95.94
319.212	118.94
319.441	89.94
319.67	104.94
319.9	94.94
320.129	87.94
320.358	106.94
320.587	94.94
320.816	89.94
321.046	102.94
321.275	95.94
321.504	98.94
321.733	96.94
321.962	100.94
322.191	93.94
322.42	99.94
322.649	92.94
322.878	113.94
323.108	127.94
323.337	121.94
323.566	116.94
323.795	158.94
324.024	204.94
324.253	396.94
324.482	830.94
324.71	1717.94
324.939	2183.94
325.168	824.94
325.397	246.94
325.626	154.94
325.855	141.94
326.084	121.94
326.313	129.94
326.542	171.94
326.77	220.94
326.999	455.94
327.228	953.94
327.457	1699.94
327.686	1341.94
327.914	379.94
328.143	197.94
328.372	161.94
328.6	129.94
328.829	127.94
329.058	128.94
329.287	120.94
329.515	105.94
329.744	98.94
329.972	107.94
330.201	135.94
330.43	164.94
330.658	148.94
330.887	145.94
331.115	117.94
331.344	100.94
331.572	93.94
331.801	104.94
332.03	97.94
332.258	93.94
332.486	89.94
332.715	95.94
332.943	101.94
333.172	98.94
333.4	109.94
333.629	110.94
333.857	106.94
334.085	116.94
334.314	133.94
334.542	174.94
334.771	157.94
334.999	109.94
335.227	103.94
335.455	88.94
335.684	84.94
335.912	101.94
336.14	99.94
336.369	103.94
336.597	94.94
336.825	87.94
337.053	107.94
337.281	105.94
337.51	92.94
337.738	94.94
337.966	94.94
338.194	106.94
338.422	85.94
338.65	102.94
338.878	102.94
339.106	90.94
339.334	87.94
339.562	93.94
339.79	78.94
340.018	98.94
340.246	86.94
340.474	91.94
340.702	94.94
340.93	86.94
341.158	85.94
341.386	101.94
341.614	100.94
341.842	87.94
342.07	86.94
342.298	97.94
342.526	98.94
342.754	93.94
342.981	99.94
343.209	75.94
343.437	101.94
343.665	101.94
343.893	94.94
344.12	104.94
344.348	102.94
344.576	93.94
344.804	90.94
345.031	89.94
345.259	79.94
345.487	85.94
345.714	87.94
345.942	87.94
346.17	93.94
346.397	87.94
346.625	99.94
346.853	93.94
347.08	78.94
347.308	94.94
347.535	97.94
347.763	87.94
347.99	91.94
348.218	94.94
348.445	104.94
348.673	105.94
348.9	93.94
349.128	84.94
349.355	77.94
349.583	83.94
349.81	93.94
350.037	92.94
350.265	99.94
350.492	92.94
350.72	83.94
350.947	102.94
351.174	106.94
351.402	108.94
351.629	97.94
351.856	98.94
352.083	90.94
352.311	94.94
352.538	106.94
352.765	100.94
352.992	105.94
353.22	113.94
353.447	98.94
353.674	105.94
353.901	96.94
354.128	108.94
354.355	90.94
354.583	109.94
354.81	104.94
355.037	102.94
355.264	88.94
355.491	103.94
355.718	93.94
355.945	99.94
356.172	102.94
356.399	94.94
356.626	101.94
356.853	86.94
357.08	99.94
357.307	104.94
357.534	98.94
357.761	100.94
357.988	100.94
358.215	84.94
358.441	90.94
358.668	93.94
358.895	79.94
359.122	86.94
359.349	96.94
359.576	94.94
359.802	87.94
360.029	118.94
360.256	122.94
360.483	108.94
360.709	93.94
360.936	93.94
361.163	94.94
361.39	98.94
361.616	86.94
361.843	85.94
362.07	100.94
362.296	108.94
362.523	94.94
362.749	99.94
362.976	81.94
363.203	97.94
363.429	87.94
363.656	84.94
363.882	87.94
364.109	88.94
364.335	88.94
364.562	90.94
364.788	101.94
365.015	99.94
365.241	96.94
365.468	112.94
365.694	105.94
365.92	100.94
366.147	83.94
366.373	86.94
366.599	83.94
366.826	87.94
367.052	91.94
367.278	92.94
367.505	81.94
367.731	97.94
367.957	92.94
368.184	89.94
368.41	98.94
368.636	111.94
368.862	105.94
369.089	100.94
369.315	103.94
369.541	91.94
369.767	95.94
369.993	87.94
370.219	79.94
370.445	79.94
370.672	79.94
370.898	85.94
371.124	88.94
371.35	77.94
371.576	93.94
371.802	90.94
372.028	100.94
372.254	82.94
372.48	96.94
372.706	82.94
372.932	79.94
373.158	93.94
373.384	102.94
373.61	91.94
373.835	94.94
374.061	75.94
374.287	93.94
374.513	106.94
374.739	99.94
374.965	102.94
375.191	100.94
375.416	96.94
375.642	87.94
375.868	90.94
376.094	95.94
376.319	96.94
376.545	99.94
376.771	85.94
376.997	88.94
377.222	89.94
377.448	100.94
377.674	95.94
377.899	76.94
378.125	89.94
378.35	95.94
378.576	90.94
378.802	91.94
379.027	103.94
379.253	98.94
379.478	92.94
379.704	93.94
379.929	97.94
380.155	96.94
380.38	110.94
380.606	88.94
380.831	104.94
381.057	94.94
381.282	100.94
381.507	96.94
381.733	98.94
381.958	83.94
382.184	101.94
382.409	109.94
382.634	102.94
382.86	90.94
383.085	99.94
383.31	105.94
383.535	105.94
383.761	97.94
383.986	103.94
384.211	82.94
384.436	99.94
384.662	96.94
384.887	136.94
385.112	104.94
385.337	94.94
385.562	110.94
385.787	98.94
386.013	113.94
386.238	118.94
386.463	106.94
386.688	117.94
386.913	109.94
387.138	101.94
387.363	118.94
387.588	103.94
387.813	111.94
388.038	106.94
388.263	131.94
388.488	109.94
388.713	88.94
388.938	91.94
389.163	84.94
389.387	87.94
389.612	92.94
389.837	86.94
390.062	103.94
390.287	106.94
390.512	85.94
390.736	92.94
390.961	79.94
391.186	94.94
391.411	95.94
391.636	95.94
391.86	86.94
392.085	101.94
392.31	81.94
392.534	87.94
392.759	93.94
392.984	104.94
393.208	106.94
393.433	116.94
393.658	104.94
393.882	79.94
394.107	89.94
394.331	82.94
394.556	86.94
394.78	84.94
395.005	81.94
395.229	80.94
395.454	90.94
395.678	81.94
395.903	98.94
396.127	90.94
396.352	83.94
396.576	82.94
396.801	92.94
397.025	98.94
397.249	95.94
397.474	80.94
397.698	84.94
397.922	92.94
398.147	70.94
398.371	81.94
398.595	86.94
398.82	92.94
399.044	89.94
399.268	91.94
399.492	94.94
399.717	93.94
399.941	91.94
400.165	98.94
400.389	76.94
400.613	81.94
400.837	90.94
401.062	98.94
401.286	101.94
401.51	103.94
401.734	98.94
401.958	96.94
402.182	119.94
402.406	135.94
402.63	110.94
402.854	97.94
403.078	86.94
403.302	71.94
403.526	90.94
403.75	86.94
403.974	86.94
404.198	83.94
404.422	83.94
404.645	91.94
404.869	85.94
405.093	90.94
405.317	98.94
405.541	105.94
405.765	105.94
405.988	111.94
406.212	151.94
406.436	205.94
406.66	135.94
406.883	101.94
407.107	92.94
407.331	83.94
407.555	105.94
407.778	86.94
408.002	83.94
408.226	94.94
408.449	97.94
408.673	93.94
408.896	84.94
409.12	87.94
409.344	98.94
409.567	101.94
409.791	93.94
410.014	99.94
410.238	102.94
410.461	94.94
410.685	86.94
410.908	91.94
411.132	114.94
411.355	85.94
411.578	94.94
411.802	91.94
412.025	87.94
412.249	84.94
412.472	86.94
412.695	88.94
412.919	68.94
413.142	77.94
413.365	84.94
413.589	95.94
413.812	90.94
414.035	96.94
414.258	98.94
414.482	91.94
414.705	98.94
414.928	96.94
415.151	88.94
415.374	86.94
415.597	86.94
415.821	97.94
416.044	90.94
416.267	90.94
416.49	96.94
416.713	96.94
416.936	88.94
417.159	98.94
417.382	97.94
417.605	81.94
417.828	88.94
418.051	90.94
418.274	107.94
418.497	89.94
418.72	79.94
418.943	90.94
419.166	88.94
419.389	83.94
419.611	85.94
419.834	78.94
420.057	94.94
420.28	87.94
420.503	79.94
420.726	77.94
420.948	92.94
421.171	87.94
421.394	100.94
421.617	97.94
421.839	75.94
422.062	91.94
422.285	93.94
422.507	92.94
422.73	105.94
422.953	89.94
423.175	100.94
423.398	79.94
423.621	97.94
423.843	74.94
424.066	95.94
424.288	92.94
424.511	82.94
424.733	110.94
424.956	89.94
425.178	92.94
425.401	101.94
425.623	104.94
425.846	84.94
426.068	95.94
426.291	95.94
426.513	101.94
426.735	85.94
426.958	96.94
427.18	118.94
427.402	135.94
427.625	148.94
427.847	118.94
428.069	106.94
428.292	81.94
428.514	86.94
428.736	86.94
428.958	78.94
429.181	84.94
429.403	92.94
429.625	71.94
429.847	77.94
430.069	90.94
430.292	107.94
430.514	77.94
430.736	75.94
430.958	78.94
431.18	86.94
431.402	98.94
431.624	88.94
431.846	83.94
432.068	75.94
432.29	95.94
432.512	86.94
432.734	86.94
432.956	86.94
433.178	97.94
433.4	93.94
433.622	88.94
433.844	94.94
434.066	94.94
434.287	82.94
434.509	80.94
434.731	97.94
434.953	89.94
435.175	85.94
435.397	106.94
435.618	85.94
435.84	93.94
436.062	142.94
436.284	99.94
436.505	98.94
436.727	101.94
436.949	101.94
437.17	90.94
437.392	82.94
437.614	83.94
437.835	99.94
438.057	116.94
438.278	105.94
438.5	108.94
438.721	113.94
438.943	110.94
439.165	104.94
439.386	91.94
439.608	87.94
439.829	94.94
440.05	122.94
440.272	130.94
440.493	92.94
440.715	101.94
440.936	85.94
441.158	92.94
441.379	97.94
441.6	77.94
441.822	75.94
442.043	92.94
442.264	96.94
442.486	86.94
442.707	85.94
442.928	90.94
443.149	123.94
443.371	137.94
443.592	106.94
443.813	98.94
444.034	93.94
444.255	83.94
444.476	78.94
444.698	91.94
444.919	94.94
445.14	132.94
445.361	102.94
445.582	119.94
445.803	132.94
446.024	139.94
446.245	117.94
446.466	111.94
446.687	92.94
446.908	97.94
447.129	92.94
447.35	91.94
447.571	84.94
447.792	104.94
448.013	102.94
448.234	94.94
448.455	91.94
448.675	114.94
448.896	122.94
449.117	114.94
449.338	108.94
449.559	118.94
449.779	133.94
450	86.94
450.221	82.94
450.442	83.94
450.662	102.94
450.883	100.94
451.104	114.94
451.324	82.94
451.545	88.94
451.766	87.94
451.986	86.94
452.207	87.94
452.428	99.94
452.648	101.94
452.869	117.94
453.089	114.94
453.31	109.94
453.53	79.94
453.751	98.94
453.971	81.94
454.192	109.94
454.412	94.94
454.633	84.94
454.853	86.94
455.073	71.94
455.294	91.94
455.514	90.94
455.734	99.94
455.955	81.94
456.175	98.94
456.395	94.94
456.616	78.94
456.836	89.94
457.056	94.94
457.276	85.94
457.497	65.94
457.717	82.94
457.937	76.94
458.157	92.94
458.377	86.94
458.598	108.94
458.818	146.94
459.038	151.94
459.258	110.94
459.478	83.94
459.698	85.94
459.918	83.94
460.138	79.94
460.358	96.94
460.578	95.94
460.798	82.94
461.018	97.94
461.238	88.94
461.458	88.94
461.678	82.94
461.898	88.94
462.118	89.94
462.338	88.94
462.558	74.94
462.777	93.94
462.997	82.94
463.217	87.94
463.437	88.94
463.657	93.94
463.876	86.94
464.096	89.94
464.316	86.94
464.536	96.94
464.755	90.94
464.975	118.94
465.195	158.94
465.414	154.94
465.634	96.94
465.854	91.94
466.073	91.94
466.293	91.94
466.512	86.94
466.732	79.94
466.951	85.94
467.171	87.94
467.391	109.94
467.61	108.94
467.829	107.94
468.049	108.94
468.268	121.94
468.488	91.94
468.707	91.94
468.927	93.94
469.146	74.94
469.365	94.94
469.585	85.94
469.804	92.94
470.023	93.94
470.243	100.94
470.462	91.94
470.681	105.94
470.901	92.94
471.12	90.94
471.339	83.94
471.558	89.94
471.777	101.94
471.997	95.94
472.216	147.94
472.435	194.94
472.654	117.94
472.873	93.94
473.092	99.94
473.311	81.94
473.53	95.94
473.749	91.94
473.968	83.94
474.187	111.94
474.406	115.94
474.625	87.94
474.844	101.94
475.063	85.94
475.282	102.94
475.501	91.94
475.72	90.94
475.939	77.94
476.158	87.94
476.377	81.94
476.596	97.94
476.814	90.94
477.033	95.94
477.252	89.94
477.471	94.94
477.69	95.94
477.908	79.94
478.127	76.94
478.346	92.94
478.564	94.94
478.783	97.94
479.002	84.94
479.22	92.94
479.439	98.94
479.658	85.94
479.876	93.94
480.095	83.94
480.313	85.94
480.532	102.94
480.751	115.94
480.969	147.94
481.188	326.94
481.406	222.94
481.624	107.94
481.843	82.94
482.061	93.94
482.28	94.94
482.498	92.94
482.717	96.94
482.935	74.94
483.153	75.94
483.372	87.94
483.59	84.94
483.808	88.94
484.027	96.94
484.245	101.94
484.463	94.94
484.681	102.94
484.9	84.94
485.118	89.94
485.336	95.94
485.554	91.94
485.772	86.94
485.99	110.94
486.209	95.94
486.427	103.94
486.645	115.94
486.863	106.94
487.081	106.94
487.299	106.94
487.517	94.94
487.735	96.94
487.953	85.94
488.171	88.94
488.389	91.94
488.607	100.94
488.825	88.94
489.043	85.94
489.261	91.94
489.479	77.94
489.696	87.94
489.914	85.94
490.132	82.94
490.35	108.94
490.568	89.94
490.786	77.94
491.003	87.94
491.221	85.94
491.439	99.94
491.657	92.94
491.874	85.94
492.092	84.94
492.31	87.94
492.527	99.94
492.745	79.94
492.963	102.94
493.18	89.94
493.398	88.94
493.615	94.94
493.833	90.94
494.05	78.94
494.268	98.94
494.485	88.94
494.703	95.94
494.92	97.94
495.138	96.94
495.355	97.94
495.573	96.94
495.79	92.94
496.008	97.94
496.225	87.94
496.442	94.94
496.66	100.94
496.877	87.94
497.094	86.94
497.312	89.94
497.529	98.94
497.746	98.94
497.963	94.94
498.181	97.94
498.398	85.94
498.615	110.94
498.832	106.94
499.049	86.94
499.267	90.94
499.484	100.94
499.701	93.94
499.918	87.94
500.135	90.94
500.352	85.94
500.569	100.94
500.786	92.94
501.003	98.94
501.22	93.94
501.437	98.94
501.654	97.94
501.871	92.94
502.088	105.94
502.305	98.94
502.522	87.94
502.739	74.94
502.956	105.94
503.172	82.94
503.389	85.94
503.606	105.94
503.823	89.94
504.04	94.94
504.256	98.94
504.473	93.94
504.69	91.94
504.907	94.94
505.123	92.94
505.34	85.94
505.557	102.94
505.773	102.94
505.99	99.94
506.207	86.94
506.423	87.94
506.64	102.94
506.856	79.94
507.073	86.94
507.289	86.94
507.506	102.94
507.722	117.94
507.939	109.94
508.155	99.94
508.372	82.94
508.588	96.94
508.805	86.94
509.021	93.94
509.238	92.94
509.454	109.94
509.67	90.94
509.887	104.94
510.103	117.94
510.319	203.94
510.536	743.94
510.752	2445.94
510.968	691.94
511.184	161.94
511.401	110.94
511.617	104.94
511.833	82.94
512.049	87.94
512.265	98.94
512.481	85.94
512.698	101.94
512.914	89.94
513.13	79.94
513.346	85.94
513.562	99.94
513.778	106.94
513.994	86.94
514.21	89.94
514.426	110.94
514.642	119.94
514.858	101.94
515.074	141.94
515.29	423.94
515.506	1360.94
