Data from Circ_2016_H10_HRD10591_00008.txt Node
Date: Wed Jan 03 09:58:42 EST 2024
User: Yrep
Spectrometer: HR+D1059
Trigger mode: 1
Integration Time (sec): 1.000000E-1
Scans to average: 1
Electric dark correction enabled: true
Nonlinearity correction enabled: false
Boxcar width: 0
XAxis mode: Wavelengths
Number of Pixels in Spectrum: 2048
>>>>>Begin Spectral Data<<<<<
223.165	-8.62
223.4	-8.62
223.635	-8.62
223.869	-19.62
224.104	-23.62
224.338	-17.62
224.573	-19.62
224.808	-13.62
225.042	-1.62
225.277	-16.62
225.511	-1.62
225.746	-5.62
225.98	6.38
226.215	14.38
226.449	32.38
226.683	29.38
226.918	14.38
227.152	31.38
227.387	34.38
227.621	41.38
227.856	46.38
228.09	62.38
228.324	55.38
228.559	66.38
228.793	69.38
229.027	53.38
229.262	66.38
229.496	85.38
229.73	78.38
229.964	71.38
230.199	77.38
230.433	94.38
230.667	90.38
230.901	80.38
231.136	77.38
231.37	86.38
231.604	84.38
231.838	82.38
232.072	78.38
232.306	89.38
232.541	75.38
232.775	76.38
233.009	80.38
233.243	79.38
233.477	79.38
233.711	95.38
233.945	90.38
234.179	82.38
234.413	82.38
234.647	77.38
234.881	56.38
235.115	86.38
235.349	83.38
235.583	78.38
235.817	75.38
236.051	81.38
236.285	91.38
236.519	82.38
236.753	88.38
236.987	90.38
237.221	79.38
237.455	93.38
237.689	77.38
237.922	85.38
238.156	66.38
238.39	87.38
238.624	83.38
238.858	81.38
239.091	86.38
239.325	72.38
239.559	78.38
239.793	78.38
240.027	73.38
240.26	89.38
240.494	78.38
240.728	83.38
240.961	82.38
241.195	90.38
241.429	80.38
241.662	74.38
241.896	84.38
242.13	69.38
242.363	76.38
242.597	77.38
242.83	87.38
243.064	93.38
243.298	74.38
243.531	85.38
243.765	73.38
243.998	86.38
244.232	97.38
244.465	100.38
244.699	88.38
244.932	74.38
245.166	82.38
245.399	74.38
245.633	86.38
245.866	74.38
246.099	83.38
246.333	86.38
246.566	84.38
246.8	85.38
247.033	73.38
247.266	71.38
247.5	72.38
247.733	97.38
247.966	85.38
248.2	72.38
248.433	83.38
248.666	77.38
248.899	92.38
249.133	84.38
249.366	102.38
249.599	107.38
249.832	80.38
250.066	81.38
250.299	73.38
250.532	98.38
250.765	91.38
250.998	96.38
251.231	83.38
251.465	86.38
251.698	72.38
251.931	73.38
252.164	77.38
252.397	86.38
252.63	86.38
252.863	83.38
253.096	86.38
253.329	78.38
253.562	70.38
253.795	72.38
254.028	98.38
254.261	71.38
254.494	95.38
254.727	94.38
254.96	85.38
255.193	81.38
255.426	91.38
255.659	84.38
255.892	95.38
256.124	85.38
256.357	83.38
256.59	86.38
256.823	89.38
257.056	83.38
257.289	90.38
257.521	92.38
257.754	87.38
257.987	88.38
258.22	79.38
258.452	92.38
258.685	81.38
258.918	88.38
259.151	89.38
259.383	91.38
259.616	89.38
259.849	89.38
260.081	88.38
260.314	99.38
260.547	84.38
260.779	78.38
261.012	85.38
261.244	85.38
261.477	83.38
261.71	88.38
261.942	104.38
262.175	102.38
262.407	93.38
262.64	78.38
262.872	90.38
263.105	74.38
263.337	81.38
263.57	89.38
263.802	83.38
264.035	88.38
264.267	90.38
264.499	83.38
264.732	89.38
264.964	78.38
265.197	86.38
265.429	84.38
265.661	85.38
265.894	74.38
266.126	96.38
266.358	93.38
266.591	80.38
266.823	88.38
267.055	85.38
267.287	91.38
267.52	81.38
267.752	71.38
267.984	89.38
268.216	87.38
268.448	91.38
268.681	93.38
268.913	78.38
269.145	96.38
269.377	109.38
269.609	87.38
269.841	93.38
270.073	92.38
270.306	78.38
270.538	92.38
270.77	83.38
271.002	91.38
271.234	90.38
271.466	90.38
271.698	90.38
271.93	83.38
272.162	85.38
272.394	84.38
272.626	75.38
272.858	98.38
273.09	93.38
273.322	82.38
273.553	88.38
273.785	84.38
274.017	84.38
274.249	92.38
274.481	85.38
274.713	102.38
274.945	99.38
275.176	90.38
275.408	90.38
275.64	94.38
275.872	88.38
276.104	92.38
276.335	89.38
276.567	90.38
276.799	110.38
277.031	95.38
277.262	84.38
277.494	92.38
277.726	95.38
277.957	98.38
278.189	84.38
278.421	88.38
278.652	85.38
278.884	93.38
279.115	71.38
279.347	85.38
279.579	93.38
279.81	87.38
280.042	86.38
280.273	78.38
280.505	71.38
280.736	88.38
280.968	95.38
281.199	107.38
281.431	88.38
281.662	90.38
281.894	102.38
282.125	87.38
282.356	116.38
282.588	137.38
282.819	110.38
283.051	93.38
283.282	84.38
283.513	94.38
283.745	83.38
283.976	83.38
284.207	92.38
284.439	76.38
284.67	87.38
284.901	82.38
285.132	96.38
285.364	106.38
285.595	101.38
285.826	80.38
286.057	97.38
286.288	89.38
286.52	87.38
286.751	88.38
286.982	94.38
287.213	74.38
287.444	92.38
287.675	74.38
287.906	78.38
288.138	88.38
288.369	91.38
288.6	79.38
288.831	81.38
289.062	93.38
289.293	100.38
289.524	92.38
289.755	97.38
289.986	88.38
290.217	83.38
290.448	84.38
290.679	87.38
290.91	85.38
291.141	88.38
291.371	91.38
291.602	82.38
291.833	98.38
292.064	82.38
292.295	86.38
292.526	103.38
292.757	98.38
292.987	97.38
293.218	95.38
293.449	89.38
293.68	89.38
293.91	93.38
294.141	93.38
294.372	95.38
294.603	79.38
294.833	82.38
295.064	98.38
295.295	96.38
295.525	102.38
295.756	99.38
295.987	129.38
296.217	127.38
296.448	119.38
296.679	96.38
296.909	105.38
297.14	82.38
297.37	108.38
297.601	95.38
297.831	77.38
298.062	85.38
298.292	94.38
298.523	88.38
298.753	80.38
298.984	87.38
299.214	100.38
299.445	93.38
299.675	88.38
299.905	89.38
300.136	90.38
300.366	99.38
300.597	98.38
300.827	111.38
301.057	109.38
301.288	106.38
301.518	97.38
301.748	87.38
301.979	83.38
302.209	84.38
302.439	102.38
302.669	86.38
302.9	76.38
303.13	86.38
303.36	104.38
303.59	120.38
303.82	95.38
304.051	95.38
304.281	92.38
304.511	77.38
304.741	86.38
304.971	99.38
305.201	89.38
305.431	102.38
305.661	89.38
305.891	98.38
306.121	89.38
306.352	94.38
306.582	114.38
306.812	78.38
307.042	82.38
307.272	92.38
307.502	94.38
307.731	86.38
307.961	79.38
308.191	95.38
308.421	89.38
308.651	100.38
308.881	105.38
309.111	119.38
309.341	96.38
309.571	101.38
309.8	96.38
310.03	90.38
310.26	101.38
310.49	97.38
310.72	100.38
310.949	105.38
311.179	93.38
311.409	103.38
311.639	95.38
311.868	105.38
312.098	107.38
312.328	99.38
312.557	96.38
312.787	100.38
313.017	105.38
313.246	88.38
313.476	90.38
313.706	98.38
313.935	100.38
314.165	85.38
314.394	108.38
314.624	98.38
314.853	89.38
315.083	103.38
315.312	83.38
315.542	91.38
315.771	95.38
316.001	96.38
316.23	98.38
316.46	90.38
316.689	84.38
316.919	83.38
317.148	97.38
317.377	104.38
317.607	110.38
317.836	87.38
318.065	94.38
318.295	83.38
318.524	87.38
318.753	91.38
318.983	98.38
319.212	115.38
319.441	122.38
319.67	114.38
319.9	108.38
320.129	98.38
320.358	110.38
320.587	90.38
320.816	104.38
321.046	109.38
321.275	87.38
321.504	96.38
321.733	105.38
321.962	91.38
322.191	89.38
322.42	105.38
322.649	131.38
322.878	122.38
323.108	124.38
323.337	133.38
323.566	139.38
323.795	142.38
324.024	192.38
324.253	397.38
324.482	804.38
324.71	1685.38
324.939	2126.38
325.168	821.38
325.397	246.38
325.626	127.38
325.855	134.38
326.084	124.38
326.313	138.38
326.542	152.38
326.77	230.38
326.999	480.38
327.228	951.38
327.457	1741.38
327.686	1347.38
327.914	377.38
328.143	198.38
328.372	150.38
328.6	137.38
328.829	90.38
329.058	118.38
329.287	110.38
329.515	101.38
329.744	106.38
329.972	96.38
330.201	106.38
330.43	111.38
330.658	126.38
330.887	145.38
331.115	125.38
331.344	100.38
331.572	114.38
331.801	113.38
332.03	98.38
332.258	100.38
332.486	89.38
332.715	94.38
332.943	94.38
333.172	106.38
333.4	106.38
333.629	107.38
333.857	114.38
334.085	115.38
334.314	98.38
334.542	114.38
334.771	92.38
334.999	115.38
335.227	102.38
335.455	100.38
335.684	89.38
335.912	76.38
336.14	104.38
336.369	102.38
336.597	103.38
336.825	101.38
337.053	90.38
337.281	86.38
337.51	87.38
337.738	79.38
337.966	91.38
338.194	98.38
338.422	92.38
338.65	106.38
338.878	98.38
339.106	106.38
339.334	83.38
339.562	92.38
339.79	88.38
340.018	78.38
340.246	82.38
340.474	82.38
340.702	92.38
340.93	82.38
341.158	94.38
341.386	93.38
341.614	97.38
341.842	106.38
342.07	88.38
342.298	86.38
342.526	101.38
342.754	99.38
342.981	98.38
343.209	88.38
343.437	97.38
343.665	95.38
343.893	106.38
344.12	91.38
344.348	94.38
344.576	95.38
344.804	94.38
345.031	95.38
345.259	90.38
345.487	92.38
345.714	85.38
345.942	95.38
346.17	96.38
346.397	88.38
346.625	85.38
346.853	93.38
347.08	90.38
347.308	96.38
347.535	91.38
347.763	115.38
347.99	98.38
348.218	100.38
348.445	102.38
348.673	106.38
348.9	107.38
349.128	105.38
349.355	99.38
349.583	83.38
349.81	102.38
350.037	104.38
350.265	100.38
350.492	90.38
350.72	90.38
350.947	103.38
351.174	101.38
351.402	108.38
351.629	101.38
351.856	97.38
352.083	103.38
352.311	103.38
352.538	118.38
352.765	109.38
352.992	116.38
353.22	122.38
353.447	112.38
353.674	106.38
353.901	113.38
354.128	111.38
354.355	115.38
354.583	101.38
354.81	101.38
355.037	108.38
355.264	100.38
355.491	99.38
355.718	110.38
355.945	103.38
356.172	109.38
356.399	104.38
356.626	109.38
356.853	92.38
357.08	98.38
357.307	86.38
357.534	97.38
357.761	91.38
357.988	112.38
358.215	122.38
358.441	121.38
358.668	135.38
358.895	103.38
359.122	92.38
359.349	105.38
359.576	85.38
359.802	90.38
360.029	117.38
360.256	94.38
360.483	96.38
360.709	100.38
360.936	89.38
361.163	93.38
361.39	106.38
361.616	108.38
361.843	104.38
362.07	88.38
362.296	97.38
362.523	81.38
362.749	85.38
362.976	98.38
363.203	91.38
363.429	87.38
363.656	89.38
363.882	98.38
364.109	113.38
364.335	86.38
364.562	99.38
364.788	79.38
365.015	92.38
365.241	108.38
365.468	110.38
365.694	92.38
365.92	96.38
366.147	92.38
366.373	92.38
366.599	92.38
366.826	93.38
367.052	82.38
367.278	99.38
367.505	90.38
367.731	93.38
367.957	98.38
368.184	89.38
368.41	87.38
368.636	102.38
368.862	103.38
369.089	119.38
369.315	92.38
369.541	87.38
369.767	85.38
369.993	101.38
370.219	94.38
370.445	91.38
370.672	96.38
370.898	91.38
371.124	99.38
371.35	71.38
371.576	97.38
371.802	85.38
372.028	98.38
372.254	93.38
372.48	99.38
372.706	87.38
372.932	92.38
373.158	89.38
373.384	86.38
373.61	100.38
373.835	94.38
374.061	98.38
374.287	102.38
374.513	102.38
374.739	92.38
374.965	105.38
375.191	84.38
375.416	97.38
375.642	94.38
375.868	98.38
376.094	104.38
376.319	93.38
376.545	102.38
376.771	118.38
376.997	90.38
377.222	105.38
377.448	93.38
377.674	103.38
377.899	98.38
378.125	95.38
378.35	104.38
378.576	110.38
378.802	120.38
379.027	113.38
379.253	101.38
379.478	116.38
379.704	107.38
379.929	115.38
380.155	109.38
380.38	125.38
380.606	110.38
380.831	117.38
381.057	129.38
381.282	140.38
381.507	128.38
381.733	133.38
381.958	134.38
382.184	131.38
382.409	137.38
382.634	147.38
382.86	144.38
383.085	144.38
383.31	132.38
383.535	160.38
383.761	132.38
383.986	151.38
384.211	144.38
384.436	148.38
384.662	153.38
384.887	182.38
385.112	198.38
385.337	196.38
385.562	177.38
385.787	181.38
386.013	184.38
386.238	195.38
386.463	174.38
386.688	158.38
386.913	178.38
387.138	189.38
387.363	183.38
387.588	145.38
387.813	146.38
388.038	182.38
388.263	212.38
388.488	207.38
388.713	133.38
388.938	113.38
389.163	101.38
389.387	98.38
389.612	88.38
389.837	90.38
390.062	84.38
390.287	90.38
390.512	93.38
390.736	108.38
390.961	91.38
391.186	100.38
391.411	101.38
391.636	88.38
391.86	79.38
392.085	106.38
392.31	86.38
392.534	79.38
392.759	88.38
392.984	109.38
393.208	110.38
393.433	163.38
393.658	134.38
393.882	101.38
394.107	95.38
394.331	88.38
394.556	97.38
394.78	81.38
395.005	109.38
395.229	99.38
395.454	100.38
395.678	103.38
395.903	93.38
396.127	99.38
396.352	94.38
396.576	98.38
396.801	116.38
397.025	127.38
397.249	99.38
397.474	87.38
397.698	100.38
397.922	94.38
398.147	86.38
398.371	83.38
398.595	91.38
398.82	94.38
399.044	83.38
399.268	102.38
399.492	91.38
399.717	84.38
399.941	86.38
400.165	106.38
400.389	104.38
400.613	92.38
400.837	71.38
401.062	83.38
401.286	106.38
401.51	95.38
401.734	98.38
401.958	97.38
402.182	119.38
402.406	127.38
402.63	116.38
402.854	93.38
403.078	105.38
403.302	92.38
403.526	78.38
403.75	91.38
403.974	75.38
404.198	87.38
404.422	92.38
404.645	82.38
404.869	81.38
405.093	100.38
405.317	90.38
405.541	88.38
405.765	84.38
405.988	104.38
406.212	143.38
406.436	201.38
406.66	148.38
406.883	88.38
407.107	104.38
407.331	99.38
407.555	105.38
407.778	94.38
408.002	85.38
408.226	78.38
408.449	107.38
408.673	92.38
408.896	105.38
409.12	97.38
409.344	101.38
409.567	90.38
409.791	90.38
410.014	103.38
410.238	96.38
410.461	102.38
410.685	91.38
410.908	114.38
411.132	107.38
411.355	104.38
411.578	96.38
411.802	89.38
412.025	97.38
412.249	96.38
412.472	101.38
412.695	101.38
412.919	95.38
413.142	97.38
413.365	91.38
413.589	94.38
413.812	77.38
414.035	99.38
414.258	86.38
414.482	86.38
414.705	99.38
414.928	107.38
415.151	103.38
415.374	111.38
415.597	115.38
415.821	97.38
416.044	104.38
416.267	100.38
416.49	105.38
416.713	92.38
416.936	98.38
417.159	94.38
417.382	86.38
417.605	97.38
417.828	108.38
418.051	103.38
418.274	105.38
418.497	107.38
418.72	92.38
418.943	95.38
419.166	89.38
419.389	100.38
419.611	98.38
419.834	91.38
420.057	96.38
420.28	88.38
420.503	93.38
420.726	78.38
420.948	77.38
421.171	99.38
421.394	98.38
421.617	87.38
421.839	115.38
422.062	96.38
422.285	107.38
422.507	121.38
422.73	145.38
422.953	123.38
423.175	92.38
423.398	100.38
423.621	88.38
423.843	75.38
424.066	86.38
424.288	97.38
424.511	93.38
424.733	95.38
424.956	101.38
425.178	95.38
425.401	94.38
425.623	101.38
425.846	113.38
426.068	94.38
426.291	93.38
426.513	90.38
426.735	96.38
426.958	79.38
427.18	104.38
427.402	131.38
427.625	150.38
427.847	133.38
428.069	113.38
428.292	79.38
428.514	99.38
428.736	80.38
428.958	87.38
429.181	90.38
429.403	79.38
429.625	75.38
429.847	89.38
430.069	97.38
430.292	102.38
430.514	97.38
430.736	86.38
430.958	95.38
431.18	87.38
431.402	77.38
431.624	88.38
431.846	93.38
432.068	74.38
432.29	80.38
432.512	85.38
432.734	91.38
432.956	104.38
433.178	100.38
433.4	97.38
433.622	78.38
433.844	85.38
434.066	103.38
434.287	93.38
434.509	89.38
434.731	82.38
434.953	91.38
435.175	87.38
435.397	101.38
435.618	102.38
435.84	84.38
436.062	114.38
436.284	117.38
436.505	95.38
436.727	111.38
436.949	96.38
437.17	79.38
437.392	102.38
437.614	99.38
437.835	100.38
438.057	104.38
438.278	100.38
438.5	105.38
438.721	125.38
438.943	107.38
439.165	91.38
439.386	77.38
439.608	93.38
439.829	108.38
440.05	121.38
440.272	136.38
440.493	86.38
440.715	87.38
440.936	84.38
441.158	82.38
441.379	99.38
441.6	94.38
441.822	80.38
442.043	95.38
442.264	92.38
442.486	107.38
442.707	89.38
442.928	107.38
443.149	114.38
443.371	118.38
443.592	99.38
443.813	109.38
444.034	97.38
444.255	75.38
444.476	90.38
444.698	92.38
444.919	97.38
445.14	142.38
445.361	109.38
445.582	119.38
445.803	131.38
446.024	130.38
446.245	141.38
446.466	96.38
446.687	97.38
446.908	99.38
447.129	83.38
447.35	79.38
447.571	97.38
447.792	83.38
448.013	101.38
448.234	97.38
448.455	98.38
448.675	100.38
448.896	115.38
449.117	108.38
449.338	103.38
449.559	132.38
449.779	144.38
450	106.38
450.221	84.38
450.442	90.38
450.662	106.38
450.883	101.38
451.104	109.38
451.324	95.38
451.545	101.38
451.766	81.38
451.986	97.38
452.207	101.38
452.428	76.38
452.648	81.38
452.869	110.38
453.089	115.38
453.31	113.38
453.53	91.38
453.751	92.38
453.971	99.38
454.192	102.38
454.412	109.38
454.633	81.38
454.853	91.38
455.073	92.38
455.294	94.38
455.514	95.38
455.734	92.38
455.955	96.38
456.175	73.38
456.395	83.38
456.616	74.38
456.836	81.38
457.056	83.38
457.276	93.38
457.497	92.38
457.717	92.38
457.937	91.38
458.157	87.38
458.377	100.38
458.598	92.38
458.818	132.38
459.038	146.38
459.258	98.38
459.478	94.38
459.698	82.38
459.918	91.38
460.138	74.38
460.358	87.38
460.578	92.38
460.798	84.38
461.018	91.38
461.238	78.38
461.458	86.38
461.678	97.38
461.898	98.38
462.118	84.38
462.338	87.38
462.558	98.38
462.777	96.38
462.997	94.38
463.217	87.38
463.437	87.38
463.657	86.38
463.876	104.38
464.096	75.38
464.316	102.38
464.536	100.38
464.755	90.38
464.975	98.38
465.195	143.38
465.414	158.38
465.634	107.38
465.854	87.38
466.073	88.38
466.293	100.38
466.512	91.38
466.732	97.38
466.951	91.38
467.171	98.38
467.391	94.38
467.61	96.38
467.829	94.38
468.049	94.38
468.268	94.38
468.488	102.38
468.707	87.38
468.927	86.38
469.146	85.38
469.365	83.38
469.585	75.38
469.804	85.38
470.023	95.38
470.243	86.38
470.462	94.38
470.681	91.38
470.901	107.38
471.12	88.38
471.339	87.38
471.558	83.38
471.777	86.38
471.997	86.38
472.216	76.38
472.435	80.38
472.654	81.38
472.873	90.38
473.092	88.38
473.311	67.38
473.53	89.38
473.749	81.38
473.968	113.38
474.187	117.38
474.406	91.38
474.625	80.38
474.844	87.38
475.063	93.38
475.282	85.38
475.501	86.38
475.72	94.38
475.939	85.38
476.158	90.38
476.377	84.38
476.596	94.38
476.814	92.38
477.033	85.38
477.252	103.38
477.471	88.38
477.69	91.38
477.908	103.38
478.127	77.38
478.346	77.38
478.564	94.38
478.783	92.38
479.002	78.38
479.22	101.38
479.439	88.38
479.658	102.38
479.876	97.38
480.095	92.38
480.313	81.38
480.532	85.38
480.751	105.38
480.969	89.38
481.188	86.38
481.406	91.38
481.624	95.38
481.843	89.38
482.061	98.38
482.28	82.38
482.498	94.38
482.717	88.38
482.935	83.38
483.153	93.38
483.372	90.38
483.59	110.38
483.808	106.38
484.027	90.38
484.245	89.38
484.463	93.38
484.681	98.38
484.9	98.38
485.118	108.38
485.336	99.38
485.554	103.38
485.772	116.38
485.99	121.38
486.209	119.38
486.427	110.38
486.645	107.38
486.863	131.38
487.081	109.38
487.299	107.38
487.517	98.38
487.735	98.38
487.953	105.38
488.171	101.38
488.389	93.38
488.607	96.38
488.825	97.38
489.043	89.38
489.261	92.38
489.479	106.38
489.696	103.38
489.914	94.38
490.132	93.38
490.35	106.38
490.568	82.38
490.786	95.38
491.003	98.38
491.221	99.38
491.439	87.38
491.657	98.38
491.874	107.38
492.092	93.38
492.31	84.38
492.527	93.38
492.745	106.38
492.963	100.38
493.18	100.38
493.398	92.38
493.615	101.38
493.833	80.38
494.05	89.38
494.268	88.38
494.485	94.38
494.703	101.38
494.92	86.38
495.138	88.38
495.355	88.38
495.573	89.38
495.79	108.38
496.008	110.38
496.225	91.38
496.442	97.38
496.66	99.38
496.877	90.38
497.094	98.38
497.312	98.38
497.529	89.38
497.746	82.38
497.963	89.38
498.181	102.38
498.398	88.38
498.615	100.38
498.832	100.38
499.049	81.38
499.267	90.38
499.484	99.38
499.701	95.38
499.918	76.38
500.135	95.38
500.352	88.38
500.569	92.38
500.786	103.38
501.003	91.38
501.22	93.38
501.437	86.38
501.654	109.38
501.871	114.38
502.088	104.38
502.305	91.38
502.522	102.38
502.739	93.38
502.956	82.38
503.172	89.38
503.389	92.38
503.606	96.38
503.823	93.38
504.04	91.38
504.256	98.38
504.473	98.38
504.69	98.38
504.907	87.38
505.123	85.38
505.34	72.38
505.557	96.38
505.773	78.38
505.99	102.38
506.207	102.38
506.423	84.38
506.64	91.38
506.856	105.38
507.073	96.38
507.289	106.38
507.506	97.38
507.722	113.38
507.939	109.38
508.155	92.38
508.372	92.38
508.588	101.38
508.805	98.38
509.021	89.38
509.238	99.38
509.454	99.38
509.67	106.38
509.887	122.38
510.103	148.38
510.319	184.38
510.536	674.38
510.752	2158.38
510.968	644.38
511.184	158.38
511.401	123.38
511.617	92.38
511.833	94.38
512.049	101.38
512.265	91.38
512.481	85.38
512.698	98.38
512.914	102.38
513.13	104.38
513.346	90.38
513.562	106.38
513.778	102.38
513.994	92.38
514.21	115.38
