Data from Circ_2016_H10_HRD10591_00041.txt Node
Date: Wed Jan 03 09:58:48 EST 2024
User: Yrep
Spectrometer: HR+D1059
Trigger mode: 1
Integration Time (sec): 1.000000E-1
Scans to average: 1
Electric dark correction enabled: true
Nonlinearity correction enabled: false
Boxcar width: 0
XAxis mode: Wavelengths
Number of Pixels in Spectrum: 2048
>>>>>Begin Spectral Data<<<<<
223.165	-16.88
223.4	-16.88
223.635	-16.88
223.869	-13.88
224.104	-15.88
224.338	-12.88
224.573	-8.88
224.808	-27.88
225.042	-10.88
225.277	-1.88
225.511	4.12
225.746	20.12
225.98	-3.88
226.215	8.12
226.449	19.12
226.683	15.12
226.918	21.12
227.152	25.12
227.387	31.12
227.621	42.12
227.856	51.12
228.09	51.12
228.324	42.12
228.559	49.12
228.793	56.12
229.027	54.12
229.262	63.12
229.496	68.12
229.73	73.12
229.964	89.12
230.199	75.12
230.433	64.12
230.667	81.12
230.901	73.12
231.136	85.12
231.37	64.12
231.604	73.12
231.838	87.12
232.072	91.12
232.306	81.12
232.541	65.12
232.775	88.12
233.009	81.12
233.243	86.12
233.477	89.12
233.711	75.12
233.945	73.12
234.179	79.12
234.413	66.12
234.647	67.12
234.881	73.12
235.115	89.12
235.349	82.12
235.583	82.12
235.817	90.12
236.051	73.12
236.285	71.12
236.519	75.12
236.753	80.12
236.987	76.12
237.221	87.12
237.455	92.12
237.689	71.12
237.922	73.12
238.156	69.12
238.39	69.12
238.624	56.12
238.858	76.12
239.091	61.12
239.325	82.12
239.559	68.12
239.793	79.12
240.027	73.12
240.26	70.12
240.494	74.12
240.728	95.12
240.961	71.12
241.195	69.12
241.429	80.12
241.662	75.12
241.896	79.12
242.13	71.12
242.363	64.12
242.597	84.12
242.83	84.12
243.064	87.12
243.298	73.12
243.531	74.12
243.765	75.12
243.998	88.12
244.232	68.12
244.465	89.12
244.699	85.12
244.932	73.12
245.166	68.12
245.399	74.12
245.633	73.12
245.866	84.12
246.099	75.12
246.333	82.12
246.566	73.12
246.8	73.12
247.033	76.12
247.266	82.12
247.5	85.12
247.733	92.12
247.966	87.12
248.2	74.12
248.433	82.12
248.666	77.12
248.899	81.12
249.133	69.12
249.366	93.12
249.599	95.12
249.832	91.12
250.066	78.12
250.299	79.12
250.532	82.12
250.765	77.12
250.998	81.12
251.231	74.12
251.465	69.12
251.698	97.12
251.931	79.12
252.164	81.12
252.397	80.12
252.63	65.12
252.863	76.12
253.096	83.12
253.329	76.12
253.562	87.12
253.795	85.12
254.028	80.12
254.261	82.12
254.494	89.12
254.727	84.12
254.96	67.12
255.193	81.12
255.426	81.12
255.659	88.12
255.892	75.12
256.124	77.12
256.357	68.12
256.59	90.12
256.823	77.12
257.056	93.12
257.289	77.12
257.521	91.12
257.754	79.12
257.987	72.12
258.22	92.12
258.452	81.12
258.685	84.12
258.918	76.12
259.151	63.12
259.383	76.12
259.616	74.12
259.849	76.12
260.081	75.12
260.314	82.12
260.547	77.12
260.779	94.12
261.012	67.12
261.244	80.12
261.477	85.12
261.71	98.12
261.942	100.12
262.175	107.12
262.407	94.12
262.64	82.12
262.872	82.12
263.105	91.12
263.337	93.12
263.57	87.12
263.802	91.12
264.035	69.12
264.267	90.12
264.499	86.12
264.732	71.12
264.964	66.12
265.197	90.12
265.429	81.12
265.661	88.12
265.894	66.12
266.126	83.12
266.358	80.12
266.591	76.12
266.823	92.12
267.055	84.12
267.287	90.12
267.52	76.12
267.752	67.12
267.984	84.12
268.216	84.12
268.448	76.12
268.681	84.12
268.913	65.12
269.145	80.12
269.377	71.12
269.609	87.12
269.841	103.12
270.073	77.12
270.306	82.12
270.538	84.12
270.77	66.12
271.002	75.12
271.234	83.12
271.466	97.12
271.698	74.12
271.93	71.12
272.162	74.12
272.394	77.12
272.626	86.12
272.858	88.12
273.09	80.12
273.322	84.12
273.553	88.12
273.785	87.12
274.017	84.12
274.249	70.12
274.481	84.12
274.713	87.12
274.945	87.12
275.176	109.12
275.408	92.12
275.64	91.12
275.872	88.12
276.104	91.12
276.335	85.12
276.567	111.12
276.799	91.12
277.031	93.12
277.262	95.12
277.494	79.12
277.726	77.12
277.957	82.12
278.189	92.12
278.421	90.12
278.652	89.12
278.884	80.12
279.115	80.12
279.347	85.12
279.579	84.12
279.81	97.12
280.042	82.12
280.273	91.12
280.505	89.12
280.736	81.12
280.968	84.12
281.199	82.12
281.431	95.12
281.662	99.12
281.894	85.12
282.125	79.12
282.356	124.12
282.588	136.12
282.819	106.12
283.051	79.12
283.282	79.12
283.513	89.12
283.745	96.12
283.976	88.12
284.207	74.12
284.439	90.12
284.67	73.12
284.901	86.12
285.132	81.12
285.364	82.12
285.595	88.12
285.826	72.12
286.057	90.12
286.288	76.12
286.52	89.12
286.751	86.12
286.982	65.12
287.213	93.12
287.444	82.12
287.675	96.12
287.906	96.12
288.138	81.12
288.369	87.12
288.6	84.12
288.831	92.12
289.062	82.12
289.293	87.12
289.524	88.12
289.755	91.12
289.986	77.12
290.217	99.12
290.448	85.12
290.679	88.12
290.91	87.12
291.141	90.12
291.371	75.12
291.602	89.12
291.833	78.12
292.064	77.12
292.295	86.12
292.526	88.12
292.757	102.12
292.987	85.12
293.218	88.12
293.449	81.12
293.68	96.12
293.91	91.12
294.141	87.12
294.372	82.12
294.603	81.12
294.833	81.12
295.064	71.12
295.295	84.12
295.525	94.12
295.756	95.12
295.987	122.12
296.217	131.12
296.448	130.12
296.679	84.12
296.909	95.12
297.14	82.12
297.37	79.12
297.601	93.12
297.831	91.12
298.062	91.12
298.292	88.12
298.523	90.12
298.753	75.12
298.984	77.12
299.214	89.12
299.445	78.12
299.675	92.12
299.905	86.12
300.136	89.12
300.366	90.12
300.597	81.12
300.827	101.12
301.057	109.12
301.288	110.12
301.518	95.12
301.748	103.12
301.979	100.12
302.209	84.12
302.439	101.12
302.669	85.12
302.9	88.12
303.13	89.12
303.36	81.12
303.59	92.12
303.82	111.12
304.051	95.12
304.281	84.12
304.511	83.12
304.741	70.12
304.971	96.12
305.201	92.12
305.431	83.12
305.661	97.12
305.891	108.12
306.121	91.12
306.352	105.12
306.582	85.12
306.812	98.12
307.042	91.12
307.272	94.12
307.502	84.12
307.731	86.12
307.961	91.12
308.191	90.12
308.421	82.12
308.651	84.12
308.881	66.12
309.111	80.12
309.341	83.12
309.571	94.12
309.8	117.12
310.03	89.12
310.26	97.12
310.49	95.12
310.72	100.12
310.949	86.12
311.179	113.12
311.409	93.12
311.639	85.12
311.868	90.12
312.098	98.12
312.328	96.12
312.557	91.12
312.787	93.12
313.017	98.12
313.246	105.12
313.476	86.12
313.706	89.12
313.935	85.12
314.165	95.12
314.394	95.12
314.624	84.12
314.853	93.12
315.083	88.12
315.312	102.12
315.542	89.12
315.771	102.12
316.001	76.12
316.23	89.12
316.46	94.12
316.689	90.12
316.919	111.12
317.148	106.12
317.377	95.12
317.607	85.12
317.836	78.12
318.065	85.12
318.295	87.12
318.524	88.12
318.753	81.12
318.983	95.12
319.212	102.12
319.441	97.12
319.67	104.12
319.9	105.12
320.129	92.12
320.358	77.12
320.587	82.12
320.816	89.12
321.046	104.12
321.275	100.12
321.504	88.12
321.733	100.12
321.962	88.12
322.191	92.12
322.42	101.12
322.649	111.12
322.878	107.12
323.108	107.12
323.337	124.12
323.566	138.12
323.795	160.12
324.024	213.12
324.253	422.12
324.482	846.12
324.71	1738.12
324.939	2266.12
325.168	839.12
325.397	234.12
325.626	159.12
325.855	121.12
326.084	117.12
326.313	133.12
326.542	147.12
326.77	230.12
326.999	488.12
327.228	965.12
327.457	1747.12
327.686	1395.12
327.914	376.12
328.143	191.12
328.372	141.12
328.6	137.12
328.829	110.12
329.058	127.12
329.287	124.12
329.515	98.12
329.744	95.12
329.972	110.12
330.201	103.12
330.43	128.12
330.658	115.12
330.887	135.12
331.115	131.12
331.344	108.12
331.572	88.12
331.801	93.12
332.03	104.12
332.258	103.12
332.486	90.12
332.715	107.12
332.943	92.12
333.172	89.12
333.4	109.12
333.629	104.12
333.857	109.12
334.085	117.12
334.314	99.12
334.542	106.12
334.771	111.12
334.999	87.12
335.227	99.12
335.455	100.12
335.684	93.12
335.912	84.12
336.14	91.12
336.369	103.12
336.597	92.12
336.825	102.12
337.053	86.12
337.281	86.12
337.51	94.12
337.738	88.12
337.966	95.12
338.194	98.12
338.422	98.12
338.65	103.12
338.878	96.12
339.106	97.12
339.334	98.12
339.562	100.12
339.79	105.12
340.018	102.12
340.246	82.12
340.474	89.12
340.702	98.12
340.93	87.12
341.158	95.12
341.386	84.12
341.614	91.12
341.842	93.12
342.07	102.12
342.298	96.12
342.526	86.12
342.754	94.12
342.981	83.12
343.209	94.12
343.437	99.12
343.665	100.12
343.893	84.12
344.12	85.12
344.348	87.12
344.576	102.12
344.804	105.12
345.031	93.12
345.259	99.12
345.487	81.12
345.714	98.12
345.942	92.12
346.17	93.12
346.397	104.12
346.625	104.12
346.853	87.12
347.08	100.12
347.308	111.12
347.535	97.12
347.763	86.12
347.99	91.12
348.218	106.12
348.445	106.12
348.673	91.12
348.9	92.12
349.128	88.12
349.355	82.12
349.583	100.12
349.81	86.12
350.037	83.12
350.265	83.12
350.492	93.12
350.72	89.12
350.947	104.12
351.174	108.12
351.402	105.12
351.629	94.12
351.856	97.12
352.083	98.12
352.311	100.12
352.538	112.12
352.765	100.12
352.992	121.12
353.22	111.12
353.447	111.12
353.674	115.12
353.901	97.12
354.128	101.12
354.355	96.12
354.583	91.12
354.81	95.12
355.037	114.12
355.264	79.12
355.491	98.12
355.718	82.12
355.945	91.12
356.172	86.12
356.399	96.12
356.626	111.12
356.853	83.12
357.08	83.12
357.307	84.12
357.534	101.12
357.761	93.12
357.988	103.12
358.215	90.12
358.441	101.12
358.668	106.12
358.895	95.12
359.122	81.12
359.349	97.12
359.576	98.12
359.802	112.12
360.029	106.12
360.256	107.12
360.483	111.12
360.709	92.12
360.936	92.12
361.163	74.12
361.39	92.12
361.616	99.12
361.843	86.12
362.07	97.12
362.296	100.12
362.523	102.12
362.749	100.12
362.976	92.12
363.203	99.12
363.429	92.12
363.656	103.12
363.882	95.12
364.109	95.12
364.335	96.12
364.562	92.12
364.788	87.12
365.015	85.12
365.241	85.12
365.468	106.12
365.694	108.12
365.92	95.12
366.147	89.12
366.373	98.12
366.599	77.12
366.826	82.12
367.052	77.12
367.278	92.12
367.505	78.12
367.731	87.12
367.957	96.12
368.184	93.12
368.41	97.12
368.636	118.12
368.862	126.12
369.089	102.12
369.315	83.12
369.541	88.12
369.767	81.12
369.993	90.12
370.219	87.12
370.445	87.12
370.672	79.12
370.898	87.12
371.124	91.12
371.35	92.12
371.576	89.12
371.802	85.12
372.028	69.12
372.254	85.12
372.48	93.12
372.706	90.12
372.932	91.12
373.158	92.12
373.384	81.12
373.61	86.12
373.835	81.12
374.061	89.12
374.287	83.12
374.513	111.12
374.739	90.12
374.965	100.12
375.191	96.12
375.416	92.12
375.642	98.12
375.868	81.12
376.094	88.12
376.319	111.12
376.545	87.12
376.771	89.12
376.997	99.12
377.222	79.12
377.448	84.12
377.674	99.12
377.899	88.12
378.125	102.12
378.35	100.12
378.576	104.12
378.802	98.12
379.027	100.12
379.253	102.12
379.478	101.12
379.704	94.12
379.929	102.12
380.155	97.12
380.38	93.12
380.606	107.12
380.831	109.12
381.057	100.12
381.282	95.12
381.507	95.12
381.733	101.12
381.958	107.12
382.184	101.12
382.409	113.12
382.634	99.12
382.86	101.12
383.085	105.12
383.31	107.12
383.535	108.12
383.761	116.12
383.986	129.12
384.211	112.12
384.436	116.12
384.662	117.12
384.887	138.12
385.112	134.12
385.337	133.12
385.562	117.12
385.787	106.12
386.013	130.12
386.238	117.12
386.463	125.12
386.688	125.12
386.913	142.12
387.138	140.12
387.363	131.12
387.588	102.12
387.813	107.12
388.038	128.12
388.263	136.12
388.488	140.12
388.713	95.12
388.938	93.12
389.163	92.12
389.387	100.12
389.612	97.12
389.837	93.12
390.062	102.12
390.287	79.12
390.512	80.12
390.736	99.12
390.961	85.12
391.186	92.12
391.411	92.12
391.636	97.12
391.86	91.12
392.085	81.12
392.31	84.12
392.534	90.12
392.759	90.12
392.984	79.12
393.208	89.12
393.433	105.12
393.658	96.12
393.882	102.12
394.107	80.12
394.331	89.12
394.556	77.12
394.78	84.12
395.005	93.12
395.229	90.12
395.454	79.12
395.678	104.12
395.903	95.12
396.127	88.12
396.352	80.12
396.576	73.12
396.801	95.12
397.025	95.12
397.249	90.12
397.474	87.12
397.698	77.12
397.922	100.12
398.147	86.12
398.371	89.12
398.595	93.12
398.82	86.12
399.044	77.12
399.268	94.12
399.492	89.12
399.717	85.12
399.941	75.12
400.165	94.12
400.389	100.12
400.613	95.12
400.837	83.12
401.062	89.12
401.286	77.12
401.51	94.12
401.734	104.12
401.958	106.12
402.182	122.12
402.406	152.12
402.63	119.12
402.854	87.12
403.078	92.12
403.302	86.12
403.526	99.12
403.75	83.12
403.974	74.12
404.198	76.12
404.422	86.12
404.645	73.12
404.869	83.12
405.093	94.12
405.317	115.12
405.541	102.12
405.765	98.12
405.988	112.12
406.212	163.12
406.436	217.12
406.66	148.12
406.883	85.12
407.107	102.12
407.331	89.12
407.555	87.12
407.778	79.12
408.002	81.12
408.226	87.12
408.449	89.12
408.673	92.12
408.896	100.12
409.12	91.12
409.344	80.12
409.567	85.12
409.791	92.12
410.014	95.12
410.238	94.12
410.461	92.12
410.685	105.12
410.908	96.12
411.132	94.12
411.355	100.12
411.578	91.12
411.802	85.12
412.025	84.12
412.249	83.12
412.472	87.12
412.695	92.12
412.919	74.12
413.142	93.12
413.365	89.12
413.589	84.12
413.812	88.12
414.035	99.12
414.258	86.12
414.482	91.12
414.705	100.12
414.928	94.12
415.151	66.12
415.374	100.12
415.597	84.12
415.821	97.12
416.044	92.12
416.267	99.12
416.49	87.12
416.713	86.12
416.936	88.12
417.159	87.12
417.382	96.12
417.605	89.12
417.828	94.12
418.051	84.12
418.274	99.12
418.497	80.12
418.72	82.12
418.943	101.12
419.166	90.12
419.389	88.12
419.611	78.12
419.834	82.12
420.057	91.12
420.28	85.12
420.503	87.12
420.726	84.12
420.948	90.12
421.171	95.12
421.394	102.12
421.617	87.12
421.839	101.12
422.062	90.12
422.285	90.12
422.507	85.12
422.73	116.12
422.953	82.12
423.175	93.12
423.398	84.12
423.621	86.12
423.843	101.12
424.066	86.12
424.288	73.12
424.511	86.12
424.733	88.12
424.956	89.12
425.178	94.12
425.401	81.12
425.623	84.12
425.846	74.12
426.068	92.12
426.291	100.12
426.513	96.12
426.735	72.12
426.958	92.12
427.18	107.12
427.402	131.12
427.625	156.12
427.847	127.12
428.069	97.12
428.292	68.12
428.514	95.12
428.736	75.12
428.958	94.12
429.181	98.12
429.403	77.12
429.625	73.12
429.847	89.12
430.069	90.12
430.292	97.12
430.514	84.12
430.736	75.12
430.958	87.12
431.18	82.12
431.402	92.12
431.624	78.12
431.846	89.12
432.068	104.12
432.29	89.12
432.512	94.12
432.734	91.12
432.956	97.12
433.178	104.12
433.4	86.12
433.622	92.12
433.844	92.12
434.066	84.12
434.287	96.12
434.509	98.12
434.731	82.12
434.953	81.12
435.175	77.12
435.397	95.12
435.618	98.12
435.84	103.12
436.062	113.12
436.284	102.12
436.505	94.12
436.727	98.12
436.949	98.12
437.17	97.12
437.392	81.12
437.614	89.12
437.835	99.12
438.057	114.12
438.278	89.12
438.5	102.12
438.721	112.12
438.943	89.12
439.165	87.12
439.386	98.12
439.608	88.12
439.829	103.12
440.05	118.12
440.272	136.12
440.493	95.12
440.715	85.12
440.936	83.12
441.158	81.12
441.379	104.12
441.6	93.12
441.822	103.12
442.043	98.12
442.264	101.12
442.486	94.12
442.707	91.12
442.928	106.12
443.149	135.12
443.371	108.12
443.592	92.12
443.813	107.12
444.034	104.12
444.255	82.12
444.476	97.12
444.698	72.12
444.919	89.12
445.14	131.12
445.361	121.12
445.582	107.12
445.803	116.12
446.024	119.12
446.245	136.12
446.466	99.12
446.687	81.12
446.908	103.12
447.129	85.12
447.35	83.12
447.571	87.12
447.792	98.12
448.013	92.12
448.234	104.12
448.455	93.12
448.675	98.12
448.896	100.12
449.117	95.12
449.338	88.12
449.559	127.12
449.779	133.12
450	92.12
450.221	88.12
450.442	72.12
450.662	85.12
450.883	97.12
451.104	108.12
451.324	97.12
451.545	77.12
451.766	84.12
451.986	77.12
452.207	84.12
452.428	91.12
452.648	88.12
452.869	103.12
453.089	115.12
453.31	103.12
453.53	87.12
453.751	100.12
453.971	98.12
454.192	103.12
454.412	87.12
454.633	92.12
454.853	84.12
455.073	96.12
455.294	84.12
455.514	106.12
455.734	89.12
455.955	88.12
456.175	89.12
456.395	91.12
456.616	81.12
456.836	88.12
457.056	83.12
457.276	75.12
457.497	87.12
457.717	76.12
457.937	100.12
458.157	95.12
458.377	84.12
458.598	95.12
458.818	139.12
459.038	156.12
459.258	118.12
459.478	90.12
459.698	84.12
459.918	80.12
460.138	76.12
460.358	77.12
460.578	64.12
460.798	92.12
461.018	81.12
461.238	81.12
461.458	95.12
461.678	87.12
461.898	83.12
462.118	104.12
462.338	96.12
462.558	91.12
462.777	76.12
462.997	79.12
463.217	81.12
463.437	87.12
463.657	86.12
463.876	101.12
464.096	87.12
464.316	95.12
464.536	102.12
464.755	81.12
464.975	104.12
465.195	167.12
465.414	148.12
465.634	112.12
465.854	80.12
466.073	92.12
466.293	97.12
466.512	81.12
466.732	92.12
466.951	97.12
467.171	92.12
467.391	100.12
467.61	102.12
467.829	107.12
468.049	96.12
468.268	85.12
468.488	87.12
468.707	75.12
468.927	88.12
469.146	86.12
469.365	101.12
469.585	96.12
469.804	90.12
470.023	91.12
470.243	94.12
470.462	92.12
470.681	101.12
470.901	83.12
471.12	88.12
471.339	82.12
471.558	88.12
471.777	92.12
471.997	85.12
472.216	104.12
472.435	115.12
472.654	91.12
472.873	65.12
473.092	92.12
473.311	77.12
473.53	83.12
473.749	83.12
473.968	111.12
474.187	91.12
474.406	85.12
474.625	97.12
474.844	85.12
475.063	91.12
475.282	95.12
475.501	77.12
475.72	71.12
475.939	88.12
476.158	82.12
476.377	90.12
476.596	100.12
476.814	97.12
477.033	108.12
477.252	99.12
477.471	88.12
477.69	101.12
477.908	80.12
478.127	92.12
478.346	89.12
478.564	85.12
478.783	92.12
479.002	82.12
479.22	82.12
479.439	90.12
479.658	79.12
479.876	85.12
480.095	88.12
480.313	95.12
480.532	91.12
480.751	91.12
480.969	89.12
481.188	160.12
481.406	125.12
481.624	80.12
481.843	88.12
482.061	85.12
482.28	98.12
482.498	81.12
482.717	90.12
482.935	100.12
483.153	103.12
483.372	83.12
483.59	103.12
483.808	104.12
484.027	105.12
484.245	98.12
484.463	91.12
484.681	105.12
484.9	106.12
485.118	97.12
485.336	87.12
485.554	99.12
485.772	92.12
485.99	127.12
486.209	107.12
486.427	107.12
486.645	113.12
486.863	113.12
487.081	102.12
487.299	95.12
487.517	99.12
487.735	94.12
487.953	95.12
488.171	89.12
488.389	103.12
488.607	99.12
488.825	92.12
489.043	76.12
489.261	73.12
489.479	87.12
489.696	70.12
489.914	87.12
490.132	99.12
490.35	103.12
490.568	77.12
490.786	89.12
491.003	82.12
491.221	89.12
491.439	98.12
491.657	83.12
491.874	86.12
492.092	97.12
492.31	90.12
492.527	91.12
492.745	83.12
492.963	96.12
493.18	83.12
493.398	92.12
493.615	91.12
493.833	86.12
494.05	100.12
494.268	83.12
494.485	92.12
494.703	98.12
494.92	109.12
495.138	90.12
495.355	81.12
495.573	96.12
495.79	89.12
496.008	95.12
496.225	76.12
496.442	74.12
496.66	91.12
496.877	98.12
497.094	85.12
497.312	92.12
497.529	83.12
497.746	99.12
497.963	84.12
498.181	92.12
498.398	82.12
498.615	104.12
498.832	89.12
499.049	86.12
499.267	107.12
499.484	91.12
499.701	95.12
499.918	80.12
500.135	92.12
500.352	91.12
500.569	83.12
500.786	91.12
501.003	93.12
501.22	93.12
501.437	94.12
501.654	95.12
501.871	107.12
502.088	95.12
502.305	92.12
502.522	90.12
502.739	96.12
502.956	91.12
503.172	95.12
503.389	106.12
503.606	101.12
503.823	96.12
504.04	79.12
504.256	87.12
504.473	75.12
504.69	81.12
504.907	96.12
505.123	81.12
505.34	85.12
505.557	107.12
505.773	94.12
505.99	70.12
506.207	89.12
506.423	104.12
506.64	84.12
506.856	91.12
507.073	90.12
507.289	90.12
507.506	94.12
507.722	107.12
507.939	99.12
508.155	101.12
508.372	94.12
508.588	90.12
508.805	102.12
509.021	87.12
509.238	100.12
509.454	93.12
509.67	88.12
509.887	116.12
510.103	129.12
510.319	229.12
510.536	748.12
510.752	2527.12
510.968	693.12
511.184	169.12
511.401	117.12
511.617	96.12
511.833	98.12
512.049	105.12
512.265	100.12
512.481	95.12
512.698	81.12
512.914	98.12
513.13	85.12
513.346	85.12
513.562	97.12
513.778	84.12
513.994	109.12
514.21	104.12
514.426	128.12
514.642	132.12
514.858	124.12
515.074	155.12
515.29	412.12
515.506	1431.12
