Data from Circ_2016_H10_HRD10591_00034.txt Node
Date: Wed Jan 03 09:58:47 EST 2024
User: Yrep
Spectrometer: HR+D1059
Trigger mode: 1
Integration Time (sec): 1.000000E-1
Scans to average: 1
Electric dark correction enabled: true
Nonlinearity correction enabled: false
Boxcar width: 0
XAxis mode: Wavelengths
Number of Pixels in Spectrum: 2048
>>>>>Begin Spectral Data<<<<<
223.165	-15.19
223.4	-15.19
223.635	-15.19
223.869	-31.19
224.104	-22.19
224.338	-12.19
224.573	-4.19
224.808	-4.19
225.042	-8.19
225.277	-5.19
225.511	-4.19
225.746	-2.19
225.98	10.81
226.215	1.81
226.449	10.81
226.683	19.81
226.918	27.81
227.152	37.81
227.387	33.81
227.621	45.81
227.856	47.81
228.09	45.81
228.324	40.81
228.559	56.81
228.793	53.81
229.027	72.81
229.262	78.81
229.496	83.81
229.73	84.81
229.964	83.81
230.199	75.81
230.433	79.81
230.667	80.81
230.901	87.81
231.136	83.81
231.37	73.81
231.604	89.81
231.838	79.81
232.072	84.81
232.306	75.81
232.541	74.81
232.775	76.81
233.009	83.81
233.243	83.81
233.477	74.81
233.711	89.81
233.945	83.81
234.179	78.81
234.413	80.81
234.647	64.81
234.881	91.81
235.115	82.81
235.349	86.81
235.583	87.81
235.817	78.81
236.051	89.81
236.285	77.81
236.519	72.81
236.753	74.81
236.987	72.81
237.221	88.81
237.455	94.81
237.689	79.81
237.922	87.81
238.156	72.81
238.39	81.81
238.624	79.81
238.858	78.81
239.091	78.81
239.325	77.81
239.559	95.81
239.793	85.81
240.027	74.81
240.26	69.81
240.494	92.81
240.728	71.81
240.961	83.81
241.195	77.81
241.429	85.81
241.662	76.81
241.896	75.81
242.13	73.81
242.363	85.81
242.597	62.81
242.83	72.81
243.064	83.81
243.298	81.81
243.531	75.81
243.765	91.81
243.998	69.81
244.232	66.81
244.465	64.81
244.699	78.81
244.932	71.81
245.166	73.81
245.399	82.81
245.633	79.81
245.866	78.81
246.099	86.81
246.333	81.81
246.566	86.81
246.8	78.81
247.033	76.81
247.266	80.81
247.5	73.81
247.733	83.81
247.966	84.81
248.2	82.81
248.433	65.81
248.666	84.81
248.899	77.81
249.133	87.81
249.366	90.81
249.599	119.81
249.832	85.81
250.066	83.81
250.299	90.81
250.532	97.81
250.765	92.81
250.998	83.81
251.231	89.81
251.465	70.81
251.698	79.81
251.931	82.81
252.164	73.81
252.397	86.81
252.63	83.81
252.863	59.81
253.096	79.81
253.329	79.81
253.562	86.81
253.795	94.81
254.028	89.81
254.261	82.81
254.494	78.81
254.727	70.81
254.96	86.81
255.193	86.81
255.426	89.81
255.659	67.81
255.892	82.81
256.124	81.81
256.357	98.81
256.59	88.81
256.823	85.81
257.056	83.81
257.289	85.81
257.521	88.81
257.754	83.81
257.987	78.81
258.22	85.81
258.452	76.81
258.685	73.81
258.918	89.81
259.151	82.81
259.383	89.81
259.616	90.81
259.849	75.81
260.081	78.81
260.314	76.81
260.547	76.81
260.779	87.81
261.012	81.81
261.244	91.81
261.477	74.81
261.71	85.81
261.942	131.81
262.175	129.81
262.407	105.81
262.64	63.81
262.872	91.81
263.105	84.81
263.337	91.81
263.57	81.81
263.802	88.81
264.035	82.81
264.267	90.81
264.499	85.81
264.732	94.81
264.964	92.81
265.197	85.81
265.429	75.81
265.661	87.81
265.894	88.81
266.126	85.81
266.358	79.81
266.591	83.81
266.823	73.81
267.055	83.81
267.287	81.81
267.52	89.81
267.752	72.81
267.984	90.81
268.216	80.81
268.448	74.81
268.681	80.81
268.913	80.81
269.145	88.81
269.377	85.81
269.609	85.81
269.841	85.81
270.073	91.81
270.306	87.81
270.538	79.81
270.77	86.81
271.002	83.81
271.234	85.81
271.466	87.81
271.698	97.81
271.93	88.81
272.162	89.81
272.394	98.81
272.626	80.81
272.858	97.81
273.09	97.81
273.322	93.81
273.553	77.81
273.785	105.81
274.017	94.81
274.249	89.81
274.481	83.81
274.713	88.81
274.945	75.81
275.176	85.81
275.408	91.81
275.64	86.81
275.872	82.81
276.104	76.81
276.335	90.81
276.567	101.81
276.799	117.81
277.031	106.81
277.262	79.81
277.494	85.81
277.726	84.81
277.957	86.81
278.189	83.81
278.421	71.81
278.652	82.81
278.884	81.81
279.115	60.81
279.347	95.81
279.579	79.81
279.81	84.81
280.042	82.81
280.273	77.81
280.505	103.81
280.736	88.81
280.968	91.81
281.199	85.81
281.431	87.81
281.662	85.81
281.894	90.81
282.125	105.81
282.356	139.81
282.588	164.81
282.819	139.81
283.051	88.81
283.282	107.81
283.513	99.81
283.745	94.81
283.976	86.81
284.207	74.81
284.439	87.81
284.67	92.81
284.901	73.81
285.132	94.81
285.364	91.81
285.595	86.81
285.826	85.81
286.057	86.81
286.288	78.81
286.52	98.81
286.751	87.81
286.982	95.81
287.213	78.81
287.444	85.81
287.675	78.81
287.906	87.81
288.138	97.81
288.369	91.81
288.6	84.81
288.831	85.81
289.062	98.81
289.293	101.81
289.524	86.81
289.755	84.81
289.986	69.81
290.217	95.81
290.448	78.81
290.679	73.81
290.91	99.81
291.141	91.81
291.371	77.81
291.602	89.81
291.833	99.81
292.064	102.81
292.295	95.81
292.526	95.81
292.757	100.81
292.987	97.81
293.218	92.81
293.449	93.81
293.68	93.81
293.91	88.81
294.141	91.81
294.372	83.81
294.603	90.81
294.833	99.81
295.064	100.81
295.295	94.81
295.525	94.81
295.756	108.81
295.987	142.81
296.217	161.81
296.448	149.81
296.679	105.81
296.909	102.81
297.14	97.81
297.37	85.81
297.601	83.81
297.831	82.81
298.062	66.81
298.292	76.81
298.523	100.81
298.753	90.81
298.984	94.81
299.214	90.81
299.445	99.81
299.675	84.81
299.905	84.81
300.136	107.81
300.366	98.81
300.597	80.81
300.827	101.81
301.057	111.81
301.288	102.81
301.518	99.81
301.748	87.81
301.979	117.81
302.209	99.81
302.439	90.81
302.669	93.81
302.9	106.81
303.13	100.81
303.36	96.81
303.59	110.81
303.82	100.81
304.051	85.81
304.281	81.81
304.511	102.81
304.741	89.81
304.971	89.81
305.201	90.81
305.431	92.81
305.661	89.81
305.891	101.81
306.121	90.81
306.352	115.81
306.582	101.81
306.812	97.81
307.042	84.81
307.272	94.81
307.502	108.81
307.731	100.81
307.961	103.81
308.191	87.81
308.421	104.81
308.651	92.81
308.881	106.81
309.111	90.81
309.341	106.81
309.571	126.81
309.8	100.81
310.03	106.81
310.26	109.81
310.49	102.81
310.72	110.81
310.949	114.81
311.179	107.81
311.409	101.81
311.639	95.81
311.868	87.81
312.098	106.81
312.328	111.81
312.557	117.81
312.787	126.81
313.017	101.81
313.246	93.81
313.476	84.81
313.706	103.81
313.935	102.81
314.165	91.81
314.394	108.81
314.624	87.81
314.853	106.81
315.083	113.81
315.312	87.81
315.542	87.81
315.771	93.81
316.001	91.81
316.23	88.81
316.46	99.81
316.689	82.81
316.919	93.81
317.148	107.81
317.377	106.81
317.607	103.81
317.836	92.81
318.065	87.81
318.295	96.81
318.524	98.81
318.753	93.81
318.983	86.81
319.212	108.81
319.441	100.81
319.67	124.81
319.9	96.81
320.129	91.81
320.358	109.81
320.587	102.81
320.816	107.81
321.046	100.81
321.275	113.81
321.504	92.81
321.733	98.81
321.962	105.81
322.191	114.81
322.42	118.81
322.649	126.81
322.878	110.81
323.108	136.81
323.337	146.81
323.566	157.81
323.795	163.81
324.024	243.81
324.253	536.81
324.482	1189.81
324.71	2477.81
324.939	3258.81
325.168	1183.81
325.397	323.81
325.626	182.81
325.855	153.81
326.084	151.81
326.313	148.81
326.542	189.81
326.77	294.81
326.999	600.81
327.228	1292.81
327.457	2445.81
327.686	1890.81
327.914	502.81
328.143	233.81
328.372	177.81
328.6	140.81
328.829	146.81
329.058	159.81
329.287	152.81
329.515	129.81
329.744	102.81
329.972	106.81
330.201	110.81
330.43	148.81
330.658	138.81
330.887	165.81
331.115	149.81
331.344	113.81
331.572	120.81
331.801	113.81
332.03	116.81
332.258	113.81
332.486	84.81
332.715	100.81
332.943	87.81
333.172	93.81
333.4	98.81
333.629	105.81
333.857	126.81
334.085	99.81
334.314	101.81
334.542	115.81
334.771	121.81
334.999	107.81
335.227	95.81
335.455	107.81
335.684	97.81
335.912	97.81
336.14	98.81
336.369	107.81
336.597	116.81
336.825	100.81
337.053	82.81
337.281	90.81
337.51	92.81
337.738	104.81
337.966	101.81
338.194	114.81
338.422	91.81
338.65	100.81
338.878	110.81
339.106	94.81
339.334	88.81
339.562	86.81
339.79	98.81
340.018	93.81
340.246	81.81
340.474	94.81
340.702	103.81
340.93	98.81
341.158	92.81
341.386	98.81
341.614	95.81
341.842	91.81
342.07	85.81
342.298	96.81
342.526	89.81
342.754	97.81
342.981	93.81
343.209	91.81
343.437	100.81
343.665	85.81
343.893	82.81
344.12	89.81
344.348	95.81
344.576	105.81
344.804	99.81
345.031	102.81
345.259	93.81
345.487	99.81
345.714	99.81
345.942	106.81
346.17	78.81
346.397	86.81
346.625	108.81
346.853	90.81
347.08	86.81
347.308	110.81
347.535	98.81
347.763	114.81
347.99	102.81
348.218	102.81
348.445	122.81
348.673	99.81
348.9	101.81
349.128	87.81
349.355	90.81
349.583	95.81
349.81	97.81
350.037	117.81
350.265	99.81
350.492	102.81
350.72	102.81
350.947	102.81
351.174	119.81
351.402	120.81
351.629	123.81
351.856	94.81
352.083	109.81
352.311	113.81
352.538	114.81
352.765	127.81
352.992	117.81
353.22	130.81
353.447	113.81
353.674	108.81
353.901	105.81
354.128	100.81
354.355	96.81
354.583	110.81
354.81	101.81
355.037	94.81
355.264	90.81
355.491	97.81
355.718	86.81
355.945	96.81
356.172	91.81
356.399	94.81
356.626	96.81
356.853	96.81
357.08	99.81
357.307	108.81
357.534	90.81
357.761	94.81
357.988	104.81
358.215	98.81
358.441	113.81
358.668	91.81
358.895	72.81
359.122	94.81
359.349	88.81
359.576	101.81
359.802	139.81
360.029	147.81
360.256	132.81
360.483	101.81
360.709	94.81
360.936	101.81
361.163	93.81
361.39	117.81
361.616	108.81
361.843	88.81
362.07	97.81
362.296	108.81
362.523	98.81
362.749	100.81
362.976	89.81
363.203	89.81
363.429	92.81
363.656	97.81
363.882	86.81
364.109	79.81
364.335	98.81
364.562	78.81
364.788	85.81
365.015	108.81
365.241	113.81
365.468	107.81
365.694	101.81
365.92	115.81
366.147	105.81
366.373	88.81
366.599	94.81
366.826	95.81
367.052	87.81
367.278	98.81
367.505	100.81
367.731	107.81
367.957	89.81
368.184	99.81
368.41	113.81
368.636	114.81
368.862	135.81
369.089	126.81
369.315	100.81
369.541	87.81
369.767	88.81
369.993	104.81
370.219	98.81
370.445	90.81
370.672	90.81
370.898	83.81
371.124	87.81
371.35	97.81
371.576	85.81
371.802	86.81
372.028	84.81
372.254	73.81
372.48	96.81
372.706	93.81
372.932	87.81
373.158	91.81
373.384	111.81
373.61	77.81
373.835	93.81
374.061	93.81
374.287	91.81
374.513	87.81
374.739	83.81
374.965	83.81
375.191	99.81
375.416	86.81
375.642	98.81
375.868	97.81
376.094	82.81
376.319	98.81
376.545	91.81
376.771	106.81
376.997	98.81
377.222	84.81
377.448	100.81
377.674	109.81
377.899	103.81
378.125	87.81
378.35	94.81
378.576	102.81
378.802	89.81
379.027	100.81
379.253	102.81
379.478	93.81
379.704	101.81
379.929	105.81
380.155	100.81
380.38	103.81
380.606	104.81
380.831	106.81
381.057	92.81
381.282	107.81
381.507	114.81
381.733	103.81
381.958	100.81
382.184	116.81
382.409	116.81
382.634	104.81
382.86	116.81
383.085	108.81
383.31	140.81
383.535	116.81
383.761	106.81
383.986	101.81
384.211	114.81
384.436	108.81
384.662	125.81
384.887	126.81
385.112	128.81
385.337	128.81
385.562	135.81
385.787	148.81
386.013	119.81
386.238	138.81
386.463	127.81
386.688	136.81
386.913	133.81
387.138	131.81
387.363	125.81
387.588	113.81
387.813	109.81
388.038	139.81
388.263	138.81
388.488	140.81
388.713	106.81
388.938	99.81
389.163	93.81
389.387	84.81
389.612	91.81
389.837	105.81
390.062	97.81
390.287	86.81
390.512	96.81
390.736	87.81
390.961	88.81
391.186	91.81
391.411	97.81
391.636	100.81
391.86	84.81
392.085	88.81
392.31	86.81
392.534	102.81
392.759	93.81
392.984	81.81
393.208	94.81
393.433	117.81
393.658	92.81
393.882	83.81
394.107	93.81
394.331	91.81
394.556	83.81
394.78	98.81
395.005	76.81
395.229	80.81
395.454	86.81
395.678	88.81
395.903	97.81
396.127	91.81
396.352	104.81
396.576	90.81
396.801	97.81
397.025	107.81
397.249	93.81
397.474	94.81
397.698	79.81
397.922	98.81
398.147	92.81
398.371	85.81
398.595	98.81
398.82	75.81
399.044	85.81
399.268	88.81
399.492	79.81
399.717	93.81
399.941	94.81
400.165	87.81
400.389	94.81
400.613	75.81
400.837	103.81
401.062	109.81
401.286	108.81
401.51	99.81
401.734	91.81
401.958	92.81
402.182	137.81
402.406	198.81
402.63	151.81
402.854	103.81
403.078	90.81
403.302	99.81
403.526	92.81
403.75	88.81
403.974	97.81
404.198	92.81
404.422	90.81
404.645	93.81
404.869	103.81
405.093	104.81
405.317	99.81
405.541	108.81
405.765	118.81
405.988	139.81
406.212	193.81
406.436	293.81
406.66	191.81
406.883	118.81
407.107	98.81
407.331	102.81
407.555	104.81
407.778	106.81
408.002	93.81
408.226	90.81
408.449	108.81
408.673	103.81
408.896	90.81
409.12	85.81
409.344	95.81
409.567	86.81
409.791	91.81
410.014	90.81
410.238	80.81
410.461	111.81
410.685	98.81
410.908	106.81
411.132	101.81
411.355	102.81
411.578	84.81
411.802	85.81
412.025	88.81
412.249	89.81
412.472	109.81
412.695	111.81
412.919	89.81
413.142	95.81
413.365	78.81
413.589	85.81
413.812	98.81
414.035	88.81
414.258	92.81
414.482	95.81
414.705	100.81
414.928	101.81
415.151	93.81
415.374	96.81
415.597	102.81
415.821	98.81
416.044	87.81
416.267	94.81
416.49	93.81
416.713	85.81
416.936	87.81
417.159	89.81
417.382	107.81
417.605	79.81
417.828	97.81
418.051	102.81
418.274	107.81
418.497	75.81
418.72	82.81
418.943	100.81
419.166	105.81
419.389	106.81
419.611	90.81
419.834	93.81
420.057	92.81
420.28	94.81
420.503	93.81
420.726	89.81
420.948	93.81
421.171	101.81
421.394	94.81
421.617	92.81
421.839	101.81
422.062	80.81
422.285	95.81
422.507	106.81
422.73	110.81
422.953	97.81
423.175	101.81
423.398	99.81
423.621	88.81
423.843	99.81
424.066	89.81
424.288	91.81
424.511	96.81
424.733	85.81
424.956	108.81
425.178	100.81
425.401	95.81
425.623	105.81
425.846	98.81
426.068	104.81
426.291	95.81
426.513	95.81
426.735	81.81
426.958	96.81
427.18	106.81
427.402	154.81
427.625	209.81
427.847	162.81
428.069	94.81
428.292	103.81
428.514	82.81
428.736	91.81
428.958	99.81
429.181	87.81
429.403	97.81
429.625	87.81
429.847	102.81
430.069	112.81
430.292	103.81
430.514	85.81
430.736	88.81
430.958	88.81
431.18	85.81
431.402	84.81
431.624	85.81
431.846	85.81
432.068	85.81
432.29	88.81
432.512	77.81
432.734	91.81
432.956	104.81
433.178	95.81
433.4	102.81
433.622	89.81
433.844	99.81
434.066	99.81
434.287	89.81
434.509	90.81
434.731	105.81
434.953	92.81
435.175	103.81
435.397	85.81
435.618	102.81
435.84	125.81
436.062	148.81
436.284	129.81
436.505	97.81
436.727	95.81
436.949	97.81
437.17	86.81
437.392	81.81
437.614	88.81
437.835	116.81
438.057	139.81
438.278	124.81
438.5	106.81
438.721	135.81
438.943	113.81
439.165	87.81
439.386	87.81
439.608	99.81
439.829	115.81
440.05	149.81
440.272	179.81
440.493	103.81
440.715	85.81
440.936	96.81
441.158	97.81
441.379	89.81
441.6	106.81
441.822	102.81
442.043	100.81
442.264	126.81
442.486	98.81
442.707	102.81
442.928	111.81
443.149	163.81
443.371	163.81
443.592	117.81
443.813	139.81
444.034	122.81
444.255	99.81
444.476	95.81
444.698	97.81
444.919	94.81
445.14	148.81
445.361	137.81
445.582	134.81
445.803	157.81
446.024	159.81
446.245	150.81
446.466	125.81
446.687	90.81
446.908	80.81
447.129	90.81
447.35	99.81
447.571	96.81
447.792	86.81
448.013	124.81
448.234	119.81
448.455	105.81
448.675	106.81
448.896	114.81
449.117	108.81
449.338	107.81
449.559	149.81
449.779	152.81
450	105.81
450.221	87.81
450.442	94.81
450.662	98.81
450.883	129.81
451.104	133.81
451.324	90.81
451.545	101.81
451.766	97.81
451.986	84.81
452.207	100.81
452.428	107.81
452.648	101.81
452.869	135.81
453.089	123.81
453.31	132.81
453.53	102.81
453.751	109.81
453.971	104.81
454.192	122.81
454.412	91.81
454.633	95.81
454.853	75.81
455.073	86.81
455.294	101.81
455.514	97.81
455.734	90.81
455.955	81.81
456.175	89.81
456.395	87.81
456.616	86.81
456.836	79.81
457.056	89.81
457.276	100.81
457.497	82.81
457.717	98.81
457.937	81.81
458.157	91.81
458.377	97.81
458.598	121.81
458.818	181.81
459.038	200.81
459.258	149.81
459.478	94.81
459.698	101.81
459.918	108.81
460.138	77.81
460.358	83.81
460.578	91.81
460.798	86.81
461.018	92.81
461.238	77.81
461.458	90.81
461.678	91.81
461.898	74.81
462.118	86.81
462.338	79.81
462.558	86.81
462.777	85.81
462.997	90.81
463.217	91.81
463.437	85.81
463.657	92.81
463.876	90.81
464.096	92.81
464.316	93.81
464.536	102.81
464.755	103.81
464.975	126.81
465.195	210.81
465.414	226.81
465.634	93.81
465.854	91.81
466.073	86.81
466.293	85.81
466.512	96.81
466.732	77.81
466.951	83.81
467.171	88.81
467.391	99.81
467.61	111.81
467.829	105.81
468.049	82.81
468.268	88.81
468.488	80.81
468.707	76.81
468.927	87.81
469.146	94.81
469.365	93.81
469.585	84.81
469.804	98.81
470.023	112.81
470.243	99.81
470.462	118.81
470.681	118.81
470.901	85.81
471.12	90.81
471.339	93.81
471.558	80.81
471.777	94.81
471.997	97.81
472.216	98.81
472.435	128.81
472.654	115.81
472.873	104.81
473.092	93.81
473.311	76.81
473.53	89.81
473.749	97.81
473.968	116.81
474.187	114.81
474.406	98.81
474.625	97.81
474.844	85.81
475.063	92.81
475.282	86.81
475.501	88.81
475.72	93.81
475.939	97.81
476.158	90.81
476.377	84.81
476.596	95.81
476.814	99.81
477.033	97.81
477.252	91.81
477.471	93.81
477.69	88.81
477.908	86.81
478.127	97.81
478.346	91.81
478.564	84.81
478.783	94.81
479.002	94.81
479.22	102.81
479.439	108.81
479.658	125.81
479.876	103.81
480.095	90.81
480.313	96.81
480.532	91.81
480.751	84.81
480.969	90.81
481.188	141.81
481.406	121.81
481.624	99.81
481.843	92.81
482.061	87.81
482.28	84.81
482.498	95.81
482.717	95.81
482.935	87.81
483.153	93.81
483.372	85.81
483.59	94.81
483.808	90.81
484.027	86.81
484.245	103.81
484.463	82.81
484.681	106.81
484.9	93.81
485.118	102.81
485.336	90.81
485.554	106.81
485.772	99.81
485.99	104.81
486.209	105.81
486.427	92.81
486.645	116.81
486.863	135.81
487.081	110.81
487.299	100.81
487.517	90.81
487.735	91.81
487.953	104.81
488.171	103.81
488.389	98.81
488.607	107.81
488.825	95.81
489.043	92.81
489.261	103.81
489.479	74.81
489.696	91.81
489.914	83.81
490.132	107.81
490.35	104.81
490.568	94.81
490.786	90.81
491.003	84.81
491.221	83.81
491.439	82.81
491.657	84.81
491.874	99.81
492.092	94.81
492.31	100.81
492.527	93.81
492.745	100.81
492.963	88.81
493.18	91.81
493.398	101.81
493.615	86.81
493.833	91.81
494.05	92.81
494.268	87.81
494.485	106.81
494.703	99.81
494.92	97.81
495.138	107.81
495.355	96.81
495.573	94.81
495.79	89.81
496.008	93.81
496.225	85.81
496.442	93.81
496.66	86.81
496.877	85.81
497.094	88.81
497.312	91.81
497.529	101.81
497.746	97.81
497.963	103.81
498.181	107.81
498.398	103.81
498.615	117.81
498.832	102.81
499.049	100.81
499.267	94.81
499.484	92.81
499.701	87.81
499.918	82.81
500.135	94.81
500.352	98.81
500.569	97.81
500.786	83.81
501.003	83.81
501.22	88.81
501.437	95.81
501.654	85.81
501.871	116.81
502.088	95.81
502.305	90.81
502.522	83.81
502.739	91.81
502.956	98.81
503.172	94.81
503.389	94.81
503.606	117.81
503.823	110.81
504.04	90.81
504.256	105.81
504.473	95.81
504.69	89.81
504.907	89.81
505.123	76.81
505.34	86.81
505.557	98.81
505.773	95.81
505.99	88.81
506.207	101.81
506.423	91.81
506.64	90.81
506.856	94.81
507.073	90.81
507.289	99.81
507.506	100.81
507.722	132.81
507.939	108.81
508.155	103.81
508.372	89.81
508.588	100.81
508.805	104.81
509.021	106.81
509.238	108.81
509.454	111.81
509.67	101.81
509.887	107.81
510.103	155.81
510.319	236.81
510.536	949.81
510.752	3287.81
510.968	921.81
511.184	182.81
511.401	125.81
511.617	91.81
511.833	97.81
512.049	95.81
512.265	98.81
512.481	77.81
512.698	98.81
512.914	91.81
513.13	103.81
513.346	107.81
513.562	105.81
513.778	105.81
