Data from Circ_2016_H10_HRD10591_00056.txt Node
Date: Wed Jan 03 09:58:51 EST 2024
User: Yrep
Spectrometer: HR+D1059
Trigger mode: 1
Integration Time (sec): 1.000000E-1
Scans to average: 1
Electric dark correction enabled: true
Nonlinearity correction enabled: false
Boxcar width: 0
XAxis mode: Wavelengths
Number of Pixels in Spectrum: 2048
>>>>>Begin Spectral Data<<<<<
223.165	-31.12
223.4	-31.12
223.635	-31.12
223.869	-23.12
224.104	-27.12
224.338	-5.12
224.573	-8.12
224.808	-6.12
225.042	-13.12
225.277	-10.12
225.511	-4.12
225.746	12.88
225.98	8.88
226.215	13.88
226.449	23.88
226.683	13.88
226.918	22.88
227.152	31.88
227.387	36.88
227.621	42.88
227.856	37.88
228.09	28.88
228.324	53.88
228.559	51.88
228.793	49.88
229.027	56.88
229.262	68.88
229.496	72.88
229.73	78.88
229.964	86.88
230.199	73.88
230.433	76.88
230.667	77.88
230.901	74.88
231.136	67.88
231.37	86.88
231.604	68.88
231.838	74.88
232.072	77.88
232.306	89.88
232.541	89.88
232.775	73.88
233.009	81.88
233.243	82.88
233.477	78.88
233.711	72.88
233.945	82.88
234.179	85.88
234.413	90.88
234.647	78.88
234.881	75.88
235.115	67.88
235.349	82.88
235.583	87.88
235.817	77.88
236.051	73.88
236.285	77.88
236.519	70.88
236.753	75.88
236.987	71.88
237.221	83.88
237.455	75.88
237.689	83.88
237.922	74.88
238.156	67.88
238.39	73.88
238.624	72.88
238.858	79.88
239.091	79.88
239.325	69.88
239.559	70.88
239.793	81.88
240.027	76.88
240.26	77.88
240.494	78.88
240.728	73.88
240.961	73.88
241.195	85.88
241.429	71.88
241.662	63.88
241.896	79.88
242.13	69.88
242.363	73.88
242.597	63.88
242.83	79.88
243.064	71.88
243.298	73.88
243.531	63.88
243.765	73.88
243.998	70.88
244.232	81.88
244.465	95.88
244.699	71.88
244.932	76.88
245.166	79.88
245.399	84.88
245.633	86.88
245.866	85.88
246.099	86.88
246.333	73.88
246.566	76.88
246.8	69.88
247.033	83.88
247.266	68.88
247.5	81.88
247.733	81.88
247.966	80.88
248.2	68.88
248.433	70.88
248.666	61.88
248.899	73.88
249.133	91.88
249.366	84.88
249.599	84.88
249.832	87.88
250.066	82.88
250.299	67.88
250.532	84.88
250.765	63.88
250.998	76.88
251.231	81.88
251.465	90.88
251.698	75.88
251.931	75.88
252.164	75.88
252.397	73.88
252.63	74.88
252.863	77.88
253.096	75.88
253.329	73.88
253.562	86.88
253.795	73.88
254.028	75.88
254.261	84.88
254.494	100.88
254.727	71.88
254.96	85.88
255.193	68.88
255.426	84.88
255.659	77.88
255.892	74.88
256.124	78.88
256.357	85.88
256.59	93.88
256.823	69.88
257.056	74.88
257.289	68.88
257.521	81.88
257.754	70.88
257.987	72.88
258.22	78.88
258.452	82.88
258.685	90.88
258.918	79.88
259.151	74.88
259.383	88.88
259.616	67.88
259.849	81.88
260.081	61.88
260.314	73.88
260.547	60.88
260.779	66.88
261.012	81.88
261.244	88.88
261.477	68.88
261.71	79.88
261.942	81.88
262.175	116.88
262.407	87.88
262.64	63.88
262.872	61.88
263.105	75.88
263.337	90.88
263.57	87.88
263.802	84.88
264.035	63.88
264.267	88.88
264.499	71.88
264.732	72.88
264.964	89.88
265.197	80.88
265.429	89.88
265.661	69.88
265.894	82.88
266.126	84.88
266.358	91.88
266.591	67.88
266.823	72.88
267.055	80.88
267.287	87.88
267.52	70.88
267.752	89.88
267.984	86.88
268.216	84.88
268.448	70.88
268.681	91.88
268.913	75.88
269.145	90.88
269.377	89.88
269.609	72.88
269.841	74.88
270.073	94.88
270.306	79.88
270.538	75.88
270.77	76.88
271.002	71.88
271.234	87.88
271.466	82.88
271.698	87.88
271.93	80.88
272.162	86.88
272.394	85.88
272.626	81.88
272.858	85.88
273.09	67.88
273.322	86.88
273.553	87.88
273.785	72.88
274.017	80.88
274.249	75.88
274.481	81.88
274.713	82.88
274.945	81.88
275.176	97.88
275.408	70.88
275.64	91.88
275.872	89.88
276.104	81.88
276.335	100.88
276.567	97.88
276.799	102.88
277.031	91.88
277.262	79.88
277.494	92.88
277.726	88.88
277.957	90.88
278.189	80.88
278.421	82.88
278.652	86.88
278.884	82.88
279.115	83.88
279.347	81.88
279.579	81.88
279.81	84.88
280.042	88.88
280.273	93.88
280.505	88.88
280.736	85.88
280.968	87.88
281.199	84.88
281.431	81.88
281.662	89.88
281.894	92.88
282.125	91.88
282.356	96.88
282.588	115.88
282.819	113.88
283.051	97.88
283.282	94.88
283.513	89.88
283.745	89.88
283.976	87.88
284.207	82.88
284.439	79.88
284.67	87.88
284.901	79.88
285.132	91.88
285.364	82.88
285.595	80.88
285.826	84.88
286.057	89.88
286.288	73.88
286.52	87.88
286.751	82.88
286.982	79.88
287.213	79.88
287.444	88.88
287.675	83.88
287.906	101.88
288.138	92.88
288.369	90.88
288.6	91.88
288.831	105.88
289.062	95.88
289.293	71.88
289.524	72.88
289.755	73.88
289.986	80.88
290.217	78.88
290.448	83.88
290.679	89.88
290.91	84.88
291.141	73.88
291.371	86.88
291.602	85.88
291.833	78.88
292.064	81.88
292.295	90.88
292.526	90.88
292.757	83.88
292.987	77.88
293.218	79.88
293.449	92.88
293.68	80.88
293.91	83.88
294.141	82.88
294.372	94.88
294.603	98.88
294.833	84.88
295.064	91.88
295.295	91.88
295.525	85.88
295.756	113.88
295.987	121.88
296.217	141.88
296.448	122.88
296.679	83.88
296.909	77.88
297.14	97.88
297.37	84.88
297.601	81.88
297.831	70.88
298.062	81.88
298.292	80.88
298.523	91.88
298.753	76.88
298.984	85.88
299.214	74.88
299.445	75.88
299.675	77.88
299.905	89.88
300.136	73.88
300.366	74.88
300.597	85.88
300.827	85.88
301.057	86.88
301.288	93.88
301.518	86.88
301.748	83.88
301.979	101.88
302.209	106.88
302.439	99.88
302.669	83.88
302.9	83.88
303.13	100.88
303.36	85.88
303.59	88.88
303.82	94.88
304.051	93.88
304.281	85.88
304.511	81.88
304.741	70.88
304.971	73.88
305.201	78.88
305.431	75.88
305.661	91.88
305.891	99.88
306.121	85.88
306.352	98.88
306.582	102.88
306.812	77.88
307.042	89.88
307.272	102.88
307.502	90.88
307.731	89.88
307.961	79.88
308.191	86.88
308.421	91.88
308.651	83.88
308.881	90.88
309.111	82.88
309.341	76.88
309.571	94.88
309.8	98.88
310.03	107.88
310.26	93.88
310.49	75.88
310.72	98.88
310.949	96.88
311.179	94.88
311.409	84.88
311.639	76.88
311.868	75.88
312.098	79.88
312.328	61.88
312.557	93.88
312.787	92.88
313.017	88.88
313.246	96.88
313.476	85.88
313.706	95.88
313.935	93.88
314.165	86.88
314.394	93.88
314.624	97.88
314.853	84.88
315.083	74.88
315.312	83.88
315.542	84.88
315.771	85.88
316.001	95.88
316.23	104.88
316.46	93.88
316.689	80.88
316.919	97.88
317.148	83.88
317.377	93.88
317.607	86.88
317.836	83.88
318.065	73.88
318.295	88.88
318.524	80.88
318.753	90.88
318.983	83.88
319.212	95.88
319.441	98.88
319.67	114.88
319.9	89.88
320.129	91.88
320.358	89.88
320.587	89.88
320.816	85.88
321.046	102.88
321.275	88.88
321.504	80.88
321.733	90.88
321.962	87.88
322.191	84.88
322.42	86.88
322.649	98.88
322.878	110.88
323.108	122.88
323.337	126.88
323.566	133.88
323.795	137.88
324.024	187.88
324.253	370.88
324.482	769.88
324.71	1562.88
324.939	2061.88
325.168	793.88
325.397	224.88
325.626	144.88
325.855	131.88
326.084	121.88
326.313	122.88
326.542	142.88
326.77	219.88
326.999	434.88
327.228	899.88
327.457	1623.88
327.686	1255.88
327.914	331.88
328.143	181.88
328.372	150.88
328.6	112.88
328.829	99.88
329.058	119.88
329.287	101.88
329.515	102.88
329.744	117.88
329.972	106.88
330.201	124.88
330.43	126.88
330.658	112.88
330.887	126.88
331.115	113.88
331.344	100.88
331.572	90.88
331.801	94.88
332.03	75.88
332.258	89.88
332.486	89.88
332.715	87.88
332.943	104.88
333.172	88.88
333.4	97.88
333.629	111.88
333.857	107.88
334.085	109.88
334.314	106.88
334.542	129.88
334.771	148.88
334.999	108.88
335.227	98.88
335.455	86.88
335.684	85.88
335.912	83.88
336.14	94.88
336.369	96.88
336.597	78.88
336.825	86.88
337.053	80.88
337.281	87.88
337.51	86.88
337.738	92.88
337.966	94.88
338.194	79.88
338.422	107.88
338.65	78.88
338.878	88.88
339.106	82.88
339.334	88.88
339.562	82.88
339.79	87.88
340.018	90.88
340.246	91.88
340.474	83.88
340.702	88.88
340.93	98.88
341.158	95.88
341.386	90.88
341.614	89.88
341.842	75.88
342.07	82.88
342.298	86.88
342.526	82.88
342.754	93.88
342.981	97.88
343.209	83.88
343.437	91.88
343.665	84.88
343.893	73.88
344.12	87.88
344.348	85.88
344.576	86.88
344.804	88.88
345.031	88.88
345.259	102.88
345.487	91.88
345.714	86.88
345.942	77.88
346.17	75.88
346.397	79.88
346.625	89.88
346.853	90.88
347.08	85.88
347.308	94.88
347.535	91.88
347.763	88.88
347.99	84.88
348.218	91.88
348.445	89.88
348.673	90.88
348.9	79.88
349.128	89.88
349.355	101.88
349.583	97.88
349.81	109.88
350.037	88.88
350.265	88.88
350.492	78.88
350.72	87.88
350.947	90.88
351.174	115.88
351.402	109.88
351.629	102.88
351.856	91.88
352.083	95.88
352.311	102.88
352.538	84.88
352.765	104.88
352.992	118.88
353.22	93.88
353.447	101.88
353.674	112.88
353.901	80.88
354.128	93.88
354.355	106.88
354.583	92.88
354.81	92.88
355.037	87.88
355.264	90.88
355.491	86.88
355.718	105.88
355.945	95.88
356.172	93.88
356.399	99.88
356.626	91.88
356.853	87.88
357.08	96.88
357.307	88.88
357.534	94.88
357.761	83.88
357.988	96.88
358.215	85.88
358.441	101.88
358.668	109.88
358.895	83.88
359.122	93.88
359.349	86.88
359.576	89.88
359.802	90.88
360.029	107.88
360.256	102.88
360.483	96.88
360.709	76.88
360.936	78.88
361.163	98.88
361.39	94.88
361.616	78.88
361.843	84.88
362.07	90.88
362.296	96.88
362.523	96.88
362.749	70.88
362.976	83.88
363.203	81.88
363.429	88.88
363.656	91.88
363.882	101.88
364.109	86.88
364.335	88.88
364.562	87.88
364.788	90.88
365.015	83.88
365.241	79.88
365.468	85.88
365.694	97.88
365.92	87.88
366.147	85.88
366.373	70.88
366.599	86.88
366.826	82.88
367.052	66.88
367.278	96.88
367.505	85.88
367.731	88.88
367.957	79.88
368.184	88.88
368.41	93.88
368.636	103.88
368.862	117.88
369.089	106.88
369.315	101.88
369.541	93.88
369.767	77.88
369.993	90.88
370.219	83.88
370.445	91.88
370.672	104.88
370.898	74.88
371.124	71.88
371.35	89.88
371.576	84.88
371.802	93.88
372.028	84.88
372.254	82.88
372.48	84.88
372.706	85.88
372.932	79.88
373.158	73.88
373.384	107.88
373.61	87.88
373.835	94.88
374.061	90.88
374.287	94.88
374.513	86.88
374.739	86.88
374.965	80.88
375.191	100.88
375.416	87.88
375.642	87.88
375.868	89.88
376.094	102.88
376.319	90.88
376.545	93.88
376.771	81.88
376.997	84.88
377.222	79.88
377.448	91.88
377.674	91.88
377.899	86.88
378.125	91.88
378.35	99.88
378.576	96.88
378.802	79.88
379.027	97.88
379.253	102.88
379.478	92.88
379.704	78.88
379.929	93.88
380.155	92.88
380.38	104.88
380.606	86.88
380.831	102.88
381.057	104.88
381.282	83.88
381.507	83.88
381.733	94.88
381.958	90.88
382.184	97.88
382.409	99.88
382.634	101.88
382.86	86.88
383.085	102.88
383.31	100.88
383.535	84.88
383.761	99.88
383.986	111.88
384.211	106.88
384.436	76.88
384.662	89.88
384.887	109.88
385.112	119.88
385.337	93.88
385.562	118.88
385.787	120.88
386.013	103.88
386.238	117.88
386.463	111.88
386.688	89.88
386.913	120.88
387.138	127.88
387.363	104.88
387.588	98.88
387.813	107.88
388.038	103.88
388.263	115.88
388.488	122.88
388.713	83.88
388.938	107.88
389.163	93.88
389.387	91.88
389.612	80.88
389.837	94.88
390.062	98.88
390.287	83.88
390.512	85.88
390.736	87.88
390.961	90.88
391.186	104.88
391.411	93.88
391.636	80.88
391.86	85.88
392.085	84.88
392.31	81.88
392.534	89.88
392.759	90.88
392.984	83.88
393.208	100.88
393.433	96.88
393.658	101.88
393.882	83.88
394.107	88.88
394.331	93.88
394.556	89.88
394.78	85.88
395.005	81.88
395.229	85.88
395.454	81.88
395.678	79.88
395.903	70.88
396.127	89.88
396.352	80.88
396.576	98.88
396.801	93.88
397.025	92.88
397.249	103.88
397.474	87.88
397.698	96.88
397.922	76.88
398.147	82.88
398.371	85.88
398.595	86.88
398.82	76.88
399.044	79.88
399.268	72.88
399.492	89.88
399.717	105.88
399.941	87.88
400.165	85.88
400.389	102.88
400.613	81.88
400.837	83.88
401.062	88.88
401.286	86.88
401.51	94.88
401.734	81.88
401.958	82.88
402.182	114.88
402.406	152.88
402.63	106.88
402.854	94.88
403.078	105.88
403.302	84.88
403.526	84.88
403.75	86.88
403.974	79.88
404.198	80.88
404.422	94.88
404.645	94.88
404.869	81.88
405.093	91.88
405.317	86.88
405.541	100.88
405.765	82.88
405.988	112.88
406.212	153.88
406.436	192.88
406.66	131.88
406.883	90.88
407.107	81.88
407.331	89.88
407.555	109.88
407.778	104.88
408.002	94.88
408.226	94.88
408.449	97.88
408.673	82.88
408.896	105.88
409.12	74.88
409.344	91.88
409.567	95.88
409.791	77.88
410.014	89.88
410.238	97.88
410.461	85.88
410.685	90.88
410.908	95.88
411.132	93.88
411.355	81.88
411.578	82.88
411.802	90.88
412.025	91.88
412.249	83.88
412.472	93.88
412.695	81.88
412.919	79.88
413.142	85.88
413.365	75.88
413.589	90.88
413.812	79.88
414.035	86.88
414.258	87.88
414.482	89.88
414.705	89.88
414.928	90.88
415.151	88.88
415.374	78.88
415.597	96.88
415.821	94.88
416.044	90.88
416.267	97.88
416.49	89.88
416.713	81.88
416.936	79.88
417.159	77.88
417.382	88.88
417.605	88.88
417.828	95.88
418.051	100.88
418.274	75.88
418.497	89.88
418.72	86.88
418.943	81.88
419.166	81.88
419.389	93.88
419.611	85.88
419.834	77.88
420.057	94.88
420.28	84.88
420.503	86.88
420.726	88.88
420.948	81.88
421.171	92.88
421.394	83.88
421.617	96.88
421.839	93.88
422.062	92.88
422.285	87.88
422.507	100.88
422.73	98.88
422.953	90.88
423.175	98.88
423.398	91.88
423.621	78.88
423.843	72.88
424.066	81.88
424.288	90.88
424.511	93.88
424.733	75.88
424.956	104.88
425.178	80.88
425.401	97.88
425.623	105.88
425.846	83.88
426.068	88.88
426.291	79.88
426.513	88.88
426.735	75.88
426.958	88.88
427.18	104.88
427.402	130.88
427.625	154.88
427.847	118.88
428.069	102.88
428.292	80.88
428.514	78.88
428.736	94.88
428.958	83.88
429.181	74.88
429.403	75.88
429.625	82.88
429.847	94.88
430.069	86.88
430.292	86.88
430.514	81.88
430.736	91.88
430.958	69.88
431.18	72.88
431.402	94.88
431.624	91.88
431.846	80.88
432.068	90.88
432.29	84.88
432.512	93.88
432.734	87.88
432.956	84.88
433.178	98.88
433.4	97.88
433.622	81.88
433.844	63.88
434.066	96.88
434.287	82.88
434.509	90.88
434.731	85.88
434.953	85.88
435.175	81.88
435.397	98.88
435.618	94.88
435.84	88.88
436.062	121.88
436.284	90.88
436.505	81.88
436.727	104.88
436.949	92.88
437.17	91.88
437.392	88.88
437.614	91.88
437.835	83.88
438.057	84.88
438.278	112.88
438.5	104.88
438.721	110.88
438.943	92.88
439.165	86.88
439.386	85.88
439.608	96.88
439.829	87.88
440.05	104.88
440.272	128.88
440.493	87.88
440.715	74.88
440.936	80.88
441.158	78.88
441.379	86.88
441.6	101.88
441.822	80.88
442.043	78.88
442.264	93.88
442.486	99.88
442.707	97.88
442.928	78.88
443.149	122.88
443.371	130.88
443.592	100.88
443.813	118.88
444.034	104.88
444.255	82.88
444.476	88.88
444.698	79.88
444.919	86.88
445.14	128.88
445.361	129.88
445.582	112.88
445.803	122.88
446.024	128.88
446.245	114.88
446.466	98.88
446.687	78.88
446.908	77.88
447.129	78.88
447.35	85.88
447.571	98.88
447.792	88.88
448.013	88.88
448.234	101.88
448.455	87.88
448.675	118.88
448.896	106.88
449.117	94.88
449.338	112.88
449.559	105.88
449.779	114.88
450	93.88
450.221	80.88
450.442	89.88
450.662	88.88
450.883	109.88
451.104	91.88
451.324	89.88
451.545	81.88
451.766	89.88
451.986	83.88
452.207	78.88
452.428	86.88
452.648	105.88
452.869	104.88
453.089	111.88
453.31	114.88
453.53	105.88
453.751	100.88
453.971	93.88
454.192	109.88
454.412	93.88
454.633	85.88
454.853	73.88
455.073	68.88
455.294	80.88
455.514	90.88
455.734	87.88
455.955	83.88
456.175	95.88
456.395	86.88
456.616	93.88
456.836	93.88
457.056	85.88
457.276	83.88
457.497	82.88
457.717	75.88
457.937	89.88
458.157	71.88
458.377	80.88
458.598	97.88
458.818	129.88
459.038	131.88
459.258	101.88
459.478	80.88
459.698	69.88
459.918	77.88
460.138	85.88
460.358	67.88
460.578	71.88
460.798	83.88
461.018	76.88
461.238	81.88
461.458	75.88
461.678	84.88
461.898	99.88
462.118	84.88
462.338	74.88
462.558	74.88
462.777	78.88
462.997	95.88
463.217	99.88
463.437	78.88
463.657	83.88
463.876	93.88
464.096	99.88
464.316	88.88
464.536	106.88
464.755	99.88
464.975	117.88
465.195	138.88
465.414	132.88
465.634	88.88
465.854	75.88
466.073	87.88
466.293	83.88
466.512	97.88
466.732	77.88
466.951	96.88
467.171	96.88
467.391	86.88
467.61	96.88
467.829	89.88
468.049	91.88
468.268	101.88
468.488	97.88
468.707	84.88
468.927	81.88
469.146	85.88
469.365	80.88
469.585	91.88
469.804	84.88
470.023	71.88
470.243	89.88
470.462	80.88
470.681	98.88
470.901	94.88
471.12	86.88
471.339	87.88
471.558	90.88
471.777	73.88
471.997	91.88
472.216	118.88
472.435	157.88
472.654	97.88
472.873	85.88
473.092	88.88
473.311	75.88
473.53	89.88
473.749	101.88
473.968	79.88
474.187	95.88
474.406	98.88
474.625	93.88
474.844	72.88
475.063	67.88
475.282	96.88
475.501	77.88
475.72	91.88
475.939	73.88
476.158	73.88
476.377	91.88
476.596	82.88
476.814	74.88
477.033	98.88
477.252	97.88
477.471	88.88
477.69	89.88
477.908	80.88
478.127	76.88
478.346	90.88
478.564	97.88
478.783	93.88
479.002	93.88
479.22	84.88
479.439	74.88
479.658	98.88
479.876	102.88
480.095	80.88
480.313	92.88
480.532	92.88
480.751	103.88
480.969	125.88
481.188	213.88
481.406	151.88
481.624	81.88
481.843	74.88
482.061	79.88
482.28	65.88
482.498	100.88
482.717	85.88
482.935	78.88
483.153	94.88
483.372	79.88
483.59	87.88
483.808	96.88
484.027	90.88
484.245	95.88
484.463	100.88
484.681	110.88
484.9	88.88
485.118	93.88
485.336	91.88
485.554	100.88
485.772	91.88
485.99	96.88
486.209	102.88
486.427	118.88
486.645	114.88
486.863	106.88
487.081	114.88
487.299	92.88
487.517	79.88
487.735	98.88
487.953	89.88
488.171	77.88
488.389	85.88
488.607	103.88
488.825	89.88
489.043	86.88
489.261	86.88
489.479	90.88
489.696	90.88
489.914	82.88
490.132	73.88
490.35	86.88
490.568	80.88
490.786	70.88
491.003	78.88
491.221	86.88
491.439	79.88
491.657	88.88
491.874	90.88
492.092	84.88
492.31	80.88
492.527	93.88
492.745	83.88
492.963	88.88
493.18	82.88
493.398	84.88
493.615	107.88
493.833	82.88
494.05	77.88
494.268	91.88
494.485	78.88
494.703	85.88
494.92	81.88
495.138	90.88
495.355	73.88
495.573	79.88
495.79	89.88
496.008	94.88
496.225	88.88
496.442	74.88
496.66	107.88
496.877	69.88
497.094	84.88
497.312	80.88
497.529	95.88
497.746	97.88
497.963	96.88
498.181	70.88
498.398	74.88
498.615	106.88
498.832	113.88
499.049	92.88
499.267	112.88
499.484	79.88
499.701	91.88
499.918	83.88
500.135	78.88
500.352	107.88
500.569	86.88
500.786	90.88
501.003	75.88
501.22	87.88
501.437	90.88
501.654	76.88
501.871	104.88
502.088	74.88
502.305	86.88
502.522	75.88
502.739	96.88
502.956	92.88
503.172	88.88
503.389	89.88
503.606	89.88
503.823	101.88
504.04	80.88
504.256	105.88
504.473	93.88
504.69	87.88
504.907	89.88
505.123	88.88
505.34	90.88
505.557	90.88
505.773	86.88
505.99	87.88
506.207	85.88
506.423	76.88
506.64	80.88
506.856	62.88
507.073	83.88
507.289	84.88
507.506	88.88
507.722	108.88
507.939	96.88
508.155	96.88
508.372	85.88
508.588	85.88
508.805	85.88
509.021	97.88
509.238	105.88
509.454	87.88
509.67	111.88
509.887	106.88
510.103	124.88
510.319	177.88
510.536	696.88
510.752	2310.88
510.968	659.88
511.184	155.88
511.401	100.88
511.617	91.88
511.833	89.88
512.049	89.88
512.265	98.88
512.481	85.88
512.698	87.88
512.914	86.88
513.13	98.88
513.346	75.88
513.562	102.88
513.778	99.88
513.994	99.88
514.21	103.88
514.426	95.88
514.642	109.88
514.858	131.88
515.074	148.88
515.29	374.88
515.506	1280.88
515.721	513.88
515.937	135.88
516.153	93.88
516.369	94.88
516.585	86.88
516.801	98.88
