Data from Circ_2016_H10_HRD10591_00047.txt Node
Date: Wed Jan 03 09:58:50 EST 2024
User: Yrep
Spectrometer: HR+D1059
Trigger mode: 1
Integration Time (sec): 1.000000E-1
Scans to average: 1
Electric dark correction enabled: true
Nonlinearity correction enabled: false
Boxcar width: 0
XAxis mode: Wavelengths
Number of Pixels in Spectrum: 2048
>>>>>Begin Spectral Data<<<<<
223.165	-9.06
223.4	-9.06
223.635	-9.06
223.869	-15.06
224.104	-36.06
224.338	-21.06
224.573	-7.06
224.808	-9.06
225.042	-19.06
225.277	-9.06
225.511	-3.06
225.746	1.94
225.98	17.94
226.215	10.94
226.449	4.94
226.683	22.94
226.918	33.94
227.152	35.94
227.387	39.94
227.621	37.94
227.856	37.94
228.09	53.94
228.324	53.94
228.559	55.94
228.793	52.94
229.027	55.94
229.262	64.94
229.496	70.94
229.73	86.94
229.964	86.94
230.199	77.94
230.433	82.94
230.667	78.94
230.901	68.94
231.136	69.94
231.37	70.94
231.604	82.94
231.838	97.94
232.072	77.94
232.306	73.94
232.541	81.94
232.775	82.94
233.009	91.94
233.243	90.94
233.477	87.94
233.711	92.94
233.945	77.94
234.179	88.94
234.413	77.94
234.647	82.94
234.881	75.94
235.115	86.94
235.349	86.94
235.583	89.94
235.817	81.94
236.051	86.94
236.285	82.94
236.519	93.94
236.753	73.94
236.987	77.94
237.221	88.94
237.455	87.94
237.689	88.94
237.922	74.94
238.156	82.94
238.39	75.94
238.624	68.94
238.858	64.94
239.091	80.94
239.325	95.94
239.559	76.94
239.793	82.94
240.027	95.94
240.26	75.94
240.494	94.94
240.728	84.94
240.961	85.94
241.195	89.94
241.429	78.94
241.662	92.94
241.896	81.94
242.13	86.94
242.363	74.94
242.597	82.94
242.83	81.94
243.064	72.94
243.298	76.94
243.531	66.94
243.765	75.94
243.998	85.94
244.232	76.94
244.465	92.94
244.699	79.94
244.932	84.94
245.166	65.94
245.399	83.94
245.633	66.94
245.866	92.94
246.099	82.94
246.333	85.94
246.566	73.94
246.8	85.94
247.033	68.94
247.266	72.94
247.5	80.94
247.733	75.94
247.966	77.94
248.2	86.94
248.433	85.94
248.666	96.94
248.899	90.94
249.133	78.94
249.366	100.94
249.599	98.94
249.832	82.94
250.066	79.94
250.299	71.94
250.532	82.94
250.765	90.94
250.998	73.94
251.231	77.94
251.465	85.94
251.698	88.94
251.931	79.94
252.164	91.94
252.397	76.94
252.63	81.94
252.863	73.94
253.096	86.94
253.329	88.94
253.562	79.94
253.795	86.94
254.028	78.94
254.261	78.94
254.494	78.94
254.727	72.94
254.96	82.94
255.193	85.94
255.426	75.94
255.659	76.94
255.892	91.94
256.124	78.94
256.357	77.94
256.59	81.94
256.823	81.94
257.056	77.94
257.289	77.94
257.521	85.94
257.754	87.94
257.987	81.94
258.22	73.94
258.452	85.94
258.685	73.94
258.918	81.94
259.151	78.94
259.383	86.94
259.616	85.94
259.849	81.94
260.081	74.94
260.314	90.94
260.547	85.94
260.779	86.94
261.012	66.94
261.244	91.94
261.477	75.94
261.71	88.94
261.942	109.94
262.175	126.94
262.407	80.94
262.64	78.94
262.872	98.94
263.105	94.94
263.337	78.94
263.57	93.94
263.802	82.94
264.035	79.94
264.267	73.94
264.499	87.94
264.732	88.94
264.964	89.94
265.197	80.94
265.429	88.94
265.661	82.94
265.894	72.94
266.126	81.94
266.358	89.94
266.591	76.94
266.823	75.94
267.055	87.94
267.287	73.94
267.52	97.94
267.752	77.94
267.984	86.94
268.216	82.94
268.448	105.94
268.681	78.94
268.913	80.94
269.145	85.94
269.377	79.94
269.609	86.94
269.841	77.94
270.073	90.94
270.306	82.94
270.538	82.94
270.77	79.94
271.002	72.94
271.234	89.94
271.466	68.94
271.698	88.94
271.93	86.94
272.162	78.94
272.394	98.94
272.626	93.94
272.858	76.94
273.09	71.94
273.322	70.94
273.553	84.94
273.785	79.94
274.017	101.94
274.249	102.94
274.481	82.94
274.713	83.94
274.945	86.94
275.176	90.94
275.408	86.94
275.64	85.94
275.872	86.94
276.104	86.94
276.335	85.94
276.567	97.94
276.799	113.94
277.031	105.94
277.262	84.94
277.494	89.94
277.726	100.94
277.957	88.94
278.189	84.94
278.421	90.94
278.652	91.94
278.884	73.94
279.115	100.94
279.347	85.94
279.579	84.94
279.81	81.94
280.042	90.94
280.273	87.94
280.505	85.94
280.736	76.94
280.968	89.94
281.199	84.94
281.431	92.94
281.662	91.94
281.894	95.94
282.125	86.94
282.356	120.94
282.588	141.94
282.819	120.94
283.051	87.94
283.282	85.94
283.513	83.94
283.745	73.94
283.976	82.94
284.207	100.94
284.439	84.94
284.67	99.94
284.901	97.94
285.132	82.94
285.364	93.94
285.595	93.94
285.826	90.94
286.057	90.94
286.288	85.94
286.52	94.94
286.751	80.94
286.982	90.94
287.213	72.94
287.444	81.94
287.675	103.94
287.906	98.94
288.138	96.94
288.369	93.94
288.6	86.94
288.831	64.94
289.062	88.94
289.293	90.94
289.524	96.94
289.755	87.94
289.986	86.94
290.217	98.94
290.448	98.94
290.679	80.94
290.91	89.94
291.141	99.94
291.371	92.94
291.602	77.94
291.833	98.94
292.064	84.94
292.295	90.94
292.526	82.94
292.757	89.94
292.987	101.94
293.218	86.94
293.449	90.94
293.68	90.94
293.91	94.94
294.141	108.94
294.372	95.94
294.603	93.94
294.833	87.94
295.064	90.94
295.295	92.94
295.525	92.94
295.756	106.94
295.987	125.94
296.217	140.94
296.448	139.94
296.679	82.94
296.909	93.94
297.14	102.94
297.37	102.94
297.601	88.94
297.831	102.94
298.062	106.94
298.292	83.94
298.523	84.94
298.753	81.94
298.984	85.94
299.214	87.94
299.445	86.94
299.675	82.94
299.905	81.94
300.136	84.94
300.366	114.94
300.597	84.94
300.827	90.94
301.057	98.94
301.288	112.94
301.518	88.94
301.748	93.94
301.979	106.94
302.209	83.94
302.439	97.94
302.669	91.94
302.9	86.94
303.13	89.94
303.36	116.94
303.59	110.94
303.82	100.94
304.051	107.94
304.281	78.94
304.511	100.94
304.741	93.94
304.971	83.94
305.201	91.94
305.431	93.94
305.661	85.94
305.891	83.94
306.121	102.94
306.352	114.94
306.582	107.94
306.812	96.94
307.042	84.94
307.272	96.94
307.502	96.94
307.731	92.94
307.961	89.94
308.191	99.94
308.421	94.94
308.651	102.94
308.881	108.94
309.111	92.94
309.341	98.94
309.571	93.94
309.8	100.94
310.03	96.94
310.26	100.94
310.49	99.94
310.72	97.94
310.949	112.94
311.179	100.94
311.409	85.94
311.639	108.94
311.868	101.94
312.098	96.94
312.328	101.94
312.557	100.94
312.787	99.94
313.017	103.94
313.246	106.94
313.476	98.94
313.706	113.94
313.935	97.94
314.165	98.94
314.394	100.94
314.624	97.94
314.853	102.94
315.083	97.94
315.312	90.94
315.542	97.94
315.771	100.94
316.001	80.94
316.23	96.94
316.46	90.94
316.689	92.94
316.919	86.94
317.148	88.94
317.377	103.94
317.607	89.94
317.836	92.94
318.065	93.94
318.295	85.94
318.524	89.94
318.753	102.94
318.983	98.94
319.212	99.94
319.441	106.94
319.67	110.94
319.9	82.94
320.129	95.94
320.358	99.94
320.587	87.94
320.816	96.94
321.046	97.94
321.275	88.94
321.504	97.94
321.733	107.94
321.962	109.94
322.191	118.94
322.42	104.94
322.649	108.94
322.878	120.94
323.108	126.94
323.337	123.94
323.566	147.94
323.795	182.94
324.024	230.94
324.253	465.94
324.482	1023.94
324.71	2088.94
324.939	2787.94
325.168	998.94
325.397	289.94
325.626	154.94
325.855	134.94
326.084	121.94
326.313	137.94
326.542	173.94
326.77	253.94
326.999	522.94
327.228	1151.94
327.457	2137.94
327.686	1650.94
327.914	436.94
328.143	215.94
328.372	161.94
328.6	138.94
328.829	116.94
329.058	142.94
329.287	133.94
329.515	111.94
329.744	110.94
329.972	124.94
330.201	117.94
330.43	134.94
330.658	159.94
330.887	149.94
331.115	117.94
331.344	106.94
331.572	101.94
331.801	111.94
332.03	119.94
332.258	106.94
332.486	82.94
332.715	91.94
332.943	84.94
333.172	99.94
333.4	94.94
333.629	115.94
333.857	97.94
334.085	114.94
334.314	120.94
334.542	141.94
334.771	123.94
334.999	109.94
335.227	112.94
335.455	110.94
335.684	105.94
335.912	102.94
336.14	100.94
336.369	108.94
336.597	106.94
336.825	103.94
337.053	92.94
337.281	106.94
337.51	97.94
337.738	104.94
337.966	109.94
338.194	73.94
338.422	96.94
338.65	96.94
338.878	101.94
339.106	97.94
339.334	109.94
339.562	96.94
339.79	84.94
340.018	81.94
340.246	90.94
340.474	97.94
340.702	98.94
340.93	74.94
341.158	92.94
341.386	89.94
341.614	101.94
341.842	97.94
342.07	85.94
342.298	76.94
342.526	92.94
342.754	83.94
342.981	93.94
343.209	96.94
343.437	102.94
343.665	92.94
343.893	95.94
344.12	83.94
344.348	91.94
344.576	87.94
344.804	85.94
345.031	76.94
345.259	102.94
345.487	88.94
345.714	94.94
345.942	100.94
346.17	94.94
346.397	104.94
346.625	98.94
346.853	96.94
347.08	95.94
347.308	97.94
347.535	97.94
347.763	89.94
347.99	94.94
348.218	94.94
348.445	100.94
348.673	108.94
348.9	85.94
349.128	95.94
349.355	98.94
349.583	101.94
349.81	89.94
350.037	95.94
350.265	86.94
350.492	99.94
350.72	95.94
350.947	101.94
351.174	107.94
351.402	113.94
351.629	94.94
351.856	99.94
352.083	102.94
352.311	113.94
352.538	107.94
352.765	105.94
352.992	129.94
353.22	121.94
353.447	100.94
353.674	108.94
353.901	93.94
354.128	105.94
354.355	95.94
354.583	81.94
354.81	98.94
355.037	99.94
355.264	101.94
355.491	91.94
355.718	91.94
355.945	89.94
356.172	96.94
356.399	80.94
356.626	96.94
356.853	93.94
357.08	99.94
357.307	103.94
357.534	83.94
357.761	97.94
357.988	108.94
358.215	96.94
358.441	96.94
358.668	96.94
358.895	97.94
359.122	86.94
359.349	88.94
359.576	92.94
359.802	94.94
360.029	112.94
360.256	116.94
360.483	94.94
360.709	98.94
360.936	107.94
361.163	88.94
361.39	106.94
361.616	101.94
361.843	96.94
362.07	89.94
362.296	79.94
362.523	100.94
362.749	93.94
362.976	90.94
363.203	83.94
363.429	96.94
363.656	99.94
363.882	88.94
364.109	87.94
364.335	81.94
364.562	98.94
364.788	101.94
365.015	103.94
365.241	83.94
365.468	109.94
365.694	113.94
365.92	89.94
366.147	76.94
366.373	95.94
366.599	95.94
366.826	82.94
367.052	87.94
367.278	90.94
367.505	108.94
367.731	94.94
367.957	102.94
368.184	88.94
368.41	103.94
368.636	104.94
368.862	118.94
369.089	104.94
369.315	108.94
369.541	105.94
369.767	89.94
369.993	94.94
370.219	119.94
370.445	96.94
370.672	93.94
370.898	84.94
371.124	93.94
371.35	97.94
371.576	98.94
371.802	93.94
372.028	79.94
372.254	79.94
372.48	87.94
372.706	85.94
372.932	90.94
373.158	86.94
373.384	99.94
373.61	94.94
373.835	78.94
374.061	99.94
374.287	90.94
374.513	89.94
374.739	91.94
374.965	91.94
375.191	88.94
375.416	98.94
375.642	96.94
375.868	95.94
376.094	92.94
376.319	85.94
376.545	97.94
376.771	79.94
376.997	93.94
377.222	96.94
377.448	92.94
377.674	87.94
377.899	89.94
378.125	100.94
378.35	109.94
378.576	78.94
378.802	90.94
379.027	89.94
379.253	101.94
379.478	107.94
379.704	101.94
379.929	98.94
380.155	98.94
380.38	104.94
380.606	96.94
380.831	106.94
381.057	91.94
381.282	98.94
381.507	90.94
381.733	113.94
381.958	96.94
382.184	105.94
382.409	116.94
382.634	100.94
382.86	108.94
383.085	107.94
383.31	109.94
383.535	112.94
383.761	107.94
383.986	110.94
384.211	106.94
384.436	124.94
384.662	124.94
384.887	129.94
385.112	113.94
385.337	129.94
385.562	113.94
385.787	120.94
386.013	135.94
386.238	115.94
386.463	128.94
386.688	126.94
386.913	114.94
387.138	132.94
387.363	106.94
387.588	116.94
387.813	105.94
388.038	120.94
388.263	141.94
388.488	127.94
388.713	92.94
388.938	88.94
389.163	90.94
389.387	73.94
389.612	93.94
389.837	92.94
390.062	93.94
390.287	94.94
390.512	89.94
390.736	79.94
390.961	81.94
391.186	85.94
391.411	95.94
391.636	86.94
391.86	89.94
392.085	86.94
392.31	84.94
392.534	81.94
392.759	89.94
392.984	97.94
393.208	90.94
393.433	119.94
393.658	126.94
393.882	75.94
394.107	84.94
394.331	103.94
394.556	89.94
394.78	86.94
395.005	87.94
395.229	85.94
395.454	81.94
395.678	96.94
395.903	93.94
396.127	90.94
396.352	97.94
396.576	73.94
396.801	101.94
397.025	98.94
397.249	87.94
397.474	98.94
397.698	78.94
397.922	82.94
398.147	89.94
398.371	88.94
398.595	89.94
398.82	83.94
399.044	95.94
399.268	80.94
399.492	77.94
399.717	110.94
399.941	85.94
400.165	82.94
400.389	109.94
400.613	89.94
400.837	93.94
401.062	96.94
401.286	88.94
401.51	92.94
401.734	93.94
401.958	93.94
402.182	126.94
402.406	169.94
402.63	118.94
402.854	87.94
403.078	82.94
403.302	85.94
403.526	86.94
403.75	90.94
403.974	88.94
404.198	95.94
404.422	87.94
404.645	82.94
404.869	89.94
405.093	96.94
405.317	86.94
405.541	102.94
405.765	91.94
405.988	126.94
406.212	180.94
406.436	238.94
406.66	152.94
406.883	96.94
407.107	105.94
407.331	103.94
407.555	107.94
407.778	103.94
408.002	98.94
408.226	96.94
408.449	91.94
408.673	99.94
408.896	90.94
409.12	81.94
409.344	86.94
409.567	89.94
409.791	93.94
410.014	100.94
410.238	77.94
410.461	75.94
410.685	105.94
410.908	105.94
411.132	106.94
411.355	101.94
411.578	98.94
411.802	93.94
412.025	79.94
412.249	85.94
412.472	86.94
412.695	99.94
412.919	88.94
413.142	82.94
413.365	95.94
413.589	92.94
413.812	91.94
414.035	93.94
414.258	103.94
414.482	98.94
414.705	101.94
414.928	98.94
415.151	101.94
415.374	103.94
415.597	85.94
415.821	99.94
416.044	97.94
416.267	101.94
416.49	76.94
416.713	99.94
416.936	84.94
417.159	82.94
417.382	111.94
417.605	100.94
417.828	84.94
418.051	95.94
418.274	85.94
418.497	92.94
418.72	96.94
418.943	94.94
419.166	89.94
419.389	104.94
419.611	105.94
419.834	92.94
420.057	97.94
420.28	96.94
420.503	89.94
420.726	89.94
420.948	93.94
421.171	93.94
421.394	88.94
421.617	97.94
421.839	94.94
422.062	99.94
422.285	89.94
422.507	106.94
422.73	106.94
422.953	99.94
423.175	79.94
423.398	97.94
423.621	89.94
423.843	96.94
424.066	91.94
424.288	85.94
424.511	92.94
424.733	90.94
424.956	108.94
425.178	114.94
425.401	90.94
425.623	93.94
425.846	102.94
426.068	104.94
426.291	106.94
426.513	92.94
426.735	93.94
426.958	97.94
427.18	98.94
427.402	148.94
427.625	177.94
427.847	145.94
428.069	113.94
428.292	81.94
428.514	83.94
428.736	85.94
428.958	80.94
429.181	94.94
429.403	103.94
429.625	93.94
429.847	93.94
430.069	101.94
430.292	105.94
430.514	88.94
430.736	86.94
430.958	75.94
431.18	91.94
431.402	86.94
431.624	89.94
431.846	77.94
432.068	89.94
432.29	82.94
432.512	84.94
432.734	97.94
432.956	72.94
433.178	112.94
433.4	104.94
433.622	80.94
433.844	86.94
434.066	101.94
434.287	88.94
434.509	92.94
434.731	98.94
434.953	95.94
435.175	80.94
435.397	76.94
435.618	96.94
435.84	105.94
436.062	117.94
436.284	117.94
436.505	112.94
436.727	95.94
436.949	96.94
437.17	87.94
437.392	96.94
437.614	102.94
437.835	97.94
438.057	114.94
438.278	99.94
438.5	113.94
438.721	131.94
438.943	100.94
439.165	81.94
439.386	105.94
439.608	100.94
439.829	106.94
440.05	116.94
440.272	152.94
440.493	94.94
440.715	92.94
440.936	90.94
441.158	90.94
441.379	112.94
441.6	97.94
441.822	98.94
442.043	104.94
442.264	106.94
442.486	118.94
442.707	105.94
442.928	107.94
443.149	132.94
443.371	138.94
443.592	119.94
443.813	136.94
444.034	112.94
444.255	112.94
444.476	92.94
444.698	81.94
444.919	82.94
445.14	135.94
445.361	134.94
445.582	122.94
445.803	160.94
446.024	127.94
446.245	141.94
446.466	120.94
446.687	93.94
446.908	92.94
447.129	85.94
447.35	90.94
447.571	89.94
447.792	98.94
448.013	109.94
448.234	124.94
448.455	102.94
448.675	120.94
448.896	114.94
449.117	104.94
449.338	115.94
449.559	144.94
449.779	153.94
450	114.94
450.221	85.94
450.442	80.94
450.662	91.94
450.883	105.94
451.104	110.94
451.324	101.94
451.545	95.94
451.766	75.94
451.986	86.94
452.207	87.94
452.428	90.94
452.648	105.94
452.869	101.94
453.089	113.94
453.31	128.94
453.53	101.94
453.751	82.94
453.971	103.94
454.192	105.94
454.412	88.94
454.633	91.94
454.853	88.94
455.073	82.94
455.294	102.94
455.514	104.94
455.734	82.94
455.955	85.94
456.175	79.94
456.395	81.94
456.616	85.94
456.836	94.94
457.056	85.94
457.276	92.94
457.497	84.94
457.717	97.94
457.937	87.94
458.157	79.94
458.377	89.94
458.598	124.94
458.818	164.94
459.038	168.94
459.258	118.94
459.478	95.94
459.698	70.94
459.918	89.94
460.138	93.94
460.358	81.94
460.578	88.94
460.798	90.94
461.018	86.94
461.238	90.94
461.458	83.94
461.678	95.94
461.898	82.94
462.118	80.94
462.338	81.94
462.558	107.94
462.777	88.94
462.997	82.94
463.217	78.94
463.437	83.94
463.657	104.94
463.876	79.94
464.096	96.94
464.316	106.94
464.536	84.94
464.755	101.94
464.975	105.94
465.195	178.94
465.414	172.94
465.634	100.94
465.854	92.94
466.073	92.94
466.293	74.94
466.512	83.94
466.732	80.94
466.951	80.94
467.171	89.94
467.391	101.94
467.61	93.94
467.829	107.94
468.049	106.94
468.268	97.94
468.488	81.94
468.707	83.94
468.927	84.94
469.146	78.94
469.365	92.94
469.585	94.94
469.804	101.94
470.023	101.94
470.243	102.94
470.462	100.94
470.681	112.94
470.901	89.94
471.12	89.94
471.339	84.94
471.558	86.94
471.777	99.94
471.997	92.94
472.216	90.94
472.435	137.94
472.654	87.94
472.873	83.94
473.092	68.94
473.311	70.94
473.53	95.94
473.749	97.94
473.968	93.94
474.187	113.94
474.406	93.94
474.625	81.94
474.844	89.94
475.063	91.94
475.282	85.94
475.501	82.94
475.72	77.94
475.939	91.94
476.158	80.94
476.377	84.94
476.596	100.94
476.814	98.94
477.033	101.94
477.252	95.94
477.471	95.94
477.69	96.94
477.908	86.94
478.127	105.94
478.346	92.94
478.564	89.94
478.783	90.94
479.002	96.94
479.22	93.94
479.439	103.94
479.658	114.94
479.876	92.94
480.095	102.94
480.313	101.94
480.532	102.94
480.751	96.94
480.969	121.94
481.188	168.94
481.406	142.94
481.624	97.94
481.843	89.94
482.061	83.94
482.28	87.94
482.498	81.94
482.717	84.94
482.935	90.94
483.153	92.94
483.372	92.94
483.59	86.94
483.808	87.94
484.027	96.94
484.245	86.94
484.463	91.94
484.681	94.94
484.9	90.94
485.118	82.94
485.336	92.94
485.554	93.94
485.772	103.94
485.99	95.94
486.209	107.94
486.427	92.94
486.645	116.94
486.863	120.94
487.081	116.94
487.299	93.94
487.517	95.94
487.735	82.94
487.953	95.94
488.171	97.94
488.389	83.94
488.607	107.94
488.825	103.94
489.043	81.94
489.261	97.94
489.479	90.94
489.696	92.94
489.914	84.94
490.132	94.94
490.35	101.94
490.568	85.94
490.786	86.94
491.003	78.94
491.221	84.94
491.439	103.94
491.657	81.94
491.874	95.94
492.092	88.94
492.31	95.94
492.527	95.94
492.745	102.94
492.963	87.94
493.18	82.94
493.398	79.94
493.615	104.94
493.833	96.94
494.05	105.94
494.268	88.94
494.485	92.94
494.703	101.94
494.92	80.94
495.138	81.94
495.355	104.94
495.573	91.94
495.79	96.94
496.008	99.94
496.225	100.94
496.442	86.94
496.66	91.94
496.877	91.94
497.094	87.94
497.312	99.94
497.529	88.94
497.746	84.94
497.963	87.94
498.181	81.94
498.398	90.94
498.615	87.94
498.832	106.94
499.049	86.94
499.267	83.94
499.484	96.94
499.701	90.94
499.918	98.94
500.135	75.94
500.352	88.94
500.569	86.94
500.786	78.94
501.003	103.94
501.22	77.94
501.437	86.94
501.654	91.94
501.871	130.94
502.088	112.94
502.305	91.94
502.522	88.94
502.739	96.94
502.956	91.94
503.172	105.94
503.389	96.94
503.606	107.94
503.823	98.94
504.04	96.94
504.256	91.94
504.473	81.94
504.69	100.94
504.907	92.94
505.123	85.94
505.34	83.94
505.557	100.94
505.773	83.94
505.99	87.94
506.207	86.94
506.423	84.94
506.64	83.94
506.856	76.94
507.073	106.94
507.289	88.94
507.506	89.94
507.722	117.94
507.939	121.94
508.155	107.94
508.372	104.94
508.588	102.94
508.805	100.94
509.021	105.94
509.238	113.94
509.454	99.94
509.67	101.94
509.887	118.94
510.103	140.94
510.319	236.94
510.536	831.94
510.752	2925.94
510.968	818.94
511.184	171.94
511.401	120.94
511.617	103.94
511.833	105.94
512.049	88.94
512.265	99.94
512.481	93.94
512.698	89.94
512.914	84.94
513.13	82.94
513.346	83.94
513.562	88.94
513.778	97.94
513.994	98.94
514.21	119.94
514.426	130.94
514.642	142.94
