Data from Circ_2016_H10_HRD10591_00067.txt Node
Date: Wed Jan 03 09:58:54 EST 2024
User: Yrep
Spectrometer: HR+D1059
Trigger mode: 1
Integration Time (sec): 1.000000E-1
Scans to average: 1
Electric dark correction enabled: true
Nonlinearity correction enabled: false
Boxcar width: 0
XAxis mode: Wavelengths
Number of Pixels in Spectrum: 2048
>>>>>Begin Spectral Data<<<<<
223.165	-30.94
223.4	-30.94
223.635	-30.94
223.869	-3.94
224.104	-18.94
224.338	-18.94
224.573	-25.94
224.808	-25.94
225.042	-2.94
225.277	-5.94
225.511	-5.94
225.746	7.06
225.98	12.06
226.215	12.06
226.449	14.06
226.683	24.06
226.918	26.06
227.152	44.06
227.387	44.06
227.621	28.06
227.856	51.06
228.09	48.06
228.324	49.06
228.559	62.06
228.793	59.06
229.027	69.06
229.262	64.06
229.496	85.06
229.73	82.06
229.964	71.06
230.199	78.06
230.433	83.06
230.667	60.06
230.901	80.06
231.136	72.06
231.37	85.06
231.604	74.06
231.838	73.06
232.072	77.06
232.306	89.06
232.541	61.06
232.775	89.06
233.009	81.06
233.243	84.06
233.477	81.06
233.711	84.06
233.945	70.06
234.179	89.06
234.413	93.06
234.647	84.06
234.881	75.06
235.115	84.06
235.349	75.06
235.583	77.06
235.817	78.06
236.051	75.06
236.285	70.06
236.519	73.06
236.753	78.06
236.987	81.06
237.221	74.06
237.455	89.06
237.689	79.06
237.922	78.06
238.156	69.06
238.39	74.06
238.624	61.06
238.858	96.06
239.091	77.06
239.325	66.06
239.559	72.06
239.793	75.06
240.027	99.06
240.26	80.06
240.494	69.06
240.728	69.06
240.961	85.06
241.195	84.06
241.429	93.06
241.662	81.06
241.896	68.06
242.13	61.06
242.363	78.06
242.597	89.06
242.83	72.06
243.064	69.06
243.298	78.06
243.531	85.06
243.765	83.06
243.998	97.06
244.232	83.06
244.465	76.06
244.699	88.06
244.932	75.06
245.166	74.06
245.399	78.06
245.633	86.06
245.866	85.06
246.099	74.06
246.333	89.06
246.566	85.06
246.8	89.06
247.033	76.06
247.266	84.06
247.5	82.06
247.733	97.06
247.966	72.06
248.2	81.06
248.433	82.06
248.666	86.06
248.899	100.06
249.133	81.06
249.366	83.06
249.599	92.06
249.832	82.06
250.066	83.06
250.299	82.06
250.532	76.06
250.765	61.06
250.998	78.06
251.231	86.06
251.465	98.06
251.698	84.06
251.931	78.06
252.164	85.06
252.397	84.06
252.63	100.06
252.863	79.06
253.096	85.06
253.329	85.06
253.562	87.06
253.795	75.06
254.028	80.06
254.261	83.06
254.494	89.06
254.727	87.06
254.96	90.06
255.193	80.06
255.426	69.06
255.659	79.06
255.892	85.06
256.124	66.06
256.357	73.06
256.59	73.06
256.823	76.06
257.056	77.06
257.289	93.06
257.521	84.06
257.754	75.06
257.987	81.06
258.22	92.06
258.452	85.06
258.685	91.06
258.918	77.06
259.151	78.06
259.383	90.06
259.616	91.06
259.849	70.06
260.081	99.06
260.314	84.06
260.547	85.06
260.779	73.06
261.012	80.06
261.244	81.06
261.477	76.06
261.71	84.06
261.942	102.06
262.175	99.06
262.407	85.06
262.64	89.06
262.872	86.06
263.105	100.06
263.337	78.06
263.57	79.06
263.802	77.06
264.035	87.06
264.267	92.06
264.499	90.06
264.732	90.06
264.964	80.06
265.197	80.06
265.429	89.06
265.661	71.06
265.894	83.06
266.126	82.06
266.358	71.06
266.591	64.06
266.823	89.06
267.055	81.06
267.287	85.06
267.52	84.06
267.752	93.06
267.984	81.06
268.216	80.06
268.448	77.06
268.681	95.06
268.913	80.06
269.145	86.06
269.377	87.06
269.609	80.06
269.841	94.06
270.073	84.06
270.306	84.06
270.538	85.06
270.77	81.06
271.002	84.06
271.234	92.06
271.466	89.06
271.698	94.06
271.93	84.06
272.162	90.06
272.394	89.06
272.626	87.06
272.858	90.06
273.09	76.06
273.322	93.06
273.553	87.06
273.785	75.06
274.017	92.06
274.249	83.06
274.481	87.06
274.713	84.06
274.945	82.06
275.176	79.06
275.408	85.06
275.64	88.06
275.872	75.06
276.104	74.06
276.335	91.06
276.567	98.06
276.799	105.06
277.031	90.06
277.262	101.06
277.494	88.06
277.726	88.06
277.957	82.06
278.189	84.06
278.421	90.06
278.652	79.06
278.884	75.06
279.115	83.06
279.347	90.06
279.579	73.06
279.81	105.06
280.042	95.06
280.273	84.06
280.505	77.06
280.736	76.06
280.968	76.06
281.199	80.06
281.431	95.06
281.662	89.06
281.894	89.06
282.125	87.06
282.356	109.06
282.588	136.06
282.819	101.06
283.051	75.06
283.282	82.06
283.513	86.06
283.745	97.06
283.976	89.06
284.207	88.06
284.439	69.06
284.67	77.06
284.901	88.06
285.132	83.06
285.364	88.06
285.595	84.06
285.826	88.06
286.057	89.06
286.288	84.06
286.52	77.06
286.751	90.06
286.982	90.06
287.213	90.06
287.444	83.06
287.675	77.06
287.906	78.06
288.138	86.06
288.369	96.06
288.6	104.06
288.831	86.06
289.062	90.06
289.293	96.06
289.524	92.06
289.755	73.06
289.986	88.06
290.217	81.06
290.448	87.06
290.679	80.06
290.91	85.06
291.141	82.06
291.371	106.06
291.602	112.06
291.833	103.06
292.064	78.06
292.295	95.06
292.526	99.06
292.757	85.06
292.987	91.06
293.218	84.06
293.449	92.06
293.68	91.06
293.91	88.06
294.141	97.06
294.372	79.06
294.603	84.06
294.833	84.06
295.064	96.06
295.295	85.06
295.525	96.06
295.756	95.06
295.987	108.06
296.217	120.06
296.448	104.06
296.679	88.06
296.909	91.06
297.14	98.06
297.37	97.06
297.601	84.06
297.831	97.06
298.062	85.06
298.292	97.06
298.523	78.06
298.753	87.06
298.984	97.06
299.214	78.06
299.445	92.06
299.675	82.06
299.905	98.06
300.136	83.06
300.366	99.06
300.597	92.06
300.827	81.06
301.057	98.06
301.288	99.06
301.518	93.06
301.748	104.06
301.979	101.06
302.209	88.06
302.439	92.06
302.669	105.06
302.9	92.06
303.13	104.06
303.36	103.06
303.59	73.06
303.82	98.06
304.051	86.06
304.281	91.06
304.511	85.06
304.741	76.06
304.971	88.06
305.201	103.06
305.431	85.06
305.661	81.06
305.891	75.06
306.121	89.06
306.352	88.06
306.582	99.06
306.812	88.06
307.042	101.06
307.272	96.06
307.502	96.06
307.731	100.06
307.961	101.06
308.191	86.06
308.421	75.06
308.651	88.06
308.881	105.06
309.111	97.06
309.341	99.06
309.571	103.06
309.8	82.06
310.03	96.06
310.26	94.06
310.49	90.06
310.72	82.06
310.949	94.06
311.179	92.06
311.409	102.06
311.639	91.06
311.868	86.06
312.098	91.06
312.328	82.06
312.557	76.06
312.787	98.06
313.017	99.06
313.246	109.06
313.476	75.06
313.706	84.06
313.935	97.06
314.165	101.06
314.394	104.06
314.624	107.06
314.853	98.06
315.083	90.06
315.312	93.06
315.542	91.06
315.771	88.06
316.001	95.06
316.23	97.06
316.46	101.06
316.689	78.06
316.919	86.06
317.148	93.06
317.377	91.06
317.607	98.06
317.836	100.06
318.065	104.06
318.295	101.06
318.524	87.06
318.753	98.06
318.983	85.06
319.212	101.06
319.441	102.06
319.67	90.06
319.9	98.06
320.129	114.06
320.358	86.06
320.587	104.06
320.816	115.06
321.046	84.06
321.275	90.06
321.504	89.06
321.733	94.06
321.962	114.06
322.191	92.06
322.42	106.06
322.649	126.06
322.878	120.06
323.108	111.06
323.337	128.06
323.566	129.06
323.795	167.06
324.024	204.06
324.253	377.06
324.482	791.06
324.71	1560.06
324.939	2133.06
325.168	763.06
325.397	228.06
325.626	134.06
325.855	118.06
326.084	112.06
326.313	132.06
326.542	145.06
326.77	208.06
326.999	436.06
327.228	931.06
327.457	1641.06
327.686	1270.06
327.914	352.06
328.143	180.06
328.372	138.06
328.6	123.06
328.829	118.06
329.058	114.06
329.287	130.06
329.515	106.06
329.744	96.06
329.972	109.06
330.201	128.06
330.43	134.06
330.658	128.06
330.887	142.06
331.115	108.06
331.344	119.06
331.572	91.06
331.801	86.06
332.03	96.06
332.258	84.06
332.486	94.06
332.715	94.06
332.943	104.06
333.172	89.06
333.4	87.06
333.629	102.06
333.857	116.06
334.085	110.06
334.314	106.06
334.542	148.06
334.771	148.06
334.999	125.06
335.227	92.06
335.455	91.06
335.684	103.06
335.912	109.06
336.14	114.06
336.369	88.06
336.597	96.06
336.825	97.06
337.053	109.06
337.281	105.06
337.51	86.06
337.738	94.06
337.966	92.06
338.194	99.06
338.422	99.06
338.65	90.06
338.878	88.06
339.106	88.06
339.334	93.06
339.562	97.06
339.79	96.06
340.018	98.06
340.246	85.06
340.474	97.06
340.702	92.06
340.93	106.06
341.158	84.06
341.386	96.06
341.614	105.06
341.842	94.06
342.07	91.06
342.298	100.06
342.526	99.06
342.754	90.06
342.981	89.06
343.209	89.06
343.437	94.06
343.665	90.06
343.893	93.06
344.12	92.06
344.348	84.06
344.576	92.06
344.804	102.06
345.031	106.06
345.259	97.06
345.487	96.06
345.714	92.06
345.942	89.06
346.17	90.06
346.397	90.06
346.625	93.06
346.853	110.06
347.08	95.06
347.308	88.06
347.535	87.06
347.763	89.06
347.99	109.06
348.218	101.06
348.445	107.06
348.673	91.06
348.9	98.06
349.128	93.06
349.355	94.06
349.583	106.06
349.81	99.06
350.037	93.06
350.265	99.06
350.492	101.06
350.72	93.06
350.947	90.06
351.174	100.06
351.402	98.06
351.629	94.06
351.856	109.06
352.083	106.06
352.311	100.06
352.538	105.06
352.765	94.06
352.992	104.06
353.22	111.06
353.447	100.06
353.674	91.06
353.901	112.06
354.128	95.06
354.355	85.06
354.583	111.06
354.81	115.06
355.037	97.06
355.264	99.06
355.491	103.06
355.718	89.06
355.945	97.06
356.172	95.06
356.399	88.06
356.626	85.06
356.853	106.06
357.08	100.06
357.307	97.06
357.534	88.06
357.761	90.06
357.988	86.06
358.215	107.06
358.441	101.06
358.668	99.06
358.895	88.06
359.122	81.06
359.349	85.06
359.576	93.06
359.802	95.06
360.029	107.06
360.256	113.06
360.483	108.06
360.709	75.06
360.936	113.06
361.163	86.06
361.39	98.06
361.616	84.06
361.843	91.06
362.07	87.06
362.296	94.06
362.523	86.06
362.749	98.06
362.976	98.06
363.203	72.06
363.429	92.06
363.656	86.06
363.882	84.06
364.109	114.06
364.335	84.06
364.562	97.06
364.788	78.06
365.015	86.06
365.241	94.06
365.468	102.06
365.694	111.06
365.92	97.06
366.147	84.06
366.373	97.06
366.599	96.06
366.826	101.06
367.052	83.06
367.278	105.06
367.505	88.06
367.731	88.06
367.957	87.06
368.184	95.06
368.41	101.06
368.636	93.06
368.862	113.06
369.089	91.06
369.315	90.06
369.541	87.06
369.767	91.06
369.993	97.06
370.219	86.06
370.445	84.06
370.672	81.06
370.898	77.06
371.124	86.06
371.35	92.06
371.576	81.06
371.802	90.06
372.028	96.06
372.254	81.06
372.48	93.06
372.706	87.06
372.932	86.06
373.158	86.06
373.384	89.06
373.61	90.06
373.835	93.06
374.061	104.06
374.287	74.06
374.513	94.06
374.739	84.06
374.965	85.06
375.191	95.06
375.416	107.06
375.642	100.06
375.868	99.06
376.094	90.06
376.319	84.06
376.545	96.06
376.771	94.06
376.997	85.06
377.222	97.06
377.448	98.06
377.674	86.06
377.899	86.06
378.125	99.06
378.35	98.06
378.576	95.06
378.802	85.06
379.027	108.06
379.253	101.06
379.478	86.06
379.704	98.06
379.929	93.06
380.155	103.06
380.38	99.06
380.606	83.06
380.831	91.06
381.057	97.06
381.282	97.06
381.507	99.06
381.733	91.06
381.958	96.06
382.184	98.06
382.409	98.06
382.634	98.06
382.86	108.06
383.085	100.06
383.31	101.06
383.535	97.06
383.761	109.06
383.986	100.06
384.211	92.06
384.436	99.06
384.662	105.06
384.887	105.06
385.112	116.06
385.337	119.06
385.562	100.06
385.787	120.06
386.013	108.06
386.238	119.06
386.463	128.06
386.688	127.06
386.913	115.06
387.138	104.06
387.363	110.06
387.588	98.06
387.813	113.06
388.038	123.06
388.263	130.06
388.488	125.06
388.713	101.06
388.938	99.06
389.163	97.06
389.387	98.06
389.612	88.06
389.837	84.06
390.062	78.06
390.287	80.06
390.512	86.06
390.736	82.06
390.961	90.06
391.186	89.06
391.411	106.06
391.636	100.06
391.86	86.06
392.085	82.06
392.31	89.06
392.534	82.06
392.759	91.06
392.984	90.06
393.208	99.06
393.433	100.06
393.658	89.06
393.882	87.06
394.107	82.06
394.331	87.06
394.556	91.06
394.78	83.06
395.005	99.06
395.229	90.06
395.454	81.06
395.678	92.06
395.903	92.06
396.127	80.06
396.352	87.06
396.576	85.06
396.801	82.06
397.025	96.06
397.249	78.06
397.474	94.06
397.698	84.06
397.922	88.06
398.147	86.06
398.371	93.06
398.595	92.06
398.82	94.06
399.044	94.06
399.268	101.06
399.492	76.06
399.717	99.06
399.941	89.06
400.165	93.06
400.389	103.06
400.613	88.06
400.837	89.06
401.062	106.06
401.286	81.06
401.51	76.06
401.734	90.06
401.958	109.06
402.182	107.06
402.406	141.06
402.63	114.06
402.854	89.06
403.078	75.06
403.302	90.06
403.526	87.06
403.75	84.06
403.974	85.06
404.198	81.06
404.422	107.06
404.645	98.06
404.869	95.06
405.093	95.06
405.317	92.06
405.541	100.06
405.765	102.06
405.988	94.06
406.212	153.06
406.436	195.06
406.66	140.06
406.883	94.06
407.107	96.06
407.331	83.06
407.555	93.06
407.778	87.06
408.002	90.06
408.226	87.06
408.449	83.06
408.673	92.06
408.896	105.06
409.12	93.06
409.344	89.06
409.567	88.06
409.791	72.06
410.014	97.06
410.238	95.06
410.461	90.06
410.685	100.06
410.908	90.06
411.132	99.06
411.355	101.06
411.578	85.06
411.802	80.06
412.025	90.06
412.249	88.06
412.472	99.06
412.695	89.06
412.919	86.06
413.142	85.06
413.365	82.06
413.589	76.06
413.812	100.06
414.035	82.06
414.258	98.06
414.482	78.06
414.705	86.06
414.928	76.06
415.151	89.06
415.374	94.06
415.597	79.06
415.821	101.06
416.044	77.06
416.267	92.06
416.49	86.06
416.713	105.06
416.936	94.06
417.159	97.06
417.382	94.06
417.605	86.06
417.828	92.06
418.051	87.06
418.274	90.06
418.497	82.06
418.72	81.06
418.943	76.06
419.166	101.06
419.389	93.06
419.611	91.06
419.834	95.06
420.057	84.06
420.28	97.06
420.503	88.06
420.726	79.06
420.948	90.06
421.171	90.06
421.394	85.06
421.617	94.06
421.839	82.06
422.062	97.06
422.285	89.06
422.507	93.06
422.73	97.06
422.953	117.06
423.175	87.06
423.398	96.06
423.621	89.06
423.843	88.06
424.066	101.06
424.288	89.06
424.511	101.06
424.733	89.06
424.956	109.06
425.178	91.06
425.401	102.06
425.623	108.06
425.846	75.06
426.068	76.06
426.291	85.06
426.513	85.06
426.735	87.06
426.958	98.06
427.18	100.06
427.402	131.06
427.625	148.06
427.847	107.06
428.069	112.06
428.292	102.06
428.514	73.06
428.736	94.06
428.958	80.06
429.181	88.06
429.403	88.06
429.625	85.06
429.847	98.06
430.069	93.06
430.292	92.06
430.514	98.06
430.736	91.06
430.958	96.06
431.18	95.06
431.402	86.06
431.624	93.06
431.846	96.06
432.068	84.06
432.29	91.06
432.512	70.06
432.734	86.06
432.956	102.06
433.178	86.06
433.4	96.06
433.622	100.06
433.844	95.06
434.066	106.06
434.287	96.06
434.509	89.06
434.731	93.06
434.953	96.06
435.175	92.06
435.397	83.06
435.618	93.06
435.84	86.06
436.062	110.06
436.284	105.06
436.505	110.06
436.727	88.06
436.949	78.06
437.17	71.06
437.392	81.06
437.614	93.06
437.835	88.06
438.057	101.06
438.278	104.06
438.5	99.06
438.721	104.06
438.943	98.06
439.165	83.06
439.386	83.06
439.608	91.06
439.829	88.06
440.05	113.06
440.272	120.06
440.493	97.06
440.715	87.06
440.936	75.06
441.158	92.06
441.379	88.06
441.6	83.06
441.822	95.06
442.043	98.06
442.264	109.06
442.486	106.06
442.707	85.06
442.928	101.06
443.149	124.06
443.371	128.06
443.592	109.06
443.813	119.06
444.034	95.06
444.255	95.06
444.476	89.06
444.698	80.06
444.919	81.06
445.14	110.06
445.361	115.06
445.582	103.06
445.803	118.06
446.024	134.06
446.245	123.06
446.466	104.06
446.687	90.06
446.908	77.06
447.129	77.06
447.35	99.06
447.571	84.06
447.792	88.06
448.013	82.06
448.234	111.06
448.455	108.06
448.675	111.06
448.896	111.06
449.117	93.06
449.338	77.06
449.559	120.06
449.779	123.06
450	87.06
450.221	85.06
450.442	100.06
450.662	94.06
450.883	99.06
451.104	94.06
451.324	94.06
451.545	99.06
451.766	85.06
451.986	89.06
452.207	85.06
452.428	95.06
452.648	98.06
452.869	96.06
453.089	116.06
453.31	93.06
453.53	83.06
453.751	83.06
453.971	114.06
454.192	96.06
454.412	91.06
454.633	78.06
454.853	82.06
455.073	89.06
455.294	91.06
455.514	94.06
455.734	87.06
455.955	89.06
456.175	85.06
456.395	89.06
456.616	75.06
456.836	83.06
457.056	85.06
457.276	81.06
457.497	83.06
457.717	89.06
457.937	91.06
458.157	86.06
458.377	86.06
458.598	97.06
458.818	120.06
459.038	136.06
459.258	113.06
459.478	77.06
459.698	77.06
459.918	93.06
460.138	76.06
460.358	74.06
460.578	94.06
460.798	87.06
461.018	94.06
461.238	92.06
461.458	90.06
461.678	90.06
461.898	89.06
462.118	85.06
462.338	81.06
462.558	86.06
462.777	77.06
462.997	84.06
463.217	66.06
463.437	89.06
463.657	74.06
463.876	94.06
464.096	84.06
464.316	91.06
464.536	89.06
464.755	93.06
464.975	93.06
465.195	146.06
465.414	144.06
465.634	97.06
465.854	94.06
466.073	83.06
466.293	80.06
466.512	82.06
466.732	92.06
466.951	85.06
467.171	87.06
467.391	105.06
467.61	89.06
467.829	95.06
468.049	100.06
468.268	98.06
468.488	81.06
468.707	90.06
468.927	76.06
469.146	79.06
469.365	78.06
469.585	91.06
469.804	92.06
470.023	86.06
470.243	87.06
470.462	99.06
470.681	112.06
470.901	96.06
471.12	80.06
471.339	85.06
471.558	82.06
471.777	104.06
471.997	108.06
472.216	115.06
472.435	160.06
472.654	106.06
472.873	77.06
473.092	75.06
473.311	85.06
473.53	75.06
473.749	76.06
473.968	88.06
474.187	91.06
474.406	104.06
474.625	86.06
474.844	103.06
475.063	77.06
475.282	87.06
475.501	80.06
475.72	88.06
475.939	101.06
476.158	98.06
476.377	89.06
476.596	90.06
476.814	76.06
477.033	85.06
477.252	83.06
477.471	98.06
477.69	88.06
477.908	89.06
478.127	88.06
478.346	83.06
478.564	76.06
478.783	90.06
479.002	75.06
479.22	100.06
479.439	86.06
479.658	92.06
479.876	91.06
480.095	83.06
480.313	96.06
480.532	97.06
480.751	103.06
480.969	126.06
481.188	233.06
481.406	180.06
481.624	108.06
481.843	80.06
482.061	95.06
482.28	89.06
482.498	76.06
482.717	70.06
482.935	84.06
483.153	90.06
483.372	81.06
483.59	92.06
483.808	83.06
484.027	87.06
484.245	94.06
484.463	84.06
484.681	102.06
484.9	98.06
485.118	92.06
485.336	97.06
485.554	105.06
485.772	109.06
485.99	102.06
486.209	105.06
486.427	116.06
486.645	120.06
486.863	108.06
487.081	95.06
487.299	96.06
487.517	103.06
487.735	100.06
487.953	83.06
488.171	101.06
488.389	96.06
488.607	93.06
488.825	92.06
489.043	86.06
489.261	87.06
489.479	98.06
489.696	74.06
489.914	84.06
490.132	80.06
490.35	104.06
490.568	93.06
490.786	99.06
491.003	78.06
491.221	100.06
491.439	100.06
491.657	83.06
491.874	84.06
492.092	93.06
492.31	85.06
492.527	81.06
492.745	80.06
492.963	77.06
493.18	75.06
493.398	101.06
493.615	79.06
493.833	100.06
494.05	74.06
494.268	86.06
494.485	84.06
494.703	89.06
494.92	89.06
495.138	85.06
495.355	96.06
495.573	101.06
495.79	86.06
496.008	93.06
496.225	82.06
496.442	86.06
496.66	93.06
496.877	76.06
497.094	107.06
497.312	88.06
497.529	91.06
497.746	97.06
497.963	93.06
498.181	101.06
498.398	92.06
498.615	110.06
498.832	97.06
499.049	82.06
499.267	94.06
499.484	73.06
499.701	87.06
499.918	87.06
500.135	98.06
500.352	81.06
500.569	87.06
500.786	87.06
501.003	89.06
501.22	93.06
501.437	93.06
501.654	99.06
501.871	103.06
502.088	83.06
502.305	99.06
502.522	91.06
502.739	99.06
502.956	92.06
503.172	94.06
503.389	93.06
503.606	83.06
503.823	90.06
504.04	93.06
504.256	96.06
504.473	94.06
504.69	71.06
504.907	96.06
505.123	76.06
505.34	94.06
505.557	93.06
505.773	101.06
505.99	80.06
506.207	89.06
506.423	80.06
506.64	94.06
506.856	88.06
507.073	86.06
507.289	84.06
507.506	92.06
507.722	117.06
507.939	100.06
508.155	99.06
508.372	98.06
508.588	99.06
508.805	96.06
509.021	91.06
509.238	93.06
509.454	101.06
509.67	105.06
509.887	113.06
510.103	123.06
510.319	205.06
510.536	678.06
510.752	2179.06
510.968	624.06
511.184	143.06
511.401	113.06
511.617	96.06
511.833	89.06
512.049	88.06
512.265	95.06
512.481	80.06
512.698	102.06
512.914	83.06
513.13	89.06
513.346	89.06
513.562	94.06
513.778	105.06
513.994	114.06
514.21	109.06
514.426	102.06
514.642	134.06
514.858	109.06
515.074	150.06
515.29	383.06
515.506	1247.06
515.721	490.06
