Data from Circ_2016_H10_HRD10591_00082.txt Node
Date: Wed Jan 03 09:58:57 EST 2024
User: Yrep
Spectrometer: HR+D1059
Trigger mode: 1
Integration Time (sec): 1.000000E-1
Scans to average: 1
Electric dark correction enabled: true
Nonlinearity correction enabled: false
Boxcar width: 0
XAxis mode: Wavelengths
Number of Pixels in Spectrum: 2048
>>>>>Begin Spectral Data<<<<<
223.165	-19.75
223.4	-19.75
223.635	-19.75
223.869	-19.75
224.104	-19.75
224.338	-9.75
224.573	-9.75
224.808	-19.75
225.042	-6.75
225.277	-21.75
225.511	-6.75
225.746	14.25
225.98	24.25
226.215	19.25
226.449	13.25
226.683	24.25
226.918	13.25
227.152	25.25
227.387	43.25
227.621	26.25
227.856	38.25
228.09	45.25
228.324	48.25
228.559	45.25
228.793	56.25
229.027	59.25
229.262	52.25
229.496	62.25
229.73	83.25
229.964	82.25
230.199	79.25
230.433	79.25
230.667	69.25
230.901	64.25
231.136	71.25
231.37	73.25
231.604	79.25
231.838	73.25
232.072	76.25
232.306	75.25
232.541	77.25
232.775	76.25
233.009	71.25
233.243	80.25
233.477	76.25
233.711	72.25
233.945	73.25
234.179	82.25
234.413	80.25
234.647	73.25
234.881	77.25
235.115	86.25
235.349	76.25
235.583	90.25
235.817	73.25
236.051	71.25
236.285	56.25
236.519	65.25
236.753	70.25
236.987	83.25
237.221	72.25
237.455	86.25
237.689	78.25
237.922	72.25
238.156	61.25
238.39	72.25
238.624	85.25
238.858	67.25
239.091	78.25
239.325	84.25
239.559	72.25
239.793	72.25
240.027	76.25
240.26	80.25
240.494	64.25
240.728	70.25
240.961	66.25
241.195	71.25
241.429	66.25
241.662	65.25
241.896	74.25
242.13	67.25
242.363	66.25
242.597	71.25
242.83	88.25
243.064	70.25
243.298	68.25
243.531	85.25
243.765	78.25
243.998	66.25
244.232	77.25
244.465	71.25
244.699	73.25
244.932	66.25
245.166	78.25
245.399	64.25
245.633	58.25
245.866	67.25
246.099	82.25
246.333	76.25
246.566	71.25
246.8	85.25
247.033	73.25
247.266	74.25
247.5	68.25
247.733	72.25
247.966	91.25
248.2	54.25
248.433	63.25
248.666	70.25
248.899	75.25
249.133	93.25
249.366	86.25
249.599	86.25
249.832	93.25
250.066	85.25
250.299	78.25
250.532	62.25
250.765	81.25
250.998	77.25
251.231	75.25
251.465	78.25
251.698	80.25
251.931	78.25
252.164	75.25
252.397	59.25
252.63	74.25
252.863	72.25
253.096	74.25
253.329	58.25
253.562	82.25
253.795	79.25
254.028	77.25
254.261	75.25
254.494	68.25
254.727	78.25
254.96	78.25
255.193	71.25
255.426	72.25
255.659	63.25
255.892	77.25
256.124	87.25
256.357	66.25
256.59	77.25
256.823	62.25
257.056	70.25
257.289	65.25
257.521	69.25
257.754	87.25
257.987	79.25
258.22	84.25
258.452	81.25
258.685	93.25
258.918	72.25
259.151	61.25
259.383	82.25
259.616	73.25
259.849	78.25
260.081	86.25
260.314	83.25
260.547	84.25
260.779	86.25
261.012	75.25
261.244	78.25
261.477	86.25
261.71	86.25
261.942	104.25
262.175	126.25
262.407	94.25
262.64	70.25
262.872	81.25
263.105	89.25
263.337	87.25
263.57	77.25
263.802	66.25
264.035	85.25
264.267	61.25
264.499	87.25
264.732	84.25
264.964	90.25
265.197	78.25
265.429	69.25
265.661	83.25
265.894	105.25
266.126	79.25
266.358	79.25
266.591	68.25
266.823	93.25
267.055	88.25
267.287	69.25
267.52	85.25
267.752	73.25
267.984	71.25
268.216	86.25
268.448	88.25
268.681	79.25
268.913	88.25
269.145	93.25
269.377	66.25
269.609	77.25
269.841	81.25
270.073	88.25
270.306	68.25
270.538	76.25
270.77	74.25
271.002	74.25
271.234	88.25
271.466	82.25
271.698	76.25
271.93	75.25
272.162	89.25
272.394	79.25
272.626	88.25
272.858	74.25
273.09	82.25
273.322	86.25
273.553	89.25
273.785	80.25
274.017	85.25
274.249	88.25
274.481	79.25
274.713	67.25
274.945	86.25
275.176	97.25
275.408	81.25
275.64	78.25
275.872	86.25
276.104	76.25
276.335	91.25
276.567	101.25
276.799	114.25
277.031	83.25
277.262	95.25
277.494	85.25
277.726	84.25
277.957	89.25
278.189	89.25
278.421	86.25
278.652	94.25
278.884	91.25
279.115	90.25
279.347	80.25
279.579	86.25
279.81	81.25
280.042	82.25
280.273	84.25
280.505	87.25
280.736	91.25
280.968	88.25
281.199	85.25
281.431	81.25
281.662	90.25
281.894	86.25
282.125	104.25
282.356	109.25
282.588	126.25
282.819	89.25
283.051	105.25
283.282	81.25
283.513	79.25
283.745	79.25
283.976	80.25
284.207	92.25
284.439	79.25
284.67	93.25
284.901	88.25
285.132	85.25
285.364	70.25
285.595	77.25
285.826	74.25
286.057	74.25
286.288	82.25
286.52	72.25
286.751	92.25
286.982	88.25
287.213	80.25
287.444	84.25
287.675	88.25
287.906	83.25
288.138	81.25
288.369	86.25
288.6	82.25
288.831	74.25
289.062	72.25
289.293	73.25
289.524	91.25
289.755	78.25
289.986	76.25
290.217	74.25
290.448	88.25
290.679	86.25
290.91	78.25
291.141	82.25
291.371	85.25
291.602	57.25
291.833	88.25
292.064	89.25
292.295	81.25
292.526	90.25
292.757	81.25
292.987	89.25
293.218	88.25
293.449	78.25
293.68	84.25
293.91	72.25
294.141	88.25
294.372	80.25
294.603	76.25
294.833	85.25
295.064	92.25
295.295	79.25
295.525	97.25
295.756	114.25
295.987	110.25
296.217	125.25
296.448	129.25
296.679	89.25
296.909	86.25
297.14	77.25
297.37	72.25
297.601	84.25
297.831	74.25
298.062	85.25
298.292	90.25
298.523	88.25
298.753	89.25
298.984	87.25
299.214	81.25
299.445	104.25
299.675	93.25
299.905	95.25
300.136	97.25
300.366	88.25
300.597	86.25
300.827	92.25
301.057	93.25
301.288	101.25
301.518	83.25
301.748	69.25
301.979	97.25
302.209	82.25
302.439	104.25
302.669	94.25
302.9	84.25
303.13	84.25
303.36	80.25
303.59	95.25
303.82	80.25
304.051	99.25
304.281	85.25
304.511	96.25
304.741	68.25
304.971	89.25
305.201	89.25
305.431	92.25
305.661	93.25
305.891	96.25
306.121	102.25
306.352	103.25
306.582	106.25
306.812	100.25
307.042	97.25
307.272	75.25
307.502	91.25
307.731	81.25
307.961	88.25
308.191	92.25
308.421	85.25
308.651	90.25
308.881	98.25
309.111	83.25
309.341	97.25
309.571	94.25
309.8	105.25
310.03	93.25
310.26	93.25
310.49	90.25
310.72	94.25
310.949	115.25
311.179	93.25
311.409	89.25
311.639	91.25
311.868	97.25
312.098	102.25
312.328	85.25
312.557	103.25
312.787	94.25
313.017	106.25
313.246	106.25
313.476	82.25
313.706	91.25
313.935	76.25
314.165	102.25
314.394	91.25
314.624	96.25
314.853	92.25
315.083	85.25
315.312	78.25
315.542	101.25
315.771	88.25
316.001	81.25
316.23	87.25
316.46	81.25
316.689	93.25
316.919	84.25
317.148	88.25
317.377	94.25
317.607	94.25
317.836	105.25
318.065	90.25
318.295	85.25
318.524	96.25
318.753	89.25
318.983	85.25
319.212	100.25
319.441	105.25
319.67	103.25
319.9	91.25
320.129	94.25
320.358	99.25
320.587	98.25
320.816	89.25
321.046	96.25
321.275	88.25
321.504	93.25
321.733	88.25
321.962	86.25
322.191	89.25
322.42	113.25
322.649	96.25
322.878	110.25
323.108	108.25
323.337	126.25
323.566	122.25
323.795	137.25
324.024	200.25
324.253	417.25
324.482	892.25
324.71	1863.25
324.939	2430.25
325.168	886.25
325.397	252.25
325.626	153.25
325.855	144.25
326.084	128.25
326.313	140.25
326.542	148.25
326.77	249.25
326.999	494.25
327.228	984.25
327.457	1857.25
327.686	1472.25
327.914	376.25
328.143	199.25
328.372	157.25
328.6	134.25
328.829	122.25
329.058	105.25
329.287	135.25
329.515	104.25
329.744	109.25
329.972	112.25
330.201	151.25
330.43	158.25
330.658	124.25
330.887	130.25
331.115	119.25
331.344	93.25
331.572	99.25
331.801	94.25
332.03	92.25
332.258	94.25
332.486	93.25
332.715	99.25
332.943	94.25
333.172	105.25
333.4	108.25
333.629	110.25
333.857	120.25
334.085	116.25
334.314	136.25
334.542	164.25
334.771	159.25
334.999	104.25
335.227	97.25
335.455	98.25
335.684	109.25
335.912	95.25
336.14	95.25
336.369	88.25
336.597	95.25
336.825	89.25
337.053	93.25
337.281	91.25
337.51	100.25
337.738	82.25
337.966	80.25
338.194	86.25
338.422	86.25
338.65	94.25
338.878	89.25
339.106	100.25
339.334	85.25
339.562	82.25
339.79	79.25
340.018	92.25
340.246	74.25
340.474	85.25
340.702	81.25
340.93	97.25
341.158	85.25
341.386	86.25
341.614	102.25
341.842	97.25
342.07	74.25
342.298	87.25
342.526	89.25
342.754	93.25
342.981	82.25
343.209	86.25
343.437	108.25
343.665	92.25
343.893	83.25
344.12	92.25
344.348	92.25
344.576	100.25
344.804	84.25
345.031	102.25
345.259	94.25
345.487	91.25
345.714	85.25
345.942	87.25
346.17	80.25
346.397	88.25
346.625	88.25
346.853	87.25
347.08	84.25
347.308	70.25
347.535	85.25
347.763	109.25
347.99	83.25
348.218	89.25
348.445	86.25
348.673	96.25
348.9	94.25
349.128	85.25
349.355	79.25
349.583	96.25
349.81	88.25
350.037	101.25
350.265	103.25
350.492	90.25
350.72	99.25
350.947	92.25
351.174	90.25
351.402	98.25
351.629	101.25
351.856	92.25
352.083	91.25
352.311	101.25
352.538	108.25
352.765	99.25
352.992	105.25
353.22	109.25
353.447	106.25
353.674	105.25
353.901	99.25
354.128	96.25
354.355	96.25
354.583	79.25
354.81	94.25
355.037	82.25
355.264	93.25
355.491	104.25
355.718	88.25
355.945	88.25
356.172	92.25
356.399	83.25
356.626	96.25
356.853	102.25
357.08	81.25
357.307	88.25
357.534	106.25
357.761	89.25
357.988	78.25
358.215	91.25
358.441	77.25
358.668	91.25
358.895	80.25
359.122	88.25
359.349	85.25
359.576	105.25
359.802	79.25
360.029	102.25
360.256	112.25
360.483	96.25
360.709	92.25
360.936	93.25
361.163	108.25
361.39	94.25
361.616	84.25
361.843	85.25
362.07	84.25
362.296	93.25
362.523	81.25
362.749	80.25
362.976	85.25
363.203	87.25
363.429	65.25
363.656	88.25
363.882	90.25
364.109	107.25
364.335	85.25
364.562	82.25
364.788	86.25
365.015	85.25
365.241	100.25
365.468	96.25
365.694	94.25
365.92	108.25
366.147	93.25
366.373	94.25
366.599	101.25
366.826	86.25
367.052	81.25
367.278	86.25
367.505	83.25
367.731	92.25
367.957	82.25
368.184	84.25
368.41	90.25
368.636	110.25
368.862	110.25
369.089	92.25
369.315	86.25
369.541	86.25
369.767	83.25
369.993	86.25
370.219	85.25
370.445	88.25
370.672	87.25
370.898	74.25
371.124	90.25
371.35	70.25
371.576	91.25
371.802	81.25
372.028	81.25
372.254	85.25
372.48	75.25
372.706	67.25
372.932	97.25
373.158	78.25
373.384	96.25
373.61	92.25
373.835	89.25
374.061	89.25
374.287	94.25
374.513	90.25
374.739	98.25
374.965	87.25
375.191	86.25
375.416	98.25
375.642	81.25
375.868	89.25
376.094	95.25
376.319	94.25
376.545	79.25
376.771	92.25
376.997	80.25
377.222	83.25
377.448	96.25
377.674	96.25
377.899	95.25
378.125	95.25
378.35	99.25
378.576	96.25
378.802	97.25
379.027	85.25
379.253	87.25
379.478	95.25
379.704	89.25
379.929	90.25
380.155	90.25
380.38	79.25
380.606	98.25
380.831	103.25
381.057	82.25
381.282	96.25
381.507	99.25
381.733	99.25
381.958	88.25
382.184	97.25
382.409	100.25
382.634	110.25
382.86	90.25
383.085	104.25
383.31	102.25
383.535	102.25
383.761	84.25
383.986	88.25
384.211	98.25
384.436	102.25
384.662	94.25
384.887	119.25
385.112	92.25
385.337	113.25
385.562	97.25
385.787	105.25
386.013	98.25
386.238	108.25
386.463	103.25
386.688	103.25
386.913	94.25
387.138	99.25
387.363	112.25
387.588	120.25
387.813	110.25
388.038	113.25
388.263	123.25
388.488	108.25
388.713	86.25
388.938	82.25
389.163	88.25
389.387	90.25
389.612	86.25
389.837	88.25
390.062	93.25
390.287	91.25
390.512	91.25
390.736	91.25
390.961	95.25
391.186	93.25
391.411	90.25
391.636	86.25
391.86	90.25
392.085	85.25
392.31	82.25
392.534	75.25
392.759	77.25
392.984	68.25
393.208	99.25
393.433	117.25
393.658	82.25
393.882	86.25
394.107	79.25
394.331	80.25
394.556	87.25
394.78	83.25
395.005	87.25
395.229	97.25
395.454	78.25
395.678	76.25
395.903	81.25
396.127	92.25
396.352	89.25
396.576	83.25
396.801	87.25
397.025	89.25
397.249	74.25
397.474	82.25
397.698	82.25
397.922	77.25
398.147	92.25
398.371	86.25
398.595	79.25
398.82	91.25
399.044	86.25
399.268	76.25
399.492	88.25
399.717	92.25
399.941	79.25
400.165	94.25
400.389	79.25
400.613	85.25
400.837	81.25
401.062	87.25
401.286	77.25
401.51	85.25
401.734	79.25
401.958	90.25
402.182	121.25
402.406	152.25
402.63	116.25
402.854	89.25
403.078	86.25
403.302	78.25
403.526	74.25
403.75	95.25
403.974	86.25
404.198	82.25
404.422	93.25
404.645	88.25
404.869	96.25
405.093	82.25
405.317	100.25
405.541	85.25
405.765	93.25
405.988	121.25
406.212	151.25
406.436	236.25
406.66	125.25
406.883	114.25
407.107	102.25
407.331	96.25
407.555	108.25
407.778	102.25
408.002	80.25
408.226	102.25
408.449	92.25
408.673	83.25
408.896	80.25
409.12	103.25
409.344	82.25
409.567	75.25
409.791	81.25
410.014	93.25
410.238	100.25
410.461	100.25
410.685	86.25
410.908	100.25
411.132	97.25
411.355	81.25
411.578	83.25
411.802	94.25
412.025	72.25
412.249	99.25
412.472	97.25
412.695	88.25
412.919	96.25
413.142	89.25
413.365	88.25
413.589	98.25
413.812	97.25
414.035	87.25
414.258	80.25
414.482	101.25
414.705	83.25
414.928	90.25
415.151	95.25
415.374	93.25
415.597	84.25
415.821	84.25
416.044	75.25
416.267	74.25
416.49	87.25
416.713	97.25
416.936	88.25
417.159	77.25
417.382	88.25
417.605	84.25
417.828	87.25
418.051	81.25
418.274	77.25
418.497	85.25
418.72	81.25
418.943	85.25
419.166	93.25
419.389	95.25
419.611	95.25
419.834	86.25
420.057	74.25
420.28	81.25
420.503	79.25
420.726	85.25
420.948	74.25
421.171	96.25
421.394	106.25
421.617	94.25
421.839	86.25
422.062	79.25
422.285	89.25
422.507	80.25
422.73	109.25
422.953	82.25
423.175	84.25
423.398	92.25
423.621	91.25
423.843	87.25
424.066	69.25
424.288	88.25
424.511	94.25
424.733	96.25
424.956	97.25
425.178	92.25
425.401	88.25
425.623	98.25
425.846	89.25
426.068	101.25
426.291	81.25
426.513	85.25
426.735	85.25
426.958	100.25
427.18	103.25
427.402	105.25
427.625	161.25
427.847	129.25
428.069	113.25
428.292	88.25
428.514	89.25
428.736	78.25
428.958	79.25
429.181	72.25
429.403	85.25
429.625	88.25
429.847	101.25
430.069	107.25
430.292	88.25
430.514	85.25
430.736	94.25
430.958	94.25
431.18	89.25
431.402	88.25
431.624	96.25
431.846	94.25
432.068	79.25
432.29	80.25
432.512	91.25
432.734	76.25
432.956	94.25
433.178	101.25
433.4	93.25
433.622	96.25
433.844	95.25
434.066	94.25
434.287	86.25
434.509	81.25
434.731	84.25
434.953	90.25
435.175	98.25
435.397	105.25
435.618	90.25
435.84	87.25
436.062	110.25
436.284	112.25
436.505	90.25
436.727	84.25
436.949	93.25
437.17	93.25
437.392	83.25
437.614	88.25
437.835	101.25
438.057	111.25
438.278	116.25
438.5	97.25
438.721	117.25
438.943	109.25
439.165	92.25
439.386	95.25
439.608	94.25
439.829	104.25
440.05	129.25
440.272	131.25
440.493	95.25
440.715	83.25
440.936	78.25
441.158	85.25
441.379	81.25
441.6	86.25
441.822	88.25
442.043	101.25
442.264	95.25
442.486	102.25
442.707	102.25
442.928	112.25
443.149	120.25
443.371	127.25
443.592	110.25
443.813	104.25
444.034	120.25
444.255	93.25
444.476	90.25
444.698	84.25
444.919	90.25
445.14	128.25
445.361	120.25
445.582	108.25
445.803	140.25
446.024	126.25
446.245	133.25
446.466	122.25
446.687	83.25
446.908	84.25
447.129	78.25
447.35	89.25
447.571	69.25
447.792	88.25
448.013	82.25
448.234	96.25
448.455	80.25
448.675	113.25
448.896	129.25
449.117	96.25
449.338	96.25
449.559	132.25
449.779	128.25
450	94.25
450.221	93.25
450.442	112.25
450.662	86.25
450.883	92.25
451.104	104.25
451.324	87.25
451.545	85.25
451.766	82.25
451.986	87.25
452.207	89.25
452.428	78.25
452.648	100.25
452.869	108.25
453.089	126.25
453.31	125.25
453.53	92.25
453.751	92.25
453.971	91.25
454.192	120.25
454.412	90.25
454.633	72.25
454.853	78.25
455.073	82.25
455.294	76.25
455.514	93.25
455.734	98.25
455.955	77.25
456.175	86.25
456.395	93.25
456.616	82.25
456.836	90.25
457.056	89.25
457.276	77.25
457.497	93.25
457.717	87.25
457.937	82.25
458.157	84.25
458.377	87.25
458.598	99.25
458.818	152.25
459.038	152.25
459.258	108.25
459.478	89.25
459.698	82.25
459.918	94.25
460.138	90.25
460.358	78.25
460.578	77.25
460.798	89.25
461.018	82.25
461.238	80.25
461.458	73.25
461.678	94.25
461.898	75.25
462.118	74.25
462.338	73.25
462.558	87.25
462.777	74.25
462.997	77.25
463.217	74.25
463.437	80.25
463.657	74.25
463.876	79.25
464.096	82.25
464.316	85.25
464.536	77.25
464.755	88.25
464.975	89.25
465.195	170.25
465.414	153.25
465.634	88.25
465.854	94.25
466.073	84.25
466.293	85.25
466.512	85.25
466.732	83.25
466.951	92.25
467.171	98.25
467.391	89.25
467.61	106.25
467.829	109.25
468.049	120.25
468.268	132.25
468.488	89.25
468.707	75.25
468.927	84.25
469.146	75.25
469.365	82.25
469.585	85.25
469.804	103.25
470.023	99.25
470.243	89.25
470.462	86.25
470.681	105.25
470.901	95.25
471.12	79.25
471.339	90.25
471.558	81.25
471.777	93.25
471.997	90.25
472.216	126.25
472.435	208.25
472.654	130.25
472.873	81.25
473.092	96.25
473.311	89.25
473.53	81.25
473.749	86.25
473.968	88.25
474.187	77.25
474.406	95.25
474.625	104.25
474.844	87.25
475.063	81.25
475.282	81.25
475.501	90.25
475.72	98.25
475.939	79.25
476.158	79.25
476.377	75.25
476.596	88.25
476.814	78.25
477.033	78.25
477.252	88.25
477.471	94.25
477.69	95.25
477.908	93.25
478.127	84.25
478.346	85.25
478.564	84.25
478.783	80.25
479.002	91.25
479.22	95.25
479.439	89.25
479.658	108.25
479.876	81.25
480.095	87.25
480.313	85.25
480.532	96.25
480.751	97.25
480.969	161.25
481.188	330.25
481.406	226.25
481.624	92.25
481.843	78.25
482.061	81.25
482.28	88.25
482.498	77.25
482.717	79.25
482.935	67.25
483.153	84.25
483.372	88.25
483.59	96.25
483.808	91.25
484.027	88.25
484.245	92.25
484.463	86.25
484.681	102.25
484.9	82.25
485.118	88.25
485.336	85.25
485.554	91.25
485.772	93.25
485.99	98.25
486.209	96.25
486.427	93.25
486.645	105.25
486.863	110.25
487.081	103.25
487.299	95.25
487.517	89.25
487.735	109.25
487.953	88.25
488.171	90.25
488.389	81.25
488.607	90.25
488.825	73.25
489.043	82.25
489.261	84.25
489.479	83.25
489.696	92.25
489.914	86.25
490.132	93.25
490.35	74.25
490.568	95.25
490.786	98.25
491.003	85.25
491.221	100.25
491.439	85.25
491.657	92.25
491.874	75.25
492.092	96.25
492.31	74.25
492.527	70.25
492.745	80.25
492.963	97.25
493.18	87.25
493.398	88.25
493.615	86.25
493.833	96.25
494.05	80.25
494.268	81.25
494.485	98.25
494.703	95.25
494.92	81.25
495.138	85.25
495.355	88.25
495.573	87.25
495.79	98.25
496.008	96.25
496.225	84.25
496.442	81.25
496.66	75.25
496.877	77.25
497.094	72.25
497.312	95.25
497.529	89.25
497.746	86.25
497.963	86.25
498.181	76.25
498.398	97.25
498.615	103.25
498.832	109.25
499.049	84.25
499.267	82.25
499.484	92.25
499.701	89.25
499.918	85.25
500.135	102.25
500.352	87.25
500.569	88.25
500.786	85.25
501.003	95.25
501.22	89.25
501.437	90.25
501.654	87.25
501.871	95.25
502.088	63.25
502.305	103.25
502.522	86.25
502.739	85.25
502.956	86.25
503.172	82.25
503.389	79.25
503.606	99.25
503.823	92.25
504.04	88.25
504.256	80.25
504.473	85.25
504.69	86.25
504.907	85.25
505.123	82.25
505.34	94.25
505.557	81.25
505.773	91.25
505.99	83.25
506.207	75.25
506.423	87.25
506.64	89.25
506.856	86.25
507.073	96.25
507.289	79.25
507.506	75.25
507.722	106.25
507.939	111.25
508.155	79.25
508.372	85.25
508.588	97.25
508.805	92.25
509.021	91.25
509.238	88.25
509.454	98.25
509.67	103.25
509.887	95.25
510.103	120.25
510.319	198.25
510.536	800.25
510.752	2651.25
510.968	764.25
511.184	166.25
511.401	105.25
511.617	97.25
511.833	90.25
512.049	97.25
512.265	97.25
512.481	85.25
512.698	80.25
512.914	80.25
513.13	90.25
513.346	90.25
513.562	72.25
513.778	88.25
513.994	95.25
514.21	88.25
514.426	115.25
514.642	126.25
514.858	112.25
515.074	176.25
515.29	463.25
515.506	1566.25
515.721	592.25
515.937	159.25
516.153	104.25
516.369	84.25
516.585	79.25
