Data from Circ_2016_H10_HRD10591_00001.txt Node
Date: Wed Jan 03 09:58:40 EST 2024
User: Yrep
Spectrometer: HR+D1059
Trigger mode: 1
Integration Time (sec): 1.000000E-1
Scans to average: 1
Electric dark correction enabled: true
Nonlinearity correction enabled: false
Boxcar width: 0
XAxis mode: Wavelengths
Number of Pixels in Spectrum: 2048
>>>>>Begin Spectral Data<<<<<
223.165	0.12
223.4	0.12
223.635	0.12
223.869	-31.88
224.104	-14.88
224.338	-13.88
224.573	-15.88
224.808	-19.88
225.042	-6.88
225.277	-0.88
225.511	10.12
225.746	7.12
225.98	0.12
226.215	11.12
226.449	4.12
226.683	21.12
226.918	25.12
227.152	25.12
227.387	39.12
227.621	29.12
227.856	47.12
228.09	60.12
228.324	49.12
228.559	47.12
228.793	62.12
229.027	59.12
229.262	66.12
229.496	71.12
229.73	87.12
229.964	74.12
230.199	70.12
230.433	77.12
230.667	87.12
230.901	84.12
231.136	76.12
231.37	86.12
231.604	85.12
231.838	75.12
232.072	73.12
232.306	95.12
232.541	74.12
232.775	72.12
233.009	65.12
233.243	82.12
233.477	53.12
233.711	83.12
233.945	88.12
234.179	73.12
234.413	77.12
234.647	75.12
234.881	79.12
235.115	72.12
235.349	71.12
235.583	75.12
235.817	75.12
236.051	83.12
236.285	73.12
236.519	73.12
236.753	61.12
236.987	80.12
237.221	79.12
237.455	87.12
237.689	72.12
237.922	70.12
238.156	66.12
238.39	75.12
238.624	59.12
238.858	81.12
239.091	67.12
239.325	90.12
239.559	84.12
239.793	90.12
240.027	85.12
240.26	58.12
240.494	67.12
240.728	75.12
240.961	77.12
241.195	81.12
241.429	78.12
241.662	68.12
241.896	71.12
242.13	77.12
242.363	79.12
242.597	77.12
242.83	73.12
243.064	73.12
243.298	89.12
243.531	79.12
243.765	75.12
243.998	70.12
244.232	79.12
244.465	60.12
244.699	72.12
244.932	72.12
245.166	77.12
245.399	86.12
245.633	86.12
245.866	92.12
246.099	74.12
246.333	82.12
246.566	74.12
246.8	79.12
247.033	77.12
247.266	69.12
247.5	85.12
247.733	67.12
247.966	76.12
248.2	90.12
248.433	81.12
248.666	64.12
248.899	75.12
249.133	74.12
249.366	92.12
249.599	74.12
249.832	80.12
250.066	83.12
250.299	67.12
250.532	81.12
250.765	72.12
250.998	83.12
251.231	92.12
251.465	73.12
251.698	72.12
251.931	83.12
252.164	77.12
252.397	69.12
252.63	75.12
252.863	70.12
253.096	75.12
253.329	78.12
253.562	74.12
253.795	83.12
254.028	70.12
254.261	84.12
254.494	84.12
254.727	87.12
254.96	79.12
255.193	70.12
255.426	87.12
255.659	65.12
255.892	79.12
256.124	77.12
256.357	83.12
256.59	74.12
256.823	90.12
257.056	81.12
257.289	72.12
257.521	82.12
257.754	67.12
257.987	69.12
258.22	78.12
258.452	92.12
258.685	79.12
258.918	75.12
259.151	75.12
259.383	73.12
259.616	76.12
259.849	75.12
260.081	86.12
260.314	76.12
260.547	82.12
260.779	69.12
261.012	83.12
261.244	85.12
261.477	95.12
261.71	100.12
261.942	100.12
262.175	100.12
262.407	91.12
262.64	92.12
262.872	73.12
263.105	70.12
263.337	83.12
263.57	73.12
263.802	72.12
264.035	92.12
264.267	83.12
264.499	81.12
264.732	72.12
264.964	81.12
265.197	78.12
265.429	83.12
265.661	90.12
265.894	83.12
266.126	91.12
266.358	74.12
266.591	70.12
266.823	85.12
267.055	80.12
267.287	88.12
267.52	76.12
267.752	93.12
267.984	83.12
268.216	88.12
268.448	83.12
268.681	86.12
268.913	79.12
269.145	85.12
269.377	90.12
269.609	89.12
269.841	84.12
270.073	84.12
270.306	94.12
270.538	84.12
270.77	91.12
271.002	87.12
271.234	85.12
271.466	78.12
271.698	87.12
271.93	83.12
272.162	93.12
272.394	90.12
272.626	89.12
272.858	82.12
273.09	69.12
273.322	93.12
273.553	71.12
273.785	81.12
274.017	73.12
274.249	91.12
274.481	81.12
274.713	85.12
274.945	84.12
275.176	84.12
275.408	61.12
275.64	67.12
275.872	74.12
276.104	95.12
276.335	90.12
276.567	86.12
276.799	84.12
277.031	102.12
277.262	72.12
277.494	92.12
277.726	85.12
277.957	79.12
278.189	84.12
278.421	85.12
278.652	94.12
278.884	88.12
279.115	88.12
279.347	81.12
279.579	74.12
279.81	101.12
280.042	89.12
280.273	85.12
280.505	87.12
280.736	81.12
280.968	75.12
281.199	84.12
281.431	76.12
281.662	83.12
281.894	83.12
282.125	88.12
282.356	101.12
282.588	106.12
282.819	98.12
283.051	92.12
283.282	79.12
283.513	92.12
283.745	90.12
283.976	82.12
284.207	77.12
284.439	86.12
284.67	94.12
284.901	82.12
285.132	86.12
285.364	88.12
285.595	80.12
285.826	96.12
286.057	88.12
286.288	77.12
286.52	76.12
286.751	90.12
286.982	84.12
287.213	85.12
287.444	77.12
287.675	81.12
287.906	76.12
288.138	70.12
288.369	79.12
288.6	90.12
288.831	89.12
289.062	91.12
289.293	80.12
289.524	100.12
289.755	89.12
289.986	84.12
290.217	81.12
290.448	93.12
290.679	83.12
290.91	93.12
291.141	90.12
291.371	86.12
291.602	82.12
291.833	83.12
292.064	88.12
292.295	87.12
292.526	91.12
292.757	87.12
292.987	88.12
293.218	90.12
293.449	102.12
293.68	79.12
293.91	87.12
294.141	84.12
294.372	91.12
294.603	91.12
294.833	66.12
295.064	86.12
295.295	84.12
295.525	87.12
295.756	96.12
295.987	107.12
296.217	113.12
296.448	107.12
296.679	89.12
296.909	97.12
297.14	80.12
297.37	93.12
297.601	93.12
297.831	88.12
298.062	89.12
298.292	87.12
298.523	90.12
298.753	79.12
298.984	74.12
299.214	95.12
299.445	86.12
299.675	92.12
299.905	95.12
300.136	102.12
300.366	95.12
300.597	96.12
300.827	77.12
301.057	81.12
301.288	91.12
301.518	87.12
301.748	80.12
301.979	88.12
302.209	80.12
302.439	88.12
302.669	89.12
302.9	100.12
303.13	94.12
303.36	106.12
303.59	98.12
303.82	111.12
304.051	87.12
304.281	94.12
304.511	80.12
304.741	88.12
304.971	99.12
305.201	91.12
305.431	88.12
305.661	87.12
305.891	97.12
306.121	111.12
306.352	92.12
306.582	100.12
306.812	88.12
307.042	81.12
307.272	96.12
307.502	91.12
307.731	99.12
307.961	88.12
308.191	76.12
308.421	92.12
308.651	87.12
308.881	99.12
309.111	97.12
309.341	89.12
309.571	90.12
309.8	98.12
310.03	96.12
310.26	107.12
310.49	103.12
310.72	82.12
310.949	99.12
311.179	92.12
311.409	89.12
311.639	111.12
311.868	81.12
312.098	88.12
312.328	93.12
312.557	106.12
312.787	78.12
313.017	96.12
313.246	86.12
313.476	82.12
313.706	90.12
313.935	87.12
314.165	89.12
314.394	96.12
314.624	102.12
314.853	79.12
315.083	87.12
315.312	80.12
315.542	86.12
315.771	84.12
316.001	96.12
316.23	84.12
316.46	89.12
316.689	87.12
316.919	92.12
317.148	92.12
317.377	98.12
317.607	90.12
317.836	91.12
318.065	80.12
318.295	86.12
318.524	80.12
318.753	90.12
318.983	91.12
319.212	90.12
319.441	97.12
319.67	101.12
319.9	99.12
320.129	95.12
320.358	103.12
320.587	89.12
320.816	99.12
321.046	90.12
321.275	90.12
321.504	94.12
321.733	89.12
321.962	89.12
322.191	92.12
322.42	97.12
322.649	98.12
322.878	111.12
323.108	103.12
323.337	112.12
323.566	118.12
323.795	128.12
324.024	166.12
324.253	300.12
324.482	620.12
324.71	1176.12
324.939	1577.12
325.168	613.12
325.397	194.12
325.626	131.12
325.855	130.12
326.084	111.12
326.313	127.12
326.542	139.12
326.77	191.12
326.999	372.12
327.228	748.12
327.457	1248.12
327.686	1024.12
327.914	294.12
328.143	162.12
328.372	141.12
328.6	116.12
328.829	103.12
329.058	107.12
329.287	112.12
329.515	92.12
329.744	94.12
329.972	104.12
330.201	99.12
330.43	88.12
330.658	107.12
330.887	111.12
331.115	117.12
331.344	100.12
331.572	90.12
331.801	90.12
332.03	98.12
332.258	97.12
332.486	103.12
332.715	89.12
332.943	105.12
333.172	97.12
333.4	82.12
333.629	88.12
333.857	91.12
334.085	104.12
334.314	79.12
334.542	93.12
334.771	97.12
334.999	101.12
335.227	98.12
335.455	89.12
335.684	103.12
335.912	83.12
336.14	104.12
336.369	95.12
336.597	97.12
336.825	88.12
337.053	97.12
337.281	114.12
337.51	98.12
337.738	96.12
337.966	98.12
338.194	98.12
338.422	83.12
338.65	97.12
338.878	92.12
339.106	99.12
339.334	97.12
339.562	97.12
339.79	96.12
340.018	99.12
340.246	85.12
340.474	87.12
340.702	92.12
340.93	82.12
341.158	92.12
341.386	95.12
341.614	98.12
341.842	91.12
342.07	101.12
342.298	93.12
342.526	92.12
342.754	86.12
342.981	90.12
343.209	86.12
343.437	93.12
343.665	96.12
343.893	101.12
344.12	87.12
344.348	91.12
344.576	100.12
344.804	85.12
345.031	99.12
345.259	104.12
345.487	93.12
345.714	102.12
345.942	100.12
346.17	87.12
346.397	94.12
346.625	88.12
346.853	99.12
347.08	93.12
347.308	96.12
347.535	92.12
347.763	99.12
347.99	94.12
348.218	91.12
348.445	103.12
348.673	99.12
348.9	102.12
349.128	90.12
349.355	90.12
349.583	95.12
349.81	90.12
350.037	88.12
350.265	91.12
350.492	85.12
350.72	99.12
350.947	101.12
351.174	88.12
351.402	100.12
351.629	98.12
351.856	113.12
352.083	101.12
352.311	104.12
352.538	108.12
352.765	105.12
352.992	115.12
353.22	120.12
353.447	87.12
353.674	116.12
353.901	100.12
354.128	87.12
354.355	113.12
354.583	97.12
354.81	109.12
355.037	111.12
355.264	111.12
355.491	107.12
355.718	87.12
355.945	106.12
356.172	107.12
356.399	121.12
356.626	103.12
356.853	98.12
357.08	111.12
357.307	103.12
357.534	106.12
357.761	119.12
357.988	118.12
358.215	108.12
358.441	130.12
358.668	131.12
358.895	115.12
359.122	111.12
359.349	100.12
359.576	99.12
359.802	81.12
360.029	100.12
360.256	108.12
360.483	91.12
360.709	95.12
360.936	103.12
361.163	88.12
361.39	93.12
361.616	94.12
361.843	92.12
362.07	102.12
362.296	82.12
362.523	92.12
362.749	83.12
362.976	93.12
363.203	90.12
363.429	105.12
363.656	93.12
363.882	96.12
364.109	90.12
364.335	76.12
364.562	90.12
364.788	90.12
365.015	102.12
365.241	91.12
365.468	93.12
365.694	113.12
365.92	75.12
366.147	90.12
366.373	95.12
366.599	96.12
366.826	83.12
367.052	81.12
367.278	97.12
367.505	83.12
367.731	87.12
367.957	96.12
368.184	93.12
368.41	83.12
368.636	90.12
368.862	115.12
369.089	89.12
369.315	97.12
369.541	95.12
369.767	88.12
369.993	79.12
370.219	104.12
370.445	92.12
370.672	97.12
370.898	99.12
371.124	91.12
371.35	76.12
371.576	84.12
371.802	93.12
372.028	92.12
372.254	90.12
372.48	90.12
372.706	83.12
372.932	103.12
373.158	88.12
373.384	92.12
373.61	91.12
373.835	87.12
374.061	104.12
374.287	93.12
374.513	111.12
374.739	96.12
374.965	89.12
375.191	101.12
375.416	101.12
375.642	81.12
375.868	98.12
376.094	107.12
376.319	119.12
376.545	98.12
376.771	103.12
376.997	101.12
377.222	101.12
377.448	95.12
377.674	107.12
377.899	101.12
378.125	101.12
378.35	110.12
378.576	103.12
378.802	103.12
379.027	119.12
379.253	129.12
379.478	121.12
379.704	112.12
379.929	107.12
380.155	133.12
380.38	144.12
380.606	123.12
380.831	137.12
381.057	140.12
381.282	136.12
381.507	145.12
381.733	142.12
381.958	140.12
382.184	151.12
382.409	155.12
382.634	155.12
382.86	136.12
383.085	149.12
383.31	151.12
383.535	161.12
383.761	155.12
383.986	161.12
384.211	163.12
384.436	170.12
384.662	173.12
384.887	204.12
385.112	213.12
385.337	228.12
385.562	217.12
385.787	213.12
386.013	212.12
386.238	209.12
386.463	201.12
386.688	192.12
386.913	199.12
387.138	243.12
387.363	192.12
387.588	149.12
387.813	158.12
388.038	209.12
388.263	239.12
388.488	227.12
388.713	141.12
388.938	91.12
389.163	102.12
389.387	110.12
389.612	100.12
389.837	80.12
390.062	89.12
390.287	99.12
390.512	93.12
390.736	93.12
390.961	74.12
391.186	99.12
391.411	95.12
391.636	92.12
391.86	90.12
392.085	94.12
392.31	104.12
392.534	84.12
392.759	89.12
392.984	110.12
393.208	119.12
393.433	178.12
393.658	151.12
393.882	97.12
394.107	92.12
394.331	91.12
394.556	80.12
394.78	102.12
395.005	91.12
395.229	75.12
395.454	91.12
395.678	83.12
395.903	103.12
396.127	86.12
396.352	99.12
396.576	97.12
396.801	104.12
397.025	130.12
397.249	102.12
397.474	83.12
397.698	95.12
397.922	85.12
398.147	86.12
398.371	82.12
398.595	101.12
398.82	80.12
399.044	81.12
399.268	92.12
399.492	84.12
399.717	86.12
399.941	77.12
400.165	83.12
400.389	81.12
400.613	81.12
400.837	85.12
401.062	79.12
401.286	91.12
401.51	90.12
401.734	110.12
401.958	88.12
402.182	88.12
402.406	120.12
402.63	117.12
402.854	91.12
403.078	87.12
403.302	86.12
403.526	78.12
403.75	89.12
403.974	96.12
404.198	83.12
404.422	98.12
404.645	96.12
404.869	91.12
405.093	86.12
405.317	91.12
405.541	90.12
405.765	92.12
405.988	105.12
406.212	123.12
406.436	152.12
406.66	104.12
406.883	82.12
407.107	85.12
407.331	99.12
407.555	91.12
407.778	95.12
408.002	88.12
408.226	95.12
408.449	92.12
408.673	92.12
408.896	99.12
409.12	95.12
409.344	94.12
409.567	100.12
409.791	82.12
410.014	104.12
410.238	102.12
410.461	95.12
410.685	85.12
410.908	108.12
411.132	99.12
411.355	102.12
411.578	104.12
411.802	86.12
412.025	92.12
412.249	89.12
412.472	86.12
412.695	88.12
412.919	100.12
413.142	94.12
413.365	90.12
413.589	96.12
413.812	86.12
414.035	91.12
414.258	95.12
414.482	92.12
414.705	107.12
414.928	90.12
415.151	106.12
415.374	100.12
415.597	99.12
415.821	120.12
416.044	88.12
416.267	96.12
416.49	87.12
416.713	110.12
416.936	91.12
417.159	96.12
417.382	81.12
417.605	90.12
417.828	92.12
418.051	96.12
418.274	86.12
418.497	92.12
418.72	104.12
418.943	88.12
419.166	91.12
419.389	108.12
419.611	103.12
419.834	107.12
420.057	90.12
420.28	91.12
420.503	88.12
420.726	81.12
420.948	88.12
421.171	87.12
421.394	96.12
421.617	90.12
421.839	89.12
422.062	104.12
422.285	96.12
422.507	114.12
422.73	165.12
422.953	143.12
423.175	102.12
423.398	100.12
423.621	85.12
423.843	89.12
424.066	100.12
424.288	95.12
424.511	92.12
424.733	81.12
424.956	85.12
425.178	94.12
425.401	92.12
425.623	72.12
425.846	83.12
426.068	91.12
426.291	81.12
426.513	85.12
426.735	90.12
426.958	94.12
427.18	103.12
427.402	125.12
427.625	135.12
427.847	113.12
428.069	88.12
428.292	91.12
428.514	98.12
428.736	85.12
428.958	80.12
429.181	96.12
429.403	73.12
429.625	90.12
429.847	90.12
430.069	92.12
430.292	88.12
430.514	86.12
430.736	84.12
430.958	77.12
431.18	77.12
431.402	81.12
431.624	70.12
431.846	96.12
432.068	75.12
432.29	86.12
432.512	88.12
432.734	85.12
432.956	84.12
433.178	90.12
433.4	97.12
433.622	85.12
433.844	88.12
434.066	92.12
434.287	91.12
434.509	77.12
434.731	88.12
434.953	78.12
435.175	80.12
435.397	86.12
435.618	68.12
435.84	95.12
436.062	93.12
436.284	116.12
436.505	91.12
436.727	91.12
436.949	74.12
437.17	89.12
437.392	88.12
437.614	90.12
437.835	94.12
438.057	103.12
438.278	90.12
438.5	93.12
438.721	105.12
438.943	93.12
439.165	90.12
439.386	75.12
439.608	82.12
439.829	89.12
440.05	87.12
440.272	104.12
440.493	85.12
440.715	80.12
440.936	85.12
441.158	84.12
441.379	105.12
441.6	98.12
441.822	75.12
442.043	95.12
442.264	82.12
442.486	101.12
442.707	88.12
442.928	102.12
443.149	102.12
443.371	116.12
443.592	116.12
443.813	99.12
444.034	101.12
444.255	100.12
444.476	88.12
444.698	83.12
444.919	87.12
445.14	132.12
445.361	107.12
445.582	102.12
445.803	114.12
446.024	116.12
446.245	112.12
446.466	89.12
446.687	95.12
446.908	76.12
447.129	81.12
447.35	86.12
447.571	83.12
447.792	95.12
448.013	80.12
448.234	90.12
448.455	91.12
448.675	103.12
448.896	116.12
449.117	87.12
449.338	85.12
449.559	118.12
449.779	114.12
450	98.12
450.221	86.12
450.442	83.12
450.662	103.12
450.883	85.12
451.104	100.12
451.324	87.12
451.545	92.12
451.766	85.12
451.986	80.12
452.207	74.12
452.428	81.12
452.648	100.12
452.869	101.12
453.089	98.12
453.31	102.12
453.53	95.12
453.751	90.12
453.971	86.12
454.192	97.12
454.412	93.12
454.633	97.12
454.853	104.12
455.073	92.12
455.294	94.12
455.514	87.12
455.734	76.12
455.955	100.12
456.175	81.12
456.395	87.12
456.616	80.12
456.836	91.12
457.056	78.12
457.276	80.12
457.497	84.12
457.717	83.12
457.937	80.12
458.157	85.12
458.377	90.12
458.598	92.12
458.818	107.12
459.038	124.12
459.258	92.12
459.478	71.12
459.698	90.12
459.918	87.12
460.138	75.12
460.358	85.12
460.578	84.12
460.798	92.12
461.018	84.12
461.238	98.12
461.458	93.12
461.678	88.12
461.898	82.12
462.118	87.12
462.338	91.12
462.558	84.12
462.777	86.12
462.997	97.12
463.217	81.12
463.437	88.12
463.657	92.12
463.876	89.12
464.096	74.12
464.316	79.12
464.536	84.12
464.755	85.12
464.975	83.12
465.195	125.12
465.414	115.12
465.634	88.12
465.854	89.12
466.073	89.12
466.293	93.12
466.512	83.12
466.732	77.12
466.951	79.12
467.171	92.12
467.391	88.12
467.61	81.12
467.829	89.12
468.049	89.12
468.268	82.12
468.488	88.12
468.707	75.12
468.927	80.12
469.146	87.12
469.365	95.12
469.585	92.12
469.804	85.12
470.023	90.12
470.243	78.12
470.462	86.12
470.681	101.12
470.901	83.12
471.12	84.12
471.339	84.12
471.558	88.12
471.777	98.12
471.997	96.12
472.216	99.12
472.435	88.12
472.654	83.12
472.873	89.12
473.092	83.12
473.311	85.12
473.53	71.12
473.749	79.12
473.968	92.12
474.187	83.12
474.406	92.12
474.625	73.12
474.844	91.12
475.063	82.12
475.282	88.12
475.501	83.12
475.72	111.12
475.939	79.12
476.158	93.12
476.377	87.12
476.596	89.12
476.814	84.12
477.033	86.12
477.252	81.12
477.471	86.12
477.69	87.12
477.908	83.12
478.127	89.12
478.346	80.12
478.564	90.12
478.783	82.12
479.002	91.12
479.22	81.12
479.439	69.12
479.658	96.12
479.876	87.12
480.095	77.12
480.313	84.12
480.532	88.12
480.751	75.12
480.969	72.12
481.188	90.12
481.406	87.12
481.624	95.12
481.843	78.12
482.061	81.12
482.28	74.12
482.498	73.12
482.717	90.12
482.935	93.12
483.153	96.12
483.372	85.12
483.59	90.12
483.808	90.12
484.027	93.12
484.245	98.12
484.463	102.12
484.681	84.12
484.9	97.12
485.118	94.12
485.336	106.12
485.554	104.12
485.772	114.12
485.99	118.12
486.209	127.12
486.427	106.12
486.645	118.12
486.863	125.12
487.081	105.12
487.299	96.12
487.517	105.12
487.735	101.12
487.953	92.12
488.171	87.12
488.389	95.12
488.607	91.12
488.825	98.12
489.043	92.12
489.261	85.12
489.479	108.12
489.696	97.12
489.914	93.12
490.132	90.12
490.35	94.12
490.568	89.12
490.786	112.12
491.003	85.12
491.221	86.12
491.439	89.12
491.657	101.12
491.874	87.12
492.092	89.12
492.31	85.12
492.527	86.12
492.745	84.12
492.963	91.12
493.18	89.12
493.398	105.12
493.615	100.12
493.833	87.12
494.05	79.12
494.268	108.12
494.485	100.12
494.703	75.12
494.92	80.12
495.138	81.12
495.355	95.12
495.573	99.12
495.79	93.12
496.008	96.12
496.225	95.12
496.442	92.12
496.66	103.12
496.877	91.12
497.094	91.12
497.312	96.12
497.529	90.12
497.746	96.12
497.963	99.12
498.181	107.12
498.398	102.12
498.615	83.12
498.832	92.12
499.049	98.12
499.267	104.12
499.484	71.12
499.701	88.12
499.918	97.12
500.135	89.12
500.352	82.12
500.569	83.12
500.786	95.12
501.003	97.12
501.22	86.12
501.437	92.12
501.654	99.12
501.871	84.12
502.088	90.12
502.305	94.12
502.522	107.12
502.739	91.12
502.956	93.12
503.172	94.12
503.389	96.12
503.606	93.12
503.823	81.12
504.04	97.12
504.256	95.12
504.473	94.12
504.69	84.12
504.907	91.12
505.123	81.12
505.34	99.12
505.557	96.12
505.773	82.12
505.99	90.12
506.207	81.12
506.423	92.12
506.64	84.12
506.856	92.12
507.073	86.12
507.289	87.12
507.506	93.12
507.722	104.12
507.939	104.12
508.155	86.12
508.372	101.12
508.588	84.12
508.805	89.12
509.021	87.12
509.238	88.12
509.454	82.12
509.67	93.12
509.887	98.12
510.103	103.12
510.319	170.12
510.536	510.12
510.752	1572.12
510.968	495.12
511.184	131.12
511.401	98.12
511.617	91.12
511.833	80.12
512.049	84.12
512.265	102.12
512.481	94.12
512.698	101.12
512.914	96.12
513.13	89.12
513.346	96.12
513.562	84.12
513.778	94.12
513.994	100.12
514.21	113.12
514.426	113.12
514.642	105.12
514.858	105.12
515.074	129.12
515.29	266.12
515.506	841.12
515.721	349.12
515.937	137.12
