Data from Circ_2016_H10_HRD10591_00030.txt Node
Date: Wed Jan 03 09:58:46 EST 2024
User: Yrep
Spectrometer: HR+D1059
Trigger mode: 1
Integration Time (sec): 1.000000E-1
Scans to average: 1
Electric dark correction enabled: true
Nonlinearity correction enabled: false
Boxcar width: 0
XAxis mode: Wavelengths
Number of Pixels in Spectrum: 2048
>>>>>Begin Spectral Data<<<<<
223.165	-8.25
223.4	-8.25
223.635	-8.25
223.869	-32.25
224.104	-15.25
224.338	-24.25
224.573	-17.25
224.808	-6.25
225.042	-9.25
225.277	-6.25
225.511	-2.25
225.746	-6.25
225.98	12.75
226.215	8.75
226.449	20.75
226.683	26.75
226.918	24.75
227.152	33.75
227.387	40.75
227.621	34.75
227.856	37.75
228.09	55.75
228.324	48.75
228.559	52.75
228.793	64.75
229.027	44.75
229.262	76.75
229.496	80.75
229.73	92.75
229.964	77.75
230.199	78.75
230.433	64.75
230.667	72.75
230.901	77.75
231.136	71.75
231.37	67.75
231.604	68.75
231.838	75.75
232.072	76.75
232.306	61.75
232.541	88.75
232.775	80.75
233.009	101.75
233.243	80.75
233.477	74.75
233.711	81.75
233.945	82.75
234.179	72.75
234.413	97.75
234.647	76.75
234.881	90.75
235.115	81.75
235.349	69.75
235.583	73.75
235.817	83.75
236.051	81.75
236.285	70.75
236.519	64.75
236.753	92.75
236.987	91.75
237.221	73.75
237.455	82.75
237.689	61.75
237.922	80.75
238.156	67.75
238.39	68.75
238.624	79.75
238.858	77.75
239.091	91.75
239.325	76.75
239.559	87.75
239.793	78.75
240.027	73.75
240.26	98.75
240.494	92.75
240.728	91.75
240.961	69.75
241.195	68.75
241.429	80.75
241.662	76.75
241.896	76.75
242.13	58.75
242.363	72.75
242.597	99.75
242.83	82.75
243.064	81.75
243.298	72.75
243.531	74.75
243.765	76.75
243.998	89.75
244.232	75.75
244.465	100.75
244.699	82.75
244.932	77.75
245.166	77.75
245.399	67.75
245.633	80.75
245.866	83.75
246.099	70.75
246.333	90.75
246.566	85.75
246.8	97.75
247.033	75.75
247.266	77.75
247.5	65.75
247.733	74.75
247.966	79.75
248.2	78.75
248.433	65.75
248.666	78.75
248.899	92.75
249.133	80.75
249.366	102.75
249.599	87.75
249.832	76.75
250.066	86.75
250.299	91.75
250.532	78.75
250.765	88.75
250.998	68.75
251.231	65.75
251.465	74.75
251.698	77.75
251.931	86.75
252.164	72.75
252.397	80.75
252.63	76.75
252.863	81.75
253.096	83.75
253.329	78.75
253.562	82.75
253.795	85.75
254.028	75.75
254.261	98.75
254.494	69.75
254.727	83.75
254.96	100.75
255.193	85.75
255.426	78.75
255.659	94.75
255.892	84.75
256.124	86.75
256.357	83.75
256.59	83.75
256.823	73.75
257.056	67.75
257.289	82.75
257.521	86.75
257.754	85.75
257.987	85.75
258.22	66.75
258.452	82.75
258.685	87.75
258.918	78.75
259.151	66.75
259.383	90.75
259.616	83.75
259.849	81.75
260.081	83.75
260.314	92.75
260.547	91.75
260.779	95.75
261.012	81.75
261.244	77.75
261.477	84.75
261.71	96.75
261.942	112.75
262.175	139.75
262.407	96.75
262.64	76.75
262.872	77.75
263.105	75.75
263.337	82.75
263.57	93.75
263.802	100.75
264.035	97.75
264.267	83.75
264.499	83.75
264.732	91.75
264.964	78.75
265.197	95.75
265.429	81.75
265.661	84.75
265.894	93.75
266.126	71.75
266.358	86.75
266.591	96.75
266.823	85.75
267.055	77.75
267.287	85.75
267.52	83.75
267.752	84.75
267.984	86.75
268.216	88.75
268.448	73.75
268.681	78.75
268.913	83.75
269.145	76.75
269.377	70.75
269.609	85.75
269.841	77.75
270.073	68.75
270.306	78.75
270.538	82.75
270.77	94.75
271.002	86.75
271.234	78.75
271.466	85.75
271.698	101.75
271.93	86.75
272.162	94.75
272.394	98.75
272.626	92.75
272.858	87.75
273.09	81.75
273.322	99.75
273.553	82.75
273.785	88.75
274.017	87.75
274.249	85.75
274.481	93.75
274.713	74.75
274.945	72.75
275.176	85.75
275.408	84.75
275.64	93.75
275.872	90.75
276.104	80.75
276.335	97.75
276.567	108.75
276.799	121.75
277.031	104.75
277.262	90.75
277.494	83.75
277.726	91.75
277.957	91.75
278.189	86.75
278.421	96.75
278.652	85.75
278.884	76.75
279.115	82.75
279.347	91.75
279.579	97.75
279.81	88.75
280.042	83.75
280.273	85.75
280.505	89.75
280.736	100.75
280.968	82.75
281.199	73.75
281.431	79.75
281.662	94.75
281.894	103.75
282.125	118.75
282.356	146.75
282.588	154.75
282.819	128.75
283.051	84.75
283.282	89.75
283.513	85.75
283.745	99.75
283.976	81.75
284.207	82.75
284.439	90.75
284.67	93.75
284.901	92.75
285.132	98.75
285.364	99.75
285.595	99.75
285.826	99.75
286.057	93.75
286.288	80.75
286.52	108.75
286.751	86.75
286.982	86.75
287.213	87.75
287.444	89.75
287.675	90.75
287.906	94.75
288.138	92.75
288.369	95.75
288.6	104.75
288.831	75.75
289.062	74.75
289.293	106.75
289.524	102.75
289.755	73.75
289.986	80.75
290.217	81.75
290.448	87.75
290.679	88.75
290.91	85.75
291.141	78.75
291.371	90.75
291.602	86.75
291.833	94.75
292.064	88.75
292.295	78.75
292.526	97.75
292.757	88.75
292.987	101.75
293.218	78.75
293.449	85.75
293.68	91.75
293.91	87.75
294.141	90.75
294.372	98.75
294.603	85.75
294.833	98.75
295.064	87.75
295.295	78.75
295.525	90.75
295.756	95.75
295.987	128.75
296.217	158.75
296.448	153.75
296.679	98.75
296.909	91.75
297.14	94.75
297.37	88.75
297.601	98.75
297.831	91.75
298.062	89.75
298.292	86.75
298.523	91.75
298.753	87.75
298.984	81.75
299.214	99.75
299.445	85.75
299.675	92.75
299.905	95.75
300.136	84.75
300.366	93.75
300.597	93.75
300.827	115.75
301.057	106.75
301.288	118.75
301.518	101.75
301.748	89.75
301.979	94.75
302.209	86.75
302.439	92.75
302.669	88.75
302.9	98.75
303.13	95.75
303.36	99.75
303.59	104.75
303.82	115.75
304.051	99.75
304.281	91.75
304.511	97.75
304.741	96.75
304.971	88.75
305.201	85.75
305.431	106.75
305.661	83.75
305.891	98.75
306.121	99.75
306.352	108.75
306.582	113.75
306.812	101.75
307.042	97.75
307.272	104.75
307.502	97.75
307.731	84.75
307.961	98.75
308.191	89.75
308.421	87.75
308.651	99.75
308.881	86.75
309.111	86.75
309.341	98.75
309.571	104.75
309.8	91.75
310.03	95.75
310.26	115.75
310.49	98.75
310.72	97.75
310.949	102.75
311.179	105.75
311.409	92.75
311.639	96.75
311.868	102.75
312.098	107.75
312.328	103.75
312.557	91.75
312.787	118.75
313.017	118.75
313.246	105.75
313.476	89.75
313.706	91.75
313.935	114.75
314.165	116.75
314.394	110.75
314.624	106.75
314.853	83.75
315.083	103.75
315.312	97.75
315.542	104.75
315.771	100.75
316.001	101.75
316.23	92.75
316.46	81.75
316.689	91.75
316.919	90.75
317.148	111.75
317.377	102.75
317.607	99.75
317.836	108.75
318.065	85.75
318.295	100.75
318.524	107.75
318.753	98.75
318.983	93.75
319.212	107.75
319.441	127.75
319.67	117.75
319.9	110.75
320.129	100.75
320.358	85.75
320.587	93.75
320.816	97.75
321.046	107.75
321.275	102.75
321.504	94.75
321.733	99.75
321.962	112.75
322.191	112.75
322.42	101.75
322.649	131.75
322.878	109.75
323.108	130.75
323.337	143.75
323.566	165.75
323.795	181.75
324.024	258.75
324.253	576.75
324.482	1225.75
324.71	2584.75
324.939	3291.75
325.168	1204.75
325.397	317.75
325.626	190.75
325.855	160.75
326.084	147.75
326.313	158.75
326.542	161.75
326.77	293.75
326.999	624.75
327.228	1372.75
327.457	2512.75
327.686	1929.75
327.914	498.75
328.143	247.75
328.372	188.75
328.6	141.75
328.829	140.75
329.058	168.75
329.287	150.75
329.515	120.75
329.744	114.75
329.972	112.75
330.201	121.75
330.43	120.75
330.658	143.75
330.887	188.75
331.115	135.75
331.344	103.75
331.572	102.75
331.801	126.75
332.03	99.75
332.258	97.75
332.486	86.75
332.715	86.75
332.943	86.75
333.172	120.75
333.4	103.75
333.629	119.75
333.857	140.75
334.085	109.75
334.314	87.75
334.542	108.75
334.771	117.75
334.999	107.75
335.227	97.75
335.455	105.75
335.684	85.75
335.912	96.75
336.14	98.75
336.369	93.75
336.597	113.75
336.825	91.75
337.053	85.75
337.281	90.75
337.51	96.75
337.738	91.75
337.966	90.75
338.194	108.75
338.422	91.75
338.65	98.75
338.878	81.75
339.106	109.75
339.334	94.75
339.562	94.75
339.79	94.75
340.018	100.75
340.246	100.75
340.474	94.75
340.702	87.75
340.93	95.75
341.158	95.75
341.386	101.75
341.614	104.75
341.842	100.75
342.07	100.75
342.298	108.75
342.526	89.75
342.754	94.75
342.981	85.75
343.209	107.75
343.437	101.75
343.665	91.75
343.893	77.75
344.12	86.75
344.348	101.75
344.576	97.75
344.804	90.75
345.031	91.75
345.259	108.75
345.487	92.75
345.714	99.75
345.942	94.75
346.17	68.75
346.397	83.75
346.625	98.75
346.853	117.75
347.08	90.75
347.308	95.75
347.535	88.75
347.763	107.75
347.99	104.75
348.218	104.75
348.445	109.75
348.673	106.75
348.9	103.75
349.128	97.75
349.355	86.75
349.583	98.75
349.81	102.75
350.037	100.75
350.265	82.75
350.492	92.75
350.72	113.75
350.947	102.75
351.174	116.75
351.402	117.75
351.629	96.75
351.856	83.75
352.083	98.75
352.311	99.75
352.538	116.75
352.765	101.75
352.992	134.75
353.22	127.75
353.447	112.75
353.674	114.75
353.901	90.75
354.128	96.75
354.355	81.75
354.583	95.75
354.81	104.75
355.037	88.75
355.264	105.75
355.491	90.75
355.718	83.75
355.945	85.75
356.172	97.75
356.399	87.75
356.626	101.75
356.853	91.75
357.08	107.75
357.307	112.75
357.534	92.75
357.761	103.75
357.988	92.75
358.215	119.75
358.441	108.75
358.668	112.75
358.895	88.75
359.122	113.75
359.349	99.75
359.576	100.75
359.802	96.75
360.029	134.75
360.256	123.75
360.483	107.75
360.709	95.75
360.936	98.75
361.163	94.75
361.39	88.75
361.616	92.75
361.843	100.75
362.07	104.75
362.296	98.75
362.523	107.75
362.749	96.75
362.976	100.75
363.203	97.75
363.429	88.75
363.656	91.75
363.882	77.75
364.109	90.75
364.335	83.75
364.562	84.75
364.788	93.75
365.015	101.75
365.241	96.75
365.468	134.75
365.694	112.75
365.92	105.75
366.147	85.75
366.373	93.75
366.599	88.75
366.826	90.75
367.052	84.75
367.278	104.75
367.505	95.75
367.731	99.75
367.957	98.75
368.184	104.75
368.41	102.75
368.636	106.75
368.862	134.75
369.089	119.75
369.315	96.75
369.541	94.75
369.767	95.75
369.993	85.75
370.219	97.75
370.445	90.75
370.672	98.75
370.898	90.75
371.124	78.75
371.35	73.75
371.576	85.75
371.802	86.75
372.028	80.75
372.254	106.75
372.48	100.75
372.706	78.75
372.932	86.75
373.158	91.75
373.384	91.75
373.61	85.75
373.835	82.75
374.061	92.75
374.287	96.75
374.513	94.75
374.739	98.75
374.965	101.75
375.191	86.75
375.416	83.75
375.642	87.75
375.868	91.75
376.094	98.75
376.319	88.75
376.545	99.75
376.771	97.75
376.997	93.75
377.222	90.75
377.448	87.75
377.674	88.75
377.899	92.75
378.125	92.75
378.35	95.75
378.576	102.75
378.802	108.75
379.027	92.75
379.253	99.75
379.478	95.75
379.704	87.75
379.929	109.75
380.155	103.75
380.38	107.75
380.606	93.75
380.831	98.75
381.057	93.75
381.282	110.75
381.507	106.75
381.733	105.75
381.958	101.75
382.184	95.75
382.409	105.75
382.634	120.75
382.86	121.75
383.085	122.75
383.31	105.75
383.535	117.75
383.761	107.75
383.986	114.75
384.211	112.75
384.436	126.75
384.662	129.75
384.887	128.75
385.112	153.75
385.337	146.75
385.562	136.75
385.787	127.75
386.013	161.75
386.238	151.75
386.463	124.75
386.688	135.75
386.913	120.75
387.138	120.75
387.363	128.75
387.588	132.75
387.813	132.75
388.038	135.75
388.263	156.75
388.488	137.75
388.713	109.75
388.938	108.75
389.163	94.75
389.387	100.75
389.612	84.75
389.837	101.75
390.062	91.75
390.287	94.75
390.512	84.75
390.736	77.75
390.961	93.75
391.186	98.75
391.411	96.75
391.636	98.75
391.86	74.75
392.085	94.75
392.31	90.75
392.534	91.75
392.759	99.75
392.984	83.75
393.208	97.75
393.433	112.75
393.658	99.75
393.882	86.75
394.107	88.75
394.331	86.75
394.556	77.75
394.78	94.75
395.005	85.75
395.229	86.75
395.454	75.75
395.678	95.75
395.903	77.75
396.127	70.75
396.352	90.75
396.576	83.75
396.801	93.75
397.025	104.75
397.249	91.75
397.474	88.75
397.698	92.75
397.922	81.75
398.147	83.75
398.371	85.75
398.595	79.75
398.82	84.75
399.044	82.75
399.268	82.75
399.492	94.75
399.717	87.75
399.941	92.75
400.165	86.75
400.389	94.75
400.613	86.75
400.837	88.75
401.062	90.75
401.286	86.75
401.51	89.75
401.734	87.75
401.958	112.75
402.182	144.75
402.406	188.75
402.63	141.75
402.854	101.75
403.078	95.75
403.302	87.75
403.526	80.75
403.75	83.75
403.974	87.75
404.198	98.75
404.422	98.75
404.645	92.75
404.869	88.75
405.093	88.75
405.317	105.75
405.541	95.75
405.765	94.75
405.988	132.75
406.212	209.75
406.436	278.75
406.66	186.75
406.883	126.75
407.107	99.75
407.331	96.75
407.555	107.75
407.778	102.75
408.002	102.75
408.226	89.75
408.449	93.75
408.673	97.75
408.896	85.75
409.12	97.75
409.344	93.75
409.567	94.75
409.791	83.75
410.014	100.75
410.238	100.75
410.461	88.75
410.685	103.75
410.908	94.75
411.132	100.75
411.355	92.75
411.578	95.75
411.802	92.75
412.025	98.75
412.249	84.75
412.472	96.75
412.695	79.75
412.919	92.75
413.142	89.75
413.365	88.75
413.589	86.75
413.812	89.75
414.035	90.75
414.258	87.75
414.482	102.75
414.705	92.75
414.928	102.75
415.151	112.75
415.374	86.75
415.597	88.75
415.821	88.75
416.044	96.75
416.267	88.75
416.49	92.75
416.713	100.75
416.936	92.75
417.159	86.75
417.382	94.75
417.605	99.75
417.828	91.75
418.051	97.75
418.274	90.75
418.497	92.75
418.72	77.75
418.943	91.75
419.166	85.75
419.389	99.75
419.611	83.75
419.834	99.75
420.057	80.75
420.28	85.75
420.503	78.75
420.726	91.75
420.948	104.75
421.171	101.75
421.394	99.75
421.617	101.75
421.839	93.75
422.062	96.75
422.285	88.75
422.507	105.75
422.73	128.75
422.953	118.75
423.175	97.75
423.398	92.75
423.621	100.75
423.843	88.75
424.066	99.75
424.288	96.75
424.511	91.75
424.733	116.75
424.956	115.75
425.178	92.75
425.401	106.75
425.623	87.75
425.846	91.75
426.068	104.75
426.291	102.75
426.513	95.75
426.735	75.75
426.958	104.75
427.18	124.75
427.402	172.75
427.625	214.75
427.847	150.75
428.069	101.75
428.292	104.75
428.514	96.75
428.736	95.75
428.958	101.75
429.181	98.75
429.403	84.75
429.625	77.75
429.847	87.75
430.069	96.75
430.292	101.75
430.514	100.75
430.736	88.75
430.958	97.75
431.18	82.75
431.402	79.75
431.624	85.75
431.846	90.75
432.068	91.75
432.29	106.75
432.512	88.75
432.734	84.75
432.956	94.75
433.178	102.75
433.4	101.75
433.622	97.75
433.844	79.75
434.066	93.75
434.287	89.75
434.509	98.75
434.731	84.75
434.953	96.75
435.175	88.75
435.397	98.75
435.618	94.75
435.84	103.75
436.062	148.75
436.284	136.75
436.505	100.75
436.727	109.75
436.949	105.75
437.17	101.75
437.392	98.75
437.614	103.75
437.835	121.75
438.057	142.75
438.278	122.75
438.5	110.75
438.721	133.75
438.943	102.75
439.165	93.75
439.386	77.75
439.608	86.75
439.829	116.75
440.05	135.75
440.272	185.75
440.493	117.75
440.715	102.75
440.936	81.75
441.158	87.75
441.379	96.75
441.6	101.75
441.822	113.75
442.043	97.75
442.264	116.75
442.486	111.75
442.707	102.75
442.928	117.75
443.149	171.75
443.371	158.75
443.592	122.75
443.813	117.75
444.034	113.75
444.255	85.75
444.476	110.75
444.698	83.75
444.919	88.75
445.14	119.75
445.361	134.75
445.582	130.75
445.803	165.75
446.024	162.75
446.245	156.75
446.466	121.75
446.687	103.75
446.908	90.75
447.129	98.75
447.35	91.75
447.571	92.75
447.792	92.75
448.013	96.75
448.234	122.75
448.455	108.75
448.675	130.75
448.896	136.75
449.117	105.75
449.338	119.75
449.559	155.75
449.779	145.75
450	102.75
450.221	81.75
450.442	91.75
450.662	91.75
450.883	114.75
451.104	129.75
451.324	124.75
451.545	86.75
451.766	82.75
451.986	72.75
452.207	92.75
452.428	97.75
452.648	99.75
452.869	119.75
453.089	123.75
453.31	141.75
453.53	98.75
453.751	101.75
453.971	110.75
454.192	130.75
454.412	93.75
454.633	89.75
454.853	96.75
455.073	95.75
455.294	89.75
455.514	96.75
455.734	94.75
455.955	73.75
456.175	79.75
456.395	77.75
456.616	77.75
456.836	93.75
457.056	90.75
457.276	76.75
457.497	90.75
457.717	84.75
457.937	82.75
458.157	97.75
458.377	98.75
458.598	128.75
458.818	188.75
459.038	202.75
459.258	130.75
459.478	94.75
459.698	93.75
459.918	92.75
460.138	83.75
460.358	78.75
460.578	77.75
460.798	92.75
461.018	90.75
461.238	81.75
461.458	78.75
461.678	93.75
461.898	80.75
462.118	89.75
462.338	86.75
462.558	79.75
462.777	85.75
462.997	84.75
463.217	87.75
463.437	92.75
463.657	94.75
463.876	90.75
464.096	88.75
464.316	96.75
464.536	98.75
464.755	103.75
464.975	126.75
465.195	214.75
465.414	211.75
465.634	99.75
465.854	100.75
466.073	76.75
466.293	75.75
466.512	80.75
466.732	76.75
466.951	100.75
467.171	94.75
467.391	95.75
467.61	129.75
467.829	113.75
468.049	94.75
468.268	87.75
468.488	72.75
468.707	68.75
468.927	83.75
469.146	86.75
469.365	88.75
469.585	96.75
469.804	98.75
470.023	101.75
470.243	87.75
470.462	116.75
470.681	123.75
470.901	90.75
471.12	87.75
471.339	97.75
471.558	81.75
471.777	84.75
471.997	89.75
472.216	103.75
472.435	103.75
472.654	80.75
472.873	91.75
473.092	96.75
473.311	88.75
473.53	82.75
473.749	80.75
473.968	88.75
474.187	99.75
474.406	124.75
474.625	92.75
474.844	99.75
475.063	77.75
475.282	78.75
475.501	85.75
475.72	76.75
475.939	80.75
476.158	92.75
476.377	85.75
476.596	95.75
476.814	90.75
477.033	106.75
477.252	97.75
477.471	86.75
477.69	88.75
477.908	89.75
478.127	91.75
478.346	88.75
478.564	101.75
478.783	96.75
479.002	105.75
479.22	92.75
479.439	101.75
479.658	110.75
479.876	108.75
480.095	96.75
480.313	87.75
480.532	90.75
480.751	86.75
480.969	94.75
481.188	130.75
481.406	117.75
481.624	80.75
481.843	89.75
482.061	87.75
482.28	80.75
482.498	109.75
482.717	84.75
482.935	98.75
483.153	91.75
483.372	78.75
483.59	81.75
483.808	88.75
484.027	85.75
484.245	94.75
484.463	108.75
484.681	100.75
484.9	77.75
485.118	102.75
485.336	92.75
485.554	97.75
485.772	104.75
485.99	105.75
486.209	101.75
486.427	120.75
486.645	122.75
486.863	132.75
487.081	112.75
487.299	85.75
487.517	103.75
487.735	100.75
487.953	100.75
488.171	107.75
488.389	92.75
488.607	103.75
488.825	82.75
489.043	87.75
489.261	82.75
489.479	99.75
489.696	77.75
489.914	102.75
490.132	78.75
490.35	85.75
490.568	88.75
490.786	88.75
491.003	93.75
491.221	100.75
491.439	94.75
491.657	83.75
491.874	100.75
492.092	95.75
492.31	92.75
492.527	89.75
492.745	80.75
492.963	80.75
493.18	88.75
493.398	87.75
493.615	92.75
493.833	104.75
494.05	101.75
494.268	99.75
494.485	90.75
494.703	96.75
494.92	93.75
495.138	95.75
495.355	93.75
495.573	87.75
495.79	85.75
496.008	92.75
496.225	105.75
496.442	89.75
496.66	99.75
496.877	87.75
497.094	87.75
497.312	81.75
497.529	94.75
497.746	92.75
497.963	90.75
498.181	92.75
498.398	97.75
498.615	119.75
498.832	101.75
499.049	88.75
499.267	94.75
499.484	88.75
499.701	83.75
499.918	81.75
500.135	101.75
500.352	88.75
500.569	90.75
500.786	86.75
501.003	100.75
501.22	94.75
501.437	89.75
501.654	102.75
501.871	118.75
502.088	93.75
502.305	105.75
502.522	90.75
502.739	78.75
502.956	94.75
503.172	92.75
503.389	102.75
503.606	109.75
503.823	104.75
504.04	90.75
504.256	93.75
504.473	91.75
504.69	93.75
504.907	90.75
505.123	86.75
505.34	100.75
505.557	95.75
505.773	94.75
505.99	82.75
506.207	91.75
506.423	90.75
506.64	89.75
506.856	84.75
507.073	98.75
507.289	109.75
507.506	103.75
507.722	129.75
507.939	118.75
508.155	94.75
508.372	86.75
508.588	103.75
508.805	101.75
509.021	109.75
509.238	110.75
509.454	102.75
509.67	112.75
509.887	134.75
510.103	154.75
510.319	232.75
510.536	980.75
510.752	3534.75
510.968	944.75
511.184	182.75
511.401	124.75
511.617	114.75
511.833	88.75
512.049	88.75
512.265	92.75
512.481	92.75
512.698	91.75
512.914	90.75
513.13	83.75
513.346	98.75
513.562	99.75
513.778	95.75
513.994	117.75
514.21	97.75
