Data from Circ_2016_H10_HRD10591_00021.txt Node
Date: Wed Jan 03 09:58:44 EST 2024
User: Yrep
Spectrometer: HR+D1059
Trigger mode: 1
Integration Time (sec): 1.000000E-1
Scans to average: 1
Electric dark correction enabled: true
Nonlinearity correction enabled: false
Boxcar width: 0
XAxis mode: Wavelengths
Number of Pixels in Spectrum: 2048
>>>>>Begin Spectral Data<<<<<
223.165	-20.69
223.4	-20.69
223.635	-20.69
223.869	-26.69
224.104	-20.69
224.338	-17.69
224.573	-4.69
224.808	-19.69
225.042	0.31
225.277	3.31
225.511	-9.69
225.746	-3.69
225.98	-1.69
226.215	11.31
226.449	30.31
226.683	26.31
226.918	33.31
227.152	20.31
227.387	26.31
227.621	32.31
227.856	38.31
228.09	41.31
228.324	37.31
228.559	46.31
228.793	56.31
229.027	62.31
229.262	78.31
229.496	98.31
229.73	101.31
229.964	92.31
230.199	61.31
230.433	73.31
230.667	102.31
230.901	92.31
231.136	77.31
231.37	82.31
231.604	69.31
231.838	81.31
232.072	70.31
232.306	89.31
232.541	98.31
232.775	74.31
233.009	85.31
233.243	87.31
233.477	79.31
233.711	88.31
233.945	88.31
234.179	88.31
234.413	86.31
234.647	69.31
234.881	77.31
235.115	81.31
235.349	90.31
235.583	87.31
235.817	70.31
236.051	66.31
236.285	76.31
236.519	91.31
236.753	86.31
236.987	86.31
237.221	99.31
237.455	96.31
237.689	83.31
237.922	74.31
238.156	70.31
238.39	69.31
238.624	88.31
238.858	76.31
239.091	89.31
239.325	85.31
239.559	93.31
239.793	81.31
240.027	74.31
240.26	85.31
240.494	81.31
240.728	72.31
240.961	88.31
241.195	81.31
241.429	69.31
241.662	74.31
241.896	73.31
242.13	80.31
242.363	64.31
242.597	78.31
242.83	77.31
243.064	86.31
243.298	89.31
243.531	76.31
243.765	92.31
243.998	79.31
244.232	84.31
244.465	94.31
244.699	75.31
244.932	86.31
245.166	92.31
245.399	68.31
245.633	73.31
245.866	80.31
246.099	66.31
246.333	72.31
246.566	75.31
246.8	67.31
247.033	75.31
247.266	87.31
247.5	73.31
247.733	75.31
247.966	83.31
248.2	77.31
248.433	91.31
248.666	99.31
248.899	76.31
249.133	93.31
249.366	116.31
249.599	95.31
249.832	86.31
250.066	85.31
250.299	71.31
250.532	79.31
250.765	74.31
250.998	85.31
251.231	69.31
251.465	92.31
251.698	79.31
251.931	76.31
252.164	72.31
252.397	66.31
252.63	80.31
252.863	80.31
253.096	88.31
253.329	89.31
253.562	71.31
253.795	82.31
254.028	86.31
254.261	84.31
254.494	83.31
254.727	80.31
254.96	71.31
255.193	89.31
255.426	83.31
255.659	74.31
255.892	75.31
256.124	70.31
256.357	91.31
256.59	92.31
256.823	97.31
257.056	75.31
257.289	90.31
257.521	74.31
257.754	78.31
257.987	85.31
258.22	83.31
258.452	88.31
258.685	92.31
258.918	87.31
259.151	80.31
259.383	87.31
259.616	71.31
259.849	64.31
260.081	90.31
260.314	88.31
260.547	73.31
260.779	76.31
261.012	79.31
261.244	72.31
261.477	87.31
261.71	108.31
261.942	128.31
262.175	160.31
262.407	107.31
262.64	77.31
262.872	87.31
263.105	84.31
263.337	83.31
263.57	94.31
263.802	77.31
264.035	93.31
264.267	76.31
264.499	77.31
264.732	92.31
264.964	71.31
265.197	83.31
265.429	82.31
265.661	97.31
265.894	81.31
266.126	84.31
266.358	87.31
266.591	77.31
266.823	109.31
267.055	83.31
267.287	89.31
267.52	94.31
267.752	77.31
267.984	92.31
268.216	74.31
268.448	89.31
268.681	92.31
268.913	84.31
269.145	90.31
269.377	81.31
269.609	84.31
269.841	98.31
270.073	81.31
270.306	83.31
270.538	80.31
270.77	78.31
271.002	79.31
271.234	91.31
271.466	85.31
271.698	90.31
271.93	82.31
272.162	88.31
272.394	84.31
272.626	88.31
272.858	88.31
273.09	91.31
273.322	72.31
273.553	69.31
273.785	101.31
274.017	83.31
274.249	82.31
274.481	95.31
274.713	76.31
274.945	77.31
275.176	86.31
275.408	84.31
275.64	93.31
275.872	97.31
276.104	93.31
276.335	100.31
276.567	120.31
276.799	165.31
277.031	133.31
277.262	107.31
277.494	93.31
277.726	80.31
277.957	88.31
278.189	85.31
278.421	84.31
278.652	93.31
278.884	102.31
279.115	84.31
279.347	95.31
279.579	83.31
279.81	89.31
280.042	82.31
280.273	91.31
280.505	95.31
280.736	99.31
280.968	78.31
281.199	106.31
281.431	104.31
281.662	80.31
281.894	101.31
282.125	111.31
282.356	150.31
282.588	201.31
282.819	153.31
283.051	96.31
283.282	94.31
283.513	74.31
283.745	87.31
283.976	85.31
284.207	88.31
284.439	92.31
284.67	89.31
284.901	87.31
285.132	81.31
285.364	98.31
285.595	92.31
285.826	72.31
286.057	81.31
286.288	85.31
286.52	93.31
286.751	88.31
286.982	85.31
287.213	98.31
287.444	83.31
287.675	91.31
287.906	97.31
288.138	87.31
288.369	109.31
288.6	97.31
288.831	97.31
289.062	82.31
289.293	75.31
289.524	71.31
289.755	88.31
289.986	93.31
290.217	85.31
290.448	80.31
290.679	77.31
290.91	89.31
291.141	89.31
291.371	78.31
291.602	78.31
291.833	75.31
292.064	88.31
292.295	92.31
292.526	103.31
292.757	97.31
292.987	94.31
293.218	91.31
293.449	90.31
293.68	83.31
293.91	87.31
294.141	94.31
294.372	85.31
294.603	81.31
294.833	87.31
295.064	95.31
295.295	91.31
295.525	89.31
295.756	114.31
295.987	154.31
296.217	196.31
296.448	176.31
296.679	114.31
296.909	87.31
297.14	85.31
297.37	88.31
297.601	85.31
297.831	92.31
298.062	90.31
298.292	81.31
298.523	91.31
298.753	84.31
298.984	94.31
299.214	100.31
299.445	90.31
299.675	103.31
299.905	110.31
300.136	105.31
300.366	83.31
300.597	81.31
300.827	106.31
301.057	109.31
301.288	115.31
301.518	102.31
301.748	112.31
301.979	87.31
302.209	114.31
302.439	97.31
302.669	86.31
302.9	96.31
303.13	89.31
303.36	106.31
303.59	108.31
303.82	117.31
304.051	96.31
304.281	100.31
304.511	99.31
304.741	92.31
304.971	96.31
305.201	97.31
305.431	98.31
305.661	81.31
305.891	87.31
306.121	93.31
306.352	115.31
306.582	114.31
306.812	91.31
307.042	97.31
307.272	89.31
307.502	88.31
307.731	111.31
307.961	93.31
308.191	97.31
308.421	93.31
308.651	96.31
308.881	103.31
309.111	89.31
309.341	94.31
309.571	98.31
309.8	118.31
310.03	107.31
310.26	107.31
310.49	106.31
310.72	124.31
310.949	128.31
311.179	117.31
311.409	103.31
311.639	102.31
311.868	84.31
312.098	104.31
312.328	85.31
312.557	118.31
312.787	130.31
313.017	120.31
313.246	102.31
313.476	98.31
313.706	82.31
313.935	107.31
314.165	122.31
314.394	102.31
314.624	115.31
314.853	105.31
315.083	102.31
315.312	109.31
315.542	93.31
315.771	108.31
316.001	90.31
316.23	84.31
316.46	93.31
316.689	101.31
316.919	111.31
317.148	103.31
317.377	101.31
317.607	95.31
317.836	95.31
318.065	82.31
318.295	106.31
318.524	106.31
318.753	99.31
318.983	95.31
319.212	107.31
319.441	128.31
319.67	132.31
319.9	97.31
320.129	113.31
320.358	96.31
320.587	112.31
320.816	120.31
321.046	118.31
321.275	94.31
321.504	109.31
321.733	98.31
321.962	110.31
322.191	105.31
322.42	117.31
322.649	135.31
322.878	149.31
323.108	152.31
323.337	155.31
323.566	182.31
323.795	225.31
324.024	334.31
324.253	727.31
324.482	1645.31
324.71	3459.31
324.939	4637.31
325.168	1618.31
325.397	427.31
325.626	212.31
325.855	167.31
326.084	171.31
326.313	176.31
326.542	220.31
326.77	369.31
326.999	797.31
327.228	1779.31
327.457	3261.31
327.686	2546.31
327.914	675.31
328.143	318.31
328.372	217.31
328.6	170.31
328.829	159.31
329.058	198.31
329.287	167.31
329.515	125.31
329.744	109.31
329.972	115.31
330.201	117.31
330.43	141.31
330.658	189.31
330.887	239.31
331.115	184.31
331.344	120.31
331.572	116.31
331.801	135.31
332.03	127.31
332.258	104.31
332.486	98.31
332.715	94.31
332.943	97.31
333.172	115.31
333.4	114.31
333.629	129.31
333.857	139.31
334.085	133.31
334.314	103.31
334.542	112.31
334.771	109.31
334.999	123.31
335.227	102.31
335.455	101.31
335.684	106.31
335.912	103.31
336.14	107.31
336.369	115.31
336.597	103.31
336.825	114.31
337.053	98.31
337.281	101.31
337.51	94.31
337.738	112.31
337.966	100.31
338.194	119.31
338.422	113.31
338.65	117.31
338.878	101.31
339.106	91.31
339.334	94.31
339.562	96.31
339.79	96.31
340.018	99.31
340.246	91.31
340.474	116.31
340.702	109.31
340.93	91.31
341.158	99.31
341.386	109.31
341.614	109.31
341.842	114.31
342.07	99.31
342.298	96.31
342.526	96.31
342.754	83.31
342.981	82.31
343.209	74.31
343.437	95.31
343.665	83.31
343.893	86.31
344.12	92.31
344.348	88.31
344.576	83.31
344.804	95.31
345.031	107.31
345.259	100.31
345.487	108.31
345.714	112.31
345.942	86.31
346.17	94.31
346.397	105.31
346.625	102.31
346.853	100.31
347.08	109.31
347.308	105.31
347.535	112.31
347.763	113.31
347.99	104.31
348.218	116.31
348.445	114.31
348.673	104.31
348.9	107.31
349.128	102.31
349.355	104.31
349.583	109.31
349.81	96.31
350.037	107.31
350.265	91.31
350.492	90.31
350.72	93.31
350.947	113.31
351.174	115.31
351.402	140.31
351.629	111.31
351.856	109.31
352.083	139.31
352.311	128.31
352.538	105.31
352.765	141.31
352.992	140.31
353.22	138.31
353.447	107.31
353.674	104.31
353.901	109.31
354.128	109.31
354.355	95.31
354.583	103.31
354.81	101.31
355.037	113.31
355.264	89.31
355.491	82.31
355.718	91.31
355.945	81.31
356.172	92.31
356.399	96.31
356.626	82.31
356.853	83.31
357.08	96.31
357.307	93.31
357.534	106.31
357.761	103.31
357.988	113.31
358.215	112.31
358.441	113.31
358.668	104.31
358.895	96.31
359.122	87.31
359.349	97.31
359.576	99.31
359.802	139.31
360.029	161.31
360.256	153.31
360.483	122.31
360.709	115.31
360.936	90.31
361.163	97.31
361.39	118.31
361.616	116.31
361.843	105.31
362.07	105.31
362.296	94.31
362.523	91.31
362.749	103.31
362.976	94.31
363.203	93.31
363.429	110.31
363.656	108.31
363.882	96.31
364.109	89.31
364.335	96.31
364.562	89.31
364.788	103.31
365.015	105.31
365.241	108.31
365.468	130.31
365.694	128.31
365.92	107.31
366.147	109.31
366.373	87.31
366.599	105.31
366.826	98.31
367.052	93.31
367.278	107.31
367.505	115.31
367.731	104.31
367.957	101.31
368.184	99.31
368.41	132.31
368.636	144.31
368.862	141.31
369.089	146.31
369.315	113.31
369.541	96.31
369.767	93.31
369.993	101.31
370.219	99.31
370.445	91.31
370.672	91.31
370.898	90.31
371.124	102.31
371.35	91.31
371.576	84.31
371.802	80.31
372.028	89.31
372.254	88.31
372.48	87.31
372.706	87.31
372.932	82.31
373.158	102.31
373.384	89.31
373.61	93.31
373.835	95.31
374.061	87.31
374.287	106.31
374.513	101.31
374.739	100.31
374.965	96.31
375.191	94.31
375.416	107.31
375.642	97.31
375.868	112.31
376.094	98.31
376.319	99.31
376.545	99.31
376.771	99.31
376.997	96.31
377.222	112.31
377.448	103.31
377.674	87.31
377.899	100.31
378.125	99.31
378.35	88.31
378.576	103.31
378.802	94.31
379.027	90.31
379.253	84.31
379.478	100.31
379.704	112.31
379.929	97.31
380.155	102.31
380.38	111.31
380.606	109.31
380.831	116.31
381.057	108.31
381.282	114.31
381.507	100.31
381.733	96.31
381.958	126.31
382.184	110.31
382.409	120.31
382.634	101.31
382.86	125.31
383.085	106.31
383.31	125.31
383.535	121.31
383.761	130.31
383.986	114.31
384.211	119.31
384.436	134.31
384.662	122.31
384.887	133.31
385.112	144.31
385.337	141.31
385.562	148.31
385.787	150.31
386.013	160.31
386.238	165.31
386.463	144.31
386.688	150.31
386.913	132.31
387.138	154.31
387.363	127.31
387.588	122.31
387.813	110.31
388.038	128.31
388.263	178.31
388.488	164.31
388.713	104.31
388.938	89.31
389.163	88.31
389.387	93.31
389.612	88.31
389.837	96.31
390.062	100.31
390.287	91.31
390.512	94.31
390.736	95.31
390.961	91.31
391.186	94.31
391.411	99.31
391.636	89.31
391.86	91.31
392.085	87.31
392.31	90.31
392.534	86.31
392.759	99.31
392.984	90.31
393.208	100.31
393.433	113.31
393.658	99.31
393.882	92.31
394.107	87.31
394.331	84.31
394.556	87.31
394.78	96.31
395.005	100.31
395.229	93.31
395.454	99.31
395.678	88.31
395.903	96.31
396.127	96.31
396.352	97.31
396.576	90.31
396.801	102.31
397.025	88.31
397.249	87.31
397.474	84.31
397.698	105.31
397.922	88.31
398.147	91.31
398.371	89.31
398.595	74.31
398.82	87.31
399.044	91.31
399.268	94.31
399.492	94.31
399.717	93.31
399.941	93.31
400.165	117.31
400.389	117.31
400.613	105.31
400.837	100.31
401.062	79.31
401.286	88.31
401.51	106.31
401.734	118.31
401.958	126.31
402.182	173.31
402.406	250.31
402.63	163.31
402.854	104.31
403.078	107.31
403.302	84.31
403.526	98.31
403.75	91.31
403.974	81.31
404.198	93.31
404.422	93.31
404.645	93.31
404.869	101.31
405.093	100.31
405.317	107.31
405.541	107.31
405.765	112.31
405.988	166.31
406.212	261.31
406.436	394.31
406.66	249.31
406.883	144.31
407.107	114.31
407.331	117.31
407.555	117.31
407.778	125.31
408.002	96.31
408.226	100.31
408.449	94.31
408.673	87.31
408.896	90.31
409.12	96.31
409.344	88.31
409.567	82.31
409.791	89.31
410.014	89.31
410.238	102.31
410.461	97.31
410.685	93.31
410.908	89.31
411.132	103.31
411.355	116.31
411.578	105.31
411.802	93.31
412.025	107.31
412.249	83.31
412.472	94.31
412.695	88.31
412.919	86.31
413.142	93.31
413.365	78.31
413.589	99.31
413.812	105.31
414.035	91.31
414.258	84.31
414.482	97.31
414.705	95.31
414.928	112.31
415.151	110.31
415.374	99.31
415.597	108.31
415.821	96.31
416.044	93.31
416.267	97.31
416.49	89.31
416.713	96.31
416.936	93.31
417.159	81.31
417.382	94.31
417.605	96.31
417.828	112.31
418.051	94.31
418.274	77.31
418.497	84.31
418.72	96.31
418.943	89.31
419.166	78.31
419.389	93.31
419.611	102.31
419.834	92.31
420.057	93.31
420.28	75.31
420.503	95.31
420.726	86.31
420.948	82.31
421.171	91.31
421.394	102.31
421.617	88.31
421.839	78.31
422.062	97.31
422.285	107.31
422.507	102.31
422.73	129.31
422.953	121.31
423.175	86.31
423.398	94.31
423.621	91.31
423.843	85.31
424.066	90.31
424.288	81.31
424.511	90.31
424.733	96.31
424.956	113.31
425.178	112.31
425.401	110.31
425.623	105.31
425.846	96.31
426.068	97.31
426.291	92.31
426.513	92.31
426.735	98.31
426.958	104.31
427.18	128.31
427.402	183.31
427.625	260.31
427.847	200.31
428.069	130.31
428.292	109.31
428.514	103.31
428.736	96.31
428.958	74.31
429.181	76.31
429.403	85.31
429.625	85.31
429.847	102.31
430.069	98.31
430.292	98.31
430.514	96.31
430.736	86.31
430.958	96.31
431.18	74.31
431.402	80.31
431.624	98.31
431.846	97.31
432.068	87.31
432.29	78.31
432.512	100.31
432.734	94.31
432.956	87.31
433.178	114.31
433.4	114.31
433.622	92.31
433.844	78.31
434.066	81.31
434.287	99.31
434.509	106.31
434.731	92.31
434.953	87.31
435.175	87.31
435.397	114.31
435.618	105.31
435.84	119.31
436.062	158.31
436.284	136.31
436.505	104.31
436.727	107.31
436.949	100.31
437.17	98.31
437.392	95.31
437.614	116.31
437.835	150.31
438.057	158.31
438.278	150.31
438.5	124.31
438.721	149.31
438.943	123.31
439.165	115.31
439.386	98.31
439.608	101.31
439.829	123.31
440.05	159.31
440.272	211.31
440.493	139.31
440.715	103.31
440.936	69.31
441.158	101.31
441.379	103.31
441.6	107.31
441.822	134.31
442.043	122.31
442.264	108.31
442.486	125.31
442.707	120.31
442.928	140.31
443.149	172.31
443.371	205.31
443.592	139.31
443.813	128.31
444.034	141.31
444.255	89.31
444.476	85.31
444.698	87.31
444.919	85.31
445.14	136.31
445.361	149.31
445.582	158.31
445.803	197.31
446.024	187.31
446.245	189.31
446.466	137.31
446.687	101.31
446.908	83.31
447.129	109.31
447.35	93.31
447.571	101.31
447.792	106.31
448.013	105.31
448.234	133.31
448.455	106.31
448.675	124.31
448.896	143.31
449.117	116.31
449.338	124.31
449.559	147.31
449.779	163.31
450	94.31
450.221	93.31
450.442	85.31
450.662	101.31
450.883	134.31
451.104	162.31
451.324	118.31
451.545	103.31
451.766	96.31
451.986	105.31
452.207	94.31
452.428	115.31
452.648	124.31
452.869	146.31
453.089	153.31
453.31	164.31
453.53	124.31
453.751	112.31
453.971	145.31
454.192	153.31
454.412	99.31
454.633	79.31
454.853	84.31
455.073	89.31
455.294	101.31
455.514	103.31
455.734	108.31
455.955	97.31
456.175	91.31
456.395	76.31
456.616	92.31
456.836	84.31
457.056	81.31
457.276	88.31
457.497	75.31
457.717	90.31
457.937	96.31
458.157	101.31
458.377	105.31
458.598	150.31
458.818	246.31
459.038	262.31
459.258	164.31
459.478	81.31
459.698	77.31
459.918	93.31
460.138	94.31
460.358	75.31
460.578	101.31
460.798	98.31
461.018	99.31
461.238	93.31
461.458	83.31
461.678	89.31
461.898	97.31
462.118	78.31
462.338	97.31
462.558	92.31
462.777	91.31
462.997	81.31
463.217	86.31
463.437	78.31
463.657	100.31
463.876	91.31
464.096	88.31
464.316	106.31
464.536	117.31
464.755	107.31
464.975	140.31
465.195	270.31
465.414	270.31
465.634	112.31
465.854	84.31
466.073	97.31
466.293	80.31
466.512	93.31
466.732	91.31
466.951	87.31
467.171	101.31
467.391	90.31
467.61	117.31
467.829	116.31
468.049	88.31
468.268	87.31
468.488	78.31
468.707	90.31
468.927	86.31
469.146	87.31
469.365	83.31
469.585	98.31
469.804	107.31
470.023	114.31
470.243	94.31
470.462	115.31
470.681	156.31
470.901	105.31
471.12	97.31
471.339	84.31
471.558	98.31
471.777	93.31
471.997	97.31
472.216	98.31
472.435	93.31
472.654	80.31
472.873	98.31
473.092	93.31
473.311	92.31
473.53	81.31
473.749	101.31
473.968	101.31
474.187	120.31
474.406	96.31
474.625	91.31
474.844	84.31
475.063	78.31
475.282	86.31
475.501	82.31
475.72	93.31
475.939	94.31
476.158	84.31
476.377	93.31
476.596	92.31
476.814	98.31
477.033	101.31
477.252	92.31
477.471	104.31
477.69	88.31
477.908	91.31
478.127	86.31
478.346	94.31
478.564	96.31
478.783	102.31
479.002	110.31
479.22	87.31
479.439	129.31
479.658	120.31
479.876	112.31
480.095	101.31
480.313	86.31
480.532	88.31
480.751	94.31
480.969	97.31
481.188	121.31
481.406	115.31
481.624	112.31
481.843	102.31
482.061	91.31
482.28	86.31
482.498	89.31
482.717	101.31
482.935	85.31
483.153	104.31
483.372	84.31
483.59	86.31
483.808	88.31
484.027	100.31
484.245	91.31
484.463	85.31
484.681	95.31
484.9	100.31
485.118	87.31
485.336	119.31
485.554	93.31
485.772	96.31
485.99	116.31
486.209	119.31
486.427	131.31
486.645	149.31
486.863	131.31
487.081	112.31
487.299	110.31
487.517	97.31
487.735	85.31
487.953	99.31
488.171	93.31
488.389	97.31
488.607	115.31
488.825	91.31
489.043	97.31
489.261	83.31
489.479	100.31
489.696	91.31
489.914	97.31
490.132	107.31
490.35	97.31
490.568	76.31
490.786	95.31
491.003	84.31
491.221	80.31
491.439	93.31
491.657	110.31
491.874	102.31
492.092	83.31
492.31	100.31
492.527	78.31
492.745	85.31
492.963	92.31
493.18	84.31
493.398	88.31
493.615	94.31
493.833	94.31
494.05	80.31
494.268	90.31
494.485	93.31
494.703	91.31
494.92	90.31
495.138	105.31
495.355	83.31
495.573	78.31
495.79	92.31
496.008	94.31
496.225	79.31
496.442	80.31
496.66	85.31
496.877	91.31
497.094	81.31
497.312	82.31
497.529	103.31
497.746	81.31
497.963	87.31
498.181	89.31
498.398	122.31
498.615	122.31
498.832	112.31
499.049	101.31
499.267	93.31
499.484	84.31
499.701	84.31
499.918	97.31
500.135	93.31
500.352	84.31
500.569	93.31
500.786	89.31
501.003	94.31
501.22	93.31
501.437	89.31
501.654	106.31
501.871	138.31
502.088	117.31
502.305	93.31
502.522	84.31
502.739	84.31
502.956	82.31
503.172	103.31
503.389	106.31
503.606	122.31
503.823	116.31
504.04	102.31
504.256	90.31
504.473	87.31
504.69	83.31
504.907	87.31
505.123	91.31
505.34	100.31
505.557	93.31
505.773	87.31
505.99	83.31
506.207	84.31
506.423	78.31
506.64	114.31
506.856	85.31
507.073	99.31
507.289	92.31
507.506	103.31
507.722	155.31
507.939	153.31
508.155	109.31
508.372	99.31
508.588	89.31
508.805	98.31
509.021	96.31
509.238	109.31
509.454	122.31
509.67	108.31
509.887	122.31
510.103	164.31
510.319	314.31
510.536	1270.31
510.752	4807.31
510.968	1252.31
511.184	220.31
511.401	144.31
511.617	125.31
511.833	102.31
512.049	106.31
512.265	98.31
512.481	75.31
512.698	87.31
