Data from Circ_2016_H10_HRD10591_00006.txt Node
Date: Wed Jan 03 09:58:41 EST 2024
User: Yrep
Spectrometer: HR+D1059
Trigger mode: 1
Integration Time (sec): 1.000000E-1
Scans to average: 1
Electric dark correction enabled: true
Nonlinearity correction enabled: false
Boxcar width: 0
XAxis mode: Wavelengths
Number of Pixels in Spectrum: 2048
>>>>>Begin Spectral Data<<<<<
223.165	-21.81
223.4	-21.81
223.635	-21.81
223.869	-23.81
224.104	-6.81
224.338	-12.81
224.573	-27.81
224.808	-6.81
225.042	-13.81
225.277	-5.81
225.511	-1.81
225.746	11.19
225.98	8.19
226.215	19.19
226.449	4.19
226.683	18.19
226.918	25.19
227.152	35.19
227.387	34.19
227.621	54.19
227.856	46.19
228.09	51.19
228.324	63.19
228.559	64.19
228.793	61.19
229.027	68.19
229.262	63.19
229.496	60.19
229.73	72.19
229.964	82.19
230.199	66.19
230.433	81.19
230.667	78.19
230.901	84.19
231.136	89.19
231.37	80.19
231.604	60.19
231.838	72.19
232.072	79.19
232.306	82.19
232.541	78.19
232.775	89.19
233.009	74.19
233.243	69.19
233.477	90.19
233.711	74.19
233.945	83.19
234.179	91.19
234.413	77.19
234.647	61.19
234.881	79.19
235.115	58.19
235.349	87.19
235.583	68.19
235.817	79.19
236.051	76.19
236.285	91.19
236.519	86.19
236.753	80.19
236.987	73.19
237.221	83.19
237.455	87.19
237.689	83.19
237.922	66.19
238.156	76.19
238.39	91.19
238.624	67.19
238.858	64.19
239.091	90.19
239.325	75.19
239.559	67.19
239.793	70.19
240.027	63.19
240.26	74.19
240.494	67.19
240.728	75.19
240.961	91.19
241.195	87.19
241.429	70.19
241.662	73.19
241.896	74.19
242.13	73.19
242.363	87.19
242.597	74.19
242.83	88.19
243.064	75.19
243.298	76.19
243.531	78.19
243.765	71.19
243.998	83.19
244.232	86.19
244.465	84.19
244.699	67.19
244.932	67.19
245.166	73.19
245.399	63.19
245.633	72.19
245.866	81.19
246.099	62.19
246.333	91.19
246.566	89.19
246.8	79.19
247.033	72.19
247.266	88.19
247.5	73.19
247.733	81.19
247.966	91.19
248.2	90.19
248.433	84.19
248.666	73.19
248.899	72.19
249.133	80.19
249.366	91.19
249.599	78.19
249.832	80.19
250.066	76.19
250.299	82.19
250.532	79.19
250.765	77.19
250.998	71.19
251.231	59.19
251.465	70.19
251.698	69.19
251.931	76.19
252.164	76.19
252.397	80.19
252.63	90.19
252.863	82.19
253.096	80.19
253.329	70.19
253.562	86.19
253.795	67.19
254.028	88.19
254.261	73.19
254.494	86.19
254.727	81.19
254.96	58.19
255.193	98.19
255.426	81.19
255.659	75.19
255.892	71.19
256.124	80.19
256.357	76.19
256.59	80.19
256.823	65.19
257.056	83.19
257.289	80.19
257.521	71.19
257.754	81.19
257.987	84.19
258.22	84.19
258.452	79.19
258.685	88.19
258.918	78.19
259.151	88.19
259.383	75.19
259.616	75.19
259.849	83.19
260.081	78.19
260.314	90.19
260.547	83.19
260.779	73.19
261.012	85.19
261.244	85.19
261.477	76.19
261.71	74.19
261.942	89.19
262.175	96.19
262.407	82.19
262.64	69.19
262.872	81.19
263.105	74.19
263.337	71.19
263.57	80.19
263.802	81.19
264.035	79.19
264.267	85.19
264.499	80.19
264.732	80.19
264.964	88.19
265.197	74.19
265.429	68.19
265.661	75.19
265.894	82.19
266.126	85.19
266.358	78.19
266.591	85.19
266.823	84.19
267.055	74.19
267.287	76.19
267.52	67.19
267.752	87.19
267.984	77.19
268.216	93.19
268.448	94.19
268.681	81.19
268.913	85.19
269.145	96.19
269.377	87.19
269.609	73.19
269.841	83.19
270.073	92.19
270.306	92.19
270.538	78.19
270.77	81.19
271.002	88.19
271.234	83.19
271.466	82.19
271.698	82.19
271.93	87.19
272.162	81.19
272.394	80.19
272.626	84.19
272.858	73.19
273.09	75.19
273.322	72.19
273.553	84.19
273.785	88.19
274.017	76.19
274.249	82.19
274.481	81.19
274.713	72.19
274.945	78.19
275.176	79.19
275.408	75.19
275.64	92.19
275.872	70.19
276.104	97.19
276.335	81.19
276.567	99.19
276.799	92.19
277.031	106.19
277.262	73.19
277.494	79.19
277.726	91.19
277.957	79.19
278.189	91.19
278.421	83.19
278.652	83.19
278.884	91.19
279.115	83.19
279.347	87.19
279.579	84.19
279.81	87.19
280.042	96.19
280.273	86.19
280.505	79.19
280.736	93.19
280.968	74.19
281.199	68.19
281.431	91.19
281.662	82.19
281.894	73.19
282.125	98.19
282.356	112.19
282.588	103.19
282.819	101.19
283.051	99.19
283.282	79.19
283.513	87.19
283.745	91.19
283.976	83.19
284.207	85.19
284.439	100.19
284.67	73.19
284.901	95.19
285.132	82.19
285.364	82.19
285.595	85.19
285.826	103.19
286.057	84.19
286.288	64.19
286.52	84.19
286.751	82.19
286.982	86.19
287.213	87.19
287.444	80.19
287.675	85.19
287.906	100.19
288.138	97.19
288.369	102.19
288.6	97.19
288.831	75.19
289.062	72.19
289.293	79.19
289.524	73.19
289.755	85.19
289.986	82.19
290.217	92.19
290.448	94.19
290.679	86.19
290.91	86.19
291.141	79.19
291.371	94.19
291.602	85.19
291.833	63.19
292.064	101.19
292.295	86.19
292.526	83.19
292.757	96.19
292.987	94.19
293.218	87.19
293.449	83.19
293.68	82.19
293.91	79.19
294.141	87.19
294.372	84.19
294.603	93.19
294.833	95.19
295.064	92.19
295.295	92.19
295.525	91.19
295.756	90.19
295.987	100.19
296.217	113.19
296.448	107.19
296.679	92.19
296.909	90.19
297.14	88.19
297.37	85.19
297.601	81.19
297.831	77.19
298.062	82.19
298.292	100.19
298.523	74.19
298.753	86.19
298.984	81.19
299.214	80.19
299.445	81.19
299.675	100.19
299.905	98.19
300.136	88.19
300.366	88.19
300.597	83.19
300.827	90.19
301.057	95.19
301.288	93.19
301.518	82.19
301.748	86.19
301.979	103.19
302.209	85.19
302.439	94.19
302.669	89.19
302.9	60.19
303.13	98.19
303.36	86.19
303.59	91.19
303.82	98.19
304.051	95.19
304.281	99.19
304.511	87.19
304.741	86.19
304.971	80.19
305.201	83.19
305.431	72.19
305.661	86.19
305.891	94.19
306.121	89.19
306.352	101.19
306.582	87.19
306.812	98.19
307.042	87.19
307.272	88.19
307.502	104.19
307.731	74.19
307.961	91.19
308.191	95.19
308.421	89.19
308.651	92.19
308.881	76.19
309.111	77.19
309.341	97.19
309.571	78.19
309.8	100.19
310.03	95.19
310.26	68.19
310.49	87.19
310.72	98.19
310.949	113.19
311.179	97.19
311.409	92.19
311.639	86.19
311.868	93.19
312.098	103.19
312.328	88.19
312.557	100.19
312.787	104.19
313.017	71.19
313.246	82.19
313.476	78.19
313.706	68.19
313.935	86.19
314.165	107.19
314.394	96.19
314.624	77.19
314.853	91.19
315.083	95.19
315.312	87.19
315.542	96.19
315.771	105.19
316.001	103.19
316.23	93.19
316.46	103.19
316.689	88.19
316.919	97.19
317.148	82.19
317.377	92.19
317.607	88.19
317.836	94.19
318.065	84.19
318.295	94.19
318.524	82.19
318.753	79.19
318.983	90.19
319.212	85.19
319.441	98.19
319.67	92.19
319.9	97.19
320.129	101.19
320.358	94.19
320.587	90.19
320.816	88.19
321.046	85.19
321.275	85.19
321.504	90.19
321.733	79.19
321.962	101.19
322.191	90.19
322.42	101.19
322.649	94.19
322.878	82.19
323.108	85.19
323.337	112.19
323.566	122.19
323.795	130.19
324.024	176.19
324.253	316.19
324.482	640.19
324.71	1284.19
324.939	1694.19
325.168	646.19
325.397	207.19
325.626	142.19
325.855	114.19
326.084	100.19
326.313	111.19
326.542	144.19
326.77	198.19
326.999	368.19
327.228	734.19
327.457	1344.19
327.686	1097.19
327.914	288.19
328.143	159.19
328.372	133.19
328.6	104.19
328.829	98.19
329.058	106.19
329.287	115.19
329.515	101.19
329.744	87.19
329.972	69.19
330.201	96.19
330.43	98.19
330.658	99.19
330.887	135.19
331.115	112.19
331.344	90.19
331.572	83.19
331.801	95.19
332.03	108.19
332.258	104.19
332.486	91.19
332.715	80.19
332.943	92.19
333.172	91.19
333.4	90.19
333.629	101.19
333.857	98.19
334.085	97.19
334.314	86.19
334.542	96.19
334.771	82.19
334.999	89.19
335.227	99.19
335.455	85.19
335.684	84.19
335.912	99.19
336.14	107.19
336.369	89.19
336.597	87.19
336.825	98.19
337.053	83.19
337.281	96.19
337.51	75.19
337.738	82.19
337.966	87.19
338.194	90.19
338.422	83.19
338.65	90.19
338.878	103.19
339.106	98.19
339.334	80.19
339.562	83.19
339.79	90.19
340.018	91.19
340.246	81.19
340.474	82.19
340.702	87.19
340.93	86.19
341.158	97.19
341.386	95.19
341.614	98.19
341.842	96.19
342.07	100.19
342.298	71.19
342.526	91.19
342.754	94.19
342.981	98.19
343.209	84.19
343.437	90.19
343.665	90.19
343.893	94.19
344.12	105.19
344.348	88.19
344.576	83.19
344.804	96.19
345.031	94.19
345.259	88.19
345.487	80.19
345.714	86.19
345.942	85.19
346.17	92.19
346.397	89.19
346.625	83.19
346.853	87.19
347.08	90.19
347.308	106.19
347.535	104.19
347.763	102.19
347.99	95.19
348.218	89.19
348.445	97.19
348.673	88.19
348.9	88.19
349.128	96.19
349.355	110.19
349.583	89.19
349.81	86.19
350.037	92.19
350.265	77.19
350.492	88.19
350.72	92.19
350.947	88.19
351.174	102.19
351.402	110.19
351.629	114.19
351.856	99.19
352.083	97.19
352.311	104.19
352.538	107.19
352.765	111.19
352.992	99.19
353.22	122.19
353.447	101.19
353.674	88.19
353.901	112.19
354.128	117.19
354.355	106.19
354.583	103.19
354.81	101.19
355.037	106.19
355.264	104.19
355.491	102.19
355.718	110.19
355.945	100.19
356.172	112.19
356.399	116.19
356.626	108.19
356.853	104.19
357.08	107.19
357.307	110.19
357.534	93.19
357.761	84.19
357.988	82.19
358.215	128.19
358.441	114.19
358.668	130.19
358.895	105.19
359.122	107.19
359.349	90.19
359.576	91.19
359.802	88.19
360.029	93.19
360.256	95.19
360.483	88.19
360.709	82.19
360.936	88.19
361.163	98.19
361.39	100.19
361.616	79.19
361.843	88.19
362.07	91.19
362.296	103.19
362.523	100.19
362.749	87.19
362.976	96.19
363.203	92.19
363.429	95.19
363.656	89.19
363.882	82.19
364.109	90.19
364.335	104.19
364.562	86.19
364.788	88.19
365.015	80.19
365.241	86.19
365.468	83.19
365.694	90.19
365.92	93.19
366.147	92.19
366.373	80.19
366.599	89.19
366.826	75.19
367.052	80.19
367.278	88.19
367.505	79.19
367.731	71.19
367.957	84.19
368.184	93.19
368.41	88.19
368.636	83.19
368.862	94.19
369.089	83.19
369.315	93.19
369.541	93.19
369.767	96.19
369.993	96.19
370.219	88.19
370.445	95.19
370.672	87.19
370.898	95.19
371.124	88.19
371.35	94.19
371.576	107.19
371.802	94.19
372.028	83.19
372.254	95.19
372.48	88.19
372.706	101.19
372.932	94.19
373.158	85.19
373.384	99.19
373.61	86.19
373.835	78.19
374.061	98.19
374.287	89.19
374.513	116.19
374.739	104.19
374.965	88.19
375.191	96.19
375.416	93.19
375.642	98.19
375.868	99.19
376.094	92.19
376.319	95.19
376.545	94.19
376.771	107.19
376.997	103.19
377.222	106.19
377.448	98.19
377.674	105.19
377.899	99.19
378.125	114.19
378.35	112.19
378.576	112.19
378.802	103.19
379.027	115.19
379.253	102.19
379.478	118.19
379.704	120.19
379.929	117.19
380.155	124.19
380.38	106.19
380.606	130.19
380.831	112.19
381.057	113.19
381.282	123.19
381.507	134.19
381.733	126.19
381.958	136.19
382.184	127.19
382.409	135.19
382.634	142.19
382.86	140.19
383.085	146.19
383.31	143.19
383.535	140.19
383.761	134.19
383.986	157.19
384.211	150.19
384.436	151.19
384.662	170.19
384.887	180.19
385.112	196.19
385.337	195.19
385.562	183.19
385.787	184.19
386.013	179.19
386.238	215.19
386.463	167.19
386.688	178.19
386.913	187.19
387.138	211.19
387.363	182.19
387.588	144.19
387.813	156.19
388.038	189.19
388.263	227.19
388.488	202.19
388.713	115.19
388.938	96.19
389.163	95.19
389.387	99.19
389.612	97.19
389.837	89.19
390.062	81.19
390.287	92.19
390.512	100.19
390.736	90.19
390.961	93.19
391.186	90.19
391.411	101.19
391.636	97.19
391.86	99.19
392.085	85.19
392.31	89.19
392.534	81.19
392.759	69.19
392.984	94.19
393.208	119.19
393.433	156.19
393.658	144.19
393.882	116.19
394.107	89.19
394.331	94.19
394.556	83.19
394.78	82.19
395.005	95.19
395.229	84.19
395.454	84.19
395.678	88.19
395.903	94.19
396.127	101.19
396.352	82.19
396.576	97.19
396.801	132.19
397.025	113.19
397.249	93.19
397.474	86.19
397.698	82.19
397.922	96.19
398.147	81.19
398.371	80.19
398.595	83.19
398.82	70.19
399.044	82.19
399.268	88.19
399.492	84.19
399.717	87.19
399.941	70.19
400.165	86.19
400.389	81.19
400.613	73.19
400.837	90.19
401.062	86.19
401.286	99.19
401.51	88.19
401.734	81.19
401.958	93.19
402.182	115.19
402.406	111.19
402.63	99.19
402.854	93.19
403.078	92.19
403.302	87.19
403.526	90.19
403.75	78.19
403.974	87.19
404.198	89.19
404.422	78.19
404.645	82.19
404.869	78.19
405.093	103.19
405.317	94.19
405.541	102.19
405.765	91.19
405.988	94.19
406.212	133.19
406.436	161.19
406.66	117.19
406.883	106.19
407.107	93.19
407.331	87.19
407.555	105.19
407.778	92.19
408.002	79.19
408.226	98.19
408.449	80.19
408.673	92.19
408.896	93.19
409.12	100.19
409.344	94.19
409.567	91.19
409.791	92.19
410.014	89.19
410.238	96.19
410.461	96.19
410.685	96.19
410.908	112.19
411.132	91.19
411.355	104.19
411.578	92.19
411.802	89.19
412.025	96.19
412.249	101.19
412.472	100.19
412.695	90.19
412.919	89.19
413.142	105.19
413.365	82.19
413.589	88.19
413.812	96.19
414.035	97.19
414.258	101.19
414.482	91.19
414.705	93.19
414.928	98.19
415.151	99.19
415.374	100.19
415.597	94.19
415.821	98.19
416.044	100.19
416.267	94.19
416.49	100.19
416.713	99.19
416.936	105.19
417.159	105.19
417.382	100.19
417.605	82.19
417.828	100.19
418.051	88.19
418.274	107.19
418.497	79.19
418.72	74.19
418.943	91.19
419.166	95.19
419.389	99.19
419.611	91.19
419.834	98.19
420.057	94.19
420.28	85.19
420.503	80.19
420.726	83.19
420.948	84.19
421.171	95.19
421.394	94.19
421.617	110.19
421.839	86.19
422.062	87.19
422.285	95.19
422.507	107.19
422.73	147.19
422.953	131.19
423.175	91.19
423.398	74.19
423.621	89.19
423.843	78.19
424.066	82.19
424.288	76.19
424.511	79.19
424.733	98.19
424.956	84.19
425.178	94.19
425.401	102.19
425.623	102.19
425.846	79.19
426.068	87.19
426.291	97.19
426.513	81.19
426.735	84.19
426.958	100.19
427.18	88.19
427.402	110.19
427.625	118.19
427.847	99.19
428.069	111.19
428.292	79.19
428.514	86.19
428.736	81.19
428.958	81.19
429.181	87.19
429.403	87.19
429.625	81.19
429.847	86.19
430.069	103.19
430.292	83.19
430.514	80.19
430.736	76.19
430.958	69.19
431.18	90.19
431.402	85.19
431.624	75.19
431.846	78.19
432.068	77.19
432.29	83.19
432.512	103.19
432.734	89.19
432.956	96.19
433.178	86.19
433.4	102.19
433.622	93.19
433.844	92.19
434.066	85.19
434.287	90.19
434.509	82.19
434.731	74.19
434.953	89.19
435.175	73.19
435.397	97.19
435.618	86.19
435.84	94.19
436.062	112.19
436.284	94.19
436.505	80.19
436.727	97.19
436.949	92.19
437.17	81.19
437.392	93.19
437.614	83.19
437.835	107.19
438.057	101.19
438.278	102.19
438.5	91.19
438.721	108.19
438.943	97.19
439.165	92.19
439.386	84.19
439.608	71.19
439.829	94.19
440.05	110.19
440.272	110.19
440.493	92.19
440.715	88.19
440.936	82.19
441.158	80.19
441.379	79.19
441.6	74.19
441.822	95.19
442.043	97.19
442.264	99.19
442.486	89.19
442.707	88.19
442.928	91.19
443.149	113.19
443.371	90.19
443.592	111.19
443.813	101.19
444.034	105.19
444.255	77.19
444.476	76.19
444.698	89.19
444.919	107.19
445.14	127.19
445.361	102.19
445.582	102.19
445.803	109.19
446.024	110.19
446.245	107.19
446.466	99.19
446.687	70.19
446.908	98.19
447.129	90.19
447.35	91.19
447.571	85.19
447.792	91.19
448.013	92.19
448.234	86.19
448.455	89.19
448.675	106.19
448.896	118.19
449.117	101.19
449.338	105.19
449.559	117.19
449.779	111.19
450	87.19
450.221	88.19
450.442	91.19
450.662	90.19
450.883	95.19
451.104	99.19
451.324	90.19
451.545	91.19
451.766	77.19
451.986	71.19
452.207	94.19
452.428	81.19
452.648	84.19
452.869	92.19
453.089	110.19
453.31	99.19
453.53	84.19
453.751	80.19
453.971	104.19
454.192	95.19
454.412	80.19
454.633	97.19
454.853	77.19
455.073	83.19
455.294	82.19
455.514	97.19
455.734	101.19
455.955	89.19
456.175	95.19
456.395	88.19
456.616	71.19
456.836	88.19
457.056	84.19
457.276	71.19
457.497	82.19
457.717	93.19
457.937	91.19
458.157	98.19
458.377	71.19
458.598	97.19
458.818	113.19
459.038	125.19
459.258	96.19
459.478	85.19
459.698	82.19
459.918	82.19
460.138	71.19
460.358	96.19
460.578	84.19
460.798	95.19
461.018	97.19
461.238	76.19
461.458	86.19
461.678	94.19
461.898	90.19
462.118	86.19
462.338	84.19
462.558	81.19
462.777	83.19
462.997	86.19
463.217	89.19
463.437	93.19
463.657	66.19
463.876	89.19
464.096	95.19
464.316	95.19
464.536	78.19
464.755	88.19
464.975	96.19
465.195	130.19
465.414	118.19
465.634	88.19
465.854	89.19
466.073	86.19
466.293	79.19
466.512	80.19
466.732	79.19
466.951	93.19
467.171	89.19
467.391	97.19
467.61	109.19
467.829	88.19
468.049	83.19
468.268	86.19
468.488	95.19
468.707	89.19
468.927	72.19
469.146	76.19
469.365	87.19
469.585	83.19
469.804	93.19
470.023	89.19
470.243	86.19
470.462	97.19
470.681	100.19
470.901	78.19
471.12	96.19
471.339	82.19
471.558	89.19
471.777	84.19
471.997	83.19
472.216	86.19
472.435	82.19
472.654	71.19
472.873	84.19
473.092	91.19
473.311	82.19
473.53	74.19
473.749	97.19
473.968	83.19
474.187	88.19
474.406	86.19
474.625	88.19
474.844	85.19
475.063	86.19
475.282	74.19
475.501	90.19
475.72	90.19
475.939	90.19
476.158	75.19
476.377	75.19
476.596	89.19
476.814	105.19
477.033	89.19
477.252	89.19
477.471	80.19
477.69	96.19
477.908	84.19
478.127	88.19
478.346	87.19
478.564	73.19
478.783	96.19
479.002	87.19
479.22	80.19
479.439	94.19
479.658	99.19
479.876	95.19
480.095	70.19
480.313	93.19
480.532	92.19
480.751	99.19
480.969	89.19
481.188	93.19
481.406	97.19
481.624	79.19
481.843	92.19
482.061	86.19
482.28	81.19
482.498	97.19
482.717	98.19
482.935	75.19
483.153	88.19
483.372	84.19
483.59	104.19
483.808	81.19
484.027	90.19
484.245	103.19
484.463	108.19
484.681	110.19
484.9	90.19
485.118	94.19
485.336	100.19
485.554	103.19
485.772	110.19
485.99	116.19
486.209	118.19
486.427	116.19
486.645	104.19
486.863	116.19
487.081	107.19
487.299	100.19
487.517	117.19
487.735	107.19
487.953	100.19
488.171	94.19
488.389	106.19
488.607	79.19
488.825	90.19
489.043	84.19
489.261	93.19
489.479	90.19
489.696	91.19
489.914	90.19
490.132	98.19
490.35	94.19
490.568	89.19
490.786	78.19
491.003	89.19
491.221	97.19
491.439	81.19
491.657	92.19
491.874	93.19
492.092	82.19
492.31	83.19
492.527	97.19
492.745	86.19
492.963	87.19
493.18	99.19
493.398	84.19
493.615	86.19
493.833	111.19
494.05	96.19
494.268	89.19
494.485	92.19
494.703	100.19
494.92	78.19
495.138	97.19
495.355	84.19
495.573	87.19
495.79	99.19
496.008	106.19
496.225	91.19
496.442	86.19
496.66	89.19
496.877	89.19
497.094	94.19
497.312	95.19
497.529	75.19
497.746	91.19
497.963	76.19
498.181	99.19
498.398	92.19
498.615	96.19
498.832	105.19
499.049	90.19
499.267	86.19
499.484	83.19
499.701	74.19
499.918	91.19
500.135	73.19
500.352	96.19
500.569	112.19
500.786	98.19
501.003	84.19
501.22	91.19
501.437	95.19
501.654	99.19
501.871	110.19
502.088	96.19
502.305	87.19
502.522	85.19
502.739	86.19
502.956	91.19
503.172	93.19
503.389	97.19
503.606	103.19
503.823	103.19
504.04	78.19
504.256	86.19
504.473	98.19
504.69	86.19
504.907	80.19
505.123	86.19
505.34	95.19
505.557	85.19
505.773	85.19
505.99	85.19
506.207	86.19
506.423	77.19
506.64	95.19
506.856	94.19
507.073	85.19
507.289	87.19
507.506	74.19
507.722	106.19
507.939	92.19
508.155	87.19
508.372	91.19
508.588	103.19
508.805	100.19
509.021	91.19
509.238	101.19
509.454	91.19
509.67	98.19
509.887	93.19
510.103	119.19
510.319	164.19
510.536	521.19
510.752	1646.19
510.968	500.19
511.184	141.19
511.401	88.19
511.617	95.19
511.833	90.19
512.049	99.19
512.265	78.19
512.481	91.19
512.698	83.19
512.914	99.19
513.13	97.19
513.346	97.19
513.562	77.19
513.778	80.19
513.994	97.19
514.21	119.19
514.426	101.19
514.642	104.19
514.858	105.19
515.074	127.19
515.29	299.19
515.506	929.19
515.721	360.19
515.937	140.19
516.153	110.19
