Data from Circ_2016_H10_HRD10591_00026.txt Node
Date: Wed Jan 03 09:58:45 EST 2024
User: Yrep
Spectrometer: HR+D1059
Trigger mode: 1
Integration Time (sec): 1.000000E-1
Scans to average: 1
Electric dark correction enabled: true
Nonlinearity correction enabled: false
Boxcar width: 0
XAxis mode: Wavelengths
Number of Pixels in Spectrum: 2048
>>>>>Begin Spectral Data<<<<<
223.165	-16.56
223.4	-16.56
223.635	-16.56
223.869	-8.56
224.104	-28.56
224.338	-36.56
224.573	-15.56
224.808	-15.56
225.042	4.44
225.277	-6.56
225.511	1.44
225.746	9.44
225.98	4.44
226.215	11.44
226.449	23.44
226.683	-0.56
226.918	31.44
227.152	42.44
227.387	38.44
227.621	48.44
227.856	49.44
228.09	44.44
228.324	46.44
228.559	44.44
228.793	43.44
229.027	66.44
229.262	67.44
229.496	73.44
229.73	83.44
229.964	83.44
230.199	80.44
230.433	71.44
230.667	67.44
230.901	64.44
231.136	85.44
231.37	82.44
231.604	82.44
231.838	82.44
232.072	81.44
232.306	75.44
232.541	82.44
232.775	92.44
233.009	66.44
233.243	75.44
233.477	94.44
233.711	83.44
233.945	79.44
234.179	68.44
234.413	75.44
234.647	77.44
234.881	90.44
235.115	81.44
235.349	66.44
235.583	78.44
235.817	67.44
236.051	68.44
236.285	72.44
236.519	74.44
236.753	71.44
236.987	69.44
237.221	89.44
237.455	82.44
237.689	69.44
237.922	58.44
238.156	69.44
238.39	71.44
238.624	75.44
238.858	73.44
239.091	75.44
239.325	71.44
239.559	83.44
239.793	73.44
240.027	66.44
240.26	66.44
240.494	71.44
240.728	76.44
240.961	68.44
241.195	70.44
241.429	74.44
241.662	90.44
241.896	82.44
242.13	88.44
242.363	67.44
242.597	71.44
242.83	73.44
243.064	69.44
243.298	78.44
243.531	86.44
243.765	83.44
243.998	88.44
244.232	86.44
244.465	88.44
244.699	62.44
244.932	60.44
245.166	91.44
245.399	80.44
245.633	73.44
245.866	55.44
246.099	76.44
246.333	91.44
246.566	66.44
246.8	82.44
247.033	77.44
247.266	68.44
247.5	77.44
247.733	79.44
247.966	71.44
248.2	86.44
248.433	88.44
248.666	83.44
248.899	79.44
249.133	80.44
249.366	94.44
249.599	96.44
249.832	88.44
250.066	83.44
250.299	87.44
250.532	83.44
250.765	78.44
250.998	82.44
251.231	79.44
251.465	81.44
251.698	68.44
251.931	73.44
252.164	75.44
252.397	76.44
252.63	74.44
252.863	68.44
253.096	86.44
253.329	75.44
253.562	79.44
253.795	97.44
254.028	83.44
254.261	82.44
254.494	82.44
254.727	67.44
254.96	76.44
255.193	70.44
255.426	85.44
255.659	84.44
255.892	78.44
256.124	80.44
256.357	79.44
256.59	73.44
256.823	98.44
257.056	83.44
257.289	78.44
257.521	81.44
257.754	87.44
257.987	90.44
258.22	81.44
258.452	98.44
258.685	87.44
258.918	77.44
259.151	82.44
259.383	65.44
259.616	74.44
259.849	84.44
260.081	87.44
260.314	88.44
260.547	83.44
260.779	79.44
261.012	82.44
261.244	90.44
261.477	90.44
261.71	87.44
261.942	100.44
262.175	105.44
262.407	88.44
262.64	89.44
262.872	80.44
263.105	78.44
263.337	78.44
263.57	76.44
263.802	80.44
264.035	79.44
264.267	73.44
264.499	79.44
264.732	69.44
264.964	91.44
265.197	86.44
265.429	70.44
265.661	76.44
265.894	84.44
266.126	81.44
266.358	87.44
266.591	84.44
266.823	91.44
267.055	82.44
267.287	84.44
267.52	74.44
267.752	76.44
267.984	100.44
268.216	76.44
268.448	73.44
268.681	79.44
268.913	83.44
269.145	82.44
269.377	76.44
269.609	82.44
269.841	75.44
270.073	70.44
270.306	87.44
270.538	87.44
270.77	94.44
271.002	85.44
271.234	71.44
271.466	94.44
271.698	91.44
271.93	74.44
272.162	90.44
272.394	91.44
272.626	80.44
272.858	104.44
273.09	93.44
273.322	74.44
273.553	89.44
273.785	106.44
274.017	83.44
274.249	72.44
274.481	82.44
274.713	85.44
274.945	90.44
275.176	79.44
275.408	90.44
275.64	85.44
275.872	82.44
276.104	88.44
276.335	89.44
276.567	111.44
276.799	108.44
277.031	114.44
277.262	100.44
277.494	86.44
277.726	80.44
277.957	67.44
278.189	78.44
278.421	86.44
278.652	82.44
278.884	76.44
279.115	77.44
279.347	88.44
279.579	82.44
279.81	85.44
280.042	86.44
280.273	85.44
280.505	87.44
280.736	97.44
280.968	78.44
281.199	82.44
281.431	94.44
281.662	66.44
281.894	78.44
282.125	87.44
282.356	127.44
282.588	140.44
282.819	130.44
283.051	100.44
283.282	75.44
283.513	77.44
283.745	81.44
283.976	72.44
284.207	87.44
284.439	76.44
284.67	83.44
284.901	88.44
285.132	89.44
285.364	73.44
285.595	76.44
285.826	95.44
286.057	89.44
286.288	90.44
286.52	87.44
286.751	79.44
286.982	68.44
287.213	86.44
287.444	90.44
287.675	72.44
287.906	92.44
288.138	92.44
288.369	91.44
288.6	85.44
288.831	77.44
289.062	101.44
289.293	89.44
289.524	96.44
289.755	72.44
289.986	78.44
290.217	82.44
290.448	74.44
290.679	76.44
290.91	90.44
291.141	75.44
291.371	94.44
291.602	95.44
291.833	82.44
292.064	99.44
292.295	78.44
292.526	76.44
292.757	82.44
292.987	87.44
293.218	72.44
293.449	95.44
293.68	91.44
293.91	98.44
294.141	81.44
294.372	83.44
294.603	68.44
294.833	94.44
295.064	88.44
295.295	78.44
295.525	81.44
295.756	100.44
295.987	111.44
296.217	136.44
296.448	126.44
296.679	104.44
296.909	95.44
297.14	87.44
297.37	86.44
297.601	81.44
297.831	97.44
298.062	98.44
298.292	83.44
298.523	81.44
298.753	85.44
298.984	80.44
299.214	91.44
299.445	89.44
299.675	87.44
299.905	92.44
300.136	102.44
300.366	82.44
300.597	96.44
300.827	90.44
301.057	100.44
301.288	99.44
301.518	88.44
301.748	83.44
301.979	93.44
302.209	95.44
302.439	82.44
302.669	85.44
302.9	82.44
303.13	85.44
303.36	97.44
303.59	108.44
303.82	96.44
304.051	109.44
304.281	80.44
304.511	81.44
304.741	98.44
304.971	74.44
305.201	92.44
305.431	100.44
305.661	95.44
305.891	92.44
306.121	88.44
306.352	106.44
306.582	105.44
306.812	94.44
307.042	98.44
307.272	90.44
307.502	101.44
307.731	87.44
307.961	83.44
308.191	82.44
308.421	79.44
308.651	95.44
308.881	99.44
309.111	82.44
309.341	89.44
309.571	98.44
309.8	100.44
310.03	90.44
310.26	93.44
310.49	85.44
310.72	84.44
310.949	99.44
311.179	106.44
311.409	86.44
311.639	94.44
311.868	103.44
312.098	82.44
312.328	85.44
312.557	79.44
312.787	88.44
313.017	87.44
313.246	96.44
313.476	102.44
313.706	78.44
313.935	102.44
314.165	92.44
314.394	103.44
314.624	102.44
314.853	109.44
315.083	95.44
315.312	99.44
315.542	80.44
315.771	99.44
316.001	83.44
316.23	86.44
316.46	79.44
316.689	76.44
316.919	75.44
317.148	101.44
317.377	85.44
317.607	88.44
317.836	83.44
318.065	82.44
318.295	81.44
318.524	68.44
318.753	94.44
318.983	84.44
319.212	99.44
319.441	116.44
319.67	110.44
319.9	98.44
320.129	88.44
320.358	91.44
320.587	86.44
320.816	94.44
321.046	96.44
321.275	88.44
321.504	91.44
321.733	93.44
321.962	83.44
322.191	104.44
322.42	106.44
322.649	95.44
322.878	115.44
323.108	102.44
323.337	132.44
323.566	132.44
323.795	156.44
324.024	226.44
324.253	460.44
324.482	926.44
324.71	1931.44
324.939	2559.44
325.168	928.44
325.397	277.44
325.626	168.44
325.855	115.44
326.084	115.44
326.313	113.44
326.542	166.44
326.77	251.44
326.999	514.44
327.228	1068.44
327.457	1983.44
327.686	1594.44
327.914	392.44
328.143	208.44
328.372	163.44
328.6	131.44
328.829	120.44
329.058	119.44
329.287	120.44
329.515	107.44
329.744	95.44
329.972	90.44
330.201	104.44
330.43	97.44
330.658	112.44
330.887	146.44
331.115	128.44
331.344	88.44
331.572	104.44
331.801	99.44
332.03	100.44
332.258	91.44
332.486	87.44
332.715	88.44
332.943	96.44
333.172	90.44
333.4	96.44
333.629	115.44
333.857	122.44
334.085	120.44
334.314	84.44
334.542	96.44
334.771	99.44
334.999	110.44
335.227	97.44
335.455	97.44
335.684	98.44
335.912	100.44
336.14	85.44
336.369	95.44
336.597	103.44
336.825	97.44
337.053	97.44
337.281	90.44
337.51	96.44
337.738	102.44
337.966	89.44
338.194	96.44
338.422	89.44
338.65	81.44
338.878	91.44
339.106	84.44
339.334	84.44
339.562	107.44
339.79	96.44
340.018	97.44
340.246	97.44
340.474	85.44
340.702	98.44
340.93	94.44
341.158	87.44
341.386	96.44
341.614	92.44
341.842	91.44
342.07	87.44
342.298	96.44
342.526	91.44
342.754	94.44
342.981	100.44
343.209	99.44
343.437	113.44
343.665	92.44
343.893	83.44
344.12	93.44
344.348	83.44
344.576	84.44
344.804	104.44
345.031	95.44
345.259	83.44
345.487	90.44
345.714	98.44
345.942	80.44
346.17	92.44
346.397	92.44
346.625	96.44
346.853	86.44
347.08	80.44
347.308	90.44
347.535	95.44
347.763	97.44
347.99	99.44
348.218	83.44
348.445	109.44
348.673	104.44
348.9	108.44
349.128	98.44
349.355	91.44
349.583	81.44
349.81	93.44
350.037	103.44
350.265	87.44
350.492	97.44
350.72	102.44
350.947	99.44
351.174	90.44
351.402	93.44
351.629	84.44
351.856	88.44
352.083	101.44
352.311	105.44
352.538	107.44
352.765	90.44
352.992	107.44
353.22	108.44
353.447	89.44
353.674	103.44
353.901	89.44
354.128	92.44
354.355	101.44
354.583	89.44
354.81	97.44
355.037	91.44
355.264	87.44
355.491	106.44
355.718	91.44
355.945	94.44
356.172	100.44
356.399	100.44
356.626	97.44
356.853	107.44
357.08	97.44
357.307	72.44
357.534	84.44
357.761	89.44
357.988	95.44
358.215	95.44
358.441	91.44
358.668	100.44
358.895	98.44
359.122	96.44
359.349	86.44
359.576	86.44
359.802	95.44
360.029	131.44
360.256	104.44
360.483	94.44
360.709	91.44
360.936	93.44
361.163	92.44
361.39	92.44
361.616	101.44
361.843	98.44
362.07	94.44
362.296	96.44
362.523	108.44
362.749	87.44
362.976	82.44
363.203	88.44
363.429	88.44
363.656	100.44
363.882	82.44
364.109	98.44
364.335	90.44
364.562	91.44
364.788	73.44
365.015	89.44
365.241	110.44
365.468	106.44
365.694	112.44
365.92	95.44
366.147	94.44
366.373	82.44
366.599	92.44
366.826	92.44
367.052	83.44
367.278	92.44
367.505	87.44
367.731	90.44
367.957	84.44
368.184	106.44
368.41	88.44
368.636	102.44
368.862	115.44
369.089	90.44
369.315	100.44
369.541	89.44
369.767	93.44
369.993	95.44
370.219	99.44
370.445	85.44
370.672	84.44
370.898	85.44
371.124	81.44
371.35	89.44
371.576	96.44
371.802	94.44
372.028	82.44
372.254	79.44
372.48	102.44
372.706	89.44
372.932	91.44
373.158	97.44
373.384	90.44
373.61	81.44
373.835	83.44
374.061	77.44
374.287	77.44
374.513	102.44
374.739	95.44
374.965	86.44
375.191	82.44
375.416	89.44
375.642	84.44
375.868	85.44
376.094	104.44
376.319	82.44
376.545	101.44
376.771	89.44
376.997	85.44
377.222	92.44
377.448	103.44
377.674	91.44
377.899	90.44
378.125	90.44
378.35	93.44
378.576	96.44
378.802	105.44
379.027	95.44
379.253	94.44
379.478	89.44
379.704	98.44
379.929	114.44
380.155	97.44
380.38	91.44
380.606	102.44
380.831	113.44
381.057	126.44
381.282	96.44
381.507	102.44
381.733	102.44
381.958	116.44
382.184	126.44
382.409	101.44
382.634	106.44
382.86	113.44
383.085	113.44
383.31	125.44
383.535	125.44
383.761	105.44
383.986	123.44
384.211	122.44
384.436	129.44
384.662	140.44
384.887	132.44
385.112	148.44
385.337	140.44
385.562	136.44
385.787	140.44
386.013	154.44
386.238	158.44
386.463	127.44
386.688	136.44
386.913	137.44
387.138	138.44
387.363	130.44
387.588	123.44
387.813	121.44
388.038	137.44
388.263	151.44
388.488	158.44
388.713	104.44
388.938	98.44
389.163	95.44
389.387	89.44
389.612	82.44
389.837	104.44
390.062	80.44
390.287	78.44
390.512	79.44
390.736	88.44
390.961	81.44
391.186	97.44
391.411	100.44
391.636	91.44
391.86	90.44
392.085	75.44
392.31	94.44
392.534	97.44
392.759	80.44
392.984	108.44
393.208	111.44
393.433	113.44
393.658	107.44
393.882	79.44
394.107	83.44
394.331	82.44
394.556	94.44
394.78	88.44
395.005	92.44
395.229	82.44
395.454	78.44
395.678	62.44
395.903	71.44
396.127	90.44
396.352	90.44
396.576	97.44
396.801	112.44
397.025	98.44
397.249	101.44
397.474	82.44
397.698	91.44
397.922	80.44
398.147	78.44
398.371	88.44
398.595	82.44
398.82	76.44
399.044	79.44
399.268	90.44
399.492	74.44
399.717	85.44
399.941	97.44
400.165	91.44
400.389	81.44
400.613	97.44
400.837	90.44
401.062	81.44
401.286	77.44
401.51	88.44
401.734	93.44
401.958	91.44
402.182	139.44
402.406	164.44
402.63	128.44
402.854	82.44
403.078	100.44
403.302	80.44
403.526	70.44
403.75	85.44
403.974	83.44
404.198	97.44
404.422	90.44
404.645	87.44
404.869	86.44
405.093	90.44
405.317	79.44
405.541	93.44
405.765	92.44
405.988	129.44
406.212	167.44
406.436	220.44
406.66	161.44
406.883	102.44
407.107	82.44
407.331	81.44
407.555	98.44
407.778	98.44
408.002	92.44
408.226	81.44
408.449	95.44
408.673	95.44
408.896	87.44
409.12	85.44
409.344	84.44
409.567	92.44
409.791	99.44
410.014	88.44
410.238	96.44
410.461	89.44
410.685	89.44
410.908	100.44
411.132	104.44
411.355	86.44
411.578	83.44
411.802	84.44
412.025	84.44
412.249	80.44
412.472	89.44
412.695	98.44
412.919	80.44
413.142	85.44
413.365	83.44
413.589	95.44
413.812	90.44
414.035	93.44
414.258	80.44
414.482	102.44
414.705	108.44
414.928	81.44
415.151	90.44
415.374	113.44
415.597	106.44
415.821	88.44
416.044	90.44
416.267	88.44
416.49	86.44
416.713	94.44
416.936	94.44
417.159	89.44
417.382	95.44
417.605	81.44
417.828	95.44
418.051	87.44
418.274	88.44
418.497	81.44
418.72	92.44
418.943	72.44
419.166	90.44
419.389	89.44
419.611	83.44
419.834	93.44
420.057	95.44
420.28	87.44
420.503	90.44
420.726	80.44
420.948	93.44
421.171	90.44
421.394	98.44
421.617	81.44
421.839	96.44
422.062	82.44
422.285	87.44
422.507	100.44
422.73	126.44
422.953	103.44
423.175	85.44
423.398	106.44
423.621	89.44
423.843	89.44
424.066	87.44
424.288	92.44
424.511	80.44
424.733	81.44
424.956	106.44
425.178	91.44
425.401	104.44
425.623	84.44
425.846	84.44
426.068	92.44
426.291	89.44
426.513	99.44
426.735	102.44
426.958	91.44
427.18	117.44
427.402	136.44
427.625	159.44
427.847	135.44
428.069	102.44
428.292	101.44
428.514	78.44
428.736	83.44
428.958	91.44
429.181	102.44
429.403	90.44
429.625	87.44
429.847	93.44
430.069	80.44
430.292	98.44
430.514	96.44
430.736	87.44
430.958	88.44
431.18	75.44
431.402	94.44
431.624	84.44
431.846	75.44
432.068	69.44
432.29	87.44
432.512	98.44
432.734	82.44
432.956	84.44
433.178	101.44
433.4	85.44
433.622	87.44
433.844	92.44
434.066	98.44
434.287	90.44
434.509	91.44
434.731	87.44
434.953	86.44
435.175	83.44
435.397	79.44
435.618	85.44
435.84	102.44
436.062	132.44
436.284	110.44
436.505	112.44
436.727	104.44
436.949	84.44
437.17	94.44
437.392	100.44
437.614	99.44
437.835	106.44
438.057	109.44
438.278	108.44
438.5	102.44
438.721	116.44
438.943	91.44
439.165	82.44
439.386	94.44
439.608	87.44
439.829	97.44
440.05	124.44
440.272	150.44
440.493	105.44
440.715	95.44
440.936	82.44
441.158	91.44
441.379	83.44
441.6	106.44
441.822	97.44
442.043	95.44
442.264	89.44
442.486	110.44
442.707	102.44
442.928	99.44
443.149	139.44
443.371	131.44
443.592	104.44
443.813	119.44
444.034	111.44
444.255	87.44
444.476	86.44
444.698	86.44
444.919	83.44
445.14	130.44
445.361	130.44
445.582	105.44
445.803	130.44
446.024	145.44
446.245	130.44
446.466	123.44
446.687	71.44
446.908	102.44
447.129	85.44
447.35	82.44
447.571	96.44
447.792	82.44
448.013	102.44
448.234	107.44
448.455	92.44
448.675	113.44
448.896	124.44
449.117	108.44
449.338	96.44
449.559	135.44
449.779	136.44
450	96.44
450.221	83.44
450.442	89.44
450.662	95.44
450.883	99.44
451.104	108.44
451.324	88.44
451.545	94.44
451.766	106.44
451.986	82.44
452.207	90.44
452.428	95.44
452.648	86.44
452.869	106.44
453.089	118.44
453.31	109.44
453.53	105.44
453.751	84.44
453.971	114.44
454.192	104.44
454.412	87.44
454.633	92.44
454.853	81.44
455.073	69.44
455.294	98.44
455.514	89.44
455.734	72.44
455.955	87.44
456.175	85.44
456.395	75.44
456.616	81.44
456.836	90.44
457.056	71.44
457.276	73.44
457.497	75.44
457.717	87.44
457.937	75.44
458.157	86.44
458.377	90.44
458.598	91.44
458.818	146.44
459.038	157.44
459.258	112.44
459.478	91.44
459.698	86.44
459.918	78.44
460.138	97.44
460.358	75.44
460.578	82.44
460.798	87.44
461.018	87.44
461.238	87.44
461.458	75.44
461.678	79.44
461.898	81.44
462.118	75.44
462.338	93.44
462.558	84.44
462.777	80.44
462.997	98.44
463.217	92.44
463.437	78.44
463.657	74.44
463.876	92.44
464.096	70.44
464.316	72.44
464.536	88.44
464.755	93.44
464.975	91.44
465.195	175.44
465.414	162.44
465.634	87.44
465.854	94.44
466.073	92.44
466.293	86.44
466.512	74.44
466.732	92.44
466.951	86.44
467.171	89.44
467.391	90.44
467.61	106.44
467.829	101.44
468.049	78.44
468.268	86.44
468.488	94.44
468.707	86.44
468.927	95.44
469.146	85.44
469.365	81.44
469.585	78.44
469.804	96.44
470.023	93.44
470.243	90.44
470.462	88.44
470.681	110.44
470.901	75.44
471.12	86.44
471.339	78.44
471.558	81.44
471.777	96.44
471.997	87.44
472.216	87.44
472.435	95.44
472.654	90.44
472.873	93.44
473.092	74.44
473.311	80.44
473.53	71.44
473.749	87.44
473.968	83.44
474.187	85.44
474.406	82.44
474.625	82.44
474.844	86.44
475.063	95.44
475.282	88.44
475.501	86.44
475.72	71.44
475.939	71.44
476.158	85.44
476.377	82.44
476.596	83.44
476.814	90.44
477.033	91.44
477.252	87.44
477.471	81.44
477.69	89.44
477.908	76.44
478.127	94.44
478.346	75.44
478.564	81.44
478.783	89.44
479.002	87.44
479.22	75.44
479.439	108.44
479.658	95.44
479.876	83.44
480.095	93.44
480.313	75.44
480.532	92.44
480.751	87.44
480.969	105.44
481.188	110.44
481.406	96.44
481.624	98.44
481.843	91.44
482.061	81.44
482.28	88.44
482.498	82.44
482.717	68.44
482.935	75.44
483.153	98.44
483.372	86.44
483.59	83.44
483.808	91.44
484.027	79.44
484.245	90.44
484.463	85.44
484.681	101.44
484.9	89.44
485.118	88.44
485.336	91.44
485.554	105.44
485.772	110.44
485.99	96.44
486.209	109.44
486.427	104.44
486.645	103.44
486.863	110.44
487.081	104.44
487.299	99.44
487.517	91.44
487.735	96.44
487.953	90.44
488.171	91.44
488.389	88.44
488.607	92.44
488.825	102.44
489.043	101.44
489.261	96.44
489.479	97.44
489.696	94.44
489.914	88.44
490.132	84.44
490.35	86.44
490.568	94.44
490.786	89.44
491.003	75.44
491.221	79.44
491.439	79.44
491.657	89.44
491.874	82.44
492.092	71.44
492.31	80.44
492.527	90.44
492.745	83.44
492.963	92.44
493.18	91.44
493.398	87.44
493.615	96.44
493.833	91.44
494.05	80.44
494.268	79.44
494.485	78.44
494.703	81.44
494.92	103.44
495.138	95.44
495.355	106.44
495.573	87.44
495.79	97.44
496.008	87.44
496.225	90.44
496.442	96.44
496.66	95.44
496.877	91.44
497.094	83.44
497.312	92.44
497.529	100.44
497.746	79.44
497.963	92.44
498.181	91.44
498.398	86.44
498.615	98.44
498.832	97.44
499.049	94.44
499.267	79.44
499.484	96.44
499.701	87.44
499.918	95.44
500.135	81.44
500.352	82.44
500.569	91.44
500.786	74.44
501.003	87.44
501.22	93.44
501.437	83.44
501.654	83.44
501.871	95.44
502.088	91.44
502.305	74.44
502.522	86.44
502.739	86.44
502.956	77.44
503.172	86.44
503.389	105.44
503.606	93.44
503.823	95.44
504.04	90.44
504.256	91.44
504.473	92.44
504.69	96.44
504.907	93.44
505.123	91.44
505.34	98.44
505.557	74.44
505.773	90.44
505.99	73.44
506.207	75.44
506.423	91.44
506.64	100.44
506.856	76.44
507.073	98.44
507.289	102.44
507.506	95.44
507.722	92.44
507.939	112.44
508.155	91.44
508.372	99.44
508.588	93.44
508.805	98.44
509.021	96.44
509.238	79.44
509.454	77.44
509.67	110.44
509.887	110.44
510.103	128.44
510.319	222.44
510.536	798.44
510.752	2714.44
510.968	752.44
511.184	164.44
511.401	106.44
511.617	86.44
511.833	90.44
512.049	88.44
512.265	82.44
512.481	101.44
512.698	74.44
512.914	81.44
513.13	94.44
513.346	99.44
513.562	94.44
513.778	90.44
513.994	97.44
514.21	91.44
514.426	110.44
514.642	132.44
514.858	126.44
515.074	153.44
515.29	463.44
515.506	1582.44
515.721	602.44
515.937	176.44
