Data from Circ_2016_H10_HRD10591_00022.txt Node
Date: Wed Jan 03 09:58:45 EST 2024
User: Yrep
Spectrometer: HR+D1059
Trigger mode: 1
Integration Time (sec): 1.000000E-1
Scans to average: 1
Electric dark correction enabled: true
Nonlinearity correction enabled: false
Boxcar width: 0
XAxis mode: Wavelengths
Number of Pixels in Spectrum: 2048
>>>>>Begin Spectral Data<<<<<
223.165	-29.25
223.4	-29.25
223.635	-29.25
223.869	-6.25
224.104	-8.25
224.338	-8.25
224.573	-16.25
224.808	-2.25
225.042	-19.25
225.277	-4.25
225.511	-9.25
225.746	-6.25
225.98	4.75
226.215	13.75
226.449	8.75
226.683	14.75
226.918	28.75
227.152	38.75
227.387	21.75
227.621	32.75
227.856	43.75
228.09	57.75
228.324	56.75
228.559	53.75
228.793	60.75
229.027	59.75
229.262	58.75
229.496	68.75
229.73	92.75
229.964	87.75
230.199	71.75
230.433	73.75
230.667	79.75
230.901	79.75
231.136	70.75
231.37	82.75
231.604	81.75
231.838	78.75
232.072	82.75
232.306	82.75
232.541	74.75
232.775	71.75
233.009	77.75
233.243	77.75
233.477	84.75
233.711	88.75
233.945	93.75
234.179	82.75
234.413	75.75
234.647	73.75
234.881	89.75
235.115	70.75
235.349	87.75
235.583	87.75
235.817	76.75
236.051	88.75
236.285	68.75
236.519	83.75
236.753	63.75
236.987	75.75
237.221	99.75
237.455	91.75
237.689	73.75
237.922	75.75
238.156	71.75
238.39	76.75
238.624	87.75
238.858	73.75
239.091	89.75
239.325	89.75
239.559	97.75
239.793	83.75
240.027	79.75
240.26	74.75
240.494	76.75
240.728	72.75
240.961	86.75
241.195	84.75
241.429	85.75
241.662	99.75
241.896	77.75
242.13	81.75
242.363	67.75
242.597	75.75
242.83	73.75
243.064	82.75
243.298	71.75
243.531	92.75
243.765	78.75
243.998	59.75
244.232	83.75
244.465	83.75
244.699	80.75
244.932	89.75
245.166	82.75
245.399	81.75
245.633	68.75
245.866	85.75
246.099	71.75
246.333	85.75
246.566	83.75
246.8	84.75
247.033	74.75
247.266	68.75
247.5	76.75
247.733	72.75
247.966	76.75
248.2	66.75
248.433	85.75
248.666	78.75
248.899	75.75
249.133	87.75
249.366	89.75
249.599	83.75
249.832	80.75
250.066	77.75
250.299	88.75
250.532	77.75
250.765	82.75
250.998	87.75
251.231	80.75
251.465	74.75
251.698	71.75
251.931	79.75
252.164	81.75
252.397	74.75
252.63	73.75
252.863	72.75
253.096	80.75
253.329	72.75
253.562	78.75
253.795	89.75
254.028	98.75
254.261	83.75
254.494	83.75
254.727	77.75
254.96	77.75
255.193	65.75
255.426	85.75
255.659	86.75
255.892	75.75
256.124	80.75
256.357	77.75
256.59	82.75
256.823	77.75
257.056	73.75
257.289	69.75
257.521	78.75
257.754	81.75
257.987	83.75
258.22	74.75
258.452	82.75
258.685	88.75
258.918	86.75
259.151	81.75
259.383	71.75
259.616	74.75
259.849	81.75
260.081	81.75
260.314	81.75
260.547	76.75
260.779	67.75
261.012	72.75
261.244	89.75
261.477	94.75
261.71	103.75
261.942	138.75
262.175	147.75
262.407	91.75
262.64	92.75
262.872	98.75
263.105	94.75
263.337	103.75
263.57	77.75
263.802	86.75
264.035	67.75
264.267	96.75
264.499	85.75
264.732	81.75
264.964	75.75
265.197	72.75
265.429	81.75
265.661	89.75
265.894	81.75
266.126	87.75
266.358	72.75
266.591	87.75
266.823	74.75
267.055	82.75
267.287	80.75
267.52	76.75
267.752	87.75
267.984	85.75
268.216	91.75
268.448	76.75
268.681	72.75
268.913	70.75
269.145	81.75
269.377	78.75
269.609	83.75
269.841	87.75
270.073	86.75
270.306	74.75
270.538	72.75
270.77	91.75
271.002	71.75
271.234	83.75
271.466	89.75
271.698	68.75
271.93	81.75
272.162	90.75
272.394	96.75
272.626	87.75
272.858	87.75
273.09	83.75
273.322	77.75
273.553	77.75
273.785	89.75
274.017	93.75
274.249	87.75
274.481	72.75
274.713	68.75
274.945	80.75
275.176	88.75
275.408	91.75
275.64	91.75
275.872	83.75
276.104	80.75
276.335	92.75
276.567	96.75
276.799	125.75
277.031	107.75
277.262	91.75
277.494	86.75
277.726	99.75
277.957	95.75
278.189	78.75
278.421	95.75
278.652	95.75
278.884	91.75
279.115	77.75
279.347	83.75
279.579	85.75
279.81	79.75
280.042	89.75
280.273	101.75
280.505	95.75
280.736	75.75
280.968	79.75
281.199	85.75
281.431	85.75
281.662	91.75
281.894	101.75
282.125	117.75
282.356	145.75
282.588	170.75
282.819	130.75
283.051	100.75
283.282	81.75
283.513	95.75
283.745	80.75
283.976	88.75
284.207	100.75
284.439	76.75
284.67	86.75
284.901	92.75
285.132	92.75
285.364	96.75
285.595	93.75
285.826	73.75
286.057	96.75
286.288	80.75
286.52	83.75
286.751	83.75
286.982	93.75
287.213	74.75
287.444	80.75
287.675	97.75
287.906	88.75
288.138	92.75
288.369	86.75
288.6	111.75
288.831	84.75
289.062	102.75
289.293	99.75
289.524	89.75
289.755	92.75
289.986	77.75
290.217	89.75
290.448	81.75
290.679	102.75
290.91	85.75
291.141	83.75
291.371	83.75
291.602	87.75
291.833	94.75
292.064	89.75
292.295	98.75
292.526	110.75
292.757	94.75
292.987	86.75
293.218	87.75
293.449	88.75
293.68	91.75
293.91	81.75
294.141	97.75
294.372	103.75
294.603	83.75
294.833	93.75
295.064	102.75
295.295	96.75
295.525	88.75
295.756	100.75
295.987	138.75
296.217	175.75
296.448	160.75
296.679	94.75
296.909	89.75
297.14	87.75
297.37	95.75
297.601	88.75
297.831	90.75
298.062	92.75
298.292	97.75
298.523	77.75
298.753	80.75
298.984	88.75
299.214	76.75
299.445	91.75
299.675	96.75
299.905	98.75
300.136	95.75
300.366	88.75
300.597	94.75
300.827	104.75
301.057	96.75
301.288	118.75
301.518	93.75
301.748	91.75
301.979	90.75
302.209	91.75
302.439	84.75
302.669	87.75
302.9	100.75
303.13	93.75
303.36	99.75
303.59	117.75
303.82	106.75
304.051	109.75
304.281	106.75
304.511	102.75
304.741	83.75
304.971	71.75
305.201	97.75
305.431	102.75
305.661	87.75
305.891	89.75
306.121	104.75
306.352	113.75
306.582	121.75
306.812	93.75
307.042	83.75
307.272	88.75
307.502	106.75
307.731	82.75
307.961	82.75
308.191	77.75
308.421	105.75
308.651	92.75
308.881	100.75
309.111	93.75
309.341	111.75
309.571	99.75
309.8	102.75
310.03	93.75
310.26	109.75
310.49	91.75
310.72	103.75
310.949	118.75
311.179	92.75
311.409	102.75
311.639	111.75
311.868	105.75
312.098	101.75
312.328	98.75
312.557	100.75
312.787	99.75
313.017	107.75
313.246	103.75
313.476	86.75
313.706	87.75
313.935	95.75
314.165	103.75
314.394	121.75
314.624	104.75
314.853	103.75
315.083	102.75
315.312	97.75
315.542	102.75
315.771	104.75
316.001	90.75
316.23	97.75
316.46	83.75
316.689	98.75
316.919	91.75
317.148	92.75
317.377	98.75
317.607	111.75
317.836	86.75
318.065	113.75
318.295	88.75
318.524	82.75
318.753	84.75
318.983	110.75
319.212	115.75
319.441	127.75
319.67	117.75
319.9	109.75
320.129	90.75
320.358	107.75
320.587	101.75
320.816	98.75
321.046	117.75
321.275	99.75
321.504	100.75
321.733	101.75
321.962	97.75
322.191	106.75
322.42	118.75
322.649	128.75
322.878	128.75
323.108	130.75
323.337	139.75
323.566	154.75
323.795	192.75
324.024	272.75
324.253	599.75
324.482	1261.75
324.71	2694.75
324.939	3497.75
325.168	1254.75
325.397	349.75
325.626	183.75
325.855	158.75
326.084	138.75
326.313	153.75
326.542	202.75
326.77	311.75
326.999	667.75
327.228	1410.75
327.457	2637.75
327.686	2050.75
327.914	526.75
328.143	255.75
328.372	196.75
328.6	143.75
328.829	131.75
329.058	168.75
329.287	176.75
329.515	131.75
329.744	119.75
329.972	114.75
330.201	120.75
330.43	125.75
330.658	148.75
330.887	183.75
331.115	168.75
331.344	115.75
331.572	100.75
331.801	113.75
332.03	113.75
332.258	110.75
332.486	83.75
332.715	95.75
332.943	111.75
333.172	88.75
333.4	101.75
333.629	104.75
333.857	114.75
334.085	105.75
334.314	109.75
334.542	106.75
334.771	110.75
334.999	111.75
335.227	101.75
335.455	95.75
335.684	89.75
335.912	112.75
336.14	90.75
336.369	98.75
336.597	111.75
336.825	103.75
337.053	99.75
337.281	100.75
337.51	89.75
337.738	100.75
337.966	111.75
338.194	91.75
338.422	121.75
338.65	97.75
338.878	100.75
339.106	87.75
339.334	103.75
339.562	103.75
339.79	82.75
340.018	92.75
340.246	87.75
340.474	105.75
340.702	98.75
340.93	102.75
341.158	91.75
341.386	102.75
341.614	96.75
341.842	99.75
342.07	88.75
342.298	88.75
342.526	95.75
342.754	95.75
342.981	84.75
343.209	86.75
343.437	98.75
343.665	99.75
343.893	99.75
344.12	114.75
344.348	97.75
344.576	91.75
344.804	87.75
345.031	95.75
345.259	116.75
345.487	95.75
345.714	99.75
345.942	93.75
346.17	94.75
346.397	84.75
346.625	100.75
346.853	104.75
347.08	89.75
347.308	100.75
347.535	99.75
347.763	115.75
347.99	100.75
348.218	109.75
348.445	104.75
348.673	97.75
348.9	104.75
349.128	92.75
349.355	95.75
349.583	104.75
349.81	90.75
350.037	93.75
350.265	87.75
350.492	108.75
350.72	89.75
350.947	109.75
351.174	120.75
351.402	111.75
351.629	99.75
351.856	97.75
352.083	108.75
352.311	129.75
352.538	127.75
352.765	127.75
352.992	133.75
353.22	134.75
353.447	122.75
353.674	113.75
353.901	104.75
354.128	98.75
354.355	98.75
354.583	107.75
354.81	101.75
355.037	91.75
355.264	107.75
355.491	95.75
355.718	99.75
355.945	101.75
356.172	97.75
356.399	98.75
356.626	102.75
356.853	91.75
357.08	105.75
357.307	90.75
357.534	97.75
357.761	106.75
357.988	101.75
358.215	121.75
358.441	113.75
358.668	95.75
358.895	92.75
359.122	86.75
359.349	94.75
359.576	94.75
359.802	107.75
360.029	124.75
360.256	125.75
360.483	112.75
360.709	92.75
360.936	101.75
361.163	93.75
361.39	96.75
361.616	101.75
361.843	96.75
362.07	92.75
362.296	102.75
362.523	98.75
362.749	100.75
362.976	96.75
363.203	91.75
363.429	88.75
363.656	73.75
363.882	87.75
364.109	99.75
364.335	102.75
364.562	94.75
364.788	101.75
365.015	99.75
365.241	115.75
365.468	107.75
365.694	119.75
365.92	104.75
366.147	91.75
366.373	88.75
366.599	94.75
366.826	91.75
367.052	88.75
367.278	91.75
367.505	97.75
367.731	114.75
367.957	106.75
368.184	103.75
368.41	109.75
368.636	113.75
368.862	128.75
369.089	119.75
369.315	90.75
369.541	89.75
369.767	105.75
369.993	91.75
370.219	97.75
370.445	89.75
370.672	85.75
370.898	94.75
371.124	81.75
371.35	83.75
371.576	100.75
371.802	97.75
372.028	105.75
372.254	96.75
372.48	84.75
372.706	85.75
372.932	80.75
373.158	79.75
373.384	94.75
373.61	95.75
373.835	99.75
374.061	76.75
374.287	95.75
374.513	90.75
374.739	104.75
374.965	97.75
375.191	100.75
375.416	90.75
375.642	96.75
375.868	96.75
376.094	88.75
376.319	85.75
376.545	98.75
376.771	88.75
376.997	98.75
377.222	76.75
377.448	107.75
377.674	92.75
377.899	93.75
378.125	100.75
378.35	101.75
378.576	89.75
378.802	99.75
379.027	103.75
379.253	95.75
379.478	100.75
379.704	103.75
379.929	97.75
380.155	100.75
380.38	107.75
380.606	107.75
380.831	112.75
381.057	114.75
381.282	112.75
381.507	117.75
381.733	104.75
381.958	107.75
382.184	131.75
382.409	120.75
382.634	140.75
382.86	117.75
383.085	128.75
383.31	124.75
383.535	113.75
383.761	131.75
383.986	113.75
384.211	115.75
384.436	121.75
384.662	131.75
384.887	147.75
385.112	145.75
385.337	148.75
385.562	150.75
385.787	134.75
386.013	136.75
386.238	136.75
386.463	141.75
386.688	125.75
386.913	145.75
387.138	140.75
387.363	148.75
387.588	127.75
387.813	109.75
388.038	131.75
388.263	153.75
388.488	145.75
388.713	112.75
388.938	105.75
389.163	100.75
389.387	100.75
389.612	97.75
389.837	86.75
390.062	89.75
390.287	106.75
390.512	82.75
390.736	92.75
390.961	80.75
391.186	79.75
391.411	89.75
391.636	106.75
391.86	94.75
392.085	84.75
392.31	91.75
392.534	89.75
392.759	92.75
392.984	85.75
393.208	116.75
393.433	125.75
393.658	109.75
393.882	102.75
394.107	86.75
394.331	95.75
394.556	75.75
394.78	88.75
395.005	96.75
395.229	99.75
395.454	89.75
395.678	93.75
395.903	91.75
396.127	86.75
396.352	86.75
396.576	92.75
396.801	86.75
397.025	111.75
397.249	103.75
397.474	71.75
397.698	90.75
397.922	82.75
398.147	87.75
398.371	83.75
398.595	92.75
398.82	82.75
399.044	83.75
399.268	82.75
399.492	94.75
399.717	92.75
399.941	105.75
400.165	103.75
400.389	99.75
400.613	89.75
400.837	96.75
401.062	96.75
401.286	93.75
401.51	100.75
401.734	81.75
401.958	100.75
402.182	164.75
402.406	201.75
402.63	153.75
402.854	99.75
403.078	91.75
403.302	79.75
403.526	103.75
403.75	74.75
403.974	95.75
404.198	82.75
404.422	103.75
404.645	104.75
404.869	92.75
405.093	106.75
405.317	108.75
405.541	106.75
405.765	81.75
405.988	143.75
406.212	214.75
406.436	313.75
406.66	214.75
406.883	115.75
407.107	88.75
407.331	101.75
407.555	101.75
407.778	100.75
408.002	92.75
408.226	91.75
408.449	96.75
408.673	87.75
408.896	95.75
409.12	89.75
409.344	98.75
409.567	100.75
409.791	97.75
410.014	99.75
410.238	98.75
410.461	94.75
410.685	104.75
410.908	98.75
411.132	99.75
411.355	97.75
411.578	100.75
411.802	89.75
412.025	94.75
412.249	91.75
412.472	84.75
412.695	92.75
412.919	88.75
413.142	91.75
413.365	79.75
413.589	90.75
413.812	95.75
414.035	92.75
414.258	87.75
414.482	101.75
414.705	82.75
414.928	86.75
415.151	79.75
415.374	110.75
415.597	101.75
415.821	78.75
416.044	104.75
416.267	114.75
416.49	92.75
416.713	96.75
416.936	101.75
417.159	100.75
417.382	91.75
417.605	84.75
417.828	87.75
418.051	85.75
418.274	92.75
418.497	81.75
418.72	101.75
418.943	94.75
419.166	88.75
419.389	89.75
419.611	81.75
419.834	99.75
420.057	104.75
420.28	90.75
420.503	91.75
420.726	81.75
420.948	89.75
421.171	99.75
421.394	92.75
421.617	100.75
421.839	84.75
422.062	89.75
422.285	100.75
422.507	107.75
422.73	107.75
422.953	103.75
423.175	103.75
423.398	103.75
423.621	83.75
423.843	74.75
424.066	95.75
424.288	98.75
424.511	91.75
424.733	94.75
424.956	119.75
425.178	113.75
425.401	105.75
425.623	105.75
425.846	98.75
426.068	98.75
426.291	83.75
426.513	86.75
426.735	72.75
426.958	91.75
427.18	106.75
427.402	161.75
427.625	211.75
427.847	167.75
428.069	106.75
428.292	95.75
428.514	87.75
428.736	94.75
428.958	86.75
429.181	101.75
429.403	90.75
429.625	77.75
429.847	108.75
430.069	102.75
430.292	103.75
430.514	86.75
430.736	100.75
430.958	95.75
431.18	100.75
431.402	88.75
431.624	82.75
431.846	89.75
432.068	102.75
432.29	100.75
432.512	90.75
432.734	90.75
432.956	87.75
433.178	93.75
433.4	115.75
433.622	106.75
433.844	90.75
434.066	74.75
434.287	73.75
434.509	91.75
434.731	91.75
434.953	74.75
435.175	84.75
435.397	100.75
435.618	97.75
435.84	116.75
436.062	130.75
436.284	138.75
436.505	97.75
436.727	117.75
436.949	87.75
437.17	81.75
437.392	89.75
437.614	98.75
437.835	124.75
438.057	129.75
438.278	127.75
438.5	119.75
438.721	126.75
438.943	116.75
439.165	100.75
439.386	97.75
439.608	98.75
439.829	107.75
440.05	139.75
440.272	168.75
440.493	117.75
440.715	83.75
440.936	95.75
441.158	90.75
441.379	91.75
441.6	95.75
441.822	107.75
442.043	93.75
442.264	97.75
442.486	103.75
442.707	81.75
442.928	81.75
443.149	143.75
443.371	162.75
443.592	118.75
443.813	132.75
444.034	129.75
444.255	95.75
444.476	87.75
444.698	85.75
444.919	91.75
445.14	144.75
445.361	135.75
445.582	139.75
445.803	185.75
446.024	166.75
446.245	159.75
446.466	104.75
446.687	109.75
446.908	81.75
447.129	94.75
447.35	88.75
447.571	87.75
447.792	93.75
448.013	99.75
448.234	128.75
448.455	115.75
448.675	111.75
448.896	133.75
449.117	103.75
449.338	124.75
449.559	129.75
449.779	143.75
450	92.75
450.221	90.75
450.442	93.75
450.662	102.75
450.883	110.75
451.104	133.75
451.324	98.75
451.545	92.75
451.766	94.75
451.986	83.75
452.207	99.75
452.428	99.75
452.648	89.75
452.869	119.75
453.089	132.75
453.31	133.75
453.53	99.75
453.751	100.75
453.971	98.75
454.192	128.75
454.412	105.75
454.633	92.75
454.853	89.75
455.073	93.75
455.294	103.75
455.514	116.75
455.734	86.75
455.955	91.75
456.175	85.75
456.395	90.75
456.616	91.75
456.836	94.75
457.056	81.75
457.276	94.75
457.497	81.75
457.717	82.75
457.937	79.75
458.157	80.75
458.377	108.75
458.598	114.75
458.818	203.75
459.038	204.75
459.258	124.75
459.478	104.75
459.698	74.75
459.918	86.75
460.138	92.75
460.358	92.75
460.578	81.75
460.798	97.75
461.018	85.75
461.238	74.75
461.458	90.75
461.678	85.75
461.898	84.75
462.118	81.75
462.338	86.75
462.558	85.75
462.777	98.75
462.997	81.75
463.217	88.75
463.437	94.75
463.657	96.75
463.876	94.75
464.096	81.75
464.316	98.75
464.536	99.75
464.755	113.75
464.975	120.75
465.195	216.75
465.414	227.75
465.634	112.75
465.854	74.75
466.073	90.75
466.293	86.75
466.512	91.75
466.732	72.75
466.951	74.75
467.171	83.75
467.391	91.75
467.61	102.75
467.829	108.75
468.049	80.75
468.268	95.75
468.488	84.75
468.707	90.75
468.927	78.75
469.146	93.75
469.365	99.75
469.585	83.75
469.804	100.75
470.023	93.75
470.243	96.75
470.462	99.75
470.681	133.75
470.901	87.75
471.12	75.75
471.339	84.75
471.558	84.75
471.777	85.75
471.997	83.75
472.216	105.75
472.435	107.75
472.654	95.75
472.873	96.75
473.092	86.75
473.311	85.75
473.53	87.75
473.749	87.75
473.968	91.75
474.187	120.75
474.406	92.75
474.625	87.75
474.844	85.75
475.063	80.75
475.282	80.75
475.501	85.75
475.72	86.75
475.939	87.75
476.158	97.75
476.377	85.75
476.596	85.75
476.814	81.75
477.033	95.75
477.252	92.75
477.471	85.75
477.69	98.75
477.908	82.75
478.127	77.75
478.346	90.75
478.564	100.75
478.783	107.75
479.002	96.75
479.22	89.75
479.439	118.75
479.658	117.75
479.876	99.75
480.095	92.75
480.313	79.75
480.532	84.75
480.751	93.75
480.969	104.75
481.188	118.75
481.406	100.75
481.624	102.75
481.843	77.75
482.061	96.75
482.28	83.75
482.498	93.75
482.717	97.75
482.935	93.75
483.153	74.75
483.372	88.75
483.59	92.75
483.808	87.75
484.027	85.75
484.245	104.75
484.463	96.75
484.681	103.75
484.9	104.75
485.118	98.75
485.336	91.75
485.554	91.75
485.772	116.75
485.99	115.75
486.209	115.75
486.427	102.75
486.645	133.75
486.863	134.75
487.081	100.75
487.299	93.75
487.517	97.75
487.735	89.75
487.953	103.75
488.171	86.75
488.389	106.75
488.607	115.75
488.825	80.75
489.043	89.75
489.261	99.75
489.479	85.75
489.696	95.75
489.914	82.75
490.132	90.75
490.35	101.75
490.568	94.75
490.786	90.75
491.003	89.75
491.221	89.75
491.439	89.75
491.657	104.75
491.874	88.75
492.092	95.75
492.31	111.75
492.527	96.75
492.745	83.75
492.963	91.75
493.18	88.75
493.398	100.75
493.615	83.75
493.833	98.75
494.05	94.75
494.268	94.75
494.485	89.75
494.703	81.75
494.92	75.75
495.138	101.75
495.355	88.75
495.573	75.75
495.79	90.75
496.008	89.75
496.225	97.75
496.442	75.75
496.66	85.75
496.877	82.75
497.094	87.75
497.312	87.75
497.529	87.75
497.746	88.75
497.963	89.75
498.181	85.75
498.398	87.75
498.615	116.75
498.832	102.75
499.049	95.75
499.267	84.75
499.484	75.75
499.701	97.75
499.918	107.75
500.135	91.75
500.352	108.75
500.569	94.75
500.786	87.75
501.003	88.75
501.22	110.75
501.437	99.75
501.654	105.75
501.871	119.75
502.088	103.75
502.305	102.75
502.522	85.75
502.739	93.75
502.956	102.75
503.172	83.75
503.389	91.75
503.606	113.75
503.823	105.75
504.04	88.75
504.256	83.75
504.473	94.75
504.69	91.75
504.907	82.75
505.123	91.75
505.34	90.75
505.557	93.75
505.773	99.75
505.99	99.75
506.207	84.75
506.423	93.75
506.64	94.75
506.856	71.75
507.073	98.75
507.289	90.75
507.506	96.75
507.722	117.75
507.939	127.75
508.155	100.75
508.372	101.75
508.588	96.75
508.805	98.75
509.021	93.75
509.238	123.75
509.454	94.75
509.67	102.75
509.887	111.75
510.103	137.75
510.319	262.75
510.536	1076.75
510.752	3583.75
510.968	1000.75
511.184	200.75
511.401	113.75
511.617	99.75
511.833	95.75
512.049	97.75
512.265	93.75
512.481	94.75
512.698	95.75
512.914	106.75
513.13	91.75
513.346	99.75
513.562	101.75
513.778	90.75
