Data from Uncirc_1986_H10_HRD10591_00034.txt Node
Date: Wed Jan 03 12:14:33 EST 2024
User: Yrep
Spectrometer: HR+D1059
Trigger mode: 1
Integration Time (sec): 1.000000E-1
Scans to average: 1
Electric dark correction enabled: true
Nonlinearity correction enabled: false
Boxcar width: 0
XAxis mode: Wavelengths
Number of Pixels in Spectrum: 2048
>>>>>Begin Spectral Data<<<<<
223.165	-12.62
223.4	-12.62
223.635	-12.62
223.869	-22.62
224.104	-6.62
224.338	-10.62
224.573	-20.62
224.808	-18.62
225.042	-6.62
225.277	-18.62
225.511	-4.62
225.746	11.38
225.98	8.38
226.215	19.38
226.449	17.38
226.683	10.38
226.918	27.38
227.152	27.38
227.387	29.38
227.621	36.38
227.856	45.38
228.09	46.38
228.324	49.38
228.559	54.38
228.793	74.38
229.027	66.38
229.262	54.38
229.496	63.38
229.73	87.38
229.964	77.38
230.199	80.38
230.433	77.38
230.667	66.38
230.901	66.38
231.136	86.38
231.37	82.38
231.604	89.38
231.838	71.38
232.072	75.38
232.306	88.38
232.541	82.38
232.775	83.38
233.009	89.38
233.243	82.38
233.477	74.38
233.711	84.38
233.945	85.38
234.179	82.38
234.413	80.38
234.647	73.38
234.881	75.38
235.115	91.38
235.349	85.38
235.583	72.38
235.817	81.38
236.051	65.38
236.285	82.38
236.519	89.38
236.753	90.38
236.987	91.38
237.221	80.38
237.455	89.38
237.689	82.38
237.922	76.38
238.156	86.38
238.39	69.38
238.624	64.38
238.858	72.38
239.091	90.38
239.325	69.38
239.559	77.38
239.793	52.38
240.027	61.38
240.26	82.38
240.494	91.38
240.728	80.38
240.961	73.38
241.195	95.38
241.429	64.38
241.662	69.38
241.896	66.38
242.13	77.38
242.363	87.38
242.597	82.38
242.83	63.38
243.064	72.38
243.298	81.38
243.531	74.38
243.765	85.38
243.998	86.38
244.232	83.38
244.465	78.38
244.699	72.38
244.932	82.38
245.166	81.38
245.399	77.38
245.633	74.38
245.866	74.38
246.099	86.38
246.333	64.38
246.566	77.38
246.8	87.38
247.033	72.38
247.266	71.38
247.5	85.38
247.733	78.38
247.966	82.38
248.2	84.38
248.433	79.38
248.666	73.38
248.899	77.38
249.133	94.38
249.366	88.38
249.599	111.38
249.832	86.38
250.066	88.38
250.299	79.38
250.532	87.38
250.765	88.38
250.998	80.38
251.231	90.38
251.465	70.38
251.698	77.38
251.931	69.38
252.164	60.38
252.397	69.38
252.63	70.38
252.863	72.38
253.096	86.38
253.329	94.38
253.562	82.38
253.795	82.38
254.028	82.38
254.261	82.38
254.494	86.38
254.727	80.38
254.96	88.38
255.193	79.38
255.426	78.38
255.659	70.38
255.892	93.38
256.124	87.38
256.357	92.38
256.59	80.38
256.823	81.38
257.056	74.38
257.289	90.38
257.521	74.38
257.754	80.38
257.987	68.38
258.22	76.38
258.452	79.38
258.685	83.38
258.918	81.38
259.151	77.38
259.383	87.38
259.616	88.38
259.849	67.38
260.081	70.38
260.314	74.38
260.547	76.38
260.779	73.38
261.012	72.38
261.244	90.38
261.477	90.38
261.71	91.38
261.942	98.38
262.175	100.38
262.407	98.38
262.64	85.38
262.872	79.38
263.105	89.38
263.337	87.38
263.57	93.38
263.802	86.38
264.035	74.38
264.267	77.38
264.499	69.38
264.732	78.38
264.964	89.38
265.197	96.38
265.429	81.38
265.661	91.38
265.894	94.38
266.126	85.38
266.358	92.38
266.591	77.38
266.823	85.38
267.055	90.38
267.287	91.38
267.52	86.38
267.752	80.38
267.984	91.38
268.216	87.38
268.448	83.38
268.681	81.38
268.913	88.38
269.145	83.38
269.377	83.38
269.609	80.38
269.841	101.38
270.073	89.38
270.306	90.38
270.538	93.38
270.77	91.38
271.002	78.38
271.234	71.38
271.466	89.38
271.698	86.38
271.93	79.38
272.162	100.38
272.394	83.38
272.626	82.38
272.858	95.38
273.09	91.38
273.322	101.38
273.553	99.38
273.785	85.38
274.017	86.38
274.249	84.38
274.481	84.38
274.713	68.38
274.945	84.38
275.176	74.38
275.408	74.38
275.64	81.38
275.872	101.38
276.104	89.38
276.335	84.38
276.567	86.38
276.799	91.38
277.031	99.38
277.262	78.38
277.494	75.38
277.726	95.38
277.957	86.38
278.189	79.38
278.421	94.38
278.652	88.38
278.884	79.38
279.115	77.38
279.347	82.38
279.579	94.38
279.81	82.38
280.042	83.38
280.273	94.38
280.505	74.38
280.736	96.38
280.968	79.38
281.199	96.38
281.431	85.38
281.662	93.38
281.894	93.38
282.125	107.38
282.356	108.38
282.588	135.38
282.819	108.38
283.051	92.38
283.282	86.38
283.513	88.38
283.745	87.38
283.976	77.38
284.207	90.38
284.439	71.38
284.67	80.38
284.901	88.38
285.132	90.38
285.364	91.38
285.595	88.38
285.826	86.38
286.057	91.38
286.288	87.38
286.52	89.38
286.751	98.38
286.982	89.38
287.213	72.38
287.444	82.38
287.675	83.38
287.906	95.38
288.138	97.38
288.369	88.38
288.6	89.38
288.831	83.38
289.062	96.38
289.293	83.38
289.524	94.38
289.755	97.38
289.986	87.38
290.217	93.38
290.448	87.38
290.679	77.38
290.91	97.38
291.141	95.38
291.371	81.38
291.602	82.38
291.833	83.38
292.064	84.38
292.295	90.38
292.526	82.38
292.757	81.38
292.987	81.38
293.218	90.38
293.449	83.38
293.68	85.38
293.91	87.38
294.141	98.38
294.372	79.38
294.603	84.38
294.833	74.38
295.064	87.38
295.295	73.38
295.525	91.38
295.756	86.38
295.987	112.38
296.217	104.38
296.448	121.38
296.679	89.38
296.909	81.38
297.14	93.38
297.37	99.38
297.601	89.38
297.831	95.38
298.062	85.38
298.292	96.38
298.523	84.38
298.753	85.38
298.984	82.38
299.214	90.38
299.445	86.38
299.675	96.38
299.905	104.38
300.136	92.38
300.366	86.38
300.597	88.38
300.827	74.38
301.057	90.38
301.288	97.38
301.518	98.38
301.748	95.38
301.979	100.38
302.209	93.38
302.439	97.38
302.669	86.38
302.9	83.38
303.13	85.38
303.36	95.38
303.59	102.38
303.82	97.38
304.051	99.38
304.281	86.38
304.511	80.38
304.741	88.38
304.971	78.38
305.201	81.38
305.431	90.38
305.661	85.38
305.891	84.38
306.121	88.38
306.352	91.38
306.582	95.38
306.812	89.38
307.042	87.38
307.272	81.38
307.502	103.38
307.731	79.38
307.961	91.38
308.191	90.38
308.421	81.38
308.651	83.38
308.881	70.38
309.111	89.38
309.341	89.38
309.571	105.38
309.8	92.38
310.03	96.38
310.26	85.38
310.49	97.38
310.72	99.38
310.949	108.38
311.179	102.38
311.409	102.38
311.639	93.38
311.868	95.38
312.098	95.38
312.328	102.38
312.557	98.38
312.787	97.38
313.017	89.38
313.246	90.38
313.476	83.38
313.706	87.38
313.935	87.38
314.165	98.38
314.394	103.38
314.624	95.38
314.853	101.38
315.083	84.38
315.312	91.38
315.542	85.38
315.771	83.38
316.001	82.38
316.23	98.38
316.46	77.38
316.689	86.38
316.919	98.38
317.148	91.38
317.377	102.38
317.607	104.38
317.836	80.38
318.065	75.38
318.295	89.38
318.524	86.38
318.753	95.38
318.983	91.38
319.212	94.38
319.441	103.38
319.67	99.38
319.9	91.38
320.129	111.38
320.358	109.38
320.587	105.38
320.816	81.38
321.046	106.38
321.275	102.38
321.504	93.38
321.733	101.38
321.962	96.38
322.191	105.38
322.42	110.38
322.649	112.38
322.878	99.38
323.108	111.38
323.337	111.38
323.566	105.38
323.795	131.38
324.024	197.38
324.253	356.38
324.482	739.38
324.71	1550.38
324.939	2081.38
325.168	770.38
325.397	226.38
325.626	149.38
325.855	136.38
326.084	115.38
326.313	147.38
326.542	145.38
326.77	199.38
326.999	403.38
327.228	874.38
327.457	1594.38
327.686	1292.38
327.914	364.38
328.143	186.38
328.372	133.38
328.6	126.38
328.829	127.38
329.058	122.38
329.287	120.38
329.515	105.38
329.744	90.38
329.972	91.38
330.201	106.38
330.43	115.38
330.658	115.38
330.887	127.38
331.115	115.38
331.344	93.38
331.572	102.38
331.801	112.38
332.03	102.38
332.258	92.38
332.486	90.38
332.715	87.38
332.943	84.38
333.172	85.38
333.4	111.38
333.629	94.38
333.857	97.38
334.085	96.38
334.314	98.38
334.542	96.38
334.771	102.38
334.999	86.38
335.227	89.38
335.455	99.38
335.684	93.38
335.912	82.38
336.14	104.38
336.369	104.38
336.597	81.38
336.825	107.38
337.053	85.38
337.281	87.38
337.51	90.38
337.738	85.38
337.966	101.38
338.194	84.38
338.422	93.38
338.65	91.38
338.878	103.38
339.106	85.38
339.334	93.38
339.562	84.38
339.79	79.38
340.018	92.38
340.246	97.38
340.474	102.38
340.702	101.38
340.93	107.38
341.158	80.38
341.386	91.38
341.614	102.38
341.842	83.38
342.07	89.38
342.298	97.38
342.526	82.38
342.754	95.38
342.981	81.38
343.209	93.38
343.437	103.38
343.665	91.38
343.893	71.38
344.12	93.38
344.348	85.38
344.576	100.38
344.804	97.38
345.031	93.38
345.259	106.38
345.487	92.38
345.714	93.38
345.942	104.38
346.17	100.38
346.397	84.38
346.625	85.38
346.853	83.38
347.08	97.38
347.308	95.38
347.535	92.38
347.763	113.38
347.99	103.38
348.218	99.38
348.445	104.38
348.673	102.38
348.9	85.38
349.128	92.38
349.355	101.38
349.583	81.38
349.81	76.38
350.037	100.38
350.265	94.38
350.492	109.38
350.72	93.38
350.947	98.38
351.174	111.38
351.402	115.38
351.629	86.38
351.856	106.38
352.083	104.38
352.311	105.38
352.538	125.38
352.765	100.38
352.992	108.38
353.22	104.38
353.447	103.38
353.674	85.38
353.901	95.38
354.128	105.38
354.355	99.38
354.583	96.38
354.81	102.38
355.037	91.38
355.264	91.38
355.491	93.38
355.718	89.38
355.945	95.38
356.172	105.38
356.399	106.38
356.626	84.38
356.853	85.38
357.08	74.38
357.307	81.38
357.534	79.38
357.761	104.38
357.988	98.38
358.215	101.38
358.441	92.38
358.668	91.38
358.895	92.38
359.122	78.38
359.349	101.38
359.576	99.38
359.802	96.38
360.029	101.38
360.256	114.38
360.483	102.38
360.709	82.38
360.936	85.38
361.163	91.38
361.39	86.38
361.616	103.38
361.843	92.38
362.07	97.38
362.296	104.38
362.523	83.38
362.749	95.38
362.976	94.38
363.203	103.38
363.429	91.38
363.656	103.38
363.882	82.38
364.109	91.38
364.335	101.38
364.562	103.38
364.788	93.38
365.015	90.38
365.241	86.38
365.468	95.38
365.694	99.38
365.92	94.38
366.147	86.38
366.373	91.38
366.599	89.38
366.826	79.38
367.052	95.38
367.278	83.38
367.505	66.38
367.731	86.38
367.957	89.38
368.184	92.38
368.41	110.38
368.636	92.38
368.862	105.38
369.089	102.38
369.315	93.38
369.541	91.38
369.767	83.38
369.993	95.38
370.219	88.38
370.445	95.38
370.672	80.38
370.898	89.38
371.124	78.38
371.35	87.38
371.576	89.38
371.802	96.38
372.028	78.38
372.254	86.38
372.48	90.38
372.706	87.38
372.932	89.38
373.158	73.38
373.384	85.38
373.61	99.38
373.835	91.38
374.061	82.38
374.287	91.38
374.513	94.38
374.739	93.38
374.965	82.38
375.191	93.38
375.416	93.38
375.642	93.38
375.868	89.38
376.094	92.38
376.319	110.38
376.545	100.38
376.771	85.38
376.997	90.38
377.222	85.38
377.448	85.38
377.674	95.38
377.899	87.38
378.125	90.38
378.35	94.38
378.576	88.38
378.802	86.38
379.027	98.38
379.253	102.38
379.478	98.38
379.704	83.38
379.929	97.38
380.155	92.38
380.38	87.38
380.606	90.38
380.831	101.38
381.057	96.38
381.282	99.38
381.507	93.38
381.733	103.38
381.958	108.38
382.184	105.38
382.409	102.38
382.634	112.38
382.86	102.38
383.085	100.38
383.31	96.38
383.535	100.38
383.761	111.38
383.986	97.38
384.211	100.38
384.436	97.38
384.662	93.38
384.887	103.38
385.112	97.38
385.337	98.38
385.562	116.38
385.787	99.38
386.013	118.38
386.238	101.38
386.463	95.38
386.688	106.38
386.913	98.38
387.138	89.38
387.363	94.38
387.588	100.38
387.813	101.38
388.038	101.38
388.263	119.38
388.488	90.38
388.713	98.38
388.938	99.38
389.163	84.38
389.387	96.38
389.612	113.38
389.837	93.38
390.062	91.38
390.287	93.38
390.512	99.38
390.736	82.38
390.961	78.38
391.186	92.38
391.411	97.38
391.636	100.38
391.86	96.38
392.085	93.38
392.31	90.38
392.534	85.38
392.759	93.38
392.984	97.38
393.208	94.38
393.433	83.38
393.658	93.38
393.882	90.38
394.107	95.38
394.331	87.38
394.556	72.38
394.78	79.38
395.005	97.38
395.229	85.38
395.454	97.38
395.678	83.38
395.903	99.38
396.127	95.38
396.352	97.38
396.576	83.38
396.801	105.38
397.025	88.38
397.249	75.38
397.474	82.38
397.698	92.38
397.922	79.38
398.147	81.38
398.371	86.38
398.595	87.38
398.82	87.38
399.044	78.38
399.268	96.38
399.492	79.38
399.717	80.38
399.941	100.38
400.165	106.38
400.389	80.38
400.613	97.38
400.837	93.38
401.062	83.38
401.286	81.38
401.51	91.38
401.734	97.38
401.958	93.38
402.182	120.38
402.406	152.38
402.63	104.38
402.854	92.38
403.078	93.38
403.302	82.38
403.526	93.38
403.75	93.38
403.974	80.38
404.198	84.38
404.422	84.38
404.645	80.38
404.869	97.38
405.093	104.38
405.317	104.38
405.541	98.38
405.765	104.38
405.988	110.38
406.212	157.38
406.436	207.38
406.66	129.38
406.883	93.38
407.107	102.38
407.331	101.38
407.555	94.38
407.778	89.38
408.002	91.38
408.226	95.38
408.449	100.38
408.673	101.38
408.896	107.38
409.12	96.38
409.344	83.38
409.567	73.38
409.791	90.38
410.014	115.38
410.238	84.38
410.461	90.38
410.685	95.38
410.908	92.38
411.132	74.38
411.355	96.38
411.578	95.38
411.802	92.38
412.025	93.38
412.249	98.38
412.472	83.38
412.695	80.38
412.919	90.38
413.142	77.38
413.365	96.38
413.589	91.38
413.812	89.38
414.035	78.38
414.258	78.38
414.482	85.38
414.705	83.38
414.928	92.38
415.151	96.38
415.374	91.38
415.597	87.38
415.821	94.38
416.044	99.38
416.267	107.38
416.49	101.38
416.713	91.38
416.936	79.38
417.159	111.38
417.382	84.38
417.605	96.38
417.828	97.38
418.051	98.38
418.274	81.38
418.497	90.38
418.72	85.38
418.943	88.38
419.166	85.38
419.389	91.38
419.611	94.38
419.834	93.38
420.057	86.38
420.28	95.38
420.503	90.38
420.726	84.38
420.948	92.38
421.171	89.38
421.394	106.38
421.617	79.38
421.839	99.38
422.062	91.38
422.285	105.38
422.507	89.38
422.73	104.38
422.953	98.38
423.175	91.38
423.398	93.38
423.621	84.38
423.843	97.38
424.066	79.38
424.288	89.38
424.511	96.38
424.733	95.38
424.956	94.38
425.178	104.38
425.401	88.38
425.623	113.38
425.846	101.38
426.068	78.38
426.291	89.38
426.513	88.38
426.735	87.38
426.958	92.38
427.18	99.38
427.402	138.38
427.625	161.38
427.847	128.38
428.069	99.38
428.292	77.38
428.514	88.38
428.736	89.38
428.958	84.38
429.181	80.38
429.403	81.38
429.625	88.38
429.847	98.38
430.069	98.38
430.292	94.38
430.514	79.38
430.736	77.38
430.958	96.38
431.18	73.38
431.402	76.38
431.624	79.38
431.846	82.38
432.068	79.38
432.29	83.38
432.512	103.38
432.734	75.38
432.956	94.38
433.178	97.38
433.4	92.38
433.622	88.38
433.844	90.38
434.066	90.38
434.287	101.38
434.509	78.38
434.731	105.38
434.953	85.38
435.175	84.38
435.397	95.38
435.618	103.38
435.84	106.38
436.062	112.38
436.284	111.38
436.505	112.38
436.727	99.38
436.949	86.38
437.17	81.38
437.392	84.38
437.614	92.38
437.835	117.38
438.057	120.38
438.278	101.38
438.5	112.38
438.721	117.38
438.943	89.38
439.165	87.38
439.386	90.38
439.608	94.38
439.829	87.38
440.05	113.38
440.272	130.38
440.493	111.38
440.715	89.38
440.936	93.38
441.158	91.38
441.379	91.38
441.6	97.38
441.822	97.38
442.043	86.38
442.264	105.38
442.486	93.38
442.707	93.38
442.928	90.38
443.149	125.38
443.371	117.38
443.592	105.38
443.813	95.38
444.034	118.38
444.255	98.38
444.476	68.38
444.698	94.38
444.919	84.38
445.14	135.38
445.361	126.38
445.582	121.38
445.803	122.38
446.024	127.38
446.245	133.38
446.466	107.38
446.687	108.38
446.908	98.38
447.129	82.38
447.35	96.38
447.571	83.38
447.792	73.38
448.013	101.38
448.234	113.38
448.455	100.38
448.675	111.38
448.896	125.38
449.117	97.38
449.338	111.38
449.559	114.38
449.779	126.38
450	94.38
450.221	97.38
450.442	89.38
450.662	89.38
450.883	96.38
451.104	99.38
451.324	92.38
451.545	76.38
451.766	81.38
451.986	74.38
452.207	88.38
452.428	93.38
452.648	97.38
452.869	99.38
453.089	108.38
453.31	102.38
453.53	91.38
453.751	91.38
453.971	92.38
454.192	102.38
454.412	89.38
454.633	97.38
454.853	81.38
455.073	82.38
455.294	87.38
455.514	103.38
455.734	107.38
455.955	90.38
456.175	95.38
456.395	81.38
456.616	85.38
456.836	88.38
457.056	90.38
457.276	80.38
457.497	81.38
457.717	91.38
457.937	88.38
458.157	83.38
458.377	88.38
458.598	106.38
458.818	141.38
459.038	136.38
459.258	110.38
459.478	80.38
459.698	87.38
459.918	90.38
460.138	97.38
460.358	85.38
460.578	88.38
460.798	102.38
461.018	100.38
461.238	63.38
461.458	90.38
461.678	81.38
461.898	99.38
462.118	87.38
462.338	88.38
462.558	83.38
462.777	74.38
462.997	74.38
463.217	90.38
463.437	76.38
463.657	79.38
463.876	90.38
464.096	90.38
464.316	74.38
464.536	93.38
464.755	97.38
464.975	96.38
465.195	132.38
465.414	146.38
465.634	103.38
465.854	81.38
466.073	86.38
466.293	97.38
466.512	84.38
466.732	85.38
466.951	99.38
467.171	92.38
467.391	96.38
467.61	91.38
467.829	101.38
468.049	102.38
468.268	90.38
468.488	89.38
468.707	92.38
468.927	93.38
469.146	88.38
469.365	81.38
469.585	78.38
469.804	93.38
470.023	87.38
470.243	97.38
470.462	105.38
470.681	118.38
470.901	97.38
471.12	89.38
471.339	89.38
471.558	83.38
471.777	87.38
471.997	84.38
472.216	101.38
472.435	83.38
472.654	82.38
472.873	93.38
473.092	90.38
473.311	91.38
473.53	79.38
473.749	74.38
473.968	93.38
474.187	93.38
474.406	95.38
474.625	91.38
474.844	87.38
475.063	67.38
475.282	93.38
475.501	89.38
475.72	96.38
475.939	74.38
476.158	87.38
476.377	83.38
476.596	68.38
476.814	83.38
477.033	83.38
477.252	92.38
477.471	93.38
477.69	90.38
477.908	81.38
478.127	93.38
478.346	84.38
478.564	85.38
478.783	88.38
479.002	98.38
479.22	82.38
479.439	91.38
479.658	88.38
479.876	89.38
480.095	93.38
480.313	90.38
480.532	87.38
480.751	94.38
480.969	93.38
481.188	104.38
481.406	89.38
481.624	90.38
481.843	85.38
482.061	86.38
482.28	80.38
482.498	88.38
482.717	81.38
482.935	77.38
483.153	98.38
483.372	91.38
483.59	102.38
483.808	90.38
484.027	98.38
484.245	97.38
484.463	84.38
484.681	108.38
484.9	97.38
485.118	115.38
485.336	97.38
485.554	106.38
485.772	105.38
485.99	104.38
486.209	97.38
486.427	88.38
486.645	110.38
486.863	112.38
487.081	111.38
487.299	95.38
487.517	84.38
487.735	89.38
487.953	102.38
488.171	86.38
488.389	93.38
488.607	101.38
488.825	91.38
489.043	101.38
489.261	97.38
489.479	94.38
489.696	92.38
489.914	77.38
490.132	95.38
490.35	82.38
490.568	90.38
490.786	93.38
491.003	102.38
491.221	94.38
491.439	105.38
491.657	86.38
491.874	105.38
492.092	86.38
492.31	81.38
492.527	94.38
492.745	89.38
492.963	79.38
493.18	90.38
493.398	99.38
493.615	96.38
493.833	94.38
494.05	84.38
494.268	86.38
494.485	87.38
494.703	90.38
494.92	96.38
495.138	91.38
495.355	81.38
495.573	98.38
495.79	88.38
496.008	86.38
496.225	95.38
496.442	92.38
496.66	94.38
496.877	85.38
497.094	90.38
497.312	96.38
497.529	96.38
497.746	107.38
497.963	91.38
498.181	83.38
498.398	105.38
498.615	103.38
498.832	99.38
499.049	87.38
499.267	85.38
499.484	103.38
499.701	80.38
499.918	96.38
500.135	70.38
500.352	80.38
500.569	75.38
500.786	87.38
501.003	92.38
501.22	98.38
501.437	90.38
501.654	94.38
501.871	105.38
502.088	98.38
502.305	95.38
502.522	84.38
502.739	81.38
502.956	85.38
503.172	82.38
503.389	102.38
503.606	101.38
503.823	87.38
504.04	96.38
504.256	84.38
504.473	95.38
504.69	93.38
504.907	96.38
505.123	83.38
505.34	82.38
505.557	86.38
505.773	81.38
505.99	94.38
506.207	89.38
506.423	93.38
506.64	95.38
506.856	83.38
507.073	78.38
507.289	94.38
507.506	94.38
507.722	108.38
507.939	94.38
508.155	105.38
508.372	84.38
508.588	87.38
508.805	99.38
509.021	102.38
509.238	90.38
509.454	110.38
509.67	106.38
509.887	112.38
510.103	120.38
510.319	206.38
510.536	684.38
510.752	2168.38
510.968	587.38
511.184	146.38
511.401	120.38
511.617	97.38
511.833	99.38
512.049	101.38
512.265	91.38
512.481	81.38
512.698	110.38
512.914	101.38
513.13	109.38
513.346	88.38
513.562	92.38
513.778	103.38
513.994	95.38
514.21	104.38
514.426	122.38
514.642	127.38
514.858	134.38
515.074	164.38
515.29	400.38
515.506	1335.38
515.721	487.38
515.937	147.38
