Data from Uncirc_1986_H10_HRD10591_00065.txt Node
Date: Wed Jan 03 12:14:39 EST 2024
User: Yrep
Spectrometer: HR+D1059
Trigger mode: 1
Integration Time (sec): 1.000000E-1
Scans to average: 1
Electric dark correction enabled: true
Nonlinearity correction enabled: false
Boxcar width: 0
XAxis mode: Wavelengths
Number of Pixels in Spectrum: 2048
>>>>>Begin Spectral Data<<<<<
223.165	-13.94
223.4	-13.94
223.635	-13.94
223.869	-12.94
224.104	-16.94
224.338	-7.94
224.573	-24.94
224.808	-19.94
225.042	4.06
225.277	-5.94
225.511	-2.94
225.746	-6.94
225.98	8.06
226.215	13.06
226.449	14.06
226.683	10.06
226.918	37.06
227.152	26.06
227.387	26.06
227.621	45.06
227.856	47.06
228.09	51.06
228.324	51.06
228.559	49.06
228.793	64.06
229.027	63.06
229.262	58.06
229.496	74.06
229.73	74.06
229.964	89.06
230.199	78.06
230.433	78.06
230.667	86.06
230.901	73.06
231.136	73.06
231.37	75.06
231.604	76.06
231.838	66.06
232.072	70.06
232.306	76.06
232.541	78.06
232.775	79.06
233.009	72.06
233.243	76.06
233.477	78.06
233.711	74.06
233.945	67.06
234.179	69.06
234.413	70.06
234.647	72.06
234.881	82.06
235.115	71.06
235.349	63.06
235.583	76.06
235.817	71.06
236.051	61.06
236.285	71.06
236.519	74.06
236.753	70.06
236.987	67.06
237.221	78.06
237.455	92.06
237.689	71.06
237.922	68.06
238.156	67.06
238.39	65.06
238.624	74.06
238.858	86.06
239.091	75.06
239.325	62.06
239.559	77.06
239.793	70.06
240.027	86.06
240.26	66.06
240.494	63.06
240.728	55.06
240.961	79.06
241.195	78.06
241.429	76.06
241.662	68.06
241.896	72.06
242.13	65.06
242.363	75.06
242.597	67.06
242.83	75.06
243.064	76.06
243.298	84.06
243.531	65.06
243.765	95.06
243.998	77.06
244.232	71.06
244.465	91.06
244.699	78.06
244.932	82.06
245.166	76.06
245.399	80.06
245.633	75.06
245.866	70.06
246.099	84.06
246.333	69.06
246.566	63.06
246.8	74.06
247.033	80.06
247.266	81.06
247.5	79.06
247.733	78.06
247.966	74.06
248.2	82.06
248.433	86.06
248.666	73.06
248.899	75.06
249.133	78.06
249.366	86.06
249.599	96.06
249.832	78.06
250.066	65.06
250.299	66.06
250.532	80.06
250.765	66.06
250.998	91.06
251.231	78.06
251.465	72.06
251.698	78.06
251.931	57.06
252.164	74.06
252.397	69.06
252.63	82.06
252.863	66.06
253.096	74.06
253.329	76.06
253.562	80.06
253.795	76.06
254.028	72.06
254.261	90.06
254.494	91.06
254.727	79.06
254.96	77.06
255.193	67.06
255.426	69.06
255.659	56.06
255.892	84.06
256.124	82.06
256.357	81.06
256.59	82.06
256.823	75.06
257.056	87.06
257.289	62.06
257.521	76.06
257.754	79.06
257.987	69.06
258.22	74.06
258.452	68.06
258.685	77.06
258.918	84.06
259.151	87.06
259.383	81.06
259.616	83.06
259.849	69.06
260.081	71.06
260.314	97.06
260.547	74.06
260.779	83.06
261.012	85.06
261.244	76.06
261.477	77.06
261.71	87.06
261.942	84.06
262.175	115.06
262.407	71.06
262.64	77.06
262.872	70.06
263.105	71.06
263.337	75.06
263.57	64.06
263.802	65.06
264.035	58.06
264.267	71.06
264.499	82.06
264.732	82.06
264.964	66.06
265.197	71.06
265.429	83.06
265.661	58.06
265.894	78.06
266.126	78.06
266.358	81.06
266.591	80.06
266.823	69.06
267.055	85.06
267.287	76.06
267.52	90.06
267.752	65.06
267.984	91.06
268.216	76.06
268.448	86.06
268.681	68.06
268.913	88.06
269.145	86.06
269.377	84.06
269.609	78.06
269.841	83.06
270.073	84.06
270.306	81.06
270.538	76.06
270.77	84.06
271.002	86.06
271.234	81.06
271.466	74.06
271.698	86.06
271.93	72.06
272.162	77.06
272.394	82.06
272.626	86.06
272.858	73.06
273.09	83.06
273.322	81.06
273.553	85.06
273.785	93.06
274.017	83.06
274.249	82.06
274.481	79.06
274.713	83.06
274.945	69.06
275.176	75.06
275.408	83.06
275.64	64.06
275.872	76.06
276.104	99.06
276.335	84.06
276.567	95.06
276.799	107.06
277.031	109.06
277.262	74.06
277.494	82.06
277.726	91.06
277.957	94.06
278.189	66.06
278.421	81.06
278.652	77.06
278.884	83.06
279.115	82.06
279.347	87.06
279.579	79.06
279.81	74.06
280.042	86.06
280.273	84.06
280.505	75.06
280.736	79.06
280.968	78.06
281.199	69.06
281.431	86.06
281.662	77.06
281.894	87.06
282.125	94.06
282.356	116.06
282.588	122.06
282.819	103.06
283.051	78.06
283.282	72.06
283.513	82.06
283.745	97.06
283.976	90.06
284.207	78.06
284.439	89.06
284.67	96.06
284.901	87.06
285.132	76.06
285.364	81.06
285.595	67.06
285.826	92.06
286.057	83.06
286.288	85.06
286.52	81.06
286.751	84.06
286.982	67.06
287.213	85.06
287.444	82.06
287.675	90.06
287.906	85.06
288.138	83.06
288.369	80.06
288.6	95.06
288.831	88.06
289.062	105.06
289.293	92.06
289.524	90.06
289.755	84.06
289.986	83.06
290.217	87.06
290.448	76.06
290.679	85.06
290.91	91.06
291.141	78.06
291.371	87.06
291.602	78.06
291.833	75.06
292.064	87.06
292.295	79.06
292.526	79.06
292.757	79.06
292.987	68.06
293.218	76.06
293.449	79.06
293.68	86.06
293.91	77.06
294.141	95.06
294.372	86.06
294.603	82.06
294.833	82.06
295.064	84.06
295.295	83.06
295.525	83.06
295.756	101.06
295.987	89.06
296.217	124.06
296.448	108.06
296.679	89.06
296.909	92.06
297.14	97.06
297.37	93.06
297.601	82.06
297.831	76.06
298.062	71.06
298.292	86.06
298.523	83.06
298.753	88.06
298.984	82.06
299.214	85.06
299.445	82.06
299.675	82.06
299.905	96.06
300.136	97.06
300.366	86.06
300.597	88.06
300.827	87.06
301.057	87.06
301.288	93.06
301.518	75.06
301.748	86.06
301.979	84.06
302.209	84.06
302.439	83.06
302.669	86.06
302.9	86.06
303.13	92.06
303.36	79.06
303.59	89.06
303.82	99.06
304.051	87.06
304.281	79.06
304.511	95.06
304.741	83.06
304.971	92.06
305.201	93.06
305.431	93.06
305.661	80.06
305.891	82.06
306.121	91.06
306.352	96.06
306.582	92.06
306.812	101.06
307.042	89.06
307.272	81.06
307.502	101.06
307.731	91.06
307.961	79.06
308.191	70.06
308.421	84.06
308.651	88.06
308.881	102.06
309.111	93.06
309.341	84.06
309.571	92.06
309.8	103.06
310.03	102.06
310.26	109.06
310.49	86.06
310.72	105.06
310.949	114.06
311.179	92.06
311.409	76.06
311.639	79.06
311.868	92.06
312.098	84.06
312.328	89.06
312.557	88.06
312.787	94.06
313.017	99.06
313.246	93.06
313.476	86.06
313.706	85.06
313.935	82.06
314.165	85.06
314.394	95.06
314.624	95.06
314.853	88.06
315.083	95.06
315.312	84.06
315.542	86.06
315.771	89.06
316.001	93.06
316.23	90.06
316.46	78.06
316.689	80.06
316.919	82.06
317.148	87.06
317.377	102.06
317.607	86.06
317.836	72.06
318.065	91.06
318.295	105.06
318.524	86.06
318.753	84.06
318.983	88.06
319.212	83.06
319.441	96.06
319.67	87.06
319.9	86.06
320.129	79.06
320.358	86.06
320.587	89.06
320.816	90.06
321.046	101.06
321.275	92.06
321.504	88.06
321.733	87.06
321.962	97.06
322.191	75.06
322.42	98.06
322.649	101.06
322.878	98.06
323.108	108.06
323.337	114.06
323.566	128.06
323.795	128.06
324.024	197.06
324.253	342.06
324.482	713.06
324.71	1430.06
324.939	1939.06
325.168	726.06
325.397	218.06
325.626	125.06
325.855	125.06
326.084	124.06
326.313	126.06
326.542	116.06
326.77	209.06
326.999	400.06
327.228	825.06
327.457	1502.06
327.686	1216.06
327.914	330.06
328.143	172.06
328.372	118.06
328.6	119.06
328.829	99.06
329.058	110.06
329.287	102.06
329.515	103.06
329.744	98.06
329.972	94.06
330.201	86.06
330.43	93.06
330.658	127.06
330.887	135.06
331.115	109.06
331.344	92.06
331.572	101.06
331.801	88.06
332.03	105.06
332.258	97.06
332.486	79.06
332.715	81.06
332.943	87.06
333.172	82.06
333.4	79.06
333.629	95.06
333.857	106.06
334.085	93.06
334.314	98.06
334.542	99.06
334.771	90.06
334.999	100.06
335.227	95.06
335.455	95.06
335.684	90.06
335.912	96.06
336.14	94.06
336.369	101.06
336.597	99.06
336.825	99.06
337.053	99.06
337.281	79.06
337.51	79.06
337.738	91.06
337.966	82.06
338.194	90.06
338.422	75.06
338.65	87.06
338.878	102.06
339.106	98.06
339.334	99.06
339.562	90.06
339.79	85.06
340.018	92.06
340.246	82.06
340.474	78.06
340.702	96.06
340.93	96.06
341.158	85.06
341.386	96.06
341.614	84.06
341.842	85.06
342.07	95.06
342.298	88.06
342.526	70.06
342.754	85.06
342.981	94.06
343.209	85.06
343.437	93.06
343.665	84.06
343.893	79.06
344.12	79.06
344.348	85.06
344.576	76.06
344.804	86.06
345.031	92.06
345.259	101.06
345.487	109.06
345.714	110.06
345.942	79.06
346.17	75.06
346.397	84.06
346.625	93.06
346.853	95.06
347.08	97.06
347.308	103.06
347.535	95.06
347.763	89.06
347.99	108.06
348.218	99.06
348.445	99.06
348.673	97.06
348.9	83.06
349.128	99.06
349.355	95.06
349.583	96.06
349.81	103.06
350.037	99.06
350.265	97.06
350.492	104.06
350.72	107.06
350.947	91.06
351.174	110.06
351.402	96.06
351.629	104.06
351.856	96.06
352.083	95.06
352.311	103.06
352.538	110.06
352.765	90.06
352.992	107.06
353.22	111.06
353.447	99.06
353.674	86.06
353.901	83.06
354.128	85.06
354.355	90.06
354.583	94.06
354.81	100.06
355.037	107.06
355.264	104.06
355.491	102.06
355.718	92.06
355.945	101.06
356.172	89.06
356.399	74.06
356.626	83.06
356.853	84.06
357.08	98.06
357.307	96.06
357.534	86.06
357.761	91.06
357.988	88.06
358.215	87.06
358.441	102.06
358.668	93.06
358.895	84.06
359.122	91.06
359.349	83.06
359.576	94.06
359.802	83.06
360.029	98.06
360.256	103.06
360.483	82.06
360.709	62.06
360.936	88.06
361.163	86.06
361.39	89.06
361.616	76.06
361.843	74.06
362.07	83.06
362.296	104.06
362.523	92.06
362.749	80.06
362.976	93.06
363.203	90.06
363.429	87.06
363.656	84.06
363.882	69.06
364.109	87.06
364.335	83.06
364.562	81.06
364.788	75.06
365.015	84.06
365.241	105.06
365.468	107.06
365.694	99.06
365.92	94.06
366.147	87.06
366.373	80.06
366.599	84.06
366.826	100.06
367.052	88.06
367.278	96.06
367.505	79.06
367.731	89.06
367.957	84.06
368.184	80.06
368.41	90.06
368.636	92.06
368.862	110.06
369.089	84.06
369.315	96.06
369.541	102.06
369.767	90.06
369.993	95.06
370.219	93.06
370.445	92.06
370.672	71.06
370.898	92.06
371.124	98.06
371.35	86.06
371.576	77.06
371.802	80.06
372.028	81.06
372.254	67.06
372.48	74.06
372.706	94.06
372.932	89.06
373.158	88.06
373.384	103.06
373.61	91.06
373.835	96.06
374.061	90.06
374.287	82.06
374.513	84.06
374.739	88.06
374.965	80.06
375.191	76.06
375.416	83.06
375.642	80.06
375.868	83.06
376.094	78.06
376.319	68.06
376.545	96.06
376.771	92.06
376.997	84.06
377.222	85.06
377.448	80.06
377.674	90.06
377.899	86.06
378.125	87.06
378.35	79.06
378.576	97.06
378.802	86.06
379.027	83.06
379.253	95.06
379.478	87.06
379.704	88.06
379.929	104.06
380.155	93.06
380.38	93.06
380.606	84.06
380.831	78.06
381.057	79.06
381.282	93.06
381.507	102.06
381.733	98.06
381.958	93.06
382.184	100.06
382.409	90.06
382.634	108.06
382.86	105.06
383.085	99.06
383.31	89.06
383.535	106.06
383.761	85.06
383.986	87.06
384.211	100.06
384.436	92.06
384.662	110.06
384.887	99.06
385.112	81.06
385.337	100.06
385.562	96.06
385.787	103.06
386.013	106.06
386.238	101.06
386.463	102.06
386.688	108.06
386.913	103.06
387.138	100.06
387.363	111.06
387.588	93.06
387.813	94.06
388.038	98.06
388.263	109.06
388.488	85.06
388.713	85.06
388.938	79.06
389.163	100.06
389.387	87.06
389.612	80.06
389.837	92.06
390.062	79.06
390.287	91.06
390.512	83.06
390.736	78.06
390.961	90.06
391.186	87.06
391.411	93.06
391.636	96.06
391.86	86.06
392.085	77.06
392.31	85.06
392.534	88.06
392.759	92.06
392.984	83.06
393.208	75.06
393.433	94.06
393.658	88.06
393.882	103.06
394.107	76.06
394.331	76.06
394.556	82.06
394.78	94.06
395.005	77.06
395.229	91.06
395.454	83.06
395.678	83.06
395.903	97.06
396.127	62.06
396.352	79.06
396.576	92.06
396.801	81.06
397.025	86.06
397.249	84.06
397.474	64.06
397.698	76.06
397.922	84.06
398.147	102.06
398.371	92.06
398.595	79.06
398.82	77.06
399.044	85.06
399.268	91.06
399.492	86.06
399.717	90.06
399.941	84.06
400.165	74.06
400.389	82.06
400.613	90.06
400.837	97.06
401.062	87.06
401.286	71.06
401.51	101.06
401.734	95.06
401.958	98.06
402.182	121.06
402.406	141.06
402.63	115.06
402.854	86.06
403.078	94.06
403.302	87.06
403.526	90.06
403.75	88.06
403.974	87.06
404.198	81.06
404.422	88.06
404.645	92.06
404.869	86.06
405.093	84.06
405.317	95.06
405.541	92.06
405.765	99.06
405.988	98.06
406.212	148.06
406.436	186.06
406.66	133.06
406.883	97.06
407.107	92.06
407.331	92.06
407.555	97.06
407.778	79.06
408.002	85.06
408.226	92.06
408.449	80.06
408.673	93.06
408.896	92.06
409.12	84.06
409.344	95.06
409.567	84.06
409.791	91.06
410.014	95.06
410.238	99.06
410.461	81.06
410.685	99.06
410.908	104.06
411.132	109.06
411.355	93.06
411.578	87.06
411.802	76.06
412.025	86.06
412.249	80.06
412.472	80.06
412.695	102.06
412.919	93.06
413.142	84.06
413.365	90.06
413.589	86.06
413.812	94.06
414.035	96.06
414.258	89.06
414.482	91.06
414.705	76.06
414.928	72.06
415.151	99.06
415.374	91.06
415.597	98.06
415.821	87.06
416.044	94.06
416.267	80.06
416.49	84.06
416.713	82.06
416.936	94.06
417.159	72.06
417.382	78.06
417.605	69.06
417.828	91.06
418.051	88.06
418.274	84.06
418.497	90.06
418.72	79.06
418.943	98.06
419.166	76.06
419.389	61.06
419.611	82.06
419.834	70.06
420.057	75.06
420.28	87.06
420.503	78.06
420.726	88.06
420.948	77.06
421.171	78.06
421.394	79.06
421.617	86.06
421.839	74.06
422.062	83.06
422.285	78.06
422.507	83.06
422.73	100.06
422.953	90.06
423.175	82.06
423.398	93.06
423.621	86.06
423.843	83.06
424.066	77.06
424.288	90.06
424.511	104.06
424.733	83.06
424.956	99.06
425.178	97.06
425.401	95.06
425.623	102.06
425.846	86.06
426.068	88.06
426.291	75.06
426.513	80.06
426.735	79.06
426.958	87.06
427.18	98.06
427.402	118.06
427.625	141.06
427.847	103.06
428.069	96.06
428.292	87.06
428.514	89.06
428.736	87.06
428.958	83.06
429.181	80.06
429.403	82.06
429.625	82.06
429.847	85.06
430.069	99.06
430.292	75.06
430.514	88.06
430.736	74.06
430.958	89.06
431.18	77.06
431.402	84.06
431.624	92.06
431.846	84.06
432.068	74.06
432.29	89.06
432.512	88.06
432.734	93.06
432.956	88.06
433.178	94.06
433.4	84.06
433.622	87.06
433.844	78.06
434.066	92.06
434.287	87.06
434.509	91.06
434.731	92.06
434.953	79.06
435.175	72.06
435.397	65.06
435.618	101.06
435.84	103.06
436.062	117.06
436.284	95.06
436.505	85.06
436.727	109.06
436.949	94.06
437.17	93.06
437.392	93.06
437.614	109.06
437.835	95.06
438.057	110.06
438.278	108.06
438.5	96.06
438.721	103.06
438.943	94.06
439.165	92.06
439.386	74.06
439.608	84.06
439.829	85.06
440.05	110.06
440.272	148.06
440.493	100.06
440.715	99.06
440.936	82.06
441.158	77.06
441.379	85.06
441.6	64.06
441.822	79.06
442.043	86.06
442.264	88.06
442.486	93.06
442.707	76.06
442.928	87.06
443.149	118.06
443.371	126.06
443.592	105.06
443.813	106.06
444.034	101.06
444.255	82.06
444.476	94.06
444.698	80.06
444.919	85.06
445.14	136.06
445.361	105.06
445.582	106.06
445.803	116.06
446.024	110.06
446.245	130.06
446.466	110.06
446.687	94.06
446.908	95.06
447.129	82.06
447.35	86.06
447.571	98.06
447.792	79.06
448.013	84.06
448.234	88.06
448.455	98.06
448.675	101.06
448.896	114.06
449.117	82.06
449.338	112.06
449.559	115.06
449.779	142.06
450	96.06
450.221	95.06
450.442	85.06
450.662	82.06
450.883	101.06
451.104	101.06
451.324	95.06
451.545	97.06
451.766	92.06
451.986	91.06
452.207	72.06
452.428	72.06
452.648	87.06
452.869	98.06
453.089	106.06
453.31	116.06
453.53	102.06
453.751	96.06
453.971	95.06
454.192	89.06
454.412	90.06
454.633	74.06
454.853	77.06
455.073	78.06
455.294	90.06
455.514	101.06
455.734	89.06
455.955	82.06
456.175	94.06
456.395	92.06
456.616	75.06
456.836	88.06
457.056	87.06
457.276	97.06
457.497	79.06
457.717	63.06
457.937	81.06
458.157	85.06
458.377	95.06
458.598	89.06
458.818	133.06
459.038	135.06
459.258	108.06
459.478	78.06
459.698	78.06
459.918	90.06
460.138	85.06
460.358	85.06
460.578	76.06
460.798	87.06
461.018	95.06
461.238	87.06
461.458	92.06
461.678	80.06
461.898	82.06
462.118	79.06
462.338	83.06
462.558	72.06
462.777	84.06
462.997	81.06
463.217	71.06
463.437	74.06
463.657	74.06
463.876	83.06
464.096	88.06
464.316	90.06
464.536	96.06
464.755	78.06
464.975	96.06
465.195	129.06
465.414	126.06
465.634	82.06
465.854	80.06
466.073	76.06
466.293	102.06
466.512	87.06
466.732	75.06
466.951	83.06
467.171	91.06
467.391	88.06
467.61	102.06
467.829	84.06
468.049	88.06
468.268	85.06
468.488	90.06
468.707	90.06
468.927	90.06
469.146	99.06
469.365	86.06
469.585	86.06
469.804	92.06
470.023	99.06
470.243	82.06
470.462	87.06
470.681	96.06
470.901	88.06
471.12	90.06
471.339	94.06
471.558	74.06
471.777	79.06
471.997	80.06
472.216	96.06
472.435	102.06
472.654	71.06
472.873	87.06
473.092	80.06
473.311	87.06
473.53	86.06
473.749	86.06
473.968	93.06
474.187	101.06
474.406	93.06
474.625	83.06
474.844	75.06
475.063	82.06
475.282	76.06
475.501	85.06
475.72	99.06
475.939	77.06
476.158	70.06
476.377	91.06
476.596	84.06
476.814	90.06
477.033	91.06
477.252	95.06
477.471	84.06
477.69	102.06
477.908	88.06
478.127	83.06
478.346	95.06
478.564	100.06
478.783	92.06
479.002	84.06
479.22	78.06
479.439	103.06
479.658	100.06
479.876	97.06
480.095	92.06
480.313	85.06
480.532	85.06
480.751	87.06
480.969	91.06
481.188	98.06
481.406	106.06
481.624	78.06
481.843	72.06
482.061	79.06
482.28	78.06
482.498	69.06
482.717	90.06
482.935	84.06
483.153	87.06
483.372	95.06
483.59	91.06
483.808	80.06
484.027	87.06
484.245	86.06
484.463	90.06
484.681	86.06
484.9	84.06
485.118	86.06
485.336	79.06
485.554	84.06
485.772	94.06
485.99	101.06
486.209	102.06
486.427	96.06
486.645	106.06
486.863	102.06
487.081	107.06
487.299	97.06
487.517	79.06
487.735	97.06
487.953	81.06
488.171	75.06
488.389	101.06
488.607	95.06
488.825	79.06
489.043	85.06
489.261	86.06
489.479	71.06
489.696	93.06
489.914	85.06
490.132	100.06
490.35	70.06
490.568	79.06
490.786	87.06
491.003	86.06
491.221	84.06
491.439	93.06
491.657	72.06
491.874	103.06
492.092	101.06
492.31	80.06
492.527	82.06
492.745	87.06
492.963	94.06
493.18	104.06
493.398	90.06
493.615	79.06
493.833	90.06
494.05	99.06
494.268	83.06
494.485	99.06
494.703	82.06
494.92	79.06
495.138	91.06
495.355	75.06
495.573	77.06
495.79	80.06
496.008	86.06
496.225	95.06
496.442	74.06
496.66	83.06
496.877	103.06
497.094	100.06
497.312	87.06
497.529	88.06
497.746	82.06
497.963	85.06
498.181	84.06
498.398	90.06
498.615	93.06
498.832	94.06
499.049	90.06
499.267	77.06
499.484	78.06
499.701	79.06
499.918	92.06
500.135	102.06
500.352	93.06
500.569	83.06
500.786	85.06
501.003	87.06
501.22	76.06
501.437	87.06
501.654	91.06
501.871	99.06
502.088	86.06
502.305	95.06
502.522	91.06
502.739	82.06
502.956	84.06
503.172	94.06
503.389	83.06
503.606	95.06
503.823	103.06
504.04	81.06
504.256	85.06
504.473	92.06
504.69	88.06
504.907	76.06
505.123	86.06
505.34	81.06
505.557	81.06
505.773	94.06
505.99	77.06
506.207	79.06
506.423	86.06
506.64	85.06
506.856	84.06
507.073	77.06
507.289	83.06
507.506	85.06
507.722	104.06
507.939	108.06
508.155	85.06
508.372	85.06
508.588	82.06
508.805	101.06
509.021	89.06
509.238	102.06
509.454	95.06
509.67	86.06
509.887	102.06
510.103	140.06
510.319	192.06
510.536	614.06
510.752	1970.06
510.968	552.06
511.184	141.06
511.401	104.06
511.617	90.06
511.833	90.06
512.049	89.06
512.265	91.06
512.481	84.06
512.698	90.06
512.914	85.06
513.13	93.06
513.346	82.06
513.562	102.06
513.778	98.06
513.994	80.06
514.21	92.06
514.426	100.06
514.642	128.06
514.858	107.06
515.074	133.06
515.29	358.06
515.506	1146.06
515.721	424.06
515.937	138.06
516.153	92.06
516.369	85.06
516.585	97.06
516.801	90.06
517.016	96.06
517.232	97.06
