Data from Uncirc_1986_H10_HRD10591_00080.txt Node
Date: Wed Jan 03 12:14:42 EST 2024
User: Yrep
Spectrometer: HR+D1059
Trigger mode: 1
Integration Time (sec): 1.000000E-1
Scans to average: 1
Electric dark correction enabled: true
Nonlinearity correction enabled: false
Boxcar width: 0
XAxis mode: Wavelengths
Number of Pixels in Spectrum: 2048
>>>>>Begin Spectral Data<<<<<
223.165	-12.25
223.4	-12.25
223.635	-12.25
223.869	-25.25
224.104	-24.25
224.338	-19.25
224.573	-2.25
224.808	-18.25
225.042	0.75
225.277	-11.25
225.511	0.75
225.746	-12.25
225.98	4.75
226.215	19.75
226.449	29.75
226.683	11.75
226.918	26.75
227.152	30.75
227.387	20.75
227.621	34.75
227.856	48.75
228.09	53.75
228.324	49.75
228.559	54.75
228.793	37.75
229.027	56.75
229.262	64.75
229.496	72.75
229.73	69.75
229.964	70.75
230.199	79.75
230.433	76.75
230.667	74.75
230.901	88.75
231.136	81.75
231.37	68.75
231.604	95.75
231.838	71.75
232.072	90.75
232.306	76.75
232.541	94.75
232.775	79.75
233.009	84.75
233.243	79.75
233.477	82.75
233.711	95.75
233.945	96.75
234.179	97.75
234.413	92.75
234.647	79.75
234.881	97.75
235.115	85.75
235.349	73.75
235.583	81.75
235.817	71.75
236.051	66.75
236.285	85.75
236.519	80.75
236.753	72.75
236.987	105.75
237.221	88.75
237.455	91.75
237.689	90.75
237.922	105.75
238.156	77.75
238.39	66.75
238.624	62.75
238.858	82.75
239.091	63.75
239.325	69.75
239.559	96.75
239.793	84.75
240.027	83.75
240.26	80.75
240.494	87.75
240.728	79.75
240.961	84.75
241.195	74.75
241.429	82.75
241.662	77.75
241.896	73.75
242.13	76.75
242.363	73.75
242.597	85.75
242.83	99.75
243.064	89.75
243.298	70.75
243.531	67.75
243.765	70.75
243.998	83.75
244.232	69.75
244.465	83.75
244.699	93.75
244.932	86.75
245.166	79.75
245.399	79.75
245.633	66.75
245.866	80.75
246.099	81.75
246.333	79.75
246.566	81.75
246.8	76.75
247.033	82.75
247.266	74.75
247.5	85.75
247.733	83.75
247.966	88.75
248.2	73.75
248.433	71.75
248.666	71.75
248.899	80.75
249.133	81.75
249.366	87.75
249.599	91.75
249.832	80.75
250.066	82.75
250.299	78.75
250.532	73.75
250.765	79.75
250.998	88.75
251.231	85.75
251.465	67.75
251.698	69.75
251.931	85.75
252.164	73.75
252.397	74.75
252.63	87.75
252.863	80.75
253.096	82.75
253.329	78.75
253.562	91.75
253.795	67.75
254.028	93.75
254.261	81.75
254.494	79.75
254.727	76.75
254.96	87.75
255.193	79.75
255.426	86.75
255.659	93.75
255.892	78.75
256.124	74.75
256.357	83.75
256.59	91.75
256.823	97.75
257.056	79.75
257.289	84.75
257.521	89.75
257.754	70.75
257.987	85.75
258.22	81.75
258.452	80.75
258.685	89.75
258.918	73.75
259.151	81.75
259.383	73.75
259.616	88.75
259.849	77.75
260.081	86.75
260.314	93.75
260.547	89.75
260.779	96.75
261.012	81.75
261.244	87.75
261.477	95.75
261.71	96.75
261.942	103.75
262.175	107.75
262.407	84.75
262.64	96.75
262.872	79.75
263.105	78.75
263.337	85.75
263.57	73.75
263.802	66.75
264.035	85.75
264.267	81.75
264.499	83.75
264.732	91.75
264.964	79.75
265.197	85.75
265.429	76.75
265.661	79.75
265.894	105.75
266.126	101.75
266.358	81.75
266.591	88.75
266.823	90.75
267.055	85.75
267.287	88.75
267.52	87.75
267.752	88.75
267.984	89.75
268.216	97.75
268.448	92.75
268.681	79.75
268.913	80.75
269.145	92.75
269.377	87.75
269.609	87.75
269.841	75.75
270.073	67.75
270.306	95.75
270.538	84.75
270.77	84.75
271.002	100.75
271.234	81.75
271.466	83.75
271.698	83.75
271.93	85.75
272.162	90.75
272.394	91.75
272.626	91.75
272.858	87.75
273.09	83.75
273.322	98.75
273.553	90.75
273.785	97.75
274.017	82.75
274.249	87.75
274.481	87.75
274.713	87.75
274.945	87.75
275.176	90.75
275.408	100.75
275.64	100.75
275.872	87.75
276.104	86.75
276.335	106.75
276.567	94.75
276.799	111.75
277.031	84.75
277.262	83.75
277.494	83.75
277.726	80.75
277.957	76.75
278.189	95.75
278.421	85.75
278.652	79.75
278.884	79.75
279.115	78.75
279.347	86.75
279.579	105.75
279.81	88.75
280.042	95.75
280.273	90.75
280.505	89.75
280.736	98.75
280.968	95.75
281.199	84.75
281.431	76.75
281.662	103.75
281.894	97.75
282.125	96.75
282.356	101.75
282.588	131.75
282.819	94.75
283.051	91.75
283.282	74.75
283.513	84.75
283.745	72.75
283.976	81.75
284.207	83.75
284.439	89.75
284.67	85.75
284.901	92.75
285.132	88.75
285.364	87.75
285.595	80.75
285.826	86.75
286.057	92.75
286.288	101.75
286.52	99.75
286.751	96.75
286.982	90.75
287.213	76.75
287.444	76.75
287.675	87.75
287.906	100.75
288.138	108.75
288.369	92.75
288.6	90.75
288.831	90.75
289.062	79.75
289.293	84.75
289.524	82.75
289.755	85.75
289.986	85.75
290.217	90.75
290.448	87.75
290.679	104.75
290.91	92.75
291.141	83.75
291.371	90.75
291.602	80.75
291.833	84.75
292.064	91.75
292.295	90.75
292.526	84.75
292.757	95.75
292.987	87.75
293.218	97.75
293.449	96.75
293.68	96.75
293.91	87.75
294.141	84.75
294.372	85.75
294.603	103.75
294.833	85.75
295.064	96.75
295.295	106.75
295.525	94.75
295.756	105.75
295.987	100.75
296.217	127.75
296.448	109.75
296.679	88.75
296.909	97.75
297.14	103.75
297.37	101.75
297.601	100.75
297.831	97.75
298.062	94.75
298.292	85.75
298.523	100.75
298.753	93.75
298.984	85.75
299.214	94.75
299.445	88.75
299.675	104.75
299.905	97.75
300.136	86.75
300.366	97.75
300.597	94.75
300.827	92.75
301.057	96.75
301.288	102.75
301.518	74.75
301.748	91.75
301.979	105.75
302.209	95.75
302.439	90.75
302.669	104.75
302.9	87.75
303.13	95.75
303.36	84.75
303.59	102.75
303.82	87.75
304.051	92.75
304.281	91.75
304.511	92.75
304.741	79.75
304.971	102.75
305.201	98.75
305.431	95.75
305.661	84.75
305.891	92.75
306.121	103.75
306.352	90.75
306.582	107.75
306.812	80.75
307.042	94.75
307.272	94.75
307.502	93.75
307.731	99.75
307.961	99.75
308.191	101.75
308.421	97.75
308.651	93.75
308.881	101.75
309.111	100.75
309.341	99.75
309.571	101.75
309.8	102.75
310.03	104.75
310.26	104.75
310.49	101.75
310.72	96.75
310.949	91.75
311.179	99.75
311.409	87.75
311.639	100.75
311.868	90.75
312.098	94.75
312.328	97.75
312.557	115.75
312.787	116.75
313.017	99.75
313.246	102.75
313.476	101.75
313.706	91.75
313.935	91.75
314.165	101.75
314.394	99.75
314.624	101.75
314.853	100.75
315.083	84.75
315.312	90.75
315.542	97.75
315.771	95.75
316.001	76.75
316.23	94.75
316.46	74.75
316.689	100.75
316.919	85.75
317.148	91.75
317.377	85.75
317.607	85.75
317.836	97.75
318.065	89.75
318.295	98.75
318.524	88.75
318.753	100.75
318.983	74.75
319.212	97.75
319.441	115.75
319.67	104.75
319.9	99.75
320.129	87.75
320.358	104.75
320.587	85.75
320.816	89.75
321.046	106.75
321.275	94.75
321.504	76.75
321.733	92.75
321.962	112.75
322.191	97.75
322.42	96.75
322.649	90.75
322.878	97.75
323.108	104.75
323.337	143.75
323.566	123.75
323.795	158.75
324.024	183.75
324.253	369.75
324.482	739.75
324.71	1535.75
324.939	2065.75
325.168	764.75
325.397	237.75
325.626	156.75
325.855	116.75
326.084	135.75
326.313	132.75
326.542	150.75
326.77	207.75
326.999	414.75
327.228	891.75
327.457	1533.75
327.686	1243.75
327.914	342.75
328.143	191.75
328.372	138.75
328.6	117.75
328.829	116.75
329.058	127.75
329.287	116.75
329.515	113.75
329.744	107.75
329.972	104.75
330.201	92.75
330.43	119.75
330.658	111.75
330.887	128.75
331.115	106.75
331.344	99.75
331.572	94.75
331.801	96.75
332.03	87.75
332.258	104.75
332.486	93.75
332.715	88.75
332.943	100.75
333.172	87.75
333.4	101.75
333.629	105.75
333.857	107.75
334.085	109.75
334.314	99.75
334.542	109.75
334.771	105.75
334.999	103.75
335.227	92.75
335.455	99.75
335.684	103.75
335.912	97.75
336.14	87.75
336.369	100.75
336.597	93.75
336.825	93.75
337.053	86.75
337.281	100.75
337.51	98.75
337.738	99.75
337.966	88.75
338.194	99.75
338.422	99.75
338.65	96.75
338.878	113.75
339.106	96.75
339.334	92.75
339.562	88.75
339.79	104.75
340.018	82.75
340.246	82.75
340.474	94.75
340.702	102.75
340.93	103.75
341.158	78.75
341.386	92.75
341.614	118.75
341.842	85.75
342.07	100.75
342.298	87.75
342.526	98.75
342.754	89.75
342.981	90.75
343.209	97.75
343.437	116.75
343.665	97.75
343.893	89.75
344.12	98.75
344.348	87.75
344.576	92.75
344.804	93.75
345.031	91.75
345.259	95.75
345.487	100.75
345.714	85.75
345.942	103.75
346.17	96.75
346.397	78.75
346.625	85.75
346.853	77.75
347.08	98.75
347.308	90.75
347.535	99.75
347.763	109.75
347.99	87.75
348.218	86.75
348.445	104.75
348.673	98.75
348.9	100.75
349.128	91.75
349.355	91.75
349.583	91.75
349.81	93.75
350.037	90.75
350.265	88.75
350.492	100.75
350.72	96.75
350.947	97.75
351.174	113.75
351.402	97.75
351.629	102.75
351.856	103.75
352.083	97.75
352.311	91.75
352.538	101.75
352.765	122.75
352.992	95.75
353.22	105.75
353.447	108.75
353.674	107.75
353.901	103.75
354.128	93.75
354.355	92.75
354.583	78.75
354.81	91.75
355.037	95.75
355.264	90.75
355.491	95.75
355.718	97.75
355.945	96.75
356.172	82.75
356.399	91.75
356.626	99.75
356.853	84.75
357.08	111.75
357.307	103.75
357.534	94.75
357.761	95.75
357.988	97.75
358.215	99.75
358.441	105.75
358.668	102.75
358.895	85.75
359.122	89.75
359.349	90.75
359.576	111.75
359.802	95.75
360.029	96.75
360.256	94.75
360.483	107.75
360.709	105.75
360.936	109.75
361.163	95.75
361.39	97.75
361.616	102.75
361.843	112.75
362.07	103.75
362.296	97.75
362.523	92.75
362.749	85.75
362.976	103.75
363.203	99.75
363.429	88.75
363.656	94.75
363.882	99.75
364.109	98.75
364.335	83.75
364.562	74.75
364.788	86.75
365.015	91.75
365.241	96.75
365.468	113.75
365.694	108.75
365.92	87.75
366.147	83.75
366.373	88.75
366.599	86.75
366.826	81.75
367.052	83.75
367.278	88.75
367.505	97.75
367.731	97.75
367.957	88.75
368.184	102.75
368.41	90.75
368.636	104.75
368.862	112.75
369.089	110.75
369.315	93.75
369.541	91.75
369.767	92.75
369.993	84.75
370.219	77.75
370.445	83.75
370.672	91.75
370.898	90.75
371.124	96.75
371.35	94.75
371.576	92.75
371.802	89.75
372.028	96.75
372.254	91.75
372.48	93.75
372.706	103.75
372.932	98.75
373.158	91.75
373.384	99.75
373.61	74.75
373.835	89.75
374.061	91.75
374.287	96.75
374.513	95.75
374.739	95.75
374.965	89.75
375.191	92.75
375.416	88.75
375.642	96.75
375.868	87.75
376.094	99.75
376.319	87.75
376.545	93.75
376.771	94.75
376.997	72.75
377.222	88.75
377.448	99.75
377.674	93.75
377.899	74.75
378.125	84.75
378.35	95.75
378.576	107.75
378.802	88.75
379.027	90.75
379.253	92.75
379.478	90.75
379.704	94.75
379.929	105.75
380.155	93.75
380.38	91.75
380.606	111.75
380.831	100.75
381.057	92.75
381.282	97.75
381.507	100.75
381.733	95.75
381.958	91.75
382.184	97.75
382.409	101.75
382.634	109.75
382.86	104.75
383.085	99.75
383.31	92.75
383.535	85.75
383.761	109.75
383.986	107.75
384.211	88.75
384.436	101.75
384.662	106.75
384.887	104.75
385.112	106.75
385.337	105.75
385.562	95.75
385.787	97.75
386.013	97.75
386.238	106.75
386.463	109.75
386.688	91.75
386.913	91.75
387.138	87.75
387.363	94.75
387.588	105.75
387.813	101.75
388.038	92.75
388.263	99.75
388.488	113.75
388.713	105.75
388.938	106.75
389.163	89.75
389.387	101.75
389.612	96.75
389.837	79.75
390.062	97.75
390.287	90.75
390.512	92.75
390.736	90.75
390.961	94.75
391.186	95.75
391.411	99.75
391.636	95.75
391.86	87.75
392.085	77.75
392.31	75.75
392.534	80.75
392.759	82.75
392.984	98.75
393.208	99.75
393.433	109.75
393.658	97.75
393.882	79.75
394.107	99.75
394.331	75.75
394.556	90.75
394.78	80.75
395.005	87.75
395.229	87.75
395.454	82.75
395.678	91.75
395.903	87.75
396.127	95.75
396.352	83.75
396.576	91.75
396.801	83.75
397.025	95.75
397.249	85.75
397.474	88.75
397.698	90.75
397.922	79.75
398.147	85.75
398.371	83.75
398.595	76.75
398.82	78.75
399.044	83.75
399.268	100.75
399.492	92.75
399.717	93.75
399.941	95.75
400.165	91.75
400.389	87.75
400.613	83.75
400.837	84.75
401.062	87.75
401.286	95.75
401.51	85.75
401.734	92.75
401.958	84.75
402.182	111.75
402.406	144.75
402.63	121.75
402.854	85.75
403.078	94.75
403.302	85.75
403.526	103.75
403.75	91.75
403.974	87.75
404.198	99.75
404.422	111.75
404.645	93.75
404.869	97.75
405.093	91.75
405.317	97.75
405.541	89.75
405.765	105.75
405.988	109.75
406.212	160.75
406.436	202.75
406.66	134.75
406.883	101.75
407.107	89.75
407.331	93.75
407.555	94.75
407.778	104.75
408.002	89.75
408.226	99.75
408.449	95.75
408.673	73.75
408.896	92.75
409.12	109.75
409.344	82.75
409.567	80.75
409.791	91.75
410.014	85.75
410.238	98.75
410.461	100.75
410.685	104.75
410.908	93.75
411.132	109.75
411.355	98.75
411.578	95.75
411.802	89.75
412.025	91.75
412.249	83.75
412.472	93.75
412.695	109.75
412.919	98.75
413.142	98.75
413.365	69.75
413.589	85.75
413.812	97.75
414.035	90.75
414.258	85.75
414.482	95.75
414.705	85.75
414.928	84.75
415.151	81.75
415.374	95.75
415.597	82.75
415.821	85.75
416.044	77.75
416.267	105.75
416.49	98.75
416.713	85.75
416.936	85.75
417.159	85.75
417.382	86.75
417.605	98.75
417.828	87.75
418.051	86.75
418.274	81.75
418.497	81.75
418.72	82.75
418.943	66.75
419.166	74.75
419.389	87.75
419.611	74.75
419.834	90.75
420.057	102.75
420.28	93.75
420.503	99.75
420.726	86.75
420.948	93.75
421.171	92.75
421.394	91.75
421.617	96.75
421.839	93.75
422.062	96.75
422.285	91.75
422.507	105.75
422.73	115.75
422.953	97.75
423.175	86.75
423.398	79.75
423.621	104.75
423.843	93.75
424.066	82.75
424.288	92.75
424.511	89.75
424.733	111.75
424.956	110.75
425.178	92.75
425.401	106.75
425.623	90.75
425.846	89.75
426.068	97.75
426.291	89.75
426.513	95.75
426.735	96.75
426.958	91.75
427.18	97.75
427.402	136.75
427.625	177.75
427.847	131.75
428.069	96.75
428.292	74.75
428.514	75.75
428.736	85.75
428.958	88.75
429.181	84.75
429.403	86.75
429.625	97.75
429.847	85.75
430.069	100.75
430.292	100.75
430.514	84.75
430.736	89.75
430.958	90.75
431.18	73.75
431.402	75.75
431.624	86.75
431.846	99.75
432.068	87.75
432.29	83.75
432.512	93.75
432.734	92.75
432.956	88.75
433.178	96.75
433.4	81.75
433.622	80.75
433.844	81.75
434.066	86.75
434.287	90.75
434.509	79.75
434.731	99.75
434.953	84.75
435.175	97.75
435.397	76.75
435.618	85.75
435.84	104.75
436.062	109.75
436.284	115.75
436.505	105.75
436.727	93.75
436.949	93.75
437.17	90.75
437.392	86.75
437.614	99.75
437.835	114.75
438.057	105.75
438.278	121.75
438.5	111.75
438.721	118.75
438.943	102.75
439.165	93.75
439.386	100.75
439.608	103.75
439.829	90.75
440.05	105.75
440.272	132.75
440.493	109.75
440.715	99.75
440.936	89.75
441.158	89.75
441.379	98.75
441.6	92.75
441.822	97.75
442.043	91.75
442.264	115.75
442.486	100.75
442.707	102.75
442.928	108.75
443.149	130.75
443.371	126.75
443.592	116.75
443.813	113.75
444.034	108.75
444.255	95.75
444.476	92.75
444.698	90.75
444.919	90.75
445.14	125.75
445.361	118.75
445.582	111.75
445.803	117.75
446.024	132.75
446.245	120.75
446.466	115.75
446.687	82.75
446.908	104.75
447.129	85.75
447.35	77.75
447.571	97.75
447.792	90.75
448.013	105.75
448.234	98.75
448.455	101.75
448.675	99.75
448.896	119.75
449.117	93.75
449.338	110.75
449.559	135.75
449.779	133.75
450	94.75
450.221	90.75
450.442	102.75
450.662	90.75
450.883	92.75
451.104	112.75
451.324	99.75
451.545	93.75
451.766	90.75
451.986	94.75
452.207	87.75
452.428	103.75
452.648	76.75
452.869	100.75
453.089	95.75
453.31	110.75
453.53	103.75
453.751	99.75
453.971	94.75
454.192	113.75
454.412	101.75
454.633	74.75
454.853	81.75
455.073	77.75
455.294	88.75
455.514	109.75
455.734	82.75
455.955	83.75
456.175	87.75
456.395	97.75
456.616	92.75
456.836	85.75
457.056	87.75
457.276	80.75
457.497	89.75
457.717	93.75
457.937	87.75
458.157	99.75
458.377	97.75
458.598	101.75
458.818	137.75
459.038	149.75
459.258	111.75
459.478	88.75
459.698	90.75
459.918	85.75
460.138	89.75
460.358	105.75
460.578	67.75
460.798	81.75
461.018	86.75
461.238	89.75
461.458	91.75
461.678	85.75
461.898	82.75
462.118	73.75
462.338	81.75
462.558	79.75
462.777	85.75
462.997	92.75
463.217	83.75
463.437	64.75
463.657	91.75
463.876	83.75
464.096	89.75
464.316	101.75
464.536	95.75
464.755	100.75
464.975	122.75
465.195	150.75
465.414	148.75
465.634	103.75
465.854	95.75
466.073	95.75
466.293	102.75
466.512	90.75
466.732	80.75
466.951	101.75
467.171	99.75
467.391	86.75
467.61	89.75
467.829	97.75
468.049	76.75
468.268	104.75
468.488	84.75
468.707	98.75
468.927	82.75
469.146	81.75
469.365	92.75
469.585	105.75
469.804	92.75
470.023	95.75
470.243	91.75
470.462	85.75
470.681	105.75
470.901	101.75
471.12	83.75
471.339	88.75
471.558	83.75
471.777	80.75
471.997	95.75
472.216	105.75
472.435	108.75
472.654	95.75
472.873	99.75
473.092	96.75
473.311	99.75
473.53	93.75
473.749	90.75
473.968	113.75
474.187	91.75
474.406	88.75
474.625	68.75
474.844	87.75
475.063	82.75
475.282	98.75
475.501	88.75
475.72	95.75
475.939	76.75
476.158	94.75
476.377	81.75
476.596	99.75
476.814	98.75
477.033	92.75
477.252	81.75
477.471	88.75
477.69	100.75
477.908	95.75
478.127	96.75
478.346	81.75
478.564	82.75
478.783	91.75
479.002	92.75
479.22	100.75
479.439	89.75
479.658	112.75
479.876	87.75
480.095	89.75
480.313	96.75
480.532	99.75
480.751	100.75
480.969	112.75
481.188	131.75
481.406	120.75
481.624	98.75
481.843	86.75
482.061	78.75
482.28	91.75
482.498	91.75
482.717	74.75
482.935	88.75
483.153	87.75
483.372	91.75
483.59	86.75
483.808	89.75
484.027	98.75
484.245	98.75
484.463	89.75
484.681	93.75
484.9	85.75
485.118	98.75
485.336	95.75
485.554	97.75
485.772	105.75
485.99	100.75
486.209	108.75
486.427	108.75
486.645	115.75
486.863	117.75
487.081	104.75
487.299	89.75
487.517	95.75
487.735	88.75
487.953	92.75
488.171	85.75
488.389	94.75
488.607	88.75
488.825	98.75
489.043	85.75
489.261	93.75
489.479	96.75
489.696	93.75
489.914	91.75
490.132	101.75
490.35	87.75
490.568	86.75
490.786	94.75
491.003	84.75
491.221	75.75
491.439	97.75
491.657	111.75
491.874	90.75
492.092	91.75
492.31	88.75
492.527	87.75
492.745	88.75
492.963	95.75
493.18	83.75
493.398	85.75
493.615	95.75
493.833	82.75
494.05	90.75
494.268	106.75
494.485	88.75
494.703	102.75
494.92	90.75
495.138	95.75
495.355	92.75
495.573	102.75
495.79	91.75
496.008	90.75
496.225	105.75
496.442	98.75
496.66	94.75
496.877	90.75
497.094	95.75
497.312	100.75
497.529	103.75
497.746	97.75
497.963	109.75
498.181	114.75
498.398	82.75
498.615	101.75
498.832	88.75
499.049	87.75
499.267	87.75
499.484	100.75
499.701	104.75
499.918	99.75
500.135	99.75
500.352	79.75
500.569	88.75
500.786	87.75
501.003	95.75
501.22	72.75
501.437	91.75
501.654	100.75
501.871	108.75
502.088	90.75
502.305	98.75
502.522	98.75
502.739	85.75
502.956	77.75
503.172	94.75
503.389	100.75
503.606	90.75
503.823	99.75
504.04	86.75
504.256	97.75
504.473	83.75
504.69	91.75
504.907	99.75
505.123	89.75
505.34	95.75
505.557	91.75
505.773	98.75
505.99	87.75
506.207	89.75
506.423	102.75
506.64	93.75
506.856	92.75
507.073	86.75
507.289	90.75
507.506	100.75
507.722	109.75
507.939	117.75
508.155	97.75
508.372	81.75
508.588	92.75
508.805	75.75
509.021	88.75
509.238	103.75
509.454	109.75
509.67	82.75
509.887	112.75
510.103	124.75
510.319	185.75
510.536	673.75
510.752	2065.75
510.968	556.75
511.184	134.75
511.401	119.75
511.617	98.75
511.833	85.75
512.049	95.75
512.265	97.75
512.481	96.75
512.698	87.75
512.914	102.75
513.13	99.75
513.346	96.75
513.562	113.75
513.778	102.75
513.994	109.75
514.21	97.75
514.426	127.75
514.642	108.75
514.858	121.75
515.074	145.75
515.29	434.75
515.506	1270.75
