Data from Uncirc_1986_H10_HRD10591_00009.txt Node
Date: Wed Jan 03 12:14:28 EST 2024
User: Yrep
Spectrometer: HR+D1059
Trigger mode: 1
Integration Time (sec): 1.000000E-1
Scans to average: 1
Electric dark correction enabled: true
Nonlinearity correction enabled: false
Boxcar width: 0
XAxis mode: Wavelengths
Number of Pixels in Spectrum: 2048
>>>>>Begin Spectral Data<<<<<
223.165	-6.81
223.4	-6.81
223.635	-6.81
223.869	-33.81
224.104	-17.81
224.338	-10.81
224.573	-21.81
224.808	-23.81
225.042	-0.81
225.277	7.19
225.511	8.19
225.746	19.19
225.98	2.19
226.215	9.19
226.449	17.19
226.683	6.19
226.918	23.19
227.152	23.19
227.387	32.19
227.621	34.19
227.856	42.19
228.09	56.19
228.324	45.19
228.559	55.19
228.793	54.19
229.027	66.19
229.262	63.19
229.496	83.19
229.73	95.19
229.964	87.19
230.199	86.19
230.433	77.19
230.667	87.19
230.901	81.19
231.136	76.19
231.37	90.19
231.604	87.19
231.838	79.19
232.072	70.19
232.306	85.19
232.541	91.19
232.775	92.19
233.009	86.19
233.243	71.19
233.477	100.19
233.711	81.19
233.945	73.19
234.179	86.19
234.413	85.19
234.647	82.19
234.881	84.19
235.115	89.19
235.349	70.19
235.583	73.19
235.817	81.19
236.051	67.19
236.285	78.19
236.519	81.19
236.753	80.19
236.987	95.19
237.221	101.19
237.455	90.19
237.689	81.19
237.922	66.19
238.156	77.19
238.39	77.19
238.624	82.19
238.858	67.19
239.091	79.19
239.325	81.19
239.559	89.19
239.793	73.19
240.027	78.19
240.26	89.19
240.494	73.19
240.728	87.19
240.961	83.19
241.195	86.19
241.429	87.19
241.662	75.19
241.896	76.19
242.13	77.19
242.363	75.19
242.597	83.19
242.83	69.19
243.064	85.19
243.298	75.19
243.531	68.19
243.765	75.19
243.998	79.19
244.232	83.19
244.465	84.19
244.699	85.19
244.932	84.19
245.166	81.19
245.399	98.19
245.633	93.19
245.866	86.19
246.099	95.19
246.333	85.19
246.566	60.19
246.8	66.19
247.033	77.19
247.266	96.19
247.5	69.19
247.733	82.19
247.966	69.19
248.2	74.19
248.433	93.19
248.666	82.19
248.899	91.19
249.133	77.19
249.366	104.19
249.599	93.19
249.832	78.19
250.066	92.19
250.299	77.19
250.532	88.19
250.765	78.19
250.998	85.19
251.231	74.19
251.465	87.19
251.698	87.19
251.931	88.19
252.164	91.19
252.397	95.19
252.63	84.19
252.863	68.19
253.096	92.19
253.329	86.19
253.562	88.19
253.795	82.19
254.028	99.19
254.261	95.19
254.494	85.19
254.727	81.19
254.96	86.19
255.193	78.19
255.426	89.19
255.659	71.19
255.892	91.19
256.124	81.19
256.357	77.19
256.59	87.19
256.823	93.19
257.056	95.19
257.289	86.19
257.521	82.19
257.754	77.19
257.987	89.19
258.22	99.19
258.452	86.19
258.685	100.19
258.918	83.19
259.151	88.19
259.383	91.19
259.616	87.19
259.849	78.19
260.081	74.19
260.314	85.19
260.547	78.19
260.779	85.19
261.012	93.19
261.244	90.19
261.477	89.19
261.71	92.19
261.942	108.19
262.175	110.19
262.407	84.19
262.64	89.19
262.872	101.19
263.105	85.19
263.337	83.19
263.57	72.19
263.802	79.19
264.035	90.19
264.267	79.19
264.499	95.19
264.732	93.19
264.964	83.19
265.197	81.19
265.429	66.19
265.661	67.19
265.894	85.19
266.126	81.19
266.358	103.19
266.591	82.19
266.823	88.19
267.055	79.19
267.287	85.19
267.52	83.19
267.752	91.19
267.984	88.19
268.216	91.19
268.448	71.19
268.681	87.19
268.913	90.19
269.145	89.19
269.377	97.19
269.609	93.19
269.841	89.19
270.073	94.19
270.306	79.19
270.538	69.19
270.77	86.19
271.002	79.19
271.234	79.19
271.466	95.19
271.698	87.19
271.93	89.19
272.162	91.19
272.394	98.19
272.626	97.19
272.858	86.19
273.09	77.19
273.322	91.19
273.553	89.19
273.785	86.19
274.017	96.19
274.249	86.19
274.481	84.19
274.713	85.19
274.945	89.19
275.176	77.19
275.408	77.19
275.64	77.19
275.872	82.19
276.104	81.19
276.335	83.19
276.567	104.19
276.799	112.19
277.031	112.19
277.262	92.19
277.494	100.19
277.726	98.19
277.957	91.19
278.189	83.19
278.421	88.19
278.652	98.19
278.884	90.19
279.115	98.19
279.347	95.19
279.579	84.19
279.81	102.19
280.042	87.19
280.273	79.19
280.505	91.19
280.736	94.19
280.968	83.19
281.199	83.19
281.431	101.19
281.662	94.19
281.894	91.19
282.125	109.19
282.356	119.19
282.588	140.19
282.819	105.19
283.051	95.19
283.282	83.19
283.513	86.19
283.745	86.19
283.976	100.19
284.207	98.19
284.439	89.19
284.67	66.19
284.901	82.19
285.132	78.19
285.364	89.19
285.595	86.19
285.826	86.19
286.057	94.19
286.288	83.19
286.52	100.19
286.751	97.19
286.982	75.19
287.213	85.19
287.444	78.19
287.675	85.19
287.906	86.19
288.138	100.19
288.369	97.19
288.6	90.19
288.831	87.19
289.062	100.19
289.293	75.19
289.524	85.19
289.755	95.19
289.986	85.19
290.217	95.19
290.448	80.19
290.679	101.19
290.91	90.19
291.141	97.19
291.371	93.19
291.602	78.19
291.833	96.19
292.064	94.19
292.295	81.19
292.526	85.19
292.757	82.19
292.987	86.19
293.218	86.19
293.449	95.19
293.68	100.19
293.91	87.19
294.141	103.19
294.372	101.19
294.603	87.19
294.833	86.19
295.064	91.19
295.295	106.19
295.525	104.19
295.756	91.19
295.987	114.19
296.217	140.19
296.448	106.19
296.679	98.19
296.909	82.19
297.14	102.19
297.37	87.19
297.601	87.19
297.831	88.19
298.062	93.19
298.292	81.19
298.523	84.19
298.753	93.19
298.984	81.19
299.214	98.19
299.445	102.19
299.675	104.19
299.905	95.19
300.136	94.19
300.366	99.19
300.597	95.19
300.827	98.19
301.057	103.19
301.288	106.19
301.518	88.19
301.748	100.19
301.979	82.19
302.209	91.19
302.439	92.19
302.669	88.19
302.9	92.19
303.13	98.19
303.36	106.19
303.59	93.19
303.82	94.19
304.051	88.19
304.281	85.19
304.511	103.19
304.741	95.19
304.971	91.19
305.201	91.19
305.431	85.19
305.661	77.19
305.891	94.19
306.121	92.19
306.352	98.19
306.582	106.19
306.812	78.19
307.042	92.19
307.272	98.19
307.502	95.19
307.731	108.19
307.961	78.19
308.191	90.19
308.421	100.19
308.651	108.19
308.881	92.19
309.111	92.19
309.341	102.19
309.571	108.19
309.8	94.19
310.03	99.19
310.26	106.19
310.49	102.19
310.72	89.19
310.949	94.19
311.179	102.19
311.409	97.19
311.639	90.19
311.868	104.19
312.098	78.19
312.328	107.19
312.557	105.19
312.787	106.19
313.017	93.19
313.246	96.19
313.476	110.19
313.706	105.19
313.935	86.19
314.165	91.19
314.394	110.19
314.624	105.19
314.853	102.19
315.083	78.19
315.312	104.19
315.542	89.19
315.771	94.19
316.001	91.19
316.23	86.19
316.46	85.19
316.689	104.19
316.919	95.19
317.148	101.19
317.377	116.19
317.607	93.19
317.836	103.19
318.065	89.19
318.295	103.19
318.524	96.19
318.753	104.19
318.983	116.19
319.212	108.19
319.441	110.19
319.67	101.19
319.9	87.19
320.129	80.19
320.358	94.19
320.587	101.19
320.816	86.19
321.046	95.19
321.275	107.19
321.504	94.19
321.733	100.19
321.962	106.19
322.191	103.19
322.42	109.19
322.649	119.19
322.878	116.19
323.108	121.19
323.337	121.19
323.566	103.19
323.795	141.19
324.024	202.19
324.253	327.19
324.482	713.19
324.71	1454.19
324.939	1914.19
325.168	726.19
325.397	227.19
325.626	137.19
325.855	114.19
326.084	119.19
326.313	126.19
326.542	138.19
326.77	201.19
326.999	388.19
327.228	815.19
327.457	1504.19
327.686	1195.19
327.914	319.19
328.143	182.19
328.372	133.19
328.6	121.19
328.829	131.19
329.058	117.19
329.287	119.19
329.515	101.19
329.744	94.19
329.972	101.19
330.201	99.19
330.43	111.19
330.658	121.19
330.887	134.19
331.115	111.19
331.344	101.19
331.572	104.19
331.801	104.19
332.03	96.19
332.258	101.19
332.486	71.19
332.715	87.19
332.943	89.19
333.172	110.19
333.4	105.19
333.629	76.19
333.857	99.19
334.085	107.19
334.314	99.19
334.542	100.19
334.771	109.19
334.999	102.19
335.227	93.19
335.455	95.19
335.684	97.19
335.912	105.19
336.14	94.19
336.369	107.19
336.597	94.19
336.825	105.19
337.053	97.19
337.281	87.19
337.51	88.19
337.738	88.19
337.966	101.19
338.194	91.19
338.422	83.19
338.65	93.19
338.878	84.19
339.106	93.19
339.334	98.19
339.562	94.19
339.79	101.19
340.018	99.19
340.246	101.19
340.474	94.19
340.702	99.19
340.93	109.19
341.158	103.19
341.386	107.19
341.614	99.19
341.842	91.19
342.07	85.19
342.298	86.19
342.526	83.19
342.754	86.19
342.981	86.19
343.209	95.19
343.437	103.19
343.665	91.19
343.893	108.19
344.12	91.19
344.348	104.19
344.576	112.19
344.804	103.19
345.031	103.19
345.259	96.19
345.487	92.19
345.714	97.19
345.942	78.19
346.17	99.19
346.397	89.19
346.625	95.19
346.853	92.19
347.08	98.19
347.308	87.19
347.535	89.19
347.763	97.19
347.99	108.19
348.218	107.19
348.445	95.19
348.673	90.19
348.9	99.19
349.128	99.19
349.355	99.19
349.583	91.19
349.81	105.19
350.037	85.19
350.265	95.19
350.492	93.19
350.72	103.19
350.947	99.19
351.174	111.19
351.402	109.19
351.629	102.19
351.856	103.19
352.083	92.19
352.311	111.19
352.538	120.19
352.765	108.19
352.992	109.19
353.22	111.19
353.447	108.19
353.674	105.19
353.901	99.19
354.128	94.19
354.355	92.19
354.583	97.19
354.81	107.19
355.037	96.19
355.264	100.19
355.491	89.19
355.718	97.19
355.945	92.19
356.172	109.19
356.399	106.19
356.626	98.19
356.853	87.19
357.08	97.19
357.307	100.19
357.534	94.19
357.761	98.19
357.988	109.19
358.215	94.19
358.441	91.19
358.668	93.19
358.895	94.19
359.122	92.19
359.349	110.19
359.576	96.19
359.802	94.19
360.029	108.19
360.256	109.19
360.483	101.19
360.709	90.19
360.936	91.19
361.163	99.19
361.39	103.19
361.616	104.19
361.843	90.19
362.07	95.19
362.296	93.19
362.523	117.19
362.749	101.19
362.976	90.19
363.203	97.19
363.429	92.19
363.656	86.19
363.882	91.19
364.109	89.19
364.335	93.19
364.562	95.19
364.788	92.19
365.015	96.19
365.241	100.19
365.468	118.19
365.694	97.19
365.92	104.19
366.147	89.19
366.373	106.19
366.599	87.19
366.826	93.19
367.052	78.19
367.278	101.19
367.505	94.19
367.731	89.19
367.957	81.19
368.184	87.19
368.41	97.19
368.636	104.19
368.862	132.19
369.089	100.19
369.315	95.19
369.541	99.19
369.767	86.19
369.993	94.19
370.219	102.19
370.445	82.19
370.672	86.19
370.898	97.19
371.124	92.19
371.35	101.19
371.576	68.19
371.802	98.19
372.028	76.19
372.254	95.19
372.48	110.19
372.706	77.19
372.932	79.19
373.158	94.19
373.384	93.19
373.61	107.19
373.835	102.19
374.061	110.19
374.287	88.19
374.513	109.19
374.739	82.19
374.965	89.19
375.191	92.19
375.416	99.19
375.642	94.19
375.868	80.19
376.094	95.19
376.319	97.19
376.545	92.19
376.771	75.19
376.997	99.19
377.222	98.19
377.448	91.19
377.674	90.19
377.899	97.19
378.125	97.19
378.35	94.19
378.576	94.19
378.802	90.19
379.027	95.19
379.253	108.19
379.478	91.19
379.704	89.19
379.929	93.19
380.155	103.19
380.38	99.19
380.606	90.19
380.831	101.19
381.057	110.19
381.282	97.19
381.507	93.19
381.733	92.19
381.958	99.19
382.184	85.19
382.409	105.19
382.634	107.19
382.86	122.19
383.085	98.19
383.31	102.19
383.535	103.19
383.761	91.19
383.986	103.19
384.211	108.19
384.436	105.19
384.662	107.19
384.887	97.19
385.112	115.19
385.337	108.19
385.562	107.19
385.787	91.19
386.013	104.19
386.238	109.19
386.463	106.19
386.688	100.19
386.913	106.19
387.138	114.19
387.363	100.19
387.588	116.19
387.813	92.19
388.038	108.19
388.263	104.19
388.488	110.19
388.713	106.19
388.938	98.19
389.163	99.19
389.387	108.19
389.612	99.19
389.837	83.19
390.062	89.19
390.287	94.19
390.512	98.19
390.736	109.19
390.961	102.19
391.186	101.19
391.411	93.19
391.636	89.19
391.86	101.19
392.085	103.19
392.31	76.19
392.534	83.19
392.759	81.19
392.984	85.19
393.208	99.19
393.433	110.19
393.658	110.19
393.882	93.19
394.107	98.19
394.331	96.19
394.556	103.19
394.78	91.19
395.005	93.19
395.229	89.19
395.454	86.19
395.678	85.19
395.903	91.19
396.127	93.19
396.352	87.19
396.576	106.19
396.801	109.19
397.025	105.19
397.249	85.19
397.474	104.19
397.698	99.19
397.922	106.19
398.147	90.19
398.371	87.19
398.595	90.19
398.82	93.19
399.044	88.19
399.268	78.19
399.492	90.19
399.717	95.19
399.941	91.19
400.165	89.19
400.389	108.19
400.613	102.19
400.837	98.19
401.062	86.19
401.286	86.19
401.51	91.19
401.734	97.19
401.958	89.19
402.182	131.19
402.406	153.19
402.63	119.19
402.854	100.19
403.078	87.19
403.302	91.19
403.526	83.19
403.75	90.19
403.974	94.19
404.198	89.19
404.422	100.19
404.645	101.19
404.869	85.19
405.093	94.19
405.317	97.19
405.541	100.19
405.765	100.19
405.988	113.19
406.212	145.19
406.436	204.19
406.66	129.19
406.883	94.19
407.107	91.19
407.331	97.19
407.555	94.19
407.778	95.19
408.002	98.19
408.226	91.19
408.449	90.19
408.673	106.19
408.896	95.19
409.12	101.19
409.344	89.19
409.567	87.19
409.791	104.19
410.014	97.19
410.238	95.19
410.461	95.19
410.685	97.19
410.908	108.19
411.132	93.19
411.355	99.19
411.578	100.19
411.802	102.19
412.025	117.19
412.249	78.19
412.472	110.19
412.695	78.19
412.919	92.19
413.142	84.19
413.365	104.19
413.589	102.19
413.812	84.19
414.035	100.19
414.258	99.19
414.482	75.19
414.705	90.19
414.928	88.19
415.151	87.19
415.374	105.19
415.597	100.19
415.821	99.19
416.044	93.19
416.267	77.19
416.49	109.19
416.713	88.19
416.936	101.19
417.159	94.19
417.382	93.19
417.605	95.19
417.828	87.19
418.051	77.19
418.274	105.19
418.497	99.19
418.72	95.19
418.943	89.19
419.166	77.19
419.389	101.19
419.611	84.19
419.834	84.19
420.057	104.19
420.28	81.19
420.503	79.19
420.726	102.19
420.948	99.19
421.171	90.19
421.394	108.19
421.617	98.19
421.839	88.19
422.062	81.19
422.285	86.19
422.507	108.19
422.73	111.19
422.953	86.19
423.175	102.19
423.398	101.19
423.621	92.19
423.843	88.19
424.066	103.19
424.288	98.19
424.511	107.19
424.733	93.19
424.956	97.19
425.178	93.19
425.401	100.19
425.623	98.19
425.846	89.19
426.068	100.19
426.291	105.19
426.513	107.19
426.735	81.19
426.958	111.19
427.18	99.19
427.402	142.19
427.625	142.19
427.847	136.19
428.069	106.19
428.292	108.19
428.514	89.19
428.736	91.19
428.958	100.19
429.181	84.19
429.403	94.19
429.625	92.19
429.847	97.19
430.069	99.19
430.292	84.19
430.514	87.19
430.736	95.19
430.958	90.19
431.18	81.19
431.402	96.19
431.624	92.19
431.846	92.19
432.068	89.19
432.29	90.19
432.512	90.19
432.734	93.19
432.956	90.19
433.178	105.19
433.4	103.19
433.622	98.19
433.844	100.19
434.066	93.19
434.287	107.19
434.509	90.19
434.731	96.19
434.953	93.19
435.175	87.19
435.397	91.19
435.618	92.19
435.84	105.19
436.062	115.19
436.284	109.19
436.505	92.19
436.727	97.19
436.949	86.19
437.17	100.19
437.392	89.19
437.614	98.19
437.835	98.19
438.057	111.19
438.278	118.19
438.5	110.19
438.721	117.19
438.943	89.19
439.165	88.19
439.386	89.19
439.608	109.19
439.829	102.19
440.05	120.19
440.272	129.19
440.493	99.19
440.715	91.19
440.936	73.19
441.158	89.19
441.379	93.19
441.6	102.19
441.822	87.19
442.043	94.19
442.264	108.19
442.486	100.19
442.707	73.19
442.928	115.19
443.149	134.19
443.371	122.19
443.592	107.19
443.813	106.19
444.034	97.19
444.255	96.19
444.476	98.19
444.698	105.19
444.919	87.19
445.14	119.19
445.361	117.19
445.582	111.19
445.803	137.19
446.024	128.19
446.245	123.19
446.466	98.19
446.687	76.19
446.908	97.19
447.129	96.19
447.35	98.19
447.571	79.19
447.792	86.19
448.013	102.19
448.234	101.19
448.455	84.19
448.675	108.19
448.896	121.19
449.117	109.19
449.338	116.19
449.559	124.19
449.779	128.19
450	93.19
450.221	101.19
450.442	94.19
450.662	93.19
450.883	99.19
451.104	110.19
451.324	107.19
451.545	93.19
451.766	100.19
451.986	97.19
452.207	100.19
452.428	88.19
452.648	97.19
452.869	126.19
453.089	114.19
453.31	113.19
453.53	100.19
453.751	85.19
453.971	92.19
454.192	100.19
454.412	109.19
454.633	102.19
454.853	106.19
455.073	111.19
455.294	90.19
455.514	102.19
455.734	100.19
455.955	93.19
456.175	99.19
456.395	105.19
456.616	89.19
456.836	89.19
457.056	85.19
457.276	96.19
457.497	84.19
457.717	77.19
457.937	94.19
458.157	91.19
458.377	87.19
458.598	108.19
458.818	131.19
459.038	146.19
459.258	108.19
459.478	97.19
459.698	94.19
459.918	87.19
460.138	76.19
460.358	93.19
460.578	99.19
460.798	93.19
461.018	96.19
461.238	87.19
461.458	68.19
461.678	89.19
461.898	99.19
462.118	89.19
462.338	101.19
462.558	84.19
462.777	95.19
462.997	103.19
463.217	90.19
463.437	91.19
463.657	88.19
463.876	84.19
464.096	99.19
464.316	90.19
464.536	104.19
464.755	87.19
464.975	113.19
465.195	151.19
465.414	133.19
465.634	110.19
465.854	90.19
466.073	97.19
466.293	89.19
466.512	91.19
466.732	89.19
466.951	91.19
467.171	88.19
467.391	94.19
467.61	105.19
467.829	90.19
468.049	87.19
468.268	103.19
468.488	92.19
468.707	95.19
468.927	92.19
469.146	88.19
469.365	77.19
469.585	88.19
469.804	93.19
470.023	106.19
470.243	90.19
470.462	101.19
470.681	102.19
470.901	100.19
471.12	91.19
471.339	84.19
471.558	81.19
471.777	74.19
471.997	87.19
472.216	99.19
472.435	84.19
472.654	108.19
472.873	94.19
473.092	104.19
473.311	83.19
473.53	85.19
473.749	84.19
473.968	89.19
474.187	98.19
474.406	85.19
474.625	100.19
474.844	81.19
475.063	77.19
475.282	83.19
475.501	76.19
475.72	91.19
475.939	99.19
476.158	94.19
476.377	88.19
476.596	91.19
476.814	104.19
477.033	93.19
477.252	96.19
477.471	87.19
477.69	94.19
477.908	101.19
478.127	102.19
478.346	91.19
478.564	88.19
478.783	103.19
479.002	96.19
479.22	92.19
479.439	105.19
479.658	107.19
479.876	83.19
480.095	99.19
480.313	87.19
480.532	96.19
480.751	93.19
480.969	93.19
481.188	115.19
481.406	111.19
481.624	91.19
481.843	91.19
482.061	91.19
482.28	92.19
482.498	103.19
482.717	101.19
482.935	77.19
483.153	94.19
483.372	90.19
483.59	99.19
483.808	106.19
484.027	105.19
484.245	101.19
484.463	88.19
484.681	105.19
484.9	104.19
485.118	92.19
485.336	93.19
485.554	108.19
485.772	95.19
485.99	109.19
486.209	115.19
486.427	102.19
486.645	106.19
486.863	121.19
487.081	87.19
487.299	91.19
487.517	95.19
487.735	87.19
487.953	83.19
488.171	101.19
488.389	84.19
488.607	89.19
488.825	87.19
489.043	92.19
489.261	77.19
489.479	100.19
489.696	104.19
489.914	90.19
490.132	86.19
490.35	111.19
490.568	100.19
490.786	97.19
491.003	89.19
491.221	100.19
491.439	105.19
491.657	97.19
491.874	95.19
492.092	96.19
492.31	91.19
492.527	84.19
492.745	85.19
492.963	79.19
493.18	101.19
493.398	80.19
493.615	101.19
493.833	112.19
494.05	81.19
494.268	110.19
494.485	107.19
494.703	104.19
494.92	99.19
495.138	99.19
495.355	92.19
495.573	107.19
495.79	86.19
496.008	96.19
496.225	106.19
496.442	86.19
496.66	98.19
496.877	93.19
497.094	96.19
497.312	86.19
497.529	86.19
497.746	100.19
497.963	102.19
498.181	86.19
498.398	101.19
498.615	111.19
498.832	98.19
499.049	93.19
499.267	99.19
499.484	89.19
499.701	91.19
499.918	84.19
500.135	89.19
500.352	93.19
500.569	85.19
500.786	95.19
501.003	74.19
501.22	95.19
501.437	100.19
501.654	107.19
501.871	116.19
502.088	92.19
502.305	102.19
502.522	98.19
502.739	109.19
502.956	74.19
503.172	91.19
503.389	112.19
503.606	107.19
503.823	107.19
504.04	94.19
504.256	100.19
504.473	79.19
504.69	95.19
504.907	87.19
505.123	105.19
505.34	94.19
505.557	98.19
505.773	96.19
505.99	101.19
506.207	84.19
506.423	85.19
506.64	85.19
506.856	104.19
507.073	113.19
507.289	107.19
507.506	105.19
507.722	122.19
507.939	106.19
508.155	105.19
508.372	108.19
508.588	111.19
508.805	76.19
509.021	94.19
509.238	79.19
509.454	99.19
509.67	103.19
509.887	111.19
510.103	122.19
510.319	207.19
510.536	665.19
510.752	2099.19
510.968	565.19
511.184	159.19
511.401	111.19
511.617	112.19
511.833	81.19
512.049	107.19
512.265	94.19
512.481	109.19
512.698	92.19
512.914	84.19
513.13	99.19
513.346	92.19
513.562	100.19
513.778	107.19
513.994	107.19
