Data from Uncirc_1986_H10_HRD10591_00093.txt Node
Date: Wed Jan 03 12:14:45 EST 2024
User: Yrep
Spectrometer: HR+D1059
Trigger mode: 1
Integration Time (sec): 1.000000E-1
Scans to average: 1
Electric dark correction enabled: true
Nonlinearity correction enabled: false
Boxcar width: 0
XAxis mode: Wavelengths
Number of Pixels in Spectrum: 2048
>>>>>Begin Spectral Data<<<<<
223.165	-22.19
223.4	-22.19
223.635	-22.19
223.869	-18.19
224.104	-9.19
224.338	-2.19
224.573	-9.19
224.808	-16.19
225.042	-11.19
225.277	-9.19
225.511	0.81
225.746	-12.19
225.98	-5.19
226.215	13.81
226.449	10.81
226.683	31.81
226.918	30.81
227.152	26.81
227.387	22.81
227.621	50.81
227.856	47.81
228.09	50.81
228.324	46.81
228.559	55.81
228.793	157.81
229.027	442.81
229.262	516.81
229.496	632.81
229.73	814.81
229.964	812.81
230.199	551.81
230.433	475.81
230.667	491.81
230.901	458.81
231.136	436.81
231.37	450.81
231.604	443.81
231.838	445.81
232.072	444.81
232.306	476.81
232.541	463.81
232.775	484.81
233.009	479.81
233.243	466.81
233.477	462.81
233.711	487.81
233.945	501.81
234.179	505.81
234.413	511.81
234.647	520.81
234.881	518.81
235.115	519.81
235.349	543.81
235.583	552.81
235.817	598.81
236.051	629.81
236.285	624.81
236.519	610.81
236.753	690.81
236.987	907.81
237.221	1466.81
237.455	1550.81
237.689	926.81
237.922	772.81
238.156	716.81
238.39	691.81
238.624	666.81
238.858	639.81
239.091	643.81
239.325	683.81
239.559	688.81
239.793	734.81
240.027	773.81
240.26	917.81
240.494	948.81
240.728	974.81
240.961	930.81
241.195	818.81
241.429	792.81
241.662	789.81
241.896	766.81
242.13	775.81
242.363	776.81
242.597	780.81
242.83	812.81
243.064	819.81
243.298	850.81
243.531	809.81
243.765	823.81
243.998	830.81
244.232	878.81
244.465	890.81
244.699	883.81
244.932	921.81
245.166	898.81
245.399	914.81
245.633	916.81
245.866	928.81
246.099	933.81
246.333	956.81
246.566	990.81
246.8	992.81
247.033	1008.81
247.266	1046.81
247.5	1082.81
247.733	1190.81
247.966	1165.81
248.2	1156.81
248.433	1182.81
248.666	1249.81
248.899	1349.81
249.133	1447.81
249.366	1408.81
249.599	1324.81
249.832	1233.81
250.066	1240.81
250.299	1254.81
250.532	1346.81
250.765	1533.81
250.998	1754.81
251.231	1652.81
251.465	1507.81
251.698	1452.81
251.931	1428.81
252.164	1394.81
252.397	1435.81
252.63	1472.81
252.863	1536.81
253.096	1662.81
253.329	1789.81
253.562	1663.81
253.795	1577.81
254.028	1592.81
254.261	1651.81
254.494	1815.81
254.727	2225.81
254.96	2311.81
255.193	2036.81
255.426	1791.81
255.659	1624.81
255.892	1618.81
256.124	1594.81
256.357	1574.81
256.59	1516.81
256.823	1508.81
257.056	1542.81
257.289	1504.81
257.521	1580.81
257.754	1565.81
257.987	1582.81
258.22	1561.81
258.452	1503.81
258.685	1542.81
258.918	1559.81
259.151	1600.81
259.383	1716.81
259.616	1718.81
259.849	1776.81
260.081	1952.81
260.314	2119.81
260.547	2059.81
260.779	1861.81
261.012	1753.81
261.244	1720.81
261.477	1652.81
261.71	1696.81
261.942	1722.81
262.175	1799.81
262.407	1718.81
262.64	1643.81
262.872	1658.81
263.105	1640.81
263.337	1662.81
263.57	1666.81
263.802	1669.81
264.035	1674.81
264.267	1626.81
264.499	1653.81
264.732	1702.81
264.964	1700.81
265.197	1726.81
265.429	1707.81
265.661	1709.81
265.894	1728.81
266.126	1730.81
266.358	1759.81
266.591	1791.81
266.823	1886.81
267.055	1868.81
267.287	1882.81
267.52	1854.81
267.752	1857.81
267.984	1841.81
268.216	1900.81
268.448	1962.81
268.681	1976.81
268.913	2122.81
269.145	2340.81
269.377	2411.81
269.609	2341.81
269.841	2300.81
270.073	2431.81
270.306	2663.81
270.538	2843.81
270.77	2710.81
271.002	2522.81
271.234	2537.81
271.466	2647.81
271.698	2742.81
271.93	2786.81
272.162	2784.81
272.394	2727.81
272.626	2509.81
272.858	2415.81
273.09	2302.81
273.322	2309.81
273.553	2243.81
273.785	2261.81
274.017	2267.81
274.249	2255.81
274.481	2293.81
274.713	2318.81
274.945	2282.81
275.176	2329.81
275.408	2250.81
275.64	2269.81
275.872	2248.81
276.104	2268.81
276.335	2316.81
276.567	2407.81
276.799	2533.81
277.031	2815.81
277.262	2892.81
277.494	2784.81
277.726	2608.81
277.957	2516.81
278.189	2462.81
278.421	2363.81
278.652	2389.81
278.884	2364.81
279.115	2385.81
279.347	2406.81
279.579	2375.81
279.81	2409.81
280.042	2405.81
280.273	2401.81
280.505	2381.81
280.736	2391.81
280.968	2398.81
281.199	2437.81
281.431	2433.81
281.662	2436.81
281.894	2486.81
282.125	2555.81
282.356	2647.81
282.588	2770.81
282.819	2615.81
283.051	2517.81
283.282	2540.81
283.513	2585.81
283.745	2605.81
283.976	2668.81
284.207	2656.81
284.439	2598.81
284.67	2606.81
284.901	2631.81
285.132	2586.81
285.364	2585.81
285.595	2621.81
285.826	2619.81
286.057	2675.81
286.288	2653.81
286.52	2661.81
286.751	2682.81
286.982	2661.81
287.213	2687.81
287.444	2748.81
287.675	2819.81
287.906	2902.81
288.138	2974.81
288.369	2894.81
288.6	2880.81
288.831	2840.81
289.062	2818.81
289.293	2796.81
289.524	2782.81
289.755	2813.81
289.986	2786.81
290.217	2781.81
290.448	2759.81
290.679	2753.81
290.91	2841.81
291.141	2791.81
291.371	2836.81
291.602	2824.81
291.833	2758.81
292.064	2770.81
292.295	2802.81
292.526	2835.81
292.757	2832.81
292.987	2807.81
293.218	2794.81
293.449	2843.81
293.68	2797.81
293.91	2800.81
294.141	2834.81
294.372	2820.81
294.603	2848.81
294.833	2849.81
295.064	2847.81
295.295	2906.81
295.525	2898.81
295.756	3013.81
295.987	3024.81
296.217	3135.81
296.448	3131.81
296.679	2892.81
296.909	2932.81
297.14	2965.81
297.37	3007.81
297.601	3064.81
297.831	3063.81
298.062	3013.81
298.292	2994.81
298.523	3112.81
298.753	3115.81
298.984	3036.81
299.214	3067.81
299.445	3098.81
299.675	3089.81
299.905	3113.81
300.136	3143.81
300.366	3126.81
300.597	3118.81
300.827	3259.81
301.057	3307.81
301.288	3317.81
301.518	3311.81
301.748	3307.81
301.979	3332.81
302.209	3383.81
302.439	3347.81
302.669	3301.81
302.9	3249.81
303.13	3246.81
303.36	3335.81
303.59	3330.81
303.82	3369.81
304.051	3315.81
304.281	3298.81
304.511	3174.81
304.741	3273.81
304.971	3303.81
305.201	3208.81
305.431	3258.81
305.661	3290.81
305.891	3245.81
306.121	3280.81
306.352	3323.81
306.582	3251.81
306.812	3206.81
307.042	3206.81
307.272	3275.81
307.502	3234.81
307.731	3268.81
307.961	3214.81
308.191	3282.81
308.421	3240.81
308.651	3264.81
308.881	3228.81
309.111	3326.81
309.341	3363.81
309.571	3366.81
309.8	3490.81
310.03	3550.81
310.26	3547.81
310.49	3533.81
310.72	3615.81
310.949	3744.81
311.179	3707.81
311.409	3629.81
311.639	3568.81
311.868	3634.81
312.098	3661.81
312.328	3766.81
312.557	3916.81
312.787	3898.81
313.017	3854.81
313.246	3792.81
313.476	3685.81
313.706	3767.81
313.935	3781.81
314.165	3906.81
314.394	3924.81
314.624	3896.81
314.853	3767.81
315.083	3710.81
315.312	3679.81
315.542	3697.81
315.771	3638.81
316.001	3621.81
316.23	3670.81
316.46	3615.81
316.689	3715.81
316.919	3668.81
317.148	3779.81
317.377	3733.81
317.607	3726.81
317.836	3639.81
318.065	3624.81
318.295	3688.81
318.524	3567.81
318.753	3639.81
318.983	3686.81
319.212	3637.81
319.441	3696.81
319.67	3693.81
319.9	3664.81
320.129	3639.81
320.358	3678.81
320.587	3713.81
320.816	3786.81
321.046	3805.81
321.275	3791.81
321.504	3845.81
321.733	3834.81
321.962	3869.81
322.191	3978.81
322.42	4094.81
322.649	4084.81
322.878	4217.81
323.108	4303.81
323.337	4506.81
323.566	4654.81
323.795	4935.81
324.024	5499.81
324.253	7248.81
324.482	10892.81
324.71	15227.81
324.939	15624.81
325.168	13036.81
325.397	6572.81
325.626	5228.81
325.855	4817.81
326.084	4773.81
326.313	4755.81
326.542	4918.81
326.77	5519.81
326.999	6928.81
327.228	10130.81
327.457	14381.81
327.686	13652.81
327.914	7336.81
328.143	5821.81
328.372	5441.81
328.6	5181.81
328.829	5192.81
329.058	5327.81
329.287	5253.81
329.515	4929.81
329.744	4740.81
329.972	4774.81
330.201	4878.81
330.43	5146.81
330.658	5375.81
330.887	5692.81
331.115	5330.81
331.344	4870.81
331.572	4890.81
331.801	4950.81
332.03	4997.81
332.258	4874.81
332.486	4878.81
332.715	5033.81
332.943	5105.81
333.172	5275.81
333.4	5362.81
333.629	5495.81
333.857	5622.81
334.085	5543.81
334.314	5434.81
334.542	5493.81
334.771	5377.81
334.999	5196.81
335.227	5236.81
335.455	5022.81
335.684	4997.81
335.912	4959.81
336.14	4866.81
336.369	4830.81
336.597	4999.81
336.825	4822.81
337.053	4794.81
337.281	4735.81
337.51	4662.81
337.738	4684.81
337.966	4620.81
338.194	4619.81
338.422	4546.81
338.65	4574.81
338.878	4543.81
339.106	4452.81
339.334	4475.81
339.562	4467.81
339.79	4325.81
340.018	4357.81
340.246	4417.81
340.474	4363.81
340.702	4397.81
340.93	4351.81
341.158	4356.81
341.386	4366.81
341.614	4420.81
341.842	4347.81
342.07	4258.81
342.298	4262.81
342.526	4272.81
342.754	4247.81
342.981	4226.81
343.209	4316.81
343.437	4599.81
343.665	4872.81
343.893	5092.81
344.12	5106.81
344.348	4845.81
344.576	4739.81
344.804	4732.81
345.031	4602.81
345.259	4531.81
345.487	4482.81
345.714	4344.81
345.942	4221.81
346.17	4177.81
346.397	4148.81
346.625	4172.81
346.853	4198.81
347.08	4117.81
347.308	4273.81
347.535	4257.81
347.763	4267.81
347.99	4217.81
348.218	4270.81
348.445	4266.81
348.673	4239.81
348.9	4151.81
349.128	4072.81
349.355	4050.81
349.583	4055.81
349.81	4042.81
350.037	3994.81
350.265	4081.81
350.492	4031.81
350.72	4071.81
350.947	4039.81
351.174	4157.81
351.402	4194.81
351.629	4095.81
351.856	4117.81
352.083	4196.81
352.311	4179.81
352.538	4165.81
352.765	4206.81
352.992	4136.81
353.22	4031.81
353.447	4036.81
353.674	3989.81
353.901	3918.81
354.128	3986.81
354.355	3878.81
354.583	3934.81
354.81	3915.81
355.037	3912.81
355.264	3893.81
355.491	3914.81
355.718	3961.81
355.945	3893.81
356.172	3876.81
356.399	3880.81
356.626	3893.81
356.853	3929.81
357.08	3862.81
357.307	3931.81
357.534	3854.81
357.761	3890.81
357.988	3933.81
358.215	3940.81
358.441	3973.81
358.668	3945.81
358.895	3982.81
359.122	4039.81
359.349	4151.81
359.576	4186.81
359.802	4407.81
360.029	4578.81
360.256	4512.81
360.483	4339.81
360.709	4182.81
360.936	4152.81
361.163	4174.81
361.39	4237.81
361.616	4183.81
361.843	4146.81
362.07	4085.81
362.296	4198.81
362.523	4123.81
362.749	4139.81
362.976	4092.81
363.203	4059.81
363.429	4005.81
363.656	4069.81
363.882	3989.81
364.109	4010.81
364.335	4086.81
364.562	4012.81
364.788	4003.81
365.015	4021.81
365.241	4053.81
365.468	4025.81
365.694	4118.81
365.92	4087.81
366.147	4023.81
366.373	4003.81
366.599	3979.81
366.826	3958.81
367.052	3935.81
367.278	4013.81
367.505	4030.81
367.731	4105.81
367.957	4004.81
368.184	4057.81
368.41	4126.81
368.636	4249.81
368.862	4249.81
369.089	4118.81
369.315	4072.81
369.541	4055.81
369.767	4111.81
369.993	4115.81
370.219	4164.81
370.445	4170.81
370.672	4227.81
370.898	4184.81
371.124	4217.81
371.35	4284.81
371.576	4288.81
371.802	4244.81
372.028	4197.81
372.254	4225.81
372.48	4356.81
372.706	4338.81
372.932	4440.81
373.158	4323.81
373.384	4342.81
373.61	4249.81
373.835	4326.81
374.061	4342.81
374.287	4422.81
374.513	4500.81
374.739	4556.81
374.965	4673.81
375.191	4695.81
375.416	4620.81
375.642	4519.81
375.868	4446.81
376.094	4384.81
376.319	4320.81
376.545	4297.81
376.771	4320.81
376.997	4310.81
377.222	4324.81
377.448	4243.81
377.674	4286.81
377.899	4218.81
378.125	4235.81
378.35	4227.81
378.576	4229.81
378.802	4238.81
379.027	4201.81
379.253	4171.81
379.478	4255.81
379.704	4308.81
379.929	4256.81
380.155	4278.81
380.38	4247.81
380.606	4272.81
380.831	4293.81
381.057	4313.81
381.282	4298.81
381.507	4311.81
381.733	4389.81
381.958	4324.81
382.184	4404.81
382.409	4413.81
382.634	4469.81
382.86	4513.81
383.085	4551.81
383.31	4576.81
383.535	4700.81
383.761	4748.81
383.986	4825.81
384.211	4894.81
384.436	5032.81
384.662	4948.81
384.887	5061.81
385.112	5058.81
385.337	5103.81
385.562	5141.81
385.787	5156.81
386.013	5229.81
386.238	5198.81
386.463	5224.81
386.688	5172.81
386.913	5124.81
387.138	5046.81
387.363	5123.81
387.588	5050.81
387.813	5051.81
388.038	5066.81
388.263	5096.81
388.488	5090.81
388.713	5078.81
388.938	5131.81
389.163	5055.81
389.387	5040.81
389.612	4942.81
389.837	5030.81
390.062	4991.81
390.287	4981.81
390.512	5056.81
390.736	5103.81
390.961	5225.81
391.186	5220.81
391.411	5419.81
391.636	5511.81
391.86	5643.81
392.085	5687.81
392.31	5607.81
392.534	5552.81
392.759	5435.81
392.984	5380.81
393.208	5340.81
393.433	5293.81
393.658	5254.81
393.882	5254.81
394.107	5272.81
394.331	5312.81
394.556	5334.81
394.78	5345.81
395.005	5382.81
395.229	5502.81
395.454	5606.81
395.678	5788.81
395.903	5804.81
396.127	5758.81
396.352	5735.81
396.576	5432.81
396.801	5319.81
397.025	5443.81
397.249	5574.81
397.474	5708.81
397.698	5766.81
397.922	5907.81
398.147	5942.81
398.371	6114.81
398.595	6209.81
398.82	6454.81
399.044	6979.81
399.268	7828.81
399.492	8750.81
399.717	9454.81
399.941	9171.81
400.165	8567.81
400.389	7938.81
400.613	7169.81
400.837	6643.81
401.062	6572.81
401.286	6419.81
401.51	6361.81
401.734	6422.81
401.958	6548.81
402.182	6619.81
402.406	6689.81
402.63	6803.81
402.854	6911.81
403.078	6980.81
403.302	7112.81
403.526	7180.81
403.75	7177.81
403.974	7283.81
404.198	7261.81
404.422	7334.81
404.645	7328.81
404.869	7119.81
405.093	7420.81
405.317	7500.81
405.541	7509.81
405.765	7217.81
405.988	7118.81
406.212	7293.81
406.436	7407.81
406.66	7638.81
406.883	7642.81
407.107	8190.81
407.331	8760.81
407.555	9288.81
407.778	8988.81
408.002	8194.81
408.226	7810.81
408.449	7714.81
408.673	7559.81
408.896	7813.81
409.12	7926.81
409.344	7411.81
409.567	7060.81
409.791	7076.81
410.014	6956.81
410.238	6881.81
410.461	6860.81
410.685	6879.81
410.908	7026.81
411.132	7298.81
411.355	7275.81
411.578	6918.81
411.802	6747.81
412.025	6643.81
412.249	6848.81
412.472	6781.81
412.695	6723.81
412.919	6462.81
413.142	6393.81
413.365	6293.81
413.589	6330.81
413.812	6264.81
414.035	6221.81
414.258	6242.81
414.482	6258.81
414.705	6419.81
414.928	6307.81
415.151	6300.81
415.374	6312.81
415.597	6245.81
415.821	6144.81
416.044	6235.81
416.267	6190.81
416.49	6149.81
416.713	6069.81
416.936	6217.81
417.159	6180.81
417.382	6229.81
417.605	6258.81
417.828	6460.81
418.051	6600.81
418.274	6462.81
418.497	6371.81
418.72	6446.81
418.943	6317.81
419.166	6744.81
419.389	7163.81
419.611	7043.81
419.834	6826.81
420.057	6678.81
420.28	6542.81
420.503	6359.81
420.726	6430.81
420.948	6570.81
421.171	7090.81
421.394	6951.81
421.617	6430.81
421.839	6432.81
422.062	6580.81
422.285	6722.81
422.507	7379.81
422.73	7928.81
422.953	7270.81
423.175	6894.81
423.398	7020.81
423.621	6975.81
423.843	7166.81
424.066	7103.81
424.288	7014.81
424.511	7333.81
424.733	7815.81
424.956	8272.81
425.178	7746.81
425.401	7972.81
425.623	7813.81
425.846	6757.81
426.068	6606.81
426.291	6524.81
426.513	6488.81
426.735	6625.81
426.958	7154.81
427.18	7964.81
427.402	9133.81
427.625	9131.81
427.847	7534.81
428.069	6810.81
428.292	6348.81
428.514	6100.81
428.736	5958.81
428.958	5882.81
429.181	5795.81
429.403	5791.81
429.625	6038.81
429.847	6288.81
430.069	6816.81
430.292	6354.81
430.514	5843.81
430.736	5817.81
430.958	5723.81
431.18	5629.81
431.402	5650.81
431.624	5595.81
431.846	5622.81
432.068	5742.81
432.29	5821.81
432.512	5623.81
432.734	5825.81
432.956	5726.81
433.178	5796.81
433.4	5778.81
433.622	5681.81
433.844	5740.81
434.066	5689.81
434.287	5788.81
434.509	6080.81
434.731	6246.81
434.953	6389.81
435.175	6586.81
435.397	6714.81
435.618	6595.81
435.84	6956.81
436.062	7846.81
436.284	7822.81
436.505	6613.81
436.727	6234.81
436.949	5926.81
437.17	5827.81
437.392	5740.81
437.614	5934.81
437.835	6370.81
438.057	7426.81
438.278	8016.81
438.5	7908.81
438.721	8858.81
438.943	7698.81
439.165	6408.81
439.386	6263.81
439.608	6255.81
439.829	6302.81
440.05	6685.81
440.272	7021.81
440.493	6426.81
440.715	6126.81
440.936	6011.81
441.158	6118.81
441.379	6239.81
441.6	6493.81
441.822	6831.81
442.043	7246.81
442.264	8167.81
442.486	7824.81
442.707	6848.81
442.928	6674.81
443.149	6914.81
443.371	7118.81
443.592	7718.81
443.813	8774.81
444.034	8704.81
444.255	7473.81
444.476	7255.81
444.698	7510.81
444.919	7556.81
445.14	7344.81
445.361	7266.81
445.582	7362.81
445.803	7919.81
446.024	8682.81
446.245	8174.81
446.466	7333.81
446.687	6416.81
446.908	6073.81
447.129	5819.81
447.35	5706.81
447.571	5568.81
447.792	5526.81
448.013	5709.81
448.234	5820.81
448.455	6562.81
448.675	7816.81
448.896	8282.81
449.117	6816.81
449.338	6964.81
449.559	8479.81
449.779	8554.81
450	6508.81
450.221	5752.81
450.442	5548.81
450.662	5446.81
450.883	5450.81
451.104	5625.81
451.324	5447.81
451.545	5325.81
451.766	5219.81
451.986	5072.81
452.207	5035.81
452.428	5032.81
452.648	5005.81
452.869	5082.81
453.089	5219.81
453.31	5243.81
453.53	5080.81
453.751	5009.81
453.971	5027.81
454.192	5113.81
454.412	4875.81
454.633	4893.81
454.853	4896.81
455.073	4916.81
455.294	5320.81
455.514	5915.81
455.734	5310.81
455.955	4788.81
456.175	4661.81
456.395	4577.81
456.616	4644.81
456.836	4646.81
457.056	4577.81
457.276	4574.81
457.497	4688.81
457.717	4676.81
457.937	4781.81
458.157	4810.81
458.377	4901.81
458.598	5234.81
458.818	5969.81
459.038	6703.81
459.258	6642.81
459.478	5919.81
459.698	5825.81
459.918	5757.81
460.138	5950.81
460.358	6176.81
460.578	6171.81
460.798	6286.81
461.018	6201.81
461.238	6145.81
461.458	6117.81
461.678	6066.81
461.898	6159.81
462.118	6330.81
462.338	6589.81
462.558	6777.81
462.777	6995.81
462.997	7593.81
463.217	8010.81
463.437	7801.81
463.657	7112.81
463.876	6906.81
464.096	6993.81
464.316	7063.81
464.536	7105.81
464.755	6862.81
464.975	6778.81
465.195	6932.81
465.414	6952.81
465.634	6049.81
465.854	5829.81
466.073	5531.81
466.293	5403.81
466.512	5312.81
466.732	5155.81
466.951	5123.81
467.171	5266.81
467.391	5251.81
467.61	5270.81
467.829	5216.81
468.049	5230.81
468.268	4979.81
468.488	4953.81
468.707	4901.81
468.927	4931.81
469.146	4959.81
469.365	4980.81
469.585	5006.81
469.804	5246.81
470.023	5323.81
470.243	5372.81
470.462	5391.81
470.681	5535.81
470.901	5441.81
471.12	5325.81
471.339	5213.81
471.558	5235.81
471.777	5124.81
471.997	5072.81
472.216	5066.81
472.435	5057.81
472.654	4981.81
472.873	4886.81
473.092	4875.81
473.311	4900.81
473.53	4967.81
473.749	5030.81
473.968	5689.81
474.187	6689.81
474.406	6216.81
474.625	5202.81
474.844	4943.81
475.063	5022.81
475.282	4980.81
475.501	4999.81
475.72	5080.81
475.939	5102.81
476.158	5153.81
476.377	5143.81
476.596	5143.81
476.814	5321.81
477.033	5288.81
477.252	5365.81
477.471	5481.81
477.69	5584.81
477.908	5759.81
478.127	5790.81
478.346	5909.81
478.564	5982.81
478.783	6064.81
479.002	6237.81
479.22	6146.81
479.439	6322.81
479.658	6392.81
479.876	6510.81
480.095	6741.81
480.313	7174.81
480.532	6886.81
480.751	6832.81
480.969	6672.81
481.188	6752.81
481.406	6526.81
481.624	6236.81
481.843	6045.81
482.061	5993.81
482.28	5834.81
482.498	5865.81
482.717	5794.81
482.935	5770.81
483.153	5721.81
483.372	5820.81
483.59	5843.81
483.808	5762.81
484.027	5788.81
484.245	5840.81
484.463	5956.81
484.681	5931.81
484.9	6010.81
485.118	6025.81
485.336	6157.81
485.554	6127.81
485.772	6189.81
485.99	6188.81
486.209	6286.81
486.427	6277.81
486.645	6318.81
486.863	6470.81
487.081	6388.81
487.299	6312.81
487.517	6282.81
487.735	6231.81
