Data from Uncirc_1986_H10_HRD10591_00085.txt Node
Date: Wed Jan 03 12:14:43 EST 2024
User: Yrep
Spectrometer: HR+D1059
Trigger mode: 1
Integration Time (sec): 1.000000E-1
Scans to average: 1
Electric dark correction enabled: true
Nonlinearity correction enabled: false
Boxcar width: 0
XAxis mode: Wavelengths
Number of Pixels in Spectrum: 2048
>>>>>Begin Spectral Data<<<<<
223.165	-18.75
223.4	-18.75
223.635	-18.75
223.869	-23.75
224.104	-21.75
224.338	-19.75
224.573	-17.75
224.808	-10.75
225.042	1.25
225.277	-7.75
225.511	3.25
225.746	-2.75
225.98	-5.75
226.215	13.25
226.449	23.25
226.683	18.25
226.918	28.25
227.152	41.25
227.387	36.25
227.621	27.25
227.856	47.25
228.09	47.25
228.324	55.25
228.559	71.25
228.793	63.25
229.027	60.25
229.262	67.25
229.496	81.25
229.73	93.25
229.964	70.25
230.199	76.25
230.433	58.25
230.667	76.25
230.901	87.25
231.136	80.25
231.37	91.25
231.604	73.25
231.838	86.25
232.072	73.25
232.306	91.25
232.541	84.25
232.775	77.25
233.009	81.25
233.243	83.25
233.477	71.25
233.711	88.25
233.945	82.25
234.179	83.25
234.413	84.25
234.647	98.25
234.881	87.25
235.115	84.25
235.349	69.25
235.583	74.25
235.817	93.25
236.051	72.25
236.285	90.25
236.519	70.25
236.753	81.25
236.987	83.25
237.221	84.25
237.455	86.25
237.689	68.25
237.922	84.25
238.156	92.25
238.39	76.25
238.624	74.25
238.858	91.25
239.091	85.25
239.325	87.25
239.559	77.25
239.793	81.25
240.027	82.25
240.26	69.25
240.494	86.25
240.728	73.25
240.961	78.25
241.195	80.25
241.429	74.25
241.662	83.25
241.896	80.25
242.13	93.25
242.363	75.25
242.597	81.25
242.83	83.25
243.064	86.25
243.298	79.25
243.531	78.25
243.765	84.25
243.998	86.25
244.232	90.25
244.465	84.25
244.699	86.25
244.932	78.25
245.166	74.25
245.399	71.25
245.633	86.25
245.866	91.25
246.099	86.25
246.333	80.25
246.566	80.25
246.8	81.25
247.033	87.25
247.266	91.25
247.5	92.25
247.733	80.25
247.966	80.25
248.2	89.25
248.433	83.25
248.666	88.25
248.899	72.25
249.133	94.25
249.366	100.25
249.599	98.25
249.832	88.25
250.066	76.25
250.299	73.25
250.532	69.25
250.765	84.25
250.998	88.25
251.231	83.25
251.465	78.25
251.698	85.25
251.931	88.25
252.164	86.25
252.397	69.25
252.63	87.25
252.863	91.25
253.096	70.25
253.329	80.25
253.562	81.25
253.795	82.25
254.028	88.25
254.261	82.25
254.494	69.25
254.727	73.25
254.96	81.25
255.193	73.25
255.426	80.25
255.659	76.25
255.892	91.25
256.124	94.25
256.357	89.25
256.59	74.25
256.823	88.25
257.056	84.25
257.289	83.25
257.521	75.25
257.754	81.25
257.987	92.25
258.22	90.25
258.452	74.25
258.685	80.25
258.918	85.25
259.151	83.25
259.383	81.25
259.616	80.25
259.849	84.25
260.081	80.25
260.314	84.25
260.547	72.25
260.779	75.25
261.012	76.25
261.244	85.25
261.477	82.25
261.71	86.25
261.942	109.25
262.175	125.25
262.407	86.25
262.64	91.25
262.872	88.25
263.105	84.25
263.337	82.25
263.57	83.25
263.802	92.25
264.035	94.25
264.267	89.25
264.499	86.25
264.732	87.25
264.964	90.25
265.197	77.25
265.429	88.25
265.661	86.25
265.894	82.25
266.126	91.25
266.358	72.25
266.591	87.25
266.823	80.25
267.055	75.25
267.287	85.25
267.52	88.25
267.752	91.25
267.984	98.25
268.216	77.25
268.448	104.25
268.681	70.25
268.913	87.25
269.145	104.25
269.377	92.25
269.609	84.25
269.841	84.25
270.073	93.25
270.306	85.25
270.538	90.25
270.77	93.25
271.002	86.25
271.234	85.25
271.466	100.25
271.698	94.25
271.93	92.25
272.162	90.25
272.394	91.25
272.626	91.25
272.858	77.25
273.09	78.25
273.322	72.25
273.553	88.25
273.785	84.25
274.017	94.25
274.249	96.25
274.481	92.25
274.713	84.25
274.945	97.25
275.176	84.25
275.408	101.25
275.64	96.25
275.872	86.25
276.104	87.25
276.335	89.25
276.567	110.25
276.799	105.25
277.031	97.25
277.262	94.25
277.494	87.25
277.726	90.25
277.957	97.25
278.189	90.25
278.421	81.25
278.652	74.25
278.884	76.25
279.115	84.25
279.347	93.25
279.579	88.25
279.81	87.25
280.042	93.25
280.273	85.25
280.505	98.25
280.736	83.25
280.968	106.25
281.199	88.25
281.431	86.25
281.662	85.25
281.894	97.25
282.125	99.25
282.356	131.25
282.588	142.25
282.819	122.25
283.051	104.25
283.282	94.25
283.513	93.25
283.745	81.25
283.976	96.25
284.207	71.25
284.439	91.25
284.67	88.25
284.901	93.25
285.132	91.25
285.364	77.25
285.595	95.25
285.826	95.25
286.057	84.25
286.288	86.25
286.52	82.25
286.751	88.25
286.982	82.25
287.213	94.25
287.444	94.25
287.675	91.25
287.906	89.25
288.138	92.25
288.369	107.25
288.6	97.25
288.831	81.25
289.062	82.25
289.293	91.25
289.524	86.25
289.755	69.25
289.986	75.25
290.217	88.25
290.448	93.25
290.679	79.25
290.91	85.25
291.141	98.25
291.371	95.25
291.602	100.25
291.833	78.25
292.064	78.25
292.295	92.25
292.526	91.25
292.757	98.25
292.987	96.25
293.218	92.25
293.449	95.25
293.68	81.25
293.91	73.25
294.141	92.25
294.372	100.25
294.603	88.25
294.833	87.25
295.064	85.25
295.295	84.25
295.525	82.25
295.756	96.25
295.987	116.25
296.217	123.25
296.448	131.25
296.679	85.25
296.909	93.25
297.14	98.25
297.37	91.25
297.601	88.25
297.831	102.25
298.062	104.25
298.292	91.25
298.523	78.25
298.753	81.25
298.984	96.25
299.214	96.25
299.445	84.25
299.675	96.25
299.905	101.25
300.136	88.25
300.366	102.25
300.597	85.25
300.827	92.25
301.057	101.25
301.288	100.25
301.518	96.25
301.748	96.25
301.979	95.25
302.209	86.25
302.439	94.25
302.669	85.25
302.9	90.25
303.13	96.25
303.36	104.25
303.59	85.25
303.82	108.25
304.051	102.25
304.281	88.25
304.511	94.25
304.741	106.25
304.971	91.25
305.201	86.25
305.431	100.25
305.661	90.25
305.891	88.25
306.121	98.25
306.352	112.25
306.582	106.25
306.812	110.25
307.042	90.25
307.272	99.25
307.502	97.25
307.731	96.25
307.961	86.25
308.191	101.25
308.421	95.25
308.651	92.25
308.881	105.25
309.111	95.25
309.341	85.25
309.571	106.25
309.8	104.25
310.03	96.25
310.26	109.25
310.49	98.25
310.72	100.25
310.949	109.25
311.179	101.25
311.409	95.25
311.639	97.25
311.868	95.25
312.098	112.25
312.328	103.25
312.557	100.25
312.787	103.25
313.017	93.25
313.246	100.25
313.476	98.25
313.706	99.25
313.935	89.25
314.165	104.25
314.394	82.25
314.624	96.25
314.853	85.25
315.083	94.25
315.312	100.25
315.542	94.25
315.771	84.25
316.001	95.25
316.23	107.25
316.46	92.25
316.689	102.25
316.919	108.25
317.148	85.25
317.377	84.25
317.607	112.25
317.836	95.25
318.065	106.25
318.295	105.25
318.524	92.25
318.753	96.25
318.983	97.25
319.212	100.25
319.441	106.25
319.67	111.25
319.9	109.25
320.129	90.25
320.358	96.25
320.587	97.25
320.816	109.25
321.046	99.25
321.275	113.25
321.504	119.25
321.733	94.25
321.962	88.25
322.191	108.25
322.42	110.25
322.649	105.25
322.878	125.25
323.108	112.25
323.337	116.25
323.566	132.25
323.795	137.25
324.024	200.25
324.253	366.25
324.482	772.25
324.71	1608.25
324.939	2104.25
325.168	780.25
325.397	247.25
325.626	157.25
325.855	126.25
326.084	120.25
326.313	130.25
326.542	153.25
326.77	238.25
326.999	455.25
327.228	916.25
327.457	1606.25
327.686	1314.25
327.914	355.25
328.143	188.25
328.372	146.25
328.6	120.25
328.829	116.25
329.058	120.25
329.287	124.25
329.515	101.25
329.744	102.25
329.972	94.25
330.201	102.25
330.43	97.25
330.658	117.25
330.887	128.25
331.115	127.25
331.344	101.25
331.572	101.25
331.801	102.25
332.03	100.25
332.258	96.25
332.486	106.25
332.715	95.25
332.943	98.25
333.172	101.25
333.4	97.25
333.629	113.25
333.857	118.25
334.085	116.25
334.314	109.25
334.542	115.25
334.771	117.25
334.999	80.25
335.227	97.25
335.455	103.25
335.684	97.25
335.912	97.25
336.14	99.25
336.369	97.25
336.597	91.25
336.825	104.25
337.053	104.25
337.281	94.25
337.51	97.25
337.738	95.25
337.966	85.25
338.194	114.25
338.422	103.25
338.65	84.25
338.878	82.25
339.106	91.25
339.334	94.25
339.562	82.25
339.79	77.25
340.018	84.25
340.246	93.25
340.474	96.25
340.702	98.25
340.93	96.25
341.158	108.25
341.386	102.25
341.614	95.25
341.842	85.25
342.07	97.25
342.298	97.25
342.526	92.25
342.754	88.25
342.981	92.25
343.209	92.25
343.437	97.25
343.665	95.25
343.893	90.25
344.12	90.25
344.348	96.25
344.576	92.25
344.804	94.25
345.031	99.25
345.259	94.25
345.487	101.25
345.714	96.25
345.942	110.25
346.17	86.25
346.397	111.25
346.625	107.25
346.853	88.25
347.08	88.25
347.308	109.25
347.535	86.25
347.763	117.25
347.99	100.25
348.218	100.25
348.445	113.25
348.673	109.25
348.9	111.25
349.128	94.25
349.355	104.25
349.583	78.25
349.81	110.25
350.037	93.25
350.265	82.25
350.492	100.25
350.72	109.25
350.947	123.25
351.174	116.25
351.402	117.25
351.629	104.25
351.856	102.25
352.083	99.25
352.311	111.25
352.538	115.25
352.765	105.25
352.992	108.25
353.22	110.25
353.447	112.25
353.674	105.25
353.901	104.25
354.128	95.25
354.355	113.25
354.583	116.25
354.81	106.25
355.037	92.25
355.264	94.25
355.491	100.25
355.718	89.25
355.945	94.25
356.172	114.25
356.399	80.25
356.626	94.25
356.853	97.25
357.08	93.25
357.307	93.25
357.534	113.25
357.761	103.25
357.988	106.25
358.215	98.25
358.441	94.25
358.668	103.25
358.895	97.25
359.122	93.25
359.349	91.25
359.576	92.25
359.802	115.25
360.029	110.25
360.256	113.25
360.483	108.25
360.709	85.25
360.936	102.25
361.163	92.25
361.39	98.25
361.616	83.25
361.843	96.25
362.07	110.25
362.296	87.25
362.523	89.25
362.749	90.25
362.976	101.25
363.203	110.25
363.429	83.25
363.656	94.25
363.882	102.25
364.109	92.25
364.335	94.25
364.562	100.25
364.788	121.25
365.015	99.25
365.241	100.25
365.468	113.25
365.694	110.25
365.92	92.25
366.147	85.25
366.373	107.25
366.599	98.25
366.826	93.25
367.052	89.25
367.278	104.25
367.505	98.25
367.731	91.25
367.957	101.25
368.184	91.25
368.41	106.25
368.636	111.25
368.862	115.25
369.089	100.25
369.315	99.25
369.541	102.25
369.767	101.25
369.993	103.25
370.219	86.25
370.445	90.25
370.672	108.25
370.898	91.25
371.124	91.25
371.35	98.25
371.576	82.25
371.802	92.25
372.028	85.25
372.254	96.25
372.48	107.25
372.706	105.25
372.932	91.25
373.158	92.25
373.384	97.25
373.61	94.25
373.835	87.25
374.061	94.25
374.287	101.25
374.513	83.25
374.739	104.25
374.965	91.25
375.191	89.25
375.416	90.25
375.642	100.25
375.868	100.25
376.094	81.25
376.319	93.25
376.545	82.25
376.771	90.25
376.997	94.25
377.222	90.25
377.448	94.25
377.674	96.25
377.899	97.25
378.125	103.25
378.35	77.25
378.576	87.25
378.802	104.25
379.027	91.25
379.253	97.25
379.478	94.25
379.704	96.25
379.929	93.25
380.155	93.25
380.38	98.25
380.606	105.25
380.831	96.25
381.057	99.25
381.282	103.25
381.507	87.25
381.733	99.25
381.958	89.25
382.184	106.25
382.409	109.25
382.634	100.25
382.86	95.25
383.085	102.25
383.31	118.25
383.535	97.25
383.761	108.25
383.986	94.25
384.211	106.25
384.436	101.25
384.662	99.25
384.887	101.25
385.112	91.25
385.337	88.25
385.562	110.25
385.787	94.25
386.013	99.25
386.238	115.25
386.463	111.25
386.688	110.25
386.913	104.25
387.138	109.25
387.363	95.25
387.588	109.25
387.813	113.25
388.038	99.25
388.263	132.25
388.488	108.25
388.713	108.25
388.938	89.25
389.163	105.25
389.387	89.25
389.612	96.25
389.837	90.25
390.062	93.25
390.287	101.25
390.512	111.25
390.736	97.25
390.961	101.25
391.186	116.25
391.411	105.25
391.636	100.25
391.86	89.25
392.085	96.25
392.31	85.25
392.534	86.25
392.759	94.25
392.984	84.25
393.208	81.25
393.433	83.25
393.658	75.25
393.882	94.25
394.107	98.25
394.331	90.25
394.556	95.25
394.78	106.25
395.005	84.25
395.229	90.25
395.454	88.25
395.678	89.25
395.903	94.25
396.127	90.25
396.352	100.25
396.576	99.25
396.801	77.25
397.025	90.25
397.249	75.25
397.474	89.25
397.698	89.25
397.922	102.25
398.147	89.25
398.371	95.25
398.595	101.25
398.82	96.25
399.044	81.25
399.268	96.25
399.492	100.25
399.717	90.25
399.941	99.25
400.165	98.25
400.389	92.25
400.613	88.25
400.837	73.25
401.062	84.25
401.286	92.25
401.51	84.25
401.734	88.25
401.958	98.25
402.182	123.25
402.406	141.25
402.63	109.25
402.854	106.25
403.078	74.25
403.302	95.25
403.526	94.25
403.75	97.25
403.974	96.25
404.198	84.25
404.422	85.25
404.645	75.25
404.869	81.25
405.093	85.25
405.317	105.25
405.541	96.25
405.765	104.25
405.988	115.25
406.212	180.25
406.436	199.25
406.66	149.25
406.883	105.25
407.107	108.25
407.331	106.25
407.555	112.25
407.778	99.25
408.002	86.25
408.226	85.25
408.449	87.25
408.673	89.25
408.896	76.25
409.12	105.25
409.344	97.25
409.567	95.25
409.791	99.25
410.014	101.25
410.238	105.25
410.461	96.25
410.685	97.25
410.908	100.25
411.132	95.25
411.355	110.25
411.578	83.25
411.802	82.25
412.025	81.25
412.249	89.25
412.472	100.25
412.695	90.25
412.919	85.25
413.142	91.25
413.365	96.25
413.589	84.25
413.812	106.25
414.035	97.25
414.258	89.25
414.482	92.25
414.705	90.25
414.928	92.25
415.151	86.25
415.374	88.25
415.597	73.25
415.821	93.25
416.044	100.25
416.267	90.25
416.49	91.25
416.713	90.25
416.936	92.25
417.159	95.25
417.382	82.25
417.605	85.25
417.828	94.25
418.051	82.25
418.274	94.25
418.497	87.25
418.72	84.25
418.943	99.25
419.166	88.25
419.389	80.25
419.611	92.25
419.834	90.25
420.057	85.25
420.28	93.25
420.503	88.25
420.726	88.25
420.948	91.25
421.171	81.25
421.394	96.25
421.617	106.25
421.839	90.25
422.062	82.25
422.285	93.25
422.507	100.25
422.73	104.25
422.953	104.25
423.175	97.25
423.398	99.25
423.621	83.25
423.843	99.25
424.066	106.25
424.288	104.25
424.511	86.25
424.733	94.25
424.956	114.25
425.178	113.25
425.401	106.25
425.623	91.25
425.846	87.25
426.068	85.25
426.291	91.25
426.513	87.25
426.735	93.25
426.958	92.25
427.18	99.25
427.402	135.25
427.625	153.25
427.847	139.25
428.069	108.25
428.292	101.25
428.514	102.25
428.736	83.25
428.958	69.25
429.181	84.25
429.403	95.25
429.625	94.25
429.847	101.25
430.069	94.25
430.292	96.25
430.514	87.25
430.736	84.25
430.958	85.25
431.18	100.25
431.402	97.25
431.624	90.25
431.846	91.25
432.068	75.25
432.29	77.25
432.512	91.25
432.734	92.25
432.956	89.25
433.178	106.25
433.4	94.25
433.622	106.25
433.844	95.25
434.066	90.25
434.287	88.25
434.509	88.25
434.731	92.25
434.953	81.25
435.175	89.25
435.397	85.25
435.618	96.25
435.84	113.25
436.062	134.25
436.284	131.25
436.505	107.25
436.727	104.25
436.949	109.25
437.17	97.25
437.392	94.25
437.614	99.25
437.835	107.25
438.057	126.25
438.278	105.25
438.5	107.25
438.721	132.25
438.943	100.25
439.165	92.25
439.386	99.25
439.608	108.25
439.829	97.25
440.05	108.25
440.272	120.25
440.493	104.25
440.715	91.25
440.936	101.25
441.158	100.25
441.379	89.25
441.6	86.25
441.822	97.25
442.043	96.25
442.264	99.25
442.486	107.25
442.707	102.25
442.928	101.25
443.149	117.25
443.371	130.25
443.592	116.25
443.813	131.25
444.034	126.25
444.255	91.25
444.476	86.25
444.698	101.25
444.919	83.25
445.14	127.25
445.361	127.25
445.582	105.25
445.803	142.25
446.024	131.25
446.245	127.25
446.466	118.25
446.687	105.25
446.908	110.25
447.129	85.25
447.35	85.25
447.571	91.25
447.792	75.25
448.013	114.25
448.234	110.25
448.455	104.25
448.675	118.25
448.896	122.25
449.117	118.25
449.338	106.25
449.559	117.25
449.779	141.25
450	105.25
450.221	94.25
450.442	94.25
450.662	91.25
450.883	105.25
451.104	112.25
451.324	105.25
451.545	81.25
451.766	90.25
451.986	110.25
452.207	98.25
452.428	103.25
452.648	96.25
452.869	113.25
453.089	117.25
453.31	125.25
453.53	97.25
453.751	91.25
453.971	112.25
454.192	105.25
454.412	88.25
454.633	86.25
454.853	86.25
455.073	89.25
455.294	98.25
455.514	86.25
455.734	92.25
455.955	89.25
456.175	92.25
456.395	80.25
456.616	85.25
456.836	93.25
457.056	89.25
457.276	82.25
457.497	93.25
457.717	90.25
457.937	98.25
458.157	94.25
458.377	89.25
458.598	114.25
458.818	145.25
459.038	168.25
459.258	100.25
459.478	108.25
459.698	98.25
459.918	90.25
460.138	88.25
460.358	86.25
460.578	95.25
460.798	97.25
461.018	92.25
461.238	84.25
461.458	92.25
461.678	93.25
461.898	82.25
462.118	100.25
462.338	78.25
462.558	95.25
462.777	98.25
462.997	93.25
463.217	93.25
463.437	87.25
463.657	78.25
463.876	82.25
464.096	90.25
464.316	97.25
464.536	96.25
464.755	97.25
464.975	104.25
465.195	137.25
465.414	154.25
465.634	92.25
465.854	79.25
466.073	94.25
466.293	87.25
466.512	87.25
466.732	86.25
466.951	84.25
467.171	100.25
467.391	100.25
467.61	100.25
467.829	99.25
468.049	88.25
468.268	91.25
468.488	91.25
468.707	91.25
468.927	88.25
469.146	98.25
469.365	86.25
469.585	86.25
469.804	92.25
470.023	95.25
470.243	85.25
470.462	95.25
470.681	106.25
470.901	100.25
471.12	95.25
471.339	84.25
471.558	77.25
471.777	93.25
471.997	92.25
472.216	102.25
472.435	113.25
472.654	86.25
472.873	96.25
473.092	93.25
473.311	72.25
473.53	84.25
473.749	76.25
473.968	94.25
474.187	102.25
474.406	94.25
474.625	91.25
474.844	97.25
475.063	93.25
475.282	100.25
475.501	86.25
475.72	91.25
475.939	77.25
476.158	88.25
476.377	80.25
476.596	94.25
476.814	86.25
477.033	94.25
477.252	83.25
477.471	102.25
477.69	85.25
477.908	89.25
478.127	99.25
478.346	100.25
478.564	101.25
478.783	105.25
479.002	95.25
479.22	90.25
479.439	98.25
479.658	100.25
479.876	89.25
480.095	95.25
480.313	96.25
480.532	90.25
480.751	73.25
480.969	102.25
481.188	146.25
481.406	112.25
481.624	105.25
481.843	95.25
482.061	89.25
482.28	92.25
482.498	95.25
482.717	82.25
482.935	84.25
483.153	101.25
483.372	73.25
483.59	96.25
483.808	105.25
484.027	100.25
484.245	98.25
484.463	92.25
484.681	103.25
484.9	80.25
485.118	100.25
485.336	109.25
485.554	108.25
485.772	113.25
485.99	120.25
486.209	114.25
486.427	118.25
486.645	120.25
486.863	104.25
487.081	107.25
487.299	99.25
487.517	94.25
487.735	107.25
487.953	96.25
488.171	107.25
488.389	93.25
488.607	101.25
488.825	83.25
489.043	92.25
489.261	104.25
489.479	101.25
489.696	97.25
489.914	95.25
490.132	86.25
490.35	101.25
490.568	96.25
490.786	85.25
491.003	97.25
491.221	109.25
491.439	91.25
491.657	94.25
491.874	103.25
492.092	88.25
492.31	93.25
492.527	88.25
492.745	80.25
492.963	97.25
493.18	94.25
493.398	100.25
493.615	100.25
493.833	93.25
494.05	93.25
494.268	87.25
494.485	89.25
494.703	87.25
494.92	88.25
495.138	85.25
495.355	88.25
495.573	70.25
495.79	102.25
496.008	105.25
496.225	93.25
496.442	86.25
496.66	92.25
496.877	81.25
497.094	90.25
497.312	85.25
497.529	98.25
497.746	86.25
497.963	88.25
498.181	100.25
498.398	105.25
498.615	114.25
498.832	92.25
499.049	93.25
499.267	91.25
499.484	94.25
499.701	85.25
499.918	88.25
500.135	95.25
500.352	99.25
500.569	85.25
500.786	76.25
501.003	92.25
501.22	94.25
501.437	95.25
501.654	99.25
501.871	107.25
502.088	96.25
502.305	96.25
502.522	103.25
502.739	95.25
502.956	100.25
503.172	71.25
503.389	91.25
503.606	106.25
503.823	107.25
504.04	91.25
504.256	93.25
504.473	87.25
504.69	80.25
504.907	100.25
505.123	96.25
505.34	86.25
505.557	86.25
505.773	100.25
505.99	101.25
506.207	93.25
506.423	104.25
506.64	81.25
506.856	94.25
507.073	106.25
507.289	102.25
507.506	90.25
507.722	116.25
507.939	111.25
508.155	102.25
508.372	86.25
508.588	90.25
508.805	99.25
509.021	94.25
509.238	110.25
509.454	95.25
509.67	105.25
509.887	109.25
510.103	124.25
510.319	218.25
510.536	736.25
510.752	2307.25
510.968	633.25
511.184	164.25
511.401	131.25
511.617	106.25
511.833	101.25
512.049	86.25
512.265	90.25
512.481	86.25
512.698	85.25
512.914	102.25
513.13	81.25
513.346	87.25
513.562	105.25
513.778	101.25
513.994	95.25
514.21	94.25
