Data from Uncirc_1986_H10_HRD10591_00083.txt Node
Date: Wed Jan 03 12:14:43 EST 2024
User: Yrep
Spectrometer: HR+D1059
Trigger mode: 1
Integration Time (sec): 1.000000E-1
Scans to average: 1
Electric dark correction enabled: true
Nonlinearity correction enabled: false
Boxcar width: 0
XAxis mode: Wavelengths
Number of Pixels in Spectrum: 2048
>>>>>Begin Spectral Data<<<<<
223.165	-12.19
223.4	-12.19
223.635	-12.19
223.869	-7.19
224.104	-30.19
224.338	-19.19
224.573	-8.19
224.808	-12.19
225.042	-2.19
225.277	-6.19
225.511	5.81
225.746	5.81
225.98	-2.19
226.215	0.81
226.449	5.81
226.683	19.81
226.918	34.81
227.152	26.81
227.387	37.81
227.621	43.81
227.856	36.81
228.09	60.81
228.324	45.81
228.559	86.81
228.793	51.81
229.027	61.81
229.262	67.81
229.496	62.81
229.73	71.81
229.964	88.81
230.199	68.81
230.433	71.81
230.667	74.81
230.901	85.81
231.136	81.81
231.37	76.81
231.604	75.81
231.838	72.81
232.072	72.81
232.306	71.81
232.541	88.81
232.775	96.81
233.009	86.81
233.243	85.81
233.477	68.81
233.711	74.81
233.945	79.81
234.179	82.81
234.413	71.81
234.647	83.81
234.881	91.81
235.115	69.81
235.349	72.81
235.583	75.81
235.817	64.81
236.051	73.81
236.285	80.81
236.519	88.81
236.753	82.81
236.987	71.81
237.221	85.81
237.455	74.81
237.689	83.81
237.922	65.81
238.156	74.81
238.39	70.81
238.624	79.81
238.858	76.81
239.091	76.81
239.325	72.81
239.559	76.81
239.793	80.81
240.027	83.81
240.26	71.81
240.494	85.81
240.728	85.81
240.961	80.81
241.195	78.81
241.429	69.81
241.662	76.81
241.896	82.81
242.13	76.81
242.363	87.81
242.597	85.81
242.83	86.81
243.064	86.81
243.298	64.81
243.531	89.81
243.765	92.81
243.998	89.81
244.232	61.81
244.465	83.81
244.699	77.81
244.932	72.81
245.166	77.81
245.399	90.81
245.633	81.81
245.866	71.81
246.099	74.81
246.333	90.81
246.566	88.81
246.8	74.81
247.033	63.81
247.266	72.81
247.5	73.81
247.733	87.81
247.966	85.81
248.2	90.81
248.433	79.81
248.666	71.81
248.899	79.81
249.133	105.81
249.366	94.81
249.599	99.81
249.832	72.81
250.066	80.81
250.299	83.81
250.532	86.81
250.765	98.81
250.998	84.81
251.231	102.81
251.465	85.81
251.698	83.81
251.931	84.81
252.164	85.81
252.397	79.81
252.63	80.81
252.863	73.81
253.096	79.81
253.329	103.81
253.562	89.81
253.795	87.81
254.028	76.81
254.261	87.81
254.494	95.81
254.727	72.81
254.96	98.81
255.193	83.81
255.426	78.81
255.659	61.81
255.892	81.81
256.124	88.81
256.357	71.81
256.59	79.81
256.823	83.81
257.056	79.81
257.289	81.81
257.521	83.81
257.754	80.81
257.987	83.81
258.22	90.81
258.452	77.81
258.685	92.81
258.918	82.81
259.151	89.81
259.383	83.81
259.616	89.81
259.849	66.81
260.081	85.81
260.314	94.81
260.547	93.81
260.779	83.81
261.012	95.81
261.244	68.81
261.477	97.81
261.71	87.81
261.942	112.81
262.175	118.81
262.407	89.81
262.64	83.81
262.872	89.81
263.105	84.81
263.337	88.81
263.57	87.81
263.802	87.81
264.035	91.81
264.267	90.81
264.499	89.81
264.732	93.81
264.964	79.81
265.197	67.81
265.429	73.81
265.661	91.81
265.894	75.81
266.126	79.81
266.358	80.81
266.591	83.81
266.823	90.81
267.055	90.81
267.287	91.81
267.52	76.81
267.752	88.81
267.984	96.81
268.216	89.81
268.448	95.81
268.681	87.81
268.913	95.81
269.145	80.81
269.377	83.81
269.609	95.81
269.841	85.81
270.073	87.81
270.306	84.81
270.538	79.81
270.77	89.81
271.002	85.81
271.234	90.81
271.466	85.81
271.698	102.81
271.93	75.81
272.162	91.81
272.394	83.81
272.626	78.81
272.858	81.81
273.09	81.81
273.322	81.81
273.553	74.81
273.785	99.81
274.017	84.81
274.249	87.81
274.481	94.81
274.713	81.81
274.945	86.81
275.176	91.81
275.408	91.81
275.64	92.81
275.872	93.81
276.104	91.81
276.335	91.81
276.567	91.81
276.799	121.81
277.031	111.81
277.262	85.81
277.494	90.81
277.726	95.81
277.957	79.81
278.189	73.81
278.421	84.81
278.652	86.81
278.884	93.81
279.115	84.81
279.347	91.81
279.579	76.81
279.81	79.81
280.042	84.81
280.273	95.81
280.505	90.81
280.736	79.81
280.968	88.81
281.199	100.81
281.431	83.81
281.662	94.81
281.894	95.81
282.125	98.81
282.356	114.81
282.588	121.81
282.819	89.81
283.051	89.81
283.282	90.81
283.513	103.81
283.745	85.81
283.976	85.81
284.207	80.81
284.439	94.81
284.67	84.81
284.901	81.81
285.132	89.81
285.364	84.81
285.595	108.81
285.826	88.81
286.057	95.81
286.288	91.81
286.52	90.81
286.751	88.81
286.982	103.81
287.213	80.81
287.444	83.81
287.675	96.81
287.906	85.81
288.138	81.81
288.369	92.81
288.6	93.81
288.831	97.81
289.062	88.81
289.293	95.81
289.524	87.81
289.755	90.81
289.986	89.81
290.217	104.81
290.448	89.81
290.679	80.81
290.91	88.81
291.141	80.81
291.371	102.81
291.602	87.81
291.833	96.81
292.064	92.81
292.295	75.81
292.526	87.81
292.757	93.81
292.987	84.81
293.218	98.81
293.449	74.81
293.68	79.81
293.91	87.81
294.141	108.81
294.372	84.81
294.603	91.81
294.833	96.81
295.064	75.81
295.295	95.81
295.525	80.81
295.756	80.81
295.987	104.81
296.217	136.81
296.448	117.81
296.679	98.81
296.909	95.81
297.14	93.81
297.37	109.81
297.601	92.81
297.831	86.81
298.062	84.81
298.292	84.81
298.523	91.81
298.753	90.81
298.984	74.81
299.214	90.81
299.445	106.81
299.675	99.81
299.905	94.81
300.136	85.81
300.366	85.81
300.597	78.81
300.827	84.81
301.057	113.81
301.288	109.81
301.518	102.81
301.748	78.81
301.979	106.81
302.209	97.81
302.439	85.81
302.669	99.81
302.9	99.81
303.13	92.81
303.36	95.81
303.59	102.81
303.82	112.81
304.051	95.81
304.281	89.81
304.511	83.81
304.741	83.81
304.971	85.81
305.201	97.81
305.431	97.81
305.661	82.81
305.891	100.81
306.121	84.81
306.352	107.81
306.582	109.81
306.812	95.81
307.042	83.81
307.272	94.81
307.502	100.81
307.731	95.81
307.961	100.81
308.191	105.81
308.421	94.81
308.651	73.81
308.881	72.81
309.111	79.81
309.341	97.81
309.571	93.81
309.8	95.81
310.03	98.81
310.26	93.81
310.49	101.81
310.72	92.81
310.949	92.81
311.179	99.81
311.409	100.81
311.639	99.81
311.868	99.81
312.098	84.81
312.328	104.81
312.557	109.81
312.787	112.81
313.017	95.81
313.246	93.81
313.476	100.81
313.706	100.81
313.935	115.81
314.165	101.81
314.394	92.81
314.624	90.81
314.853	125.81
315.083	93.81
315.312	81.81
315.542	88.81
315.771	99.81
316.001	97.81
316.23	103.81
316.46	95.81
316.689	79.81
316.919	76.81
317.148	90.81
317.377	83.81
317.607	109.81
317.836	111.81
318.065	91.81
318.295	88.81
318.524	101.81
318.753	87.81
318.983	95.81
319.212	99.81
319.441	96.81
319.67	97.81
319.9	89.81
320.129	82.81
320.358	100.81
320.587	81.81
320.816	95.81
321.046	96.81
321.275	103.81
321.504	93.81
321.733	84.81
321.962	93.81
322.191	93.81
322.42	99.81
322.649	108.81
322.878	95.81
323.108	108.81
323.337	117.81
323.566	113.81
323.795	151.81
324.024	179.81
324.253	329.81
324.482	680.81
324.71	1444.81
324.939	1855.81
325.168	698.81
325.397	209.81
325.626	149.81
325.855	121.81
326.084	148.81
326.313	122.81
326.542	131.81
326.77	197.81
326.999	404.81
327.228	792.81
327.457	1454.81
327.686	1149.81
327.914	328.81
328.143	181.81
328.372	135.81
328.6	127.81
328.829	106.81
329.058	134.81
329.287	112.81
329.515	105.81
329.744	106.81
329.972	99.81
330.201	114.81
330.43	113.81
330.658	128.81
330.887	121.81
331.115	109.81
331.344	104.81
331.572	90.81
331.801	106.81
332.03	104.81
332.258	103.81
332.486	83.81
332.715	102.81
332.943	98.81
333.172	84.81
333.4	88.81
333.629	106.81
333.857	120.81
334.085	108.81
334.314	103.81
334.542	101.81
334.771	115.81
334.999	98.81
335.227	87.81
335.455	90.81
335.684	94.81
335.912	96.81
336.14	108.81
336.369	109.81
336.597	108.81
336.825	84.81
337.053	102.81
337.281	101.81
337.51	93.81
337.738	89.81
337.966	79.81
338.194	86.81
338.422	74.81
338.65	88.81
338.878	98.81
339.106	95.81
339.334	88.81
339.562	91.81
339.79	105.81
340.018	78.81
340.246	99.81
340.474	101.81
340.702	95.81
340.93	85.81
341.158	99.81
341.386	89.81
341.614	105.81
341.842	99.81
342.07	98.81
342.298	95.81
342.526	96.81
342.754	79.81
342.981	88.81
343.209	89.81
343.437	96.81
343.665	88.81
343.893	97.81
344.12	96.81
344.348	98.81
344.576	99.81
344.804	79.81
345.031	95.81
345.259	91.81
345.487	89.81
345.714	99.81
345.942	97.81
346.17	97.81
346.397	96.81
346.625	100.81
346.853	84.81
347.08	75.81
347.308	102.81
347.535	101.81
347.763	105.81
347.99	102.81
348.218	87.81
348.445	103.81
348.673	96.81
348.9	94.81
349.128	92.81
349.355	100.81
349.583	97.81
349.81	89.81
350.037	99.81
350.265	107.81
350.492	94.81
350.72	86.81
350.947	98.81
351.174	102.81
351.402	106.81
351.629	100.81
351.856	117.81
352.083	104.81
352.311	95.81
352.538	106.81
352.765	106.81
352.992	119.81
353.22	106.81
353.447	108.81
353.674	109.81
353.901	101.81
354.128	96.81
354.355	100.81
354.583	87.81
354.81	102.81
355.037	90.81
355.264	101.81
355.491	97.81
355.718	101.81
355.945	101.81
356.172	90.81
356.399	101.81
356.626	102.81
356.853	88.81
357.08	95.81
357.307	69.81
357.534	102.81
357.761	100.81
357.988	106.81
358.215	96.81
358.441	106.81
358.668	90.81
358.895	76.81
359.122	89.81
359.349	79.81
359.576	91.81
359.802	101.81
360.029	112.81
360.256	97.81
360.483	101.81
360.709	98.81
360.936	85.81
361.163	95.81
361.39	92.81
361.616	104.81
361.843	96.81
362.07	87.81
362.296	96.81
362.523	91.81
362.749	99.81
362.976	86.81
363.203	82.81
363.429	104.81
363.656	95.81
363.882	92.81
364.109	100.81
364.335	90.81
364.562	88.81
364.788	80.81
365.015	75.81
365.241	85.81
365.468	91.81
365.694	106.81
365.92	90.81
366.147	91.81
366.373	88.81
366.599	90.81
366.826	81.81
367.052	79.81
367.278	91.81
367.505	89.81
367.731	89.81
367.957	97.81
368.184	93.81
368.41	88.81
368.636	104.81
368.862	117.81
369.089	101.81
369.315	73.81
369.541	89.81
369.767	96.81
369.993	86.81
370.219	97.81
370.445	100.81
370.672	98.81
370.898	85.81
371.124	100.81
371.35	83.81
371.576	101.81
371.802	100.81
372.028	89.81
372.254	103.81
372.48	104.81
372.706	86.81
372.932	87.81
373.158	87.81
373.384	93.81
373.61	97.81
373.835	100.81
374.061	87.81
374.287	96.81
374.513	98.81
374.739	88.81
374.965	85.81
375.191	95.81
375.416	82.81
375.642	98.81
375.868	95.81
376.094	93.81
376.319	84.81
376.545	104.81
376.771	83.81
376.997	103.81
377.222	85.81
377.448	90.81
377.674	99.81
377.899	101.81
378.125	88.81
378.35	99.81
378.576	92.81
378.802	86.81
379.027	87.81
379.253	88.81
379.478	107.81
379.704	103.81
379.929	82.81
380.155	104.81
380.38	90.81
380.606	84.81
380.831	84.81
381.057	99.81
381.282	100.81
381.507	99.81
381.733	115.81
381.958	92.81
382.184	92.81
382.409	102.81
382.634	100.81
382.86	99.81
383.085	96.81
383.31	103.81
383.535	92.81
383.761	100.81
383.986	99.81
384.211	92.81
384.436	96.81
384.662	106.81
384.887	101.81
385.112	100.81
385.337	87.81
385.562	97.81
385.787	104.81
386.013	113.81
386.238	109.81
386.463	98.81
386.688	96.81
386.913	97.81
387.138	104.81
387.363	109.81
387.588	99.81
387.813	115.81
388.038	96.81
388.263	104.81
388.488	118.81
388.713	91.81
388.938	99.81
389.163	98.81
389.387	89.81
389.612	103.81
389.837	93.81
390.062	105.81
390.287	78.81
390.512	76.81
390.736	96.81
390.961	89.81
391.186	107.81
391.411	98.81
391.636	104.81
391.86	87.81
392.085	79.81
392.31	99.81
392.534	75.81
392.759	107.81
392.984	91.81
393.208	89.81
393.433	85.81
393.658	95.81
393.882	84.81
394.107	80.81
394.331	87.81
394.556	78.81
394.78	80.81
395.005	89.81
395.229	92.81
395.454	83.81
395.678	102.81
395.903	84.81
396.127	84.81
396.352	89.81
396.576	82.81
396.801	90.81
397.025	99.81
397.249	85.81
397.474	100.81
397.698	87.81
397.922	88.81
398.147	90.81
398.371	99.81
398.595	97.81
398.82	110.81
399.044	82.81
399.268	95.81
399.492	87.81
399.717	86.81
399.941	83.81
400.165	95.81
400.389	96.81
400.613	91.81
400.837	91.81
401.062	85.81
401.286	87.81
401.51	98.81
401.734	96.81
401.958	98.81
402.182	126.81
402.406	148.81
402.63	96.81
402.854	83.81
403.078	94.81
403.302	100.81
403.526	93.81
403.75	84.81
403.974	91.81
404.198	89.81
404.422	87.81
404.645	93.81
404.869	87.81
405.093	75.81
405.317	105.81
405.541	96.81
405.765	107.81
405.988	101.81
406.212	144.81
406.436	200.81
406.66	123.81
406.883	99.81
407.107	102.81
407.331	99.81
407.555	68.81
407.778	84.81
408.002	92.81
408.226	88.81
408.449	79.81
408.673	84.81
408.896	92.81
409.12	105.81
409.344	90.81
409.567	83.81
409.791	101.81
410.014	106.81
410.238	102.81
410.461	99.81
410.685	92.81
410.908	98.81
411.132	92.81
411.355	95.81
411.578	99.81
411.802	87.81
412.025	76.81
412.249	83.81
412.472	79.81
412.695	96.81
412.919	90.81
413.142	87.81
413.365	79.81
413.589	82.81
413.812	100.81
414.035	109.81
414.258	84.81
414.482	82.81
414.705	92.81
414.928	87.81
415.151	101.81
415.374	88.81
415.597	94.81
415.821	92.81
416.044	93.81
416.267	95.81
416.49	96.81
416.713	77.81
416.936	90.81
417.159	92.81
417.382	96.81
417.605	87.81
417.828	109.81
418.051	94.81
418.274	81.81
418.497	87.81
418.72	80.81
418.943	85.81
419.166	76.81
419.389	87.81
419.611	83.81
419.834	86.81
420.057	87.81
420.28	90.81
420.503	93.81
420.726	77.81
420.948	97.81
421.171	78.81
421.394	83.81
421.617	91.81
421.839	91.81
422.062	77.81
422.285	101.81
422.507	88.81
422.73	98.81
422.953	88.81
423.175	99.81
423.398	99.81
423.621	95.81
423.843	97.81
424.066	102.81
424.288	74.81
424.511	81.81
424.733	77.81
424.956	98.81
425.178	100.81
425.401	97.81
425.623	99.81
425.846	104.81
426.068	99.81
426.291	87.81
426.513	96.81
426.735	106.81
426.958	96.81
427.18	88.81
427.402	125.81
427.625	149.81
427.847	123.81
428.069	96.81
428.292	83.81
428.514	96.81
428.736	77.81
428.958	99.81
429.181	92.81
429.403	83.81
429.625	76.81
429.847	77.81
430.069	87.81
430.292	92.81
430.514	87.81
430.736	79.81
430.958	87.81
431.18	92.81
431.402	95.81
431.624	77.81
431.846	89.81
432.068	88.81
432.29	86.81
432.512	81.81
432.734	81.81
432.956	99.81
433.178	93.81
433.4	103.81
433.622	86.81
433.844	106.81
434.066	95.81
434.287	96.81
434.509	84.81
434.731	92.81
434.953	69.81
435.175	83.81
435.397	98.81
435.618	109.81
435.84	92.81
436.062	108.81
436.284	99.81
436.505	79.81
436.727	100.81
436.949	105.81
437.17	107.81
437.392	74.81
437.614	94.81
437.835	102.81
438.057	103.81
438.278	101.81
438.5	87.81
438.721	107.81
438.943	98.81
439.165	91.81
439.386	107.81
439.608	101.81
439.829	88.81
440.05	107.81
440.272	136.81
440.493	89.81
440.715	91.81
440.936	73.81
441.158	101.81
441.379	95.81
441.6	93.81
441.822	94.81
442.043	96.81
442.264	95.81
442.486	91.81
442.707	96.81
442.928	106.81
443.149	129.81
443.371	121.81
443.592	99.81
443.813	97.81
444.034	115.81
444.255	92.81
444.476	93.81
444.698	74.81
444.919	106.81
445.14	124.81
445.361	108.81
445.582	113.81
445.803	124.81
446.024	120.81
446.245	133.81
446.466	110.81
446.687	95.81
446.908	93.81
447.129	105.81
447.35	87.81
447.571	89.81
447.792	88.81
448.013	87.81
448.234	86.81
448.455	91.81
448.675	95.81
448.896	101.81
449.117	98.81
449.338	97.81
449.559	123.81
449.779	112.81
450	97.81
450.221	86.81
450.442	92.81
450.662	103.81
450.883	116.81
451.104	101.81
451.324	91.81
451.545	89.81
451.766	79.81
451.986	90.81
452.207	73.81
452.428	83.81
452.648	85.81
452.869	113.81
453.089	106.81
453.31	111.81
453.53	107.81
453.751	100.81
453.971	98.81
454.192	112.81
454.412	97.81
454.633	81.81
454.853	73.81
455.073	75.81
455.294	103.81
455.514	111.81
455.734	90.81
455.955	96.81
456.175	89.81
456.395	93.81
456.616	80.81
456.836	89.81
457.056	81.81
457.276	90.81
457.497	72.81
457.717	86.81
457.937	83.81
458.157	89.81
458.377	99.81
458.598	93.81
458.818	130.81
459.038	142.81
459.258	95.81
459.478	88.81
459.698	76.81
459.918	80.81
460.138	103.81
460.358	85.81
460.578	95.81
460.798	92.81
461.018	81.81
461.238	95.81
461.458	76.81
461.678	84.81
461.898	85.81
462.118	89.81
462.338	88.81
462.558	94.81
462.777	79.81
462.997	89.81
463.217	85.81
463.437	94.81
463.657	80.81
463.876	87.81
464.096	101.81
464.316	99.81
464.536	79.81
464.755	88.81
464.975	108.81
465.195	140.81
465.414	140.81
465.634	104.81
465.854	96.81
466.073	79.81
466.293	87.81
466.512	84.81
466.732	87.81
466.951	79.81
467.171	99.81
467.391	85.81
467.61	107.81
467.829	108.81
468.049	101.81
468.268	90.81
468.488	63.81
468.707	72.81
468.927	85.81
469.146	98.81
469.365	89.81
469.585	83.81
469.804	73.81
470.023	89.81
470.243	92.81
470.462	96.81
470.681	104.81
470.901	74.81
471.12	80.81
471.339	87.81
471.558	102.81
471.777	96.81
471.997	84.81
472.216	92.81
472.435	102.81
472.654	71.81
472.873	86.81
473.092	79.81
473.311	98.81
473.53	79.81
473.749	84.81
473.968	84.81
474.187	88.81
474.406	76.81
474.625	68.81
474.844	95.81
475.063	88.81
475.282	79.81
475.501	95.81
475.72	83.81
475.939	84.81
476.158	74.81
476.377	89.81
476.596	84.81
476.814	73.81
477.033	87.81
477.252	79.81
477.471	95.81
477.69	94.81
477.908	82.81
478.127	96.81
478.346	93.81
478.564	84.81
478.783	92.81
479.002	103.81
479.22	100.81
479.439	116.81
479.658	93.81
479.876	95.81
480.095	89.81
480.313	85.81
480.532	81.81
480.751	95.81
480.969	87.81
481.188	130.81
481.406	108.81
481.624	90.81
481.843	81.81
482.061	95.81
482.28	91.81
482.498	95.81
482.717	100.81
482.935	91.81
483.153	82.81
483.372	82.81
483.59	79.81
483.808	88.81
484.027	96.81
484.245	99.81
484.463	97.81
484.681	111.81
484.9	91.81
485.118	108.81
485.336	101.81
485.554	101.81
485.772	92.81
485.99	109.81
486.209	105.81
486.427	101.81
486.645	104.81
486.863	109.81
487.081	109.81
487.299	108.81
487.517	93.81
487.735	89.81
487.953	85.81
488.171	89.81
488.389	92.81
488.607	101.81
488.825	92.81
489.043	97.81
489.261	88.81
489.479	78.81
489.696	92.81
489.914	105.81
490.132	93.81
490.35	100.81
490.568	89.81
490.786	94.81
491.003	89.81
491.221	88.81
491.439	99.81
491.657	98.81
491.874	97.81
492.092	85.81
492.31	96.81
492.527	93.81
492.745	97.81
492.963	88.81
493.18	81.81
493.398	82.81
493.615	94.81
493.833	93.81
494.05	88.81
494.268	89.81
494.485	84.81
494.703	86.81
494.92	92.81
495.138	92.81
495.355	93.81
495.573	97.81
495.79	87.81
496.008	91.81
496.225	95.81
496.442	105.81
496.66	100.81
496.877	79.81
497.094	88.81
497.312	82.81
497.529	90.81
497.746	96.81
497.963	94.81
498.181	95.81
498.398	87.81
498.615	98.81
498.832	95.81
499.049	85.81
499.267	95.81
499.484	92.81
499.701	97.81
499.918	96.81
500.135	89.81
500.352	114.81
500.569	100.81
500.786	110.81
501.003	85.81
501.22	75.81
501.437	89.81
501.654	93.81
501.871	97.81
502.088	99.81
502.305	84.81
502.522	103.81
502.739	105.81
502.956	94.81
503.172	94.81
503.389	97.81
503.606	90.81
503.823	94.81
504.04	98.81
504.256	97.81
504.473	81.81
504.69	88.81
504.907	88.81
505.123	104.81
505.34	68.81
505.557	89.81
505.773	87.81
505.99	93.81
506.207	89.81
506.423	96.81
506.64	91.81
506.856	93.81
507.073	68.81
507.289	88.81
507.506	91.81
507.722	101.81
507.939	116.81
508.155	88.81
508.372	74.81
508.588	94.81
508.805	90.81
509.021	89.81
509.238	104.81
509.454	91.81
509.67	100.81
509.887	110.81
510.103	137.81
510.319	201.81
510.536	654.81
510.752	1984.81
510.968	557.81
511.184	139.81
511.401	109.81
511.617	90.81
511.833	101.81
512.049	87.81
512.265	85.81
512.481	103.81
512.698	101.81
512.914	89.81
513.13	102.81
513.346	81.81
513.562	90.81
513.778	92.81
513.994	92.81
514.21	98.81
514.426	119.81
514.642	135.81
514.858	116.81
515.074	151.81
515.29	377.81
515.506	1146.81
