Data from Uncirc_1986_H10_HRD10591_00012.txt Node
Date: Wed Jan 03 12:14:28 EST 2024
User: Yrep
Spectrometer: HR+D1059
Trigger mode: 1
Integration Time (sec): 1.000000E-1
Scans to average: 1
Electric dark correction enabled: true
Nonlinearity correction enabled: false
Boxcar width: 0
XAxis mode: Wavelengths
Number of Pixels in Spectrum: 2048
>>>>>Begin Spectral Data<<<<<
223.165	-11.06
223.4	-11.06
223.635	-11.06
223.869	-27.06
224.104	-34.06
224.338	-13.06
224.573	-9.06
224.808	-9.06
225.042	-7.06
225.277	-7.06
225.511	-6.06
225.746	-0.06
225.98	5.94
226.215	6.94
226.449	22.94
226.683	22.94
226.918	33.94
227.152	30.94
227.387	44.94
227.621	48.94
227.856	41.94
228.09	41.94
228.324	41.94
228.559	54.94
228.793	46.94
229.027	50.94
229.262	57.94
229.496	66.94
229.73	68.94
229.964	73.94
230.199	82.94
230.433	89.94
230.667	62.94
230.901	94.94
231.136	83.94
231.37	68.94
231.604	78.94
231.838	86.94
232.072	64.94
232.306	73.94
232.541	78.94
232.775	85.94
233.009	80.94
233.243	84.94
233.477	79.94
233.711	79.94
233.945	72.94
234.179	68.94
234.413	78.94
234.647	70.94
234.881	85.94
235.115	83.94
235.349	87.94
235.583	79.94
235.817	90.94
236.051	84.94
236.285	77.94
236.519	93.94
236.753	67.94
236.987	83.94
237.221	84.94
237.455	88.94
237.689	99.94
237.922	78.94
238.156	65.94
238.39	82.94
238.624	65.94
238.858	80.94
239.091	71.94
239.325	70.94
239.559	81.94
239.793	69.94
240.027	74.94
240.26	83.94
240.494	78.94
240.728	71.94
240.961	70.94
241.195	68.94
241.429	65.94
241.662	72.94
241.896	78.94
242.13	54.94
242.363	82.94
242.597	80.94
242.83	80.94
243.064	63.94
243.298	82.94
243.531	80.94
243.765	78.94
243.998	81.94
244.232	89.94
244.465	73.94
244.699	83.94
244.932	77.94
245.166	73.94
245.399	74.94
245.633	69.94
245.866	75.94
246.099	79.94
246.333	87.94
246.566	67.94
246.8	74.94
247.033	81.94
247.266	80.94
247.5	78.94
247.733	74.94
247.966	75.94
248.2	66.94
248.433	78.94
248.666	65.94
248.899	68.94
249.133	84.94
249.366	88.94
249.599	73.94
249.832	90.94
250.066	72.94
250.299	69.94
250.532	72.94
250.765	80.94
250.998	81.94
251.231	75.94
251.465	89.94
251.698	74.94
251.931	71.94
252.164	76.94
252.397	72.94
252.63	79.94
252.863	79.94
253.096	71.94
253.329	98.94
253.562	80.94
253.795	73.94
254.028	68.94
254.261	75.94
254.494	58.94
254.727	83.94
254.96	84.94
255.193	67.94
255.426	73.94
255.659	79.94
255.892	84.94
256.124	67.94
256.357	89.94
256.59	89.94
256.823	73.94
257.056	83.94
257.289	84.94
257.521	70.94
257.754	80.94
257.987	64.94
258.22	90.94
258.452	70.94
258.685	65.94
258.918	77.94
259.151	72.94
259.383	81.94
259.616	96.94
259.849	88.94
260.081	69.94
260.314	81.94
260.547	72.94
260.779	76.94
261.012	87.94
261.244	71.94
261.477	88.94
261.71	72.94
261.942	103.94
262.175	87.94
262.407	94.94
262.64	78.94
262.872	76.94
263.105	79.94
263.337	78.94
263.57	73.94
263.802	85.94
264.035	80.94
264.267	91.94
264.499	66.94
264.732	78.94
264.964	76.94
265.197	89.94
265.429	73.94
265.661	66.94
265.894	93.94
266.126	89.94
266.358	83.94
266.591	89.94
266.823	84.94
267.055	78.94
267.287	81.94
267.52	84.94
267.752	68.94
267.984	84.94
268.216	80.94
268.448	74.94
268.681	71.94
268.913	89.94
269.145	82.94
269.377	78.94
269.609	84.94
269.841	76.94
270.073	71.94
270.306	80.94
270.538	94.94
270.77	82.94
271.002	71.94
271.234	79.94
271.466	79.94
271.698	79.94
271.93	91.94
272.162	65.94
272.394	66.94
272.626	81.94
272.858	78.94
273.09	96.94
273.322	79.94
273.553	77.94
273.785	99.94
274.017	72.94
274.249	80.94
274.481	90.94
274.713	81.94
274.945	81.94
275.176	88.94
275.408	71.94
275.64	90.94
275.872	80.94
276.104	82.94
276.335	80.94
276.567	91.94
276.799	107.94
277.031	97.94
277.262	88.94
277.494	89.94
277.726	75.94
277.957	83.94
278.189	95.94
278.421	76.94
278.652	84.94
278.884	89.94
279.115	92.94
279.347	97.94
279.579	78.94
279.81	74.94
280.042	84.94
280.273	83.94
280.505	89.94
280.736	82.94
280.968	98.94
281.199	91.94
281.431	90.94
281.662	100.94
281.894	101.94
282.125	89.94
282.356	106.94
282.588	101.94
282.819	117.94
283.051	95.94
283.282	86.94
283.513	88.94
283.745	81.94
283.976	89.94
284.207	86.94
284.439	76.94
284.67	79.94
284.901	87.94
285.132	78.94
285.364	78.94
285.595	93.94
285.826	88.94
286.057	84.94
286.288	84.94
286.52	69.94
286.751	76.94
286.982	91.94
287.213	82.94
287.444	92.94
287.675	86.94
287.906	68.94
288.138	86.94
288.369	73.94
288.6	76.94
288.831	73.94
289.062	94.94
289.293	98.94
289.524	90.94
289.755	98.94
289.986	88.94
290.217	73.94
290.448	86.94
290.679	76.94
290.91	93.94
291.141	76.94
291.371	93.94
291.602	78.94
291.833	80.94
292.064	84.94
292.295	76.94
292.526	93.94
292.757	92.94
292.987	87.94
293.218	85.94
293.449	83.94
293.68	94.94
293.91	88.94
294.141	89.94
294.372	92.94
294.603	82.94
294.833	84.94
295.064	100.94
295.295	82.94
295.525	91.94
295.756	106.94
295.987	103.94
296.217	121.94
296.448	116.94
296.679	90.94
296.909	87.94
297.14	88.94
297.37	106.94
297.601	74.94
297.831	83.94
298.062	87.94
298.292	95.94
298.523	91.94
298.753	85.94
298.984	98.94
299.214	94.94
299.445	77.94
299.675	83.94
299.905	86.94
300.136	77.94
300.366	77.94
300.597	88.94
300.827	95.94
301.057	97.94
301.288	102.94
301.518	88.94
301.748	92.94
301.979	100.94
302.209	93.94
302.439	98.94
302.669	85.94
302.9	85.94
303.13	108.94
303.36	102.94
303.59	87.94
303.82	99.94
304.051	103.94
304.281	79.94
304.511	89.94
304.741	91.94
304.971	70.94
305.201	88.94
305.431	86.94
305.661	83.94
305.891	85.94
306.121	95.94
306.352	85.94
306.582	92.94
306.812	92.94
307.042	82.94
307.272	82.94
307.502	84.94
307.731	84.94
307.961	79.94
308.191	87.94
308.421	83.94
308.651	87.94
308.881	88.94
309.111	98.94
309.341	89.94
309.571	80.94
309.8	97.94
310.03	87.94
310.26	95.94
310.49	82.94
310.72	87.94
310.949	88.94
311.179	89.94
311.409	99.94
311.639	89.94
311.868	86.94
312.098	82.94
312.328	95.94
312.557	94.94
312.787	98.94
313.017	97.94
313.246	98.94
313.476	86.94
313.706	99.94
313.935	90.94
314.165	92.94
314.394	93.94
314.624	89.94
314.853	83.94
315.083	74.94
315.312	81.94
315.542	90.94
315.771	92.94
316.001	85.94
316.23	85.94
316.46	95.94
316.689	80.94
316.919	85.94
317.148	86.94
317.377	77.94
317.607	97.94
317.836	103.94
318.065	86.94
318.295	81.94
318.524	101.94
318.753	89.94
318.983	92.94
319.212	95.94
319.441	86.94
319.67	96.94
319.9	77.94
320.129	98.94
320.358	115.94
320.587	99.94
320.816	84.94
321.046	88.94
321.275	86.94
321.504	97.94
321.733	86.94
321.962	90.94
322.191	85.94
322.42	103.94
322.649	110.94
322.878	98.94
323.108	88.94
323.337	117.94
323.566	128.94
323.795	132.94
324.024	171.94
324.253	332.94
324.482	668.94
324.71	1362.94
324.939	1795.94
325.168	651.94
325.397	216.94
325.626	142.94
325.855	120.94
326.084	110.94
326.313	122.94
326.542	142.94
326.77	190.94
326.999	390.94
327.228	790.94
327.457	1415.94
327.686	1144.94
327.914	318.94
328.143	170.94
328.372	128.94
328.6	105.94
328.829	119.94
329.058	113.94
329.287	119.94
329.515	98.94
329.744	89.94
329.972	89.94
330.201	87.94
330.43	105.94
330.658	109.94
330.887	135.94
331.115	100.94
331.344	103.94
331.572	89.94
331.801	87.94
332.03	98.94
332.258	90.94
332.486	93.94
332.715	88.94
332.943	88.94
333.172	87.94
333.4	79.94
333.629	103.94
333.857	105.94
334.085	90.94
334.314	98.94
334.542	90.94
334.771	72.94
334.999	89.94
335.227	112.94
335.455	89.94
335.684	91.94
335.912	103.94
336.14	97.94
336.369	106.94
336.597	107.94
336.825	97.94
337.053	87.94
337.281	84.94
337.51	92.94
337.738	92.94
337.966	94.94
338.194	95.94
338.422	93.94
338.65	90.94
338.878	101.94
339.106	91.94
339.334	95.94
339.562	83.94
339.79	85.94
340.018	83.94
340.246	88.94
340.474	72.94
340.702	90.94
340.93	99.94
341.158	87.94
341.386	99.94
341.614	90.94
341.842	103.94
342.07	85.94
342.298	90.94
342.526	81.94
342.754	76.94
342.981	85.94
343.209	89.94
343.437	106.94
343.665	79.94
343.893	79.94
344.12	94.94
344.348	96.94
344.576	70.94
344.804	86.94
345.031	97.94
345.259	85.94
345.487	101.94
345.714	87.94
345.942	84.94
346.17	84.94
346.397	82.94
346.625	93.94
346.853	92.94
347.08	88.94
347.308	87.94
347.535	99.94
347.763	103.94
347.99	91.94
348.218	93.94
348.445	100.94
348.673	103.94
348.9	108.94
349.128	106.94
349.355	99.94
349.583	86.94
349.81	78.94
350.037	88.94
350.265	102.94
350.492	85.94
350.72	103.94
350.947	103.94
351.174	81.94
351.402	104.94
351.629	114.94
351.856	95.94
352.083	93.94
352.311	96.94
352.538	97.94
352.765	103.94
352.992	105.94
353.22	116.94
353.447	103.94
353.674	82.94
353.901	109.94
354.128	96.94
354.355	98.94
354.583	96.94
354.81	85.94
355.037	85.94
355.264	102.94
355.491	93.94
355.718	96.94
355.945	94.94
356.172	70.94
356.399	89.94
356.626	79.94
356.853	88.94
357.08	87.94
357.307	90.94
357.534	102.94
357.761	87.94
357.988	112.94
358.215	103.94
358.441	77.94
358.668	97.94
358.895	86.94
359.122	93.94
359.349	88.94
359.576	98.94
359.802	98.94
360.029	96.94
360.256	95.94
360.483	85.94
360.709	79.94
360.936	89.94
361.163	91.94
361.39	97.94
361.616	91.94
361.843	84.94
362.07	93.94
362.296	74.94
362.523	83.94
362.749	82.94
362.976	89.94
363.203	97.94
363.429	90.94
363.656	89.94
363.882	91.94
364.109	88.94
364.335	76.94
364.562	82.94
364.788	81.94
365.015	81.94
365.241	89.94
365.468	104.94
365.694	97.94
365.92	90.94
366.147	77.94
366.373	80.94
366.599	88.94
366.826	94.94
367.052	83.94
367.278	81.94
367.505	92.94
367.731	98.94
367.957	101.94
368.184	81.94
368.41	93.94
368.636	59.94
368.862	114.94
369.089	97.94
369.315	89.94
369.541	98.94
369.767	103.94
369.993	94.94
370.219	89.94
370.445	93.94
370.672	90.94
370.898	93.94
371.124	80.94
371.35	101.94
371.576	75.94
371.802	88.94
372.028	84.94
372.254	94.94
372.48	77.94
372.706	79.94
372.932	85.94
373.158	82.94
373.384	94.94
373.61	98.94
373.835	102.94
374.061	89.94
374.287	100.94
374.513	94.94
374.739	81.94
374.965	78.94
375.191	97.94
375.416	80.94
375.642	94.94
375.868	94.94
376.094	95.94
376.319	92.94
376.545	98.94
376.771	73.94
376.997	92.94
377.222	85.94
377.448	94.94
377.674	97.94
377.899	94.94
378.125	84.94
378.35	100.94
378.576	89.94
378.802	87.94
379.027	86.94
379.253	89.94
379.478	86.94
379.704	77.94
379.929	83.94
380.155	84.94
380.38	92.94
380.606	80.94
380.831	77.94
381.057	96.94
381.282	94.94
381.507	88.94
381.733	92.94
381.958	100.94
382.184	101.94
382.409	82.94
382.634	80.94
382.86	106.94
383.085	93.94
383.31	98.94
383.535	96.94
383.761	92.94
383.986	103.94
384.211	85.94
384.436	90.94
384.662	99.94
384.887	94.94
385.112	108.94
385.337	109.94
385.562	103.94
385.787	97.94
386.013	104.94
386.238	111.94
386.463	85.94
386.688	102.94
386.913	106.94
387.138	104.94
387.363	94.94
387.588	102.94
387.813	118.94
388.038	110.94
388.263	114.94
388.488	106.94
388.713	100.94
388.938	97.94
389.163	95.94
389.387	89.94
389.612	88.94
389.837	91.94
390.062	88.94
390.287	82.94
390.512	83.94
390.736	84.94
390.961	87.94
391.186	89.94
391.411	111.94
391.636	86.94
391.86	80.94
392.085	81.94
392.31	89.94
392.534	84.94
392.759	86.94
392.984	102.94
393.208	80.94
393.433	86.94
393.658	105.94
393.882	85.94
394.107	88.94
394.331	91.94
394.556	86.94
394.78	91.94
395.005	91.94
395.229	95.94
395.454	88.94
395.678	76.94
395.903	72.94
396.127	84.94
396.352	90.94
396.576	79.94
396.801	101.94
397.025	90.94
397.249	90.94
397.474	96.94
397.698	88.94
397.922	78.94
398.147	79.94
398.371	83.94
398.595	85.94
398.82	79.94
399.044	105.94
399.268	90.94
399.492	84.94
399.717	101.94
399.941	78.94
400.165	89.94
400.389	89.94
400.613	85.94
400.837	78.94
401.062	93.94
401.286	110.94
401.51	92.94
401.734	87.94
401.958	83.94
402.182	116.94
402.406	156.94
402.63	101.94
402.854	102.94
403.078	97.94
403.302	83.94
403.526	90.94
403.75	94.94
403.974	75.94
404.198	78.94
404.422	83.94
404.645	87.94
404.869	101.94
405.093	100.94
405.317	95.94
405.541	90.94
405.765	92.94
405.988	108.94
406.212	145.94
406.436	167.94
406.66	114.94
406.883	106.94
407.107	89.94
407.331	92.94
407.555	105.94
407.778	88.94
408.002	92.94
408.226	73.94
408.449	83.94
408.673	94.94
408.896	84.94
409.12	92.94
409.344	81.94
409.567	95.94
409.791	94.94
410.014	98.94
410.238	94.94
410.461	98.94
410.685	87.94
410.908	98.94
411.132	112.94
411.355	102.94
411.578	102.94
411.802	89.94
412.025	88.94
412.249	92.94
412.472	82.94
412.695	80.94
412.919	85.94
413.142	71.94
413.365	93.94
413.589	74.94
413.812	86.94
414.035	102.94
414.258	79.94
414.482	69.94
414.705	102.94
414.928	99.94
415.151	100.94
415.374	85.94
415.597	110.94
415.821	83.94
416.044	85.94
416.267	85.94
416.49	95.94
416.713	100.94
416.936	82.94
417.159	99.94
417.382	88.94
417.605	101.94
417.828	105.94
418.051	96.94
418.274	75.94
418.497	84.94
418.72	95.94
418.943	102.94
419.166	82.94
419.389	81.94
419.611	96.94
419.834	85.94
420.057	92.94
420.28	96.94
420.503	80.94
420.726	93.94
420.948	85.94
421.171	88.94
421.394	86.94
421.617	80.94
421.839	88.94
422.062	88.94
422.285	90.94
422.507	95.94
422.73	103.94
422.953	86.94
423.175	83.94
423.398	101.94
423.621	92.94
423.843	86.94
424.066	88.94
424.288	87.94
424.511	101.94
424.733	99.94
424.956	93.94
425.178	91.94
425.401	100.94
425.623	106.94
425.846	93.94
426.068	97.94
426.291	88.94
426.513	88.94
426.735	89.94
426.958	87.94
427.18	101.94
427.402	121.94
427.625	160.94
427.847	126.94
428.069	102.94
428.292	97.94
428.514	79.94
428.736	80.94
428.958	86.94
429.181	101.94
429.403	83.94
429.625	83.94
429.847	84.94
430.069	105.94
430.292	84.94
430.514	88.94
430.736	85.94
430.958	88.94
431.18	67.94
431.402	86.94
431.624	91.94
431.846	96.94
432.068	85.94
432.29	71.94
432.512	86.94
432.734	88.94
432.956	88.94
433.178	108.94
433.4	100.94
433.622	89.94
433.844	89.94
434.066	96.94
434.287	94.94
434.509	103.94
434.731	96.94
434.953	94.94
435.175	86.94
435.397	94.94
435.618	82.94
435.84	85.94
436.062	106.94
436.284	108.94
436.505	99.94
436.727	88.94
436.949	89.94
437.17	102.94
437.392	93.94
437.614	84.94
437.835	101.94
438.057	110.94
438.278	96.94
438.5	108.94
438.721	116.94
438.943	106.94
439.165	86.94
439.386	89.94
439.608	90.94
439.829	102.94
440.05	112.94
440.272	121.94
440.493	88.94
440.715	75.94
440.936	85.94
441.158	88.94
441.379	82.94
441.6	72.94
441.822	95.94
442.043	96.94
442.264	119.94
442.486	90.94
442.707	93.94
442.928	92.94
443.149	97.94
443.371	100.94
443.592	97.94
443.813	106.94
444.034	118.94
444.255	90.94
444.476	77.94
444.698	91.94
444.919	88.94
445.14	127.94
445.361	116.94
445.582	110.94
445.803	117.94
446.024	128.94
446.245	135.94
446.466	99.94
446.687	89.94
446.908	81.94
447.129	89.94
447.35	77.94
447.571	89.94
447.792	84.94
448.013	95.94
448.234	107.94
448.455	91.94
448.675	91.94
448.896	102.94
449.117	87.94
449.338	84.94
449.559	113.94
449.779	127.94
450	84.94
450.221	78.94
450.442	92.94
450.662	90.94
450.883	100.94
451.104	113.94
451.324	93.94
451.545	85.94
451.766	78.94
451.986	76.94
452.207	96.94
452.428	90.94
452.648	101.94
452.869	95.94
453.089	114.94
453.31	106.94
453.53	93.94
453.751	82.94
453.971	95.94
454.192	78.94
454.412	99.94
454.633	82.94
454.853	72.94
455.073	78.94
455.294	85.94
455.514	90.94
455.734	77.94
455.955	68.94
456.175	77.94
456.395	92.94
456.616	70.94
456.836	81.94
457.056	86.94
457.276	79.94
457.497	67.94
457.717	88.94
457.937	95.94
458.157	81.94
458.377	84.94
458.598	96.94
458.818	133.94
459.038	129.94
459.258	127.94
459.478	78.94
459.698	88.94
459.918	87.94
460.138	82.94
460.358	79.94
460.578	91.94
460.798	89.94
461.018	82.94
461.238	88.94
461.458	81.94
461.678	88.94
461.898	91.94
462.118	79.94
462.338	83.94
462.558	73.94
462.777	82.94
462.997	97.94
463.217	87.94
463.437	82.94
463.657	94.94
463.876	102.94
464.096	94.94
464.316	96.94
464.536	96.94
464.755	74.94
464.975	100.94
465.195	137.94
465.414	128.94
465.634	91.94
465.854	98.94
466.073	80.94
466.293	94.94
466.512	91.94
466.732	101.94
466.951	98.94
467.171	87.94
467.391	102.94
467.61	98.94
467.829	101.94
468.049	86.94
468.268	86.94
468.488	91.94
468.707	97.94
468.927	70.94
469.146	73.94
469.365	80.94
469.585	78.94
469.804	96.94
470.023	85.94
470.243	82.94
470.462	96.94
470.681	90.94
470.901	84.94
471.12	83.94
471.339	92.94
471.558	85.94
471.777	79.94
471.997	89.94
472.216	85.94
472.435	82.94
472.654	84.94
472.873	73.94
473.092	84.94
473.311	92.94
473.53	88.94
473.749	90.94
473.968	87.94
474.187	109.94
474.406	85.94
474.625	81.94
474.844	92.94
475.063	78.94
475.282	73.94
475.501	87.94
475.72	81.94
475.939	72.94
476.158	81.94
476.377	83.94
476.596	72.94
476.814	89.94
477.033	86.94
477.252	83.94
477.471	78.94
477.69	79.94
477.908	89.94
478.127	92.94
478.346	90.94
478.564	83.94
478.783	96.94
479.002	87.94
479.22	95.94
479.439	85.94
479.658	91.94
479.876	100.94
480.095	70.94
480.313	73.94
480.532	78.94
480.751	94.94
480.969	87.94
481.188	95.94
481.406	100.94
481.624	93.94
481.843	73.94
482.061	86.94
482.28	74.94
482.498	89.94
482.717	80.94
482.935	91.94
483.153	71.94
483.372	75.94
483.59	76.94
483.808	96.94
484.027	82.94
484.245	81.94
484.463	78.94
484.681	79.94
484.9	93.94
485.118	84.94
485.336	95.94
485.554	94.94
485.772	105.94
485.99	89.94
486.209	102.94
486.427	97.94
486.645	106.94
486.863	104.94
487.081	93.94
487.299	100.94
487.517	97.94
487.735	96.94
487.953	98.94
488.171	97.94
488.389	106.94
488.607	94.94
488.825	92.94
489.043	89.94
489.261	79.94
489.479	81.94
489.696	83.94
489.914	78.94
490.132	72.94
490.35	88.94
490.568	85.94
490.786	99.94
491.003	84.94
491.221	80.94
491.439	93.94
491.657	93.94
491.874	92.94
492.092	81.94
492.31	88.94
492.527	93.94
492.745	86.94
492.963	88.94
493.18	80.94
493.398	94.94
493.615	114.94
493.833	82.94
494.05	83.94
494.268	87.94
494.485	91.94
494.703	88.94
494.92	80.94
495.138	81.94
495.355	89.94
495.573	96.94
495.79	86.94
496.008	89.94
496.225	91.94
496.442	80.94
496.66	94.94
496.877	89.94
497.094	88.94
497.312	88.94
497.529	107.94
497.746	89.94
497.963	87.94
498.181	77.94
498.398	85.94
498.615	90.94
498.832	95.94
499.049	82.94
499.267	89.94
499.484	81.94
499.701	97.94
499.918	85.94
500.135	89.94
500.352	71.94
500.569	83.94
500.786	78.94
501.003	89.94
501.22	76.94
501.437	89.94
501.654	84.94
501.871	100.94
502.088	89.94
502.305	87.94
502.522	90.94
502.739	92.94
502.956	89.94
503.172	81.94
503.389	90.94
503.606	92.94
503.823	87.94
504.04	92.94
504.256	95.94
504.473	77.94
504.69	90.94
504.907	94.94
505.123	79.94
505.34	92.94
505.557	80.94
505.773	78.94
505.99	89.94
506.207	94.94
506.423	74.94
506.64	86.94
506.856	93.94
507.073	79.94
507.289	86.94
507.506	87.94
507.722	100.94
507.939	92.94
508.155	94.94
508.372	89.94
508.588	91.94
508.805	96.94
509.021	100.94
509.238	102.94
509.454	91.94
509.67	86.94
509.887	107.94
510.103	132.94
510.319	188.94
510.536	605.94
510.752	1850.94
510.968	530.94
511.184	143.94
511.401	105.94
511.617	93.94
511.833	98.94
512.049	100.94
512.265	96.94
512.481	91.94
512.698	91.94
512.914	87.94
513.13	84.94
513.346	94.94
513.562	77.94
513.778	93.94
513.994	100.94
514.21	90.94
514.426	110.94
514.642	111.94
514.858	104.94
515.074	136.94
515.29	353.94
515.506	1107.94
515.721	423.94
515.937	127.94
516.153	101.94
516.369	86.94
516.585	97.94
516.801	76.94
