Data from Uncirc_1986_H10_HRD10591_00043.txt Node
Date: Wed Jan 03 12:14:35 EST 2024
User: Yrep
Spectrometer: HR+D1059
Trigger mode: 1
Integration Time (sec): 1.000000E-1
Scans to average: 1
Electric dark correction enabled: true
Nonlinearity correction enabled: false
Boxcar width: 0
XAxis mode: Wavelengths
Number of Pixels in Spectrum: 2048
>>>>>Begin Spectral Data<<<<<
223.165	-17.62
223.4	-17.62
223.635	-17.62
223.869	-21.62
224.104	-19.62
224.338	-12.62
224.573	-21.62
224.808	-2.62
225.042	-5.62
225.277	-12.62
225.511	2.38
225.746	8.38
225.98	15.38
226.215	8.38
226.449	25.38
226.683	5.38
226.918	20.38
227.152	28.38
227.387	35.38
227.621	46.38
227.856	43.38
228.09	54.38
228.324	66.38
228.559	52.38
228.793	62.38
229.027	69.38
229.262	63.38
229.496	67.38
229.73	87.38
229.964	80.38
230.199	77.38
230.433	79.38
230.667	76.38
230.901	72.38
231.136	73.38
231.37	81.38
231.604	77.38
231.838	78.38
232.072	82.38
232.306	79.38
232.541	78.38
232.775	87.38
233.009	68.38
233.243	78.38
233.477	73.38
233.711	88.38
233.945	80.38
234.179	90.38
234.413	88.38
234.647	67.38
234.881	80.38
235.115	75.38
235.349	80.38
235.583	86.38
235.817	65.38
236.051	90.38
236.285	74.38
236.519	76.38
236.753	70.38
236.987	69.38
237.221	73.38
237.455	81.38
237.689	88.38
237.922	89.38
238.156	56.38
238.39	75.38
238.624	74.38
238.858	65.38
239.091	75.38
239.325	79.38
239.559	75.38
239.793	91.38
240.027	74.38
240.26	73.38
240.494	78.38
240.728	73.38
240.961	86.38
241.195	79.38
241.429	72.38
241.662	67.38
241.896	66.38
242.13	76.38
242.363	87.38
242.597	86.38
242.83	78.38
243.064	64.38
243.298	80.38
243.531	72.38
243.765	68.38
243.998	81.38
244.232	68.38
244.465	73.38
244.699	86.38
244.932	74.38
245.166	80.38
245.399	70.38
245.633	70.38
245.866	67.38
246.099	73.38
246.333	71.38
246.566	67.38
246.8	74.38
247.033	83.38
247.266	60.38
247.5	81.38
247.733	76.38
247.966	91.38
248.2	95.38
248.433	75.38
248.666	75.38
248.899	96.38
249.133	88.38
249.366	87.38
249.599	89.38
249.832	72.38
250.066	74.38
250.299	84.38
250.532	74.38
250.765	66.38
250.998	84.38
251.231	84.38
251.465	75.38
251.698	83.38
251.931	65.38
252.164	75.38
252.397	86.38
252.63	88.38
252.863	67.38
253.096	86.38
253.329	89.38
253.562	74.38
253.795	79.38
254.028	86.38
254.261	84.38
254.494	73.38
254.727	80.38
254.96	81.38
255.193	82.38
255.426	70.38
255.659	68.38
255.892	93.38
256.124	94.38
256.357	81.38
256.59	72.38
256.823	75.38
257.056	92.38
257.289	71.38
257.521	89.38
257.754	68.38
257.987	70.38
258.22	89.38
258.452	80.38
258.685	83.38
258.918	73.38
259.151	88.38
259.383	84.38
259.616	86.38
259.849	70.38
260.081	97.38
260.314	76.38
260.547	64.38
260.779	81.38
261.012	71.38
261.244	78.38
261.477	86.38
261.71	97.38
261.942	103.38
262.175	107.38
262.407	90.38
262.64	88.38
262.872	85.38
263.105	80.38
263.337	78.38
263.57	81.38
263.802	90.38
264.035	86.38
264.267	84.38
264.499	83.38
264.732	74.38
264.964	68.38
265.197	70.38
265.429	90.38
265.661	80.38
265.894	72.38
266.126	75.38
266.358	91.38
266.591	83.38
266.823	84.38
267.055	75.38
267.287	80.38
267.52	81.38
267.752	84.38
267.984	82.38
268.216	69.38
268.448	69.38
268.681	99.38
268.913	94.38
269.145	86.38
269.377	78.38
269.609	82.38
269.841	93.38
270.073	87.38
270.306	69.38
270.538	82.38
270.77	91.38
271.002	86.38
271.234	99.38
271.466	84.38
271.698	82.38
271.93	71.38
272.162	80.38
272.394	95.38
272.626	81.38
272.858	86.38
273.09	91.38
273.322	76.38
273.553	92.38
273.785	94.38
274.017	95.38
274.249	78.38
274.481	87.38
274.713	92.38
274.945	82.38
275.176	83.38
275.408	74.38
275.64	102.38
275.872	82.38
276.104	96.38
276.335	87.38
276.567	93.38
276.799	111.38
277.031	75.38
277.262	82.38
277.494	90.38
277.726	68.38
277.957	85.38
278.189	87.38
278.421	82.38
278.652	80.38
278.884	80.38
279.115	97.38
279.347	78.38
279.579	74.38
279.81	79.38
280.042	86.38
280.273	82.38
280.505	92.38
280.736	83.38
280.968	85.38
281.199	83.38
281.431	90.38
281.662	75.38
281.894	88.38
282.125	102.38
282.356	104.38
282.588	134.38
282.819	111.38
283.051	94.38
283.282	86.38
283.513	76.38
283.745	82.38
283.976	73.38
284.207	79.38
284.439	83.38
284.67	107.38
284.901	90.38
285.132	95.38
285.364	85.38
285.595	73.38
285.826	78.38
286.057	73.38
286.288	94.38
286.52	100.38
286.751	92.38
286.982	98.38
287.213	83.38
287.444	93.38
287.675	78.38
287.906	94.38
288.138	85.38
288.369	100.38
288.6	95.38
288.831	80.38
289.062	102.38
289.293	91.38
289.524	93.38
289.755	72.38
289.986	88.38
290.217	97.38
290.448	90.38
290.679	82.38
290.91	99.38
291.141	76.38
291.371	96.38
291.602	89.38
291.833	80.38
292.064	93.38
292.295	89.38
292.526	85.38
292.757	86.38
292.987	90.38
293.218	95.38
293.449	83.38
293.68	97.38
293.91	92.38
294.141	78.38
294.372	82.38
294.603	83.38
294.833	104.38
295.064	92.38
295.295	100.38
295.525	96.38
295.756	104.38
295.987	115.38
296.217	133.38
296.448	106.38
296.679	87.38
296.909	86.38
297.14	101.38
297.37	86.38
297.601	88.38
297.831	86.38
298.062	91.38
298.292	90.38
298.523	103.38
298.753	82.38
298.984	89.38
299.214	91.38
299.445	88.38
299.675	106.38
299.905	90.38
300.136	94.38
300.366	91.38
300.597	74.38
300.827	82.38
301.057	82.38
301.288	103.38
301.518	74.38
301.748	90.38
301.979	100.38
302.209	75.38
302.439	89.38
302.669	87.38
302.9	87.38
303.13	95.38
303.36	98.38
303.59	93.38
303.82	105.38
304.051	91.38
304.281	100.38
304.511	87.38
304.741	98.38
304.971	80.38
305.201	84.38
305.431	78.38
305.661	94.38
305.891	103.38
306.121	100.38
306.352	108.38
306.582	101.38
306.812	94.38
307.042	101.38
307.272	86.38
307.502	91.38
307.731	94.38
307.961	100.38
308.191	95.38
308.421	92.38
308.651	101.38
308.881	92.38
309.111	97.38
309.341	101.38
309.571	104.38
309.8	94.38
310.03	97.38
310.26	86.38
310.49	94.38
310.72	99.38
310.949	101.38
311.179	116.38
311.409	82.38
311.639	104.38
311.868	98.38
312.098	96.38
312.328	107.38
312.557	108.38
312.787	111.38
313.017	107.38
313.246	96.38
313.476	92.38
313.706	98.38
313.935	94.38
314.165	98.38
314.394	95.38
314.624	78.38
314.853	94.38
315.083	86.38
315.312	83.38
315.542	87.38
315.771	102.38
316.001	97.38
316.23	78.38
316.46	100.38
316.689	102.38
316.919	97.38
317.148	88.38
317.377	75.38
317.607	83.38
317.836	98.38
318.065	86.38
318.295	81.38
318.524	82.38
318.753	90.38
318.983	104.38
319.212	101.38
319.441	103.38
319.67	106.38
319.9	94.38
320.129	88.38
320.358	91.38
320.587	103.38
320.816	92.38
321.046	87.38
321.275	103.38
321.504	99.38
321.733	84.38
321.962	94.38
322.191	97.38
322.42	85.38
322.649	92.38
322.878	121.38
323.108	126.38
323.337	110.38
323.566	135.38
323.795	135.38
324.024	181.38
324.253	349.38
324.482	734.38
324.71	1561.38
324.939	2059.38
325.168	772.38
325.397	246.38
325.626	137.38
325.855	133.38
326.084	104.38
326.313	123.38
326.542	140.38
326.77	196.38
326.999	406.38
327.228	846.38
327.457	1568.38
327.686	1259.38
327.914	358.38
328.143	180.38
328.372	136.38
328.6	115.38
328.829	107.38
329.058	105.38
329.287	123.38
329.515	101.38
329.744	101.38
329.972	104.38
330.201	109.38
330.43	107.38
330.658	114.38
330.887	131.38
331.115	119.38
331.344	112.38
331.572	93.38
331.801	102.38
332.03	102.38
332.258	85.38
332.486	94.38
332.715	98.38
332.943	90.38
333.172	94.38
333.4	101.38
333.629	102.38
333.857	111.38
334.085	97.38
334.314	89.38
334.542	104.38
334.771	100.38
334.999	97.38
335.227	92.38
335.455	97.38
335.684	104.38
335.912	100.38
336.14	96.38
336.369	84.38
336.597	115.38
336.825	98.38
337.053	102.38
337.281	103.38
337.51	88.38
337.738	95.38
337.966	96.38
338.194	96.38
338.422	90.38
338.65	97.38
338.878	80.38
339.106	90.38
339.334	104.38
339.562	100.38
339.79	86.38
340.018	82.38
340.246	80.38
340.474	91.38
340.702	95.38
340.93	90.38
341.158	97.38
341.386	108.38
341.614	101.38
341.842	94.38
342.07	66.38
342.298	84.38
342.526	99.38
342.754	103.38
342.981	104.38
343.209	103.38
343.437	90.38
343.665	84.38
343.893	95.38
344.12	114.38
344.348	105.38
344.576	84.38
344.804	87.38
345.031	97.38
345.259	98.38
345.487	104.38
345.714	102.38
345.942	102.38
346.17	85.38
346.397	98.38
346.625	98.38
346.853	94.38
347.08	94.38
347.308	108.38
347.535	97.38
347.763	105.38
347.99	100.38
348.218	90.38
348.445	96.38
348.673	94.38
348.9	99.38
349.128	106.38
349.355	94.38
349.583	92.38
349.81	96.38
350.037	100.38
350.265	94.38
350.492	86.38
350.72	104.38
350.947	104.38
351.174	122.38
351.402	103.38
351.629	96.38
351.856	109.38
352.083	95.38
352.311	103.38
352.538	105.38
352.765	105.38
352.992	108.38
353.22	107.38
353.447	107.38
353.674	89.38
353.901	92.38
354.128	90.38
354.355	98.38
354.583	100.38
354.81	99.38
355.037	94.38
355.264	91.38
355.491	100.38
355.718	100.38
355.945	106.38
356.172	99.38
356.399	99.38
356.626	96.38
356.853	89.38
357.08	94.38
357.307	101.38
357.534	86.38
357.761	90.38
357.988	103.38
358.215	87.38
358.441	97.38
358.668	82.38
358.895	98.38
359.122	95.38
359.349	89.38
359.576	107.38
359.802	101.38
360.029	116.38
360.256	116.38
360.483	93.38
360.709	88.38
360.936	99.38
361.163	92.38
361.39	98.38
361.616	92.38
361.843	79.38
362.07	92.38
362.296	83.38
362.523	86.38
362.749	104.38
362.976	91.38
363.203	81.38
363.429	86.38
363.656	92.38
363.882	99.38
364.109	87.38
364.335	103.38
364.562	78.38
364.788	88.38
365.015	102.38
365.241	103.38
365.468	106.38
365.694	115.38
365.92	108.38
366.147	83.38
366.373	73.38
366.599	93.38
366.826	96.38
367.052	101.38
367.278	79.38
367.505	96.38
367.731	103.38
367.957	104.38
368.184	97.38
368.41	102.38
368.636	90.38
368.862	106.38
369.089	116.38
369.315	82.38
369.541	92.38
369.767	96.38
369.993	90.38
370.219	100.38
370.445	88.38
370.672	90.38
370.898	90.38
371.124	99.38
371.35	102.38
371.576	92.38
371.802	100.38
372.028	98.38
372.254	85.38
372.48	86.38
372.706	82.38
372.932	86.38
373.158	101.38
373.384	91.38
373.61	87.38
373.835	89.38
374.061	95.38
374.287	101.38
374.513	85.38
374.739	95.38
374.965	86.38
375.191	94.38
375.416	80.38
375.642	97.38
375.868	90.38
376.094	96.38
376.319	90.38
376.545	104.38
376.771	95.38
376.997	82.38
377.222	84.38
377.448	92.38
377.674	80.38
377.899	98.38
378.125	90.38
378.35	91.38
378.576	113.38
378.802	95.38
379.027	104.38
379.253	88.38
379.478	97.38
379.704	103.38
379.929	94.38
380.155	96.38
380.38	101.38
380.606	98.38
380.831	82.38
381.057	86.38
381.282	91.38
381.507	100.38
381.733	109.38
381.958	80.38
382.184	99.38
382.409	98.38
382.634	79.38
382.86	84.38
383.085	96.38
383.31	103.38
383.535	97.38
383.761	100.38
383.986	97.38
384.211	109.38
384.436	93.38
384.662	118.38
384.887	102.38
385.112	89.38
385.337	98.38
385.562	102.38
385.787	95.38
386.013	97.38
386.238	105.38
386.463	103.38
386.688	114.38
386.913	108.38
387.138	94.38
387.363	103.38
387.588	104.38
387.813	106.38
388.038	106.38
388.263	110.38
388.488	104.38
388.713	101.38
388.938	105.38
389.163	108.38
389.387	111.38
389.612	92.38
389.837	94.38
390.062	99.38
390.287	84.38
390.512	88.38
390.736	89.38
390.961	94.38
391.186	84.38
391.411	82.38
391.636	89.38
391.86	94.38
392.085	85.38
392.31	78.38
392.534	99.38
392.759	82.38
392.984	85.38
393.208	82.38
393.433	90.38
393.658	88.38
393.882	93.38
394.107	85.38
394.331	81.38
394.556	82.38
394.78	102.38
395.005	87.38
395.229	84.38
395.454	100.38
395.678	112.38
395.903	86.38
396.127	84.38
396.352	95.38
396.576	85.38
396.801	88.38
397.025	102.38
397.249	85.38
397.474	100.38
397.698	89.38
397.922	85.38
398.147	83.38
398.371	100.38
398.595	73.38
398.82	98.38
399.044	88.38
399.268	82.38
399.492	96.38
399.717	80.38
399.941	89.38
400.165	84.38
400.389	96.38
400.613	91.38
400.837	73.38
401.062	94.38
401.286	98.38
401.51	82.38
401.734	80.38
401.958	101.38
402.182	132.38
402.406	146.38
402.63	110.38
402.854	97.38
403.078	92.38
403.302	90.38
403.526	89.38
403.75	80.38
403.974	93.38
404.198	94.38
404.422	103.38
404.645	89.38
404.869	91.38
405.093	100.38
405.317	92.38
405.541	91.38
405.765	98.38
405.988	102.38
406.212	152.38
406.436	202.38
406.66	127.38
406.883	82.38
407.107	88.38
407.331	100.38
407.555	114.38
407.778	86.38
408.002	92.38
408.226	92.38
408.449	87.38
408.673	81.38
408.896	88.38
409.12	84.38
409.344	102.38
409.567	89.38
409.791	107.38
410.014	90.38
410.238	107.38
410.461	95.38
410.685	95.38
410.908	96.38
411.132	97.38
411.355	110.38
411.578	103.38
411.802	84.38
412.025	82.38
412.249	95.38
412.472	92.38
412.695	100.38
412.919	87.38
413.142	97.38
413.365	103.38
413.589	84.38
413.812	89.38
414.035	91.38
414.258	84.38
414.482	90.38
414.705	83.38
414.928	89.38
415.151	103.38
415.374	86.38
415.597	90.38
415.821	97.38
416.044	90.38
416.267	99.38
416.49	88.38
416.713	90.38
416.936	99.38
417.159	91.38
417.382	94.38
417.605	75.38
417.828	97.38
418.051	92.38
418.274	93.38
418.497	99.38
418.72	86.38
418.943	78.38
419.166	84.38
419.389	81.38
419.611	84.38
419.834	89.38
420.057	90.38
420.28	88.38
420.503	86.38
420.726	86.38
420.948	85.38
421.171	84.38
421.394	99.38
421.617	95.38
421.839	89.38
422.062	84.38
422.285	97.38
422.507	100.38
422.73	88.38
422.953	105.38
423.175	72.38
423.398	90.38
423.621	90.38
423.843	87.38
424.066	92.38
424.288	103.38
424.511	103.38
424.733	118.38
424.956	110.38
425.178	103.38
425.401	105.38
425.623	108.38
425.846	90.38
426.068	94.38
426.291	81.38
426.513	95.38
426.735	95.38
426.958	86.38
427.18	91.38
427.402	127.38
427.625	149.38
427.847	123.38
428.069	96.38
428.292	93.38
428.514	89.38
428.736	87.38
428.958	83.38
429.181	90.38
429.403	89.38
429.625	90.38
429.847	88.38
430.069	107.38
430.292	92.38
430.514	92.38
430.736	80.38
430.958	92.38
431.18	82.38
431.402	83.38
431.624	100.38
431.846	83.38
432.068	88.38
432.29	92.38
432.512	87.38
432.734	88.38
432.956	85.38
433.178	87.38
433.4	87.38
433.622	101.38
433.844	80.38
434.066	81.38
434.287	79.38
434.509	101.38
434.731	98.38
434.953	102.38
435.175	90.38
435.397	110.38
435.618	96.38
435.84	108.38
436.062	108.38
436.284	116.38
436.505	102.38
436.727	84.38
436.949	98.38
437.17	94.38
437.392	75.38
437.614	82.38
437.835	106.38
438.057	113.38
438.278	108.38
438.5	99.38
438.721	115.38
438.943	101.38
439.165	81.38
439.386	96.38
439.608	95.38
439.829	83.38
440.05	125.38
440.272	133.38
440.493	98.38
440.715	87.38
440.936	96.38
441.158	96.38
441.379	92.38
441.6	98.38
441.822	88.38
442.043	98.38
442.264	95.38
442.486	102.38
442.707	95.38
442.928	117.38
443.149	132.38
443.371	122.38
443.592	107.38
443.813	97.38
444.034	116.38
444.255	86.38
444.476	77.38
444.698	92.38
444.919	91.38
445.14	137.38
445.361	114.38
445.582	114.38
445.803	143.38
446.024	116.38
446.245	137.38
446.466	123.38
446.687	102.38
446.908	89.38
447.129	78.38
447.35	86.38
447.571	100.38
447.792	92.38
448.013	98.38
448.234	103.38
448.455	83.38
448.675	106.38
448.896	120.38
449.117	111.38
449.338	98.38
449.559	127.38
449.779	129.38
450	104.38
450.221	112.38
450.442	97.38
450.662	88.38
450.883	101.38
451.104	108.38
451.324	91.38
451.545	95.38
451.766	100.38
451.986	97.38
452.207	87.38
452.428	89.38
452.648	97.38
452.869	107.38
453.089	103.38
453.31	112.38
453.53	90.38
453.751	94.38
453.971	97.38
454.192	114.38
454.412	109.38
454.633	88.38
454.853	84.38
455.073	91.38
455.294	99.38
455.514	87.38
455.734	95.38
455.955	85.38
456.175	87.38
456.395	87.38
456.616	75.38
456.836	85.38
457.056	86.38
457.276	96.38
457.497	86.38
457.717	90.38
457.937	79.38
458.157	100.38
458.377	107.38
458.598	110.38
458.818	140.38
459.038	148.38
459.258	102.38
459.478	99.38
459.698	85.38
459.918	93.38
460.138	98.38
460.358	89.38
460.578	102.38
460.798	72.38
461.018	83.38
461.238	83.38
461.458	81.38
461.678	87.38
461.898	102.38
462.118	81.38
462.338	87.38
462.558	87.38
462.777	103.38
462.997	83.38
463.217	83.38
463.437	95.38
463.657	83.38
463.876	99.38
464.096	95.38
464.316	81.38
464.536	89.38
464.755	74.38
464.975	97.38
465.195	125.38
465.414	144.38
465.634	99.38
465.854	83.38
466.073	74.38
466.293	91.38
466.512	93.38
466.732	73.38
466.951	86.38
467.171	84.38
467.391	84.38
467.61	121.38
467.829	99.38
468.049	95.38
468.268	103.38
468.488	88.38
468.707	79.38
468.927	97.38
469.146	89.38
469.365	103.38
469.585	91.38
469.804	99.38
470.023	104.38
470.243	96.38
470.462	94.38
470.681	94.38
470.901	88.38
471.12	100.38
471.339	74.38
471.558	71.38
471.777	95.38
471.997	86.38
472.216	100.38
472.435	90.38
472.654	79.38
472.873	86.38
473.092	91.38
473.311	83.38
473.53	87.38
473.749	95.38
473.968	94.38
474.187	101.38
474.406	89.38
474.625	87.38
474.844	86.38
475.063	89.38
475.282	96.38
475.501	81.38
475.72	104.38
475.939	83.38
476.158	86.38
476.377	89.38
476.596	86.38
476.814	87.38
477.033	83.38
477.252	91.38
477.471	84.38
477.69	87.38
477.908	84.38
478.127	101.38
478.346	90.38
478.564	93.38
478.783	95.38
479.002	92.38
479.22	95.38
479.439	103.38
479.658	108.38
479.876	83.38
480.095	90.38
480.313	92.38
480.532	88.38
480.751	89.38
480.969	86.38
481.188	105.38
481.406	101.38
481.624	86.38
481.843	81.38
482.061	73.38
482.28	87.38
482.498	90.38
482.717	98.38
482.935	94.38
483.153	92.38
483.372	80.38
483.59	82.38
483.808	74.38
484.027	100.38
484.245	99.38
484.463	78.38
484.681	99.38
484.9	94.38
485.118	100.38
485.336	87.38
485.554	88.38
485.772	103.38
485.99	104.38
486.209	93.38
486.427	102.38
486.645	100.38
486.863	110.38
487.081	107.38
487.299	93.38
487.517	88.38
487.735	94.38
487.953	78.38
488.171	95.38
488.389	92.38
488.607	90.38
488.825	84.38
489.043	103.38
489.261	90.38
489.479	89.38
489.696	94.38
489.914	94.38
490.132	85.38
490.35	98.38
490.568	92.38
490.786	90.38
491.003	84.38
491.221	76.38
491.439	90.38
491.657	97.38
491.874	89.38
492.092	100.38
492.31	99.38
492.527	87.38
492.745	97.38
492.963	88.38
493.18	95.38
493.398	71.38
493.615	98.38
493.833	88.38
494.05	75.38
494.268	107.38
494.485	97.38
494.703	102.38
494.92	95.38
495.138	92.38
495.355	99.38
495.573	84.38
495.79	82.38
496.008	81.38
496.225	79.38
496.442	85.38
496.66	85.38
496.877	90.38
497.094	91.38
497.312	101.38
497.529	90.38
497.746	93.38
497.963	99.38
498.181	87.38
498.398	87.38
498.615	104.38
498.832	102.38
499.049	84.38
499.267	91.38
499.484	92.38
499.701	99.38
499.918	86.38
500.135	85.38
500.352	86.38
500.569	99.38
500.786	96.38
501.003	81.38
501.22	106.38
501.437	88.38
501.654	84.38
501.871	87.38
502.088	99.38
502.305	91.38
502.522	82.38
502.739	100.38
502.956	100.38
503.172	82.38
503.389	95.38
503.606	88.38
503.823	89.38
504.04	95.38
504.256	87.38
504.473	77.38
504.69	92.38
504.907	83.38
505.123	78.38
505.34	94.38
505.557	98.38
505.773	86.38
505.99	99.38
506.207	90.38
506.423	90.38
506.64	94.38
506.856	75.38
507.073	88.38
507.289	108.38
507.506	89.38
507.722	117.38
507.939	96.38
508.155	114.38
508.372	82.38
508.588	94.38
508.805	92.38
509.021	85.38
509.238	95.38
509.454	103.38
509.67	111.38
509.887	111.38
510.103	134.38
510.319	196.38
510.536	691.38
510.752	2136.38
510.968	586.38
511.184	156.38
511.401	101.38
511.617	80.38
511.833	100.38
512.049	82.38
512.265	87.38
512.481	102.38
512.698	84.38
512.914	97.38
513.13	91.38
513.346	94.38
513.562	72.38
513.778	90.38
513.994	102.38
514.21	96.38
514.426	114.38
514.642	121.38
514.858	105.38
515.074	148.38
515.29	433.38
