Data from Uncirc_1986_H10_HRD10591_00033.txt Node
Date: Wed Jan 03 12:14:33 EST 2024
User: Yrep
Spectrometer: HR+D1059
Trigger mode: 1
Integration Time (sec): 1.000000E-1
Scans to average: 1
Electric dark correction enabled: true
Nonlinearity correction enabled: false
Boxcar width: 0
XAxis mode: Wavelengths
Number of Pixels in Spectrum: 2048
>>>>>Begin Spectral Data<<<<<
223.165	-15.69
223.4	-15.69
223.635	-15.69
223.869	-14.69
224.104	-18.69
224.338	-18.69
224.573	-6.69
224.808	-6.69
225.042	-6.69
225.277	-17.69
225.511	-4.69
225.746	-17.69
225.98	-3.69
226.215	27.31
226.449	24.31
226.683	22.31
226.918	26.31
227.152	31.31
227.387	30.31
227.621	36.31
227.856	37.31
228.09	37.31
228.324	55.31
228.559	59.31
228.793	45.31
229.027	69.31
229.262	76.31
229.496	74.31
229.73	78.31
229.964	101.31
230.199	71.31
230.433	67.31
230.667	89.31
230.901	81.31
231.136	85.31
231.37	85.31
231.604	93.31
231.838	102.31
232.072	78.31
232.306	75.31
232.541	73.31
232.775	84.31
233.009	85.31
233.243	90.31
233.477	79.31
233.711	89.31
233.945	85.31
234.179	71.31
234.413	83.31
234.647	71.31
234.881	77.31
235.115	73.31
235.349	93.31
235.583	85.31
235.817	67.31
236.051	74.31
236.285	84.31
236.519	92.31
236.753	89.31
236.987	84.31
237.221	84.31
237.455	67.31
237.689	75.31
237.922	78.31
238.156	66.31
238.39	78.31
238.624	89.31
238.858	70.31
239.091	81.31
239.325	85.31
239.559	78.31
239.793	85.31
240.027	79.31
240.26	75.31
240.494	90.31
240.728	89.31
240.961	86.31
241.195	84.31
241.429	85.31
241.662	63.31
241.896	69.31
242.13	80.31
242.363	69.31
242.597	76.31
242.83	75.31
243.064	83.31
243.298	83.31
243.531	75.31
243.765	85.31
243.998	91.31
244.232	76.31
244.465	78.31
244.699	88.31
244.932	78.31
245.166	65.31
245.399	76.31
245.633	83.31
245.866	81.31
246.099	70.31
246.333	65.31
246.566	74.31
246.8	69.31
247.033	67.31
247.266	47.31
247.5	85.31
247.733	97.31
247.966	96.31
248.2	90.31
248.433	81.31
248.666	77.31
248.899	89.31
249.133	94.31
249.366	96.31
249.599	94.31
249.832	75.31
250.066	92.31
250.299	80.31
250.532	78.31
250.765	78.31
250.998	82.31
251.231	77.31
251.465	78.31
251.698	81.31
251.931	81.31
252.164	80.31
252.397	89.31
252.63	67.31
252.863	76.31
253.096	85.31
253.329	89.31
253.562	83.31
253.795	81.31
254.028	81.31
254.261	80.31
254.494	85.31
254.727	81.31
254.96	72.31
255.193	84.31
255.426	73.31
255.659	89.31
255.892	88.31
256.124	73.31
256.357	77.31
256.59	71.31
256.823	89.31
257.056	71.31
257.289	83.31
257.521	75.31
257.754	101.31
257.987	71.31
258.22	80.31
258.452	90.31
258.685	85.31
258.918	89.31
259.151	78.31
259.383	87.31
259.616	80.31
259.849	83.31
260.081	85.31
260.314	82.31
260.547	96.31
260.779	76.31
261.012	102.31
261.244	102.31
261.477	81.31
261.71	94.31
261.942	107.31
262.175	117.31
262.407	92.31
262.64	104.31
262.872	93.31
263.105	75.31
263.337	83.31
263.57	89.31
263.802	91.31
264.035	93.31
264.267	89.31
264.499	91.31
264.732	82.31
264.964	83.31
265.197	91.31
265.429	88.31
265.661	66.31
265.894	74.31
266.126	88.31
266.358	87.31
266.591	97.31
266.823	90.31
267.055	97.31
267.287	86.31
267.52	84.31
267.752	75.31
267.984	90.31
268.216	98.31
268.448	81.31
268.681	100.31
268.913	87.31
269.145	83.31
269.377	94.31
269.609	99.31
269.841	85.31
270.073	93.31
270.306	102.31
270.538	73.31
270.77	79.31
271.002	86.31
271.234	87.31
271.466	98.31
271.698	77.31
271.93	91.31
272.162	91.31
272.394	93.31
272.626	89.31
272.858	84.31
273.09	82.31
273.322	85.31
273.553	87.31
273.785	92.31
274.017	78.31
274.249	100.31
274.481	75.31
274.713	83.31
274.945	95.31
275.176	84.31
275.408	88.31
275.64	100.31
275.872	90.31
276.104	85.31
276.335	89.31
276.567	108.31
276.799	119.31
277.031	90.31
277.262	91.31
277.494	101.31
277.726	90.31
277.957	97.31
278.189	90.31
278.421	85.31
278.652	103.31
278.884	90.31
279.115	85.31
279.347	85.31
279.579	86.31
279.81	91.31
280.042	100.31
280.273	89.31
280.505	90.31
280.736	86.31
280.968	92.31
281.199	90.31
281.431	92.31
281.662	99.31
281.894	93.31
282.125	98.31
282.356	117.31
282.588	145.31
282.819	103.31
283.051	93.31
283.282	99.31
283.513	81.31
283.745	95.31
283.976	87.31
284.207	79.31
284.439	90.31
284.67	97.31
284.901	98.31
285.132	89.31
285.364	87.31
285.595	87.31
285.826	98.31
286.057	96.31
286.288	103.31
286.52	103.31
286.751	99.31
286.982	93.31
287.213	81.31
287.444	103.31
287.675	96.31
287.906	94.31
288.138	81.31
288.369	93.31
288.6	84.31
288.831	87.31
289.062	117.31
289.293	97.31
289.524	90.31
289.755	97.31
289.986	83.31
290.217	95.31
290.448	86.31
290.679	84.31
290.91	81.31
291.141	83.31
291.371	94.31
291.602	100.31
291.833	87.31
292.064	95.31
292.295	90.31
292.526	85.31
292.757	103.31
292.987	92.31
293.218	79.31
293.449	103.31
293.68	101.31
293.91	87.31
294.141	97.31
294.372	85.31
294.603	86.31
294.833	91.31
295.064	95.31
295.295	88.31
295.525	94.31
295.756	101.31
295.987	118.31
296.217	136.31
296.448	130.31
296.679	92.31
296.909	93.31
297.14	75.31
297.37	99.31
297.601	89.31
297.831	86.31
298.062	94.31
298.292	88.31
298.523	103.31
298.753	92.31
298.984	90.31
299.214	87.31
299.445	93.31
299.675	90.31
299.905	95.31
300.136	99.31
300.366	97.31
300.597	94.31
300.827	79.31
301.057	114.31
301.288	107.31
301.518	106.31
301.748	102.31
301.979	113.31
302.209	85.31
302.439	89.31
302.669	85.31
302.9	95.31
303.13	90.31
303.36	88.31
303.59	91.31
303.82	95.31
304.051	88.31
304.281	94.31
304.511	79.31
304.741	79.31
304.971	87.31
305.201	97.31
305.431	98.31
305.661	90.31
305.891	88.31
306.121	106.31
306.352	89.31
306.582	100.31
306.812	97.31
307.042	83.31
307.272	89.31
307.502	101.31
307.731	93.31
307.961	88.31
308.191	92.31
308.421	95.31
308.651	95.31
308.881	100.31
309.111	90.31
309.341	91.31
309.571	105.31
309.8	109.31
310.03	100.31
310.26	100.31
310.49	99.31
310.72	107.31
310.949	104.31
311.179	99.31
311.409	97.31
311.639	97.31
311.868	92.31
312.098	83.31
312.328	83.31
312.557	103.31
312.787	100.31
313.017	102.31
313.246	95.31
313.476	98.31
313.706	86.31
313.935	104.31
314.165	101.31
314.394	82.31
314.624	110.31
314.853	110.31
315.083	95.31
315.312	106.31
315.542	87.31
315.771	91.31
316.001	96.31
316.23	89.31
316.46	97.31
316.689	104.31
316.919	105.31
317.148	109.31
317.377	96.31
317.607	92.31
317.836	110.31
318.065	90.31
318.295	87.31
318.524	96.31
318.753	95.31
318.983	92.31
319.212	102.31
319.441	104.31
319.67	101.31
319.9	97.31
320.129	108.31
320.358	94.31
320.587	98.31
320.816	98.31
321.046	108.31
321.275	103.31
321.504	97.31
321.733	99.31
321.962	102.31
322.191	102.31
322.42	111.31
322.649	124.31
322.878	102.31
323.108	127.31
323.337	123.31
323.566	137.31
323.795	141.31
324.024	203.31
324.253	415.31
324.482	853.31
324.71	1770.31
324.939	2358.31
325.168	844.31
325.397	270.31
325.626	148.31
325.855	122.31
326.084	146.31
326.313	139.31
326.542	160.31
326.77	252.31
326.999	456.31
327.228	974.31
327.457	1828.31
327.686	1464.31
327.914	389.31
328.143	197.31
328.372	142.31
328.6	138.31
328.829	114.31
329.058	131.31
329.287	119.31
329.515	115.31
329.744	115.31
329.972	108.31
330.201	112.31
330.43	124.31
330.658	126.31
330.887	143.31
331.115	126.31
331.344	100.31
331.572	96.31
331.801	100.31
332.03	113.31
332.258	87.31
332.486	100.31
332.715	89.31
332.943	80.31
333.172	101.31
333.4	97.31
333.629	124.31
333.857	103.31
334.085	102.31
334.314	107.31
334.542	110.31
334.771	106.31
334.999	90.31
335.227	92.31
335.455	90.31
335.684	108.31
335.912	108.31
336.14	95.31
336.369	91.31
336.597	93.31
336.825	100.31
337.053	100.31
337.281	104.31
337.51	93.31
337.738	102.31
337.966	83.31
338.194	102.31
338.422	122.31
338.65	107.31
338.878	108.31
339.106	93.31
339.334	95.31
339.562	84.31
339.79	88.31
340.018	94.31
340.246	95.31
340.474	88.31
340.702	98.31
340.93	112.31
341.158	89.31
341.386	101.31
341.614	103.31
341.842	107.31
342.07	94.31
342.298	81.31
342.526	74.31
342.754	89.31
342.981	107.31
343.209	93.31
343.437	106.31
343.665	94.31
343.893	97.31
344.12	76.31
344.348	92.31
344.576	97.31
344.804	106.31
345.031	92.31
345.259	100.31
345.487	105.31
345.714	113.31
345.942	103.31
346.17	95.31
346.397	106.31
346.625	99.31
346.853	90.31
347.08	82.31
347.308	103.31
347.535	110.31
347.763	105.31
347.99	107.31
348.218	99.31
348.445	106.31
348.673	102.31
348.9	100.31
349.128	100.31
349.355	92.31
349.583	96.31
349.81	89.31
350.037	90.31
350.265	106.31
350.492	109.31
350.72	93.31
350.947	110.31
351.174	93.31
351.402	108.31
351.629	101.31
351.856	108.31
352.083	110.31
352.311	118.31
352.538	110.31
352.765	92.31
352.992	111.31
353.22	111.31
353.447	111.31
353.674	108.31
353.901	99.31
354.128	98.31
354.355	94.31
354.583	101.31
354.81	96.31
355.037	100.31
355.264	93.31
355.491	100.31
355.718	95.31
355.945	95.31
356.172	97.31
356.399	78.31
356.626	97.31
356.853	85.31
357.08	105.31
357.307	93.31
357.534	107.31
357.761	93.31
357.988	88.31
358.215	101.31
358.441	104.31
358.668	92.31
358.895	96.31
359.122	89.31
359.349	98.31
359.576	106.31
359.802	99.31
360.029	117.31
360.256	124.31
360.483	106.31
360.709	93.31
360.936	91.31
361.163	87.31
361.39	120.31
361.616	97.31
361.843	88.31
362.07	98.31
362.296	104.31
362.523	97.31
362.749	83.31
362.976	100.31
363.203	97.31
363.429	113.31
363.656	95.31
363.882	105.31
364.109	101.31
364.335	95.31
364.562	92.31
364.788	99.31
365.015	96.31
365.241	102.31
365.468	107.31
365.694	102.31
365.92	97.31
366.147	90.31
366.373	93.31
366.599	95.31
366.826	97.31
367.052	99.31
367.278	89.31
367.505	100.31
367.731	103.31
367.957	89.31
368.184	82.31
368.41	105.31
368.636	116.31
368.862	124.31
369.089	105.31
369.315	96.31
369.541	103.31
369.767	99.31
369.993	86.31
370.219	79.31
370.445	83.31
370.672	91.31
370.898	86.31
371.124	107.31
371.35	89.31
371.576	89.31
371.802	97.31
372.028	95.31
372.254	90.31
372.48	103.31
372.706	84.31
372.932	86.31
373.158	106.31
373.384	92.31
373.61	90.31
373.835	98.31
374.061	92.31
374.287	94.31
374.513	97.31
374.739	89.31
374.965	103.31
375.191	87.31
375.416	87.31
375.642	95.31
375.868	104.31
376.094	81.31
376.319	99.31
376.545	93.31
376.771	91.31
376.997	85.31
377.222	102.31
377.448	103.31
377.674	95.31
377.899	89.31
378.125	101.31
378.35	94.31
378.576	92.31
378.802	90.31
379.027	91.31
379.253	89.31
379.478	93.31
379.704	95.31
379.929	100.31
380.155	95.31
380.38	105.31
380.606	117.31
380.831	101.31
381.057	101.31
381.282	87.31
381.507	93.31
381.733	101.31
381.958	95.31
382.184	97.31
382.409	97.31
382.634	113.31
382.86	88.31
383.085	106.31
383.31	105.31
383.535	87.31
383.761	91.31
383.986	114.31
384.211	101.31
384.436	99.31
384.662	103.31
384.887	99.31
385.112	94.31
385.337	98.31
385.562	97.31
385.787	101.31
386.013	110.31
386.238	103.31
386.463	104.31
386.688	106.31
386.913	107.31
387.138	117.31
387.363	112.31
387.588	107.31
387.813	112.31
388.038	118.31
388.263	109.31
388.488	97.31
388.713	88.31
388.938	119.31
389.163	104.31
389.387	105.31
389.612	100.31
389.837	110.31
390.062	115.31
390.287	95.31
390.512	90.31
390.736	83.31
390.961	100.31
391.186	93.31
391.411	92.31
391.636	98.31
391.86	92.31
392.085	98.31
392.31	91.31
392.534	81.31
392.759	98.31
392.984	95.31
393.208	87.31
393.433	97.31
393.658	106.31
393.882	85.31
394.107	93.31
394.331	109.31
394.556	76.31
394.78	87.31
395.005	90.31
395.229	93.31
395.454	94.31
395.678	86.31
395.903	93.31
396.127	96.31
396.352	87.31
396.576	97.31
396.801	86.31
397.025	85.31
397.249	81.31
397.474	85.31
397.698	95.31
397.922	95.31
398.147	88.31
398.371	95.31
398.595	106.31
398.82	93.31
399.044	94.31
399.268	93.31
399.492	107.31
399.717	100.31
399.941	98.31
400.165	99.31
400.389	87.31
400.613	87.31
400.837	94.31
401.062	89.31
401.286	96.31
401.51	95.31
401.734	87.31
401.958	105.31
402.182	128.31
402.406	165.31
402.63	131.31
402.854	93.31
403.078	96.31
403.302	89.31
403.526	96.31
403.75	89.31
403.974	97.31
404.198	86.31
404.422	84.31
404.645	96.31
404.869	92.31
405.093	101.31
405.317	98.31
405.541	100.31
405.765	97.31
405.988	127.31
406.212	171.31
406.436	234.31
406.66	154.31
406.883	111.31
407.107	90.31
407.331	104.31
407.555	110.31
407.778	100.31
408.002	106.31
408.226	105.31
408.449	90.31
408.673	94.31
408.896	98.31
409.12	99.31
409.344	105.31
409.567	98.31
409.791	90.31
410.014	108.31
410.238	90.31
410.461	93.31
410.685	105.31
410.908	107.31
411.132	120.31
411.355	110.31
411.578	98.31
411.802	99.31
412.025	87.31
412.249	88.31
412.472	100.31
412.695	114.31
412.919	91.31
413.142	98.31
413.365	104.31
413.589	88.31
413.812	93.31
414.035	97.31
414.258	87.31
414.482	105.31
414.705	105.31
414.928	92.31
415.151	99.31
415.374	94.31
415.597	92.31
415.821	91.31
416.044	78.31
416.267	91.31
416.49	97.31
416.713	88.31
416.936	95.31
417.159	93.31
417.382	84.31
417.605	100.31
417.828	90.31
418.051	85.31
418.274	87.31
418.497	83.31
418.72	102.31
418.943	86.31
419.166	95.31
419.389	95.31
419.611	90.31
419.834	100.31
420.057	88.31
420.28	98.31
420.503	95.31
420.726	101.31
420.948	97.31
421.171	97.31
421.394	91.31
421.617	83.31
421.839	99.31
422.062	100.31
422.285	98.31
422.507	103.31
422.73	122.31
422.953	101.31
423.175	91.31
423.398	81.31
423.621	92.31
423.843	84.31
424.066	92.31
424.288	97.31
424.511	85.31
424.733	99.31
424.956	96.31
425.178	99.31
425.401	102.31
425.623	112.31
425.846	92.31
426.068	92.31
426.291	89.31
426.513	86.31
426.735	95.31
426.958	100.31
427.18	117.31
427.402	142.31
427.625	171.31
427.847	110.31
428.069	118.31
428.292	103.31
428.514	107.31
428.736	90.31
428.958	94.31
429.181	110.31
429.403	91.31
429.625	78.31
429.847	89.31
430.069	95.31
430.292	94.31
430.514	96.31
430.736	94.31
430.958	81.31
431.18	84.31
431.402	94.31
431.624	78.31
431.846	92.31
432.068	91.31
432.29	99.31
432.512	87.31
432.734	90.31
432.956	86.31
433.178	107.31
433.4	90.31
433.622	95.31
433.844	91.31
434.066	97.31
434.287	101.31
434.509	100.31
434.731	90.31
434.953	111.31
435.175	98.31
435.397	82.31
435.618	87.31
435.84	106.31
436.062	117.31
436.284	123.31
436.505	110.31
436.727	107.31
436.949	102.31
437.17	96.31
437.392	97.31
437.614	92.31
437.835	124.31
438.057	121.31
438.278	117.31
438.5	120.31
438.721	140.31
438.943	122.31
439.165	98.31
439.386	95.31
439.608	107.31
439.829	112.31
440.05	118.31
440.272	145.31
440.493	104.31
440.715	108.31
440.936	94.31
441.158	82.31
441.379	85.31
441.6	96.31
441.822	103.31
442.043	93.31
442.264	109.31
442.486	108.31
442.707	114.31
442.928	114.31
443.149	131.31
443.371	135.31
443.592	104.31
443.813	101.31
444.034	115.31
444.255	91.31
444.476	88.31
444.698	91.31
444.919	92.31
445.14	131.31
445.361	116.31
445.582	124.31
445.803	162.31
446.024	132.31
446.245	147.31
446.466	107.31
446.687	105.31
446.908	97.31
447.129	111.31
447.35	93.31
447.571	105.31
447.792	107.31
448.013	103.31
448.234	120.31
448.455	96.31
448.675	119.31
448.896	134.31
449.117	106.31
449.338	115.31
449.559	138.31
449.779	148.31
450	100.31
450.221	100.31
450.442	87.31
450.662	95.31
450.883	106.31
451.104	115.31
451.324	89.31
451.545	98.31
451.766	85.31
451.986	97.31
452.207	101.31
452.428	90.31
452.648	87.31
452.869	125.31
453.089	126.31
453.31	102.31
453.53	113.31
453.751	91.31
453.971	104.31
454.192	92.31
454.412	108.31
454.633	79.31
454.853	92.31
455.073	89.31
455.294	99.31
455.514	105.31
455.734	105.31
455.955	85.31
456.175	78.31
456.395	90.31
456.616	91.31
456.836	92.31
457.056	97.31
457.276	82.31
457.497	84.31
457.717	84.31
457.937	87.31
458.157	92.31
458.377	81.31
458.598	110.31
458.818	150.31
459.038	157.31
459.258	104.31
459.478	67.31
459.698	92.31
459.918	88.31
460.138	84.31
460.358	108.31
460.578	93.31
460.798	86.31
461.018	105.31
461.238	89.31
461.458	88.31
461.678	99.31
461.898	101.31
462.118	91.31
462.338	99.31
462.558	93.31
462.777	79.31
462.997	83.31
463.217	92.31
463.437	85.31
463.657	101.31
463.876	113.31
464.096	116.31
464.316	97.31
464.536	76.31
464.755	101.31
464.975	103.31
465.195	170.31
465.414	165.31
465.634	117.31
465.854	86.31
466.073	91.31
466.293	93.31
466.512	78.31
466.732	86.31
466.951	85.31
467.171	77.31
467.391	87.31
467.61	104.31
467.829	101.31
468.049	90.31
468.268	97.31
468.488	89.31
468.707	93.31
468.927	104.31
469.146	89.31
469.365	94.31
469.585	95.31
469.804	77.31
470.023	83.31
470.243	81.31
470.462	100.31
470.681	124.31
470.901	93.31
471.12	89.31
471.339	88.31
471.558	76.31
471.777	72.31
471.997	96.31
472.216	94.31
472.435	90.31
472.654	68.31
472.873	85.31
473.092	76.31
473.311	93.31
473.53	114.31
473.749	86.31
473.968	78.31
474.187	99.31
474.406	103.31
474.625	94.31
474.844	105.31
475.063	92.31
475.282	75.31
475.501	77.31
475.72	92.31
475.939	87.31
476.158	103.31
476.377	91.31
476.596	88.31
476.814	93.31
477.033	92.31
477.252	85.31
477.471	91.31
477.69	94.31
477.908	97.31
478.127	90.31
478.346	85.31
478.564	76.31
478.783	103.31
479.002	107.31
479.22	94.31
479.439	97.31
479.658	91.31
479.876	86.31
480.095	85.31
480.313	86.31
480.532	91.31
480.751	76.31
480.969	100.31
481.188	108.31
481.406	95.31
481.624	107.31
481.843	85.31
482.061	99.31
482.28	83.31
482.498	91.31
482.717	77.31
482.935	99.31
483.153	96.31
483.372	105.31
483.59	91.31
483.808	83.31
484.027	114.31
484.245	100.31
484.463	95.31
484.681	101.31
484.9	116.31
485.118	105.31
485.336	99.31
485.554	108.31
485.772	93.31
485.99	115.31
486.209	111.31
486.427	108.31
486.645	118.31
486.863	116.31
487.081	109.31
487.299	107.31
487.517	102.31
487.735	93.31
487.953	95.31
488.171	105.31
488.389	97.31
488.607	95.31
488.825	93.31
489.043	103.31
489.261	97.31
489.479	89.31
489.696	86.31
489.914	89.31
490.132	105.31
490.35	101.31
490.568	79.31
490.786	102.31
491.003	92.31
491.221	76.31
491.439	91.31
491.657	123.31
491.874	112.31
492.092	96.31
492.31	101.31
492.527	89.31
492.745	98.31
492.963	97.31
493.18	100.31
493.398	86.31
493.615	101.31
493.833	92.31
494.05	100.31
494.268	106.31
494.485	90.31
494.703	97.31
494.92	90.31
495.138	101.31
495.355	97.31
495.573	103.31
495.79	114.31
496.008	92.31
496.225	87.31
496.442	94.31
496.66	94.31
496.877	93.31
497.094	94.31
497.312	95.31
497.529	97.31
497.746	105.31
497.963	101.31
498.181	89.31
498.398	98.31
498.615	108.31
498.832	112.31
499.049	91.31
499.267	90.31
499.484	93.31
499.701	83.31
499.918	96.31
500.135	97.31
500.352	96.31
500.569	93.31
500.786	87.31
501.003	85.31
501.22	88.31
501.437	86.31
501.654	104.31
501.871	106.31
502.088	97.31
502.305	102.31
502.522	94.31
502.739	103.31
502.956	92.31
503.172	109.31
503.389	90.31
503.606	105.31
503.823	102.31
504.04	104.31
504.256	87.31
504.473	82.31
504.69	107.31
504.907	108.31
505.123	82.31
505.34	97.31
505.557	95.31
505.773	102.31
505.99	98.31
506.207	92.31
506.423	97.31
506.64	108.31
506.856	99.31
507.073	84.31
507.289	97.31
507.506	102.31
507.722	116.31
507.939	110.31
508.155	100.31
508.372	79.31
508.588	93.31
508.805	96.31
509.021	95.31
509.238	90.31
509.454	97.31
509.67	91.31
509.887	123.31
510.103	131.31
510.319	221.31
510.536	766.31
510.752	2435.31
510.968	681.31
511.184	136.31
511.401	107.31
511.617	113.31
511.833	94.31
512.049	107.31
512.265	121.31
512.481	88.31
512.698	91.31
512.914	100.31
513.13	93.31
513.346	85.31
513.562	88.31
513.778	81.31
