Data from Uncirc_1986_H10_HRD10591_00056.txt Node
Date: Wed Jan 03 12:14:37 EST 2024
User: Yrep
Spectrometer: HR+D1059
Trigger mode: 1
Integration Time (sec): 1.000000E-1
Scans to average: 1
Electric dark correction enabled: true
Nonlinearity correction enabled: false
Boxcar width: 0
XAxis mode: Wavelengths
Number of Pixels in Spectrum: 2048
>>>>>Begin Spectral Data<<<<<
223.165	-30.19
223.4	-30.19
223.635	-30.19
223.869	-21.19
224.104	-15.19
224.338	-13.19
224.573	-11.19
224.808	-19.19
225.042	-1.19
225.277	0.81
225.511	-5.19
225.746	4.81
225.98	10.81
226.215	6.81
226.449	7.81
226.683	21.81
226.918	34.81
227.152	28.81
227.387	41.81
227.621	28.81
227.856	44.81
228.09	51.81
228.324	41.81
228.559	64.81
228.793	57.81
229.027	52.81
229.262	71.81
229.496	78.81
229.73	64.81
229.964	76.81
230.199	74.81
230.433	73.81
230.667	72.81
230.901	72.81
231.136	80.81
231.37	88.81
231.604	82.81
231.838	87.81
232.072	79.81
232.306	80.81
232.541	70.81
232.775	84.81
233.009	79.81
233.243	84.81
233.477	75.81
233.711	100.81
233.945	80.81
234.179	71.81
234.413	67.81
234.647	86.81
234.881	86.81
235.115	78.81
235.349	85.81
235.583	83.81
235.817	81.81
236.051	88.81
236.285	67.81
236.519	90.81
236.753	77.81
236.987	72.81
237.221	80.81
237.455	75.81
237.689	75.81
237.922	77.81
238.156	82.81
238.39	70.81
238.624	73.81
238.858	82.81
239.091	81.81
239.325	81.81
239.559	70.81
239.793	90.81
240.027	85.81
240.26	65.81
240.494	97.81
240.728	76.81
240.961	57.81
241.195	67.81
241.429	76.81
241.662	80.81
241.896	74.81
242.13	79.81
242.363	75.81
242.597	84.81
242.83	85.81
243.064	82.81
243.298	74.81
243.531	59.81
243.765	74.81
243.998	89.81
244.232	73.81
244.465	93.81
244.699	78.81
244.932	82.81
245.166	82.81
245.399	93.81
245.633	81.81
245.866	81.81
246.099	78.81
246.333	74.81
246.566	65.81
246.8	73.81
247.033	78.81
247.266	78.81
247.5	82.81
247.733	70.81
247.966	78.81
248.2	79.81
248.433	84.81
248.666	82.81
248.899	88.81
249.133	90.81
249.366	106.81
249.599	79.81
249.832	86.81
250.066	87.81
250.299	84.81
250.532	71.81
250.765	78.81
250.998	71.81
251.231	86.81
251.465	80.81
251.698	84.81
251.931	87.81
252.164	69.81
252.397	74.81
252.63	75.81
252.863	83.81
253.096	90.81
253.329	67.81
253.562	81.81
253.795	94.81
254.028	72.81
254.261	95.81
254.494	64.81
254.727	72.81
254.96	82.81
255.193	82.81
255.426	82.81
255.659	69.81
255.892	88.81
256.124	72.81
256.357	88.81
256.59	78.81
256.823	71.81
257.056	80.81
257.289	85.81
257.521	74.81
257.754	71.81
257.987	71.81
258.22	84.81
258.452	80.81
258.685	84.81
258.918	79.81
259.151	89.81
259.383	91.81
259.616	87.81
259.849	84.81
260.081	69.81
260.314	73.81
260.547	83.81
260.779	72.81
261.012	99.81
261.244	80.81
261.477	93.81
261.71	83.81
261.942	107.81
262.175	94.81
262.407	90.81
262.64	83.81
262.872	78.81
263.105	75.81
263.337	88.81
263.57	98.81
263.802	99.81
264.035	85.81
264.267	68.81
264.499	72.81
264.732	73.81
264.964	71.81
265.197	74.81
265.429	83.81
265.661	84.81
265.894	87.81
266.126	88.81
266.358	81.81
266.591	84.81
266.823	92.81
267.055	74.81
267.287	92.81
267.52	91.81
267.752	80.81
267.984	75.81
268.216	88.81
268.448	88.81
268.681	88.81
268.913	80.81
269.145	88.81
269.377	67.81
269.609	90.81
269.841	80.81
270.073	89.81
270.306	85.81
270.538	79.81
270.77	90.81
271.002	86.81
271.234	78.81
271.466	95.81
271.698	87.81
271.93	95.81
272.162	78.81
272.394	84.81
272.626	96.81
272.858	88.81
273.09	87.81
273.322	89.81
273.553	76.81
273.785	78.81
274.017	99.81
274.249	100.81
274.481	89.81
274.713	85.81
274.945	80.81
275.176	78.81
275.408	90.81
275.64	84.81
275.872	88.81
276.104	91.81
276.335	94.81
276.567	86.81
276.799	102.81
277.031	95.81
277.262	78.81
277.494	97.81
277.726	80.81
277.957	88.81
278.189	72.81
278.421	74.81
278.652	95.81
278.884	87.81
279.115	87.81
279.347	95.81
279.579	100.81
279.81	93.81
280.042	98.81
280.273	81.81
280.505	85.81
280.736	84.81
280.968	90.81
281.199	83.81
281.431	78.81
281.662	92.81
281.894	89.81
282.125	89.81
282.356	105.81
282.588	118.81
282.819	114.81
283.051	98.81
283.282	78.81
283.513	80.81
283.745	82.81
283.976	69.81
284.207	82.81
284.439	75.81
284.67	89.81
284.901	95.81
285.132	79.81
285.364	91.81
285.595	83.81
285.826	84.81
286.057	91.81
286.288	84.81
286.52	89.81
286.751	90.81
286.982	94.81
287.213	83.81
287.444	79.81
287.675	85.81
287.906	67.81
288.138	94.81
288.369	99.81
288.6	83.81
288.831	98.81
289.062	86.81
289.293	63.81
289.524	84.81
289.755	95.81
289.986	106.81
290.217	95.81
290.448	97.81
290.679	99.81
290.91	100.81
291.141	107.81
291.371	82.81
291.602	91.81
291.833	92.81
292.064	80.81
292.295	101.81
292.526	82.81
292.757	84.81
292.987	91.81
293.218	76.81
293.449	75.81
293.68	91.81
293.91	90.81
294.141	90.81
294.372	98.81
294.603	88.81
294.833	93.81
295.064	87.81
295.295	94.81
295.525	93.81
295.756	108.81
295.987	102.81
296.217	106.81
296.448	107.81
296.679	94.81
296.909	83.81
297.14	93.81
297.37	96.81
297.601	99.81
297.831	89.81
298.062	90.81
298.292	97.81
298.523	72.81
298.753	93.81
298.984	83.81
299.214	93.81
299.445	93.81
299.675	85.81
299.905	102.81
300.136	82.81
300.366	82.81
300.597	91.81
300.827	78.81
301.057	91.81
301.288	88.81
301.518	90.81
301.748	78.81
301.979	102.81
302.209	97.81
302.439	90.81
302.669	79.81
302.9	105.81
303.13	88.81
303.36	97.81
303.59	91.81
303.82	102.81
304.051	102.81
304.281	98.81
304.511	98.81
304.741	93.81
304.971	90.81
305.201	74.81
305.431	93.81
305.661	88.81
305.891	82.81
306.121	88.81
306.352	112.81
306.582	90.81
306.812	101.81
307.042	90.81
307.272	95.81
307.502	97.81
307.731	95.81
307.961	75.81
308.191	80.81
308.421	82.81
308.651	96.81
308.881	97.81
309.111	84.81
309.341	96.81
309.571	95.81
309.8	93.81
310.03	104.81
310.26	96.81
310.49	101.81
310.72	83.81
310.949	95.81
311.179	92.81
311.409	99.81
311.639	85.81
311.868	86.81
312.098	91.81
312.328	89.81
312.557	111.81
312.787	105.81
313.017	101.81
313.246	92.81
313.476	100.81
313.706	98.81
313.935	86.81
314.165	97.81
314.394	105.81
314.624	103.81
314.853	89.81
315.083	103.81
315.312	93.81
315.542	100.81
315.771	96.81
316.001	92.81
316.23	71.81
316.46	82.81
316.689	78.81
316.919	87.81
317.148	103.81
317.377	92.81
317.607	95.81
317.836	71.81
318.065	104.81
318.295	73.81
318.524	88.81
318.753	95.81
318.983	90.81
319.212	105.81
319.441	89.81
319.67	93.81
319.9	92.81
320.129	96.81
320.358	76.81
320.587	95.81
320.816	102.81
321.046	103.81
321.275	100.81
321.504	104.81
321.733	100.81
321.962	92.81
322.191	84.81
322.42	96.81
322.649	97.81
322.878	108.81
323.108	109.81
323.337	123.81
323.566	132.81
323.795	132.81
324.024	178.81
324.253	318.81
324.482	662.81
324.71	1350.81
324.939	1748.81
325.168	656.81
325.397	229.81
325.626	125.81
325.855	106.81
326.084	122.81
326.313	115.81
326.542	128.81
326.77	210.81
326.999	363.81
327.228	744.81
327.457	1374.81
327.686	1082.81
327.914	314.81
328.143	171.81
328.372	143.81
328.6	116.81
328.829	98.81
329.058	105.81
329.287	112.81
329.515	105.81
329.744	85.81
329.972	88.81
330.201	106.81
330.43	110.81
330.658	121.81
330.887	119.81
331.115	109.81
331.344	96.81
331.572	99.81
331.801	100.81
332.03	96.81
332.258	110.81
332.486	92.81
332.715	88.81
332.943	98.81
333.172	94.81
333.4	102.81
333.629	74.81
333.857	96.81
334.085	104.81
334.314	100.81
334.542	122.81
334.771	102.81
334.999	103.81
335.227	98.81
335.455	100.81
335.684	94.81
335.912	92.81
336.14	101.81
336.369	105.81
336.597	103.81
336.825	95.81
337.053	89.81
337.281	94.81
337.51	92.81
337.738	95.81
337.966	90.81
338.194	102.81
338.422	100.81
338.65	85.81
338.878	83.81
339.106	89.81
339.334	90.81
339.562	94.81
339.79	99.81
340.018	81.81
340.246	87.81
340.474	102.81
340.702	98.81
340.93	82.81
341.158	93.81
341.386	98.81
341.614	91.81
341.842	97.81
342.07	75.81
342.298	99.81
342.526	88.81
342.754	87.81
342.981	90.81
343.209	89.81
343.437	102.81
343.665	89.81
343.893	89.81
344.12	86.81
344.348	83.81
344.576	94.81
344.804	97.81
345.031	100.81
345.259	96.81
345.487	97.81
345.714	97.81
345.942	89.81
346.17	104.81
346.397	91.81
346.625	84.81
346.853	74.81
347.08	87.81
347.308	108.81
347.535	95.81
347.763	98.81
347.99	102.81
348.218	96.81
348.445	102.81
348.673	91.81
348.9	107.81
349.128	89.81
349.355	101.81
349.583	89.81
349.81	91.81
350.037	95.81
350.265	103.81
350.492	94.81
350.72	83.81
350.947	101.81
351.174	98.81
351.402	105.81
351.629	105.81
351.856	107.81
352.083	112.81
352.311	107.81
352.538	98.81
352.765	98.81
352.992	113.81
353.22	116.81
353.447	94.81
353.674	102.81
353.901	102.81
354.128	98.81
354.355	87.81
354.583	109.81
354.81	95.81
355.037	94.81
355.264	84.81
355.491	90.81
355.718	110.81
355.945	88.81
356.172	99.81
356.399	107.81
356.626	85.81
356.853	97.81
357.08	106.81
357.307	97.81
357.534	93.81
357.761	98.81
357.988	87.81
358.215	87.81
358.441	102.81
358.668	89.81
358.895	88.81
359.122	96.81
359.349	78.81
359.576	79.81
359.802	97.81
360.029	100.81
360.256	95.81
360.483	98.81
360.709	80.81
360.936	98.81
361.163	95.81
361.39	95.81
361.616	88.81
361.843	94.81
362.07	96.81
362.296	87.81
362.523	96.81
362.749	94.81
362.976	98.81
363.203	102.81
363.429	94.81
363.656	89.81
363.882	84.81
364.109	75.81
364.335	89.81
364.562	81.81
364.788	98.81
365.015	100.81
365.241	96.81
365.468	101.81
365.694	102.81
365.92	95.81
366.147	95.81
366.373	88.81
366.599	89.81
366.826	108.81
367.052	94.81
367.278	87.81
367.505	94.81
367.731	86.81
367.957	73.81
368.184	91.81
368.41	100.81
368.636	104.81
368.862	120.81
369.089	101.81
369.315	94.81
369.541	107.81
369.767	76.81
369.993	85.81
370.219	82.81
370.445	94.81
370.672	96.81
370.898	69.81
371.124	88.81
371.35	91.81
371.576	79.81
371.802	79.81
372.028	87.81
372.254	81.81
372.48	86.81
372.706	97.81
372.932	96.81
373.158	83.81
373.384	103.81
373.61	94.81
373.835	87.81
374.061	94.81
374.287	88.81
374.513	86.81
374.739	102.81
374.965	85.81
375.191	88.81
375.416	83.81
375.642	82.81
375.868	82.81
376.094	94.81
376.319	89.81
376.545	88.81
376.771	97.81
376.997	100.81
377.222	91.81
377.448	102.81
377.674	89.81
377.899	85.81
378.125	93.81
378.35	90.81
378.576	84.81
378.802	101.81
379.027	94.81
379.253	98.81
379.478	89.81
379.704	95.81
379.929	88.81
380.155	96.81
380.38	99.81
380.606	87.81
380.831	94.81
381.057	91.81
381.282	94.81
381.507	108.81
381.733	90.81
381.958	102.81
382.184	104.81
382.409	103.81
382.634	108.81
382.86	87.81
383.085	103.81
383.31	89.81
383.535	96.81
383.761	92.81
383.986	96.81
384.211	96.81
384.436	89.81
384.662	105.81
384.887	101.81
385.112	114.81
385.337	104.81
385.562	103.81
385.787	89.81
386.013	108.81
386.238	111.81
386.463	104.81
386.688	96.81
386.913	99.81
387.138	79.81
387.363	98.81
387.588	104.81
387.813	74.81
388.038	90.81
388.263	100.81
388.488	96.81
388.713	77.81
388.938	93.81
389.163	91.81
389.387	86.81
389.612	97.81
389.837	85.81
390.062	95.81
390.287	93.81
390.512	87.81
390.736	95.81
390.961	99.81
391.186	99.81
391.411	90.81
391.636	107.81
391.86	94.81
392.085	68.81
392.31	69.81
392.534	76.81
392.759	95.81
392.984	89.81
393.208	100.81
393.433	103.81
393.658	96.81
393.882	106.81
394.107	80.81
394.331	88.81
394.556	83.81
394.78	83.81
395.005	92.81
395.229	94.81
395.454	92.81
395.678	88.81
395.903	84.81
396.127	95.81
396.352	77.81
396.576	78.81
396.801	90.81
397.025	85.81
397.249	94.81
397.474	101.81
397.698	79.81
397.922	98.81
398.147	70.81
398.371	87.81
398.595	80.81
398.82	92.81
399.044	88.81
399.268	90.81
399.492	91.81
399.717	100.81
399.941	101.81
400.165	100.81
400.389	81.81
400.613	102.81
400.837	91.81
401.062	94.81
401.286	84.81
401.51	85.81
401.734	90.81
401.958	99.81
402.182	102.81
402.406	135.81
402.63	113.81
402.854	86.81
403.078	88.81
403.302	101.81
403.526	94.81
403.75	89.81
403.974	92.81
404.198	103.81
404.422	80.81
404.645	75.81
404.869	86.81
405.093	96.81
405.317	102.81
405.541	87.81
405.765	97.81
405.988	108.81
406.212	147.81
406.436	188.81
406.66	121.81
406.883	94.81
407.107	98.81
407.331	84.81
407.555	98.81
407.778	106.81
408.002	86.81
408.226	88.81
408.449	91.81
408.673	82.81
408.896	96.81
409.12	92.81
409.344	83.81
409.567	92.81
409.791	95.81
410.014	84.81
410.238	99.81
410.461	94.81
410.685	111.81
410.908	110.81
411.132	108.81
411.355	99.81
411.578	94.81
411.802	100.81
412.025	71.81
412.249	84.81
412.472	84.81
412.695	85.81
412.919	88.81
413.142	94.81
413.365	94.81
413.589	87.81
413.812	92.81
414.035	99.81
414.258	95.81
414.482	86.81
414.705	84.81
414.928	84.81
415.151	90.81
415.374	79.81
415.597	93.81
415.821	82.81
416.044	90.81
416.267	80.81
416.49	90.81
416.713	91.81
416.936	88.81
417.159	83.81
417.382	94.81
417.605	93.81
417.828	90.81
418.051	76.81
418.274	107.81
418.497	84.81
418.72	87.81
418.943	84.81
419.166	92.81
419.389	87.81
419.611	83.81
419.834	90.81
420.057	86.81
420.28	81.81
420.503	86.81
420.726	83.81
420.948	95.81
421.171	97.81
421.394	84.81
421.617	88.81
421.839	76.81
422.062	84.81
422.285	83.81
422.507	100.81
422.73	86.81
422.953	95.81
423.175	70.81
423.398	78.81
423.621	76.81
423.843	85.81
424.066	80.81
424.288	81.81
424.511	78.81
424.733	104.81
424.956	106.81
425.178	105.81
425.401	90.81
425.623	90.81
425.846	88.81
426.068	96.81
426.291	83.81
426.513	100.81
426.735	84.81
426.958	86.81
427.18	109.81
427.402	130.81
427.625	140.81
427.847	128.81
428.069	107.81
428.292	95.81
428.514	91.81
428.736	69.81
428.958	91.81
429.181	88.81
429.403	96.81
429.625	99.81
429.847	84.81
430.069	96.81
430.292	84.81
430.514	74.81
430.736	84.81
430.958	77.81
431.18	91.81
431.402	82.81
431.624	72.81
431.846	73.81
432.068	84.81
432.29	82.81
432.512	92.81
432.734	81.81
432.956	94.81
433.178	92.81
433.4	104.81
433.622	94.81
433.844	91.81
434.066	92.81
434.287	88.81
434.509	89.81
434.731	101.81
434.953	88.81
435.175	102.81
435.397	80.81
435.618	99.81
435.84	113.81
436.062	108.81
436.284	104.81
436.505	95.81
436.727	89.81
436.949	108.81
437.17	95.81
437.392	74.81
437.614	91.81
437.835	95.81
438.057	106.81
438.278	108.81
438.5	107.81
438.721	111.81
438.943	91.81
439.165	85.81
439.386	81.81
439.608	94.81
439.829	92.81
440.05	106.81
440.272	124.81
440.493	90.81
440.715	65.81
440.936	88.81
441.158	76.81
441.379	96.81
441.6	71.81
441.822	94.81
442.043	81.81
442.264	92.81
442.486	97.81
442.707	98.81
442.928	97.81
443.149	128.81
443.371	120.81
443.592	102.81
443.813	105.81
444.034	96.81
444.255	94.81
444.476	89.81
444.698	84.81
444.919	87.81
445.14	114.81
445.361	121.81
445.582	113.81
445.803	110.81
446.024	123.81
446.245	120.81
446.466	99.81
446.687	95.81
446.908	84.81
447.129	81.81
447.35	82.81
447.571	87.81
447.792	84.81
448.013	107.81
448.234	88.81
448.455	100.81
448.675	101.81
448.896	110.81
449.117	91.81
449.338	104.81
449.559	113.81
449.779	120.81
450	100.81
450.221	87.81
450.442	89.81
450.662	88.81
450.883	91.81
451.104	108.81
451.324	97.81
451.545	89.81
451.766	95.81
451.986	80.81
452.207	78.81
452.428	79.81
452.648	97.81
452.869	98.81
453.089	103.81
453.31	101.81
453.53	105.81
453.751	68.81
453.971	100.81
454.192	99.81
454.412	96.81
454.633	98.81
454.853	102.81
455.073	83.81
455.294	95.81
455.514	105.81
455.734	90.81
455.955	98.81
456.175	78.81
456.395	74.81
456.616	84.81
456.836	92.81
457.056	88.81
457.276	94.81
457.497	96.81
457.717	88.81
457.937	80.81
458.157	88.81
458.377	79.81
458.598	92.81
458.818	133.81
459.038	156.81
459.258	100.81
459.478	82.81
459.698	88.81
459.918	88.81
460.138	94.81
460.358	95.81
460.578	90.81
460.798	94.81
461.018	106.81
461.238	91.81
461.458	79.81
461.678	83.81
461.898	90.81
462.118	100.81
462.338	86.81
462.558	82.81
462.777	87.81
462.997	89.81
463.217	85.81
463.437	83.81
463.657	79.81
463.876	92.81
464.096	96.81
464.316	95.81
464.536	83.81
464.755	94.81
464.975	103.81
465.195	133.81
465.414	126.81
465.634	89.81
465.854	84.81
466.073	92.81
466.293	89.81
466.512	82.81
466.732	85.81
466.951	84.81
467.171	92.81
467.391	93.81
467.61	101.81
467.829	90.81
468.049	90.81
468.268	100.81
468.488	86.81
468.707	90.81
468.927	90.81
469.146	89.81
469.365	77.81
469.585	76.81
469.804	91.81
470.023	92.81
470.243	89.81
470.462	91.81
470.681	105.81
470.901	84.81
471.12	80.81
471.339	87.81
471.558	108.81
471.777	78.81
471.997	86.81
472.216	82.81
472.435	91.81
472.654	83.81
472.873	99.81
473.092	93.81
473.311	98.81
473.53	85.81
473.749	67.81
473.968	92.81
474.187	87.81
474.406	92.81
474.625	93.81
474.844	84.81
475.063	93.81
475.282	90.81
475.501	86.81
475.72	73.81
475.939	82.81
476.158	91.81
476.377	78.81
476.596	88.81
476.814	82.81
477.033	100.81
477.252	103.81
477.471	95.81
477.69	100.81
477.908	86.81
478.127	94.81
478.346	87.81
478.564	84.81
478.783	99.81
479.002	102.81
479.22	99.81
479.439	96.81
479.658	83.81
479.876	85.81
480.095	87.81
480.313	96.81
480.532	83.81
480.751	90.81
480.969	76.81
481.188	108.81
481.406	94.81
481.624	84.81
481.843	108.81
482.061	89.81
482.28	104.81
482.498	95.81
482.717	90.81
482.935	73.81
483.153	97.81
483.372	79.81
483.59	84.81
483.808	97.81
484.027	101.81
484.245	95.81
484.463	93.81
484.681	99.81
484.9	95.81
485.118	87.81
485.336	94.81
485.554	84.81
485.772	96.81
485.99	106.81
486.209	114.81
486.427	101.81
486.645	112.81
486.863	105.81
487.081	100.81
487.299	81.81
487.517	102.81
487.735	102.81
487.953	92.81
488.171	89.81
488.389	85.81
488.607	99.81
488.825	80.81
489.043	95.81
489.261	79.81
489.479	90.81
489.696	90.81
489.914	84.81
490.132	82.81
490.35	100.81
490.568	93.81
490.786	91.81
491.003	87.81
491.221	88.81
491.439	84.81
491.657	89.81
491.874	97.81
492.092	99.81
492.31	91.81
492.527	92.81
492.745	101.81
492.963	92.81
493.18	89.81
493.398	84.81
493.615	75.81
493.833	89.81
494.05	92.81
494.268	84.81
494.485	93.81
494.703	106.81
494.92	90.81
495.138	80.81
495.355	85.81
495.573	80.81
495.79	98.81
496.008	105.81
496.225	89.81
496.442	95.81
496.66	101.81
496.877	93.81
497.094	97.81
497.312	98.81
497.529	92.81
497.746	98.81
497.963	88.81
498.181	79.81
498.398	101.81
498.615	104.81
498.832	102.81
499.049	89.81
499.267	83.81
499.484	94.81
499.701	80.81
499.918	98.81
500.135	87.81
500.352	86.81
500.569	97.81
500.786	92.81
501.003	88.81
501.22	87.81
501.437	79.81
501.654	102.81
501.871	114.81
502.088	96.81
502.305	92.81
502.522	95.81
502.739	90.81
502.956	81.81
503.172	91.81
503.389	86.81
503.606	90.81
503.823	96.81
504.04	92.81
504.256	94.81
504.473	94.81
504.69	88.81
504.907	99.81
505.123	88.81
505.34	89.81
505.557	101.81
505.773	108.81
505.99	84.81
506.207	75.81
506.423	84.81
506.64	90.81
506.856	84.81
507.073	93.81
507.289	103.81
507.506	91.81
507.722	103.81
507.939	110.81
508.155	87.81
508.372	95.81
508.588	92.81
508.805	97.81
509.021	95.81
509.238	103.81
509.454	109.81
509.67	104.81
509.887	100.81
510.103	105.81
510.319	171.81
510.536	606.81
510.752	1851.81
510.968	523.81
511.184	138.81
511.401	99.81
511.617	103.81
511.833	75.81
512.049	87.81
512.265	89.81
512.481	89.81
512.698	101.81
512.914	88.81
513.13	94.81
513.346	94.81
513.562	102.81
513.778	88.81
513.994	87.81
514.21	96.81
514.426	113.81
514.642	127.81
514.858	118.81
515.074	137.81
515.29	360.81
515.506	1113.81
515.721	400.81
515.937	123.81
