Data from Uncirc_1986_H10_HRD10591_00074.txt Node
Date: Wed Jan 03 12:14:41 EST 2024
User: Yrep
Spectrometer: HR+D1059
Trigger mode: 1
Integration Time (sec): 1.000000E-1
Scans to average: 1
Electric dark correction enabled: true
Nonlinearity correction enabled: false
Boxcar width: 0
XAxis mode: Wavelengths
Number of Pixels in Spectrum: 2048
>>>>>Begin Spectral Data<<<<<
223.165	-8.94
223.4	-8.94
223.635	-8.94
223.869	-24.94
224.104	-9.94
224.338	-17.94
224.573	-15.94
224.808	-14.94
225.042	-21.94
225.277	-5.94
225.511	11.06
225.746	-3.94
225.98	11.06
226.215	-0.94
226.449	19.06
226.683	34.06
226.918	30.06
227.152	20.06
227.387	26.06
227.621	38.06
227.856	45.06
228.09	44.06
228.324	36.06
228.559	49.06
228.793	52.06
229.027	35.06
229.262	48.06
229.496	70.06
229.73	82.06
229.964	90.06
230.199	71.06
230.433	59.06
230.667	68.06
230.901	86.06
231.136	68.06
231.37	88.06
231.604	76.06
231.838	77.06
232.072	79.06
232.306	77.06
232.541	74.06
232.775	76.06
233.009	63.06
233.243	83.06
233.477	75.06
233.711	75.06
233.945	74.06
234.179	60.06
234.413	90.06
234.647	85.06
234.881	76.06
235.115	66.06
235.349	74.06
235.583	72.06
235.817	66.06
236.051	84.06
236.285	68.06
236.519	59.06
236.753	96.06
236.987	77.06
237.221	64.06
237.455	76.06
237.689	78.06
237.922	71.06
238.156	65.06
238.39	76.06
238.624	53.06
238.858	75.06
239.091	75.06
239.325	86.06
239.559	78.06
239.793	70.06
240.027	71.06
240.26	70.06
240.494	75.06
240.728	75.06
240.961	61.06
241.195	65.06
241.429	59.06
241.662	75.06
241.896	64.06
242.13	59.06
242.363	68.06
242.597	70.06
242.83	71.06
243.064	67.06
243.298	78.06
243.531	76.06
243.765	81.06
243.998	84.06
244.232	84.06
244.465	82.06
244.699	63.06
244.932	89.06
245.166	77.06
245.399	81.06
245.633	77.06
245.866	53.06
246.099	85.06
246.333	84.06
246.566	83.06
246.8	66.06
247.033	82.06
247.266	80.06
247.5	85.06
247.733	77.06
247.966	79.06
248.2	69.06
248.433	82.06
248.666	78.06
248.899	72.06
249.133	104.06
249.366	99.06
249.599	85.06
249.832	70.06
250.066	74.06
250.299	71.06
250.532	80.06
250.765	78.06
250.998	75.06
251.231	84.06
251.465	70.06
251.698	86.06
251.931	82.06
252.164	79.06
252.397	78.06
252.63	92.06
252.863	81.06
253.096	78.06
253.329	71.06
253.562	84.06
253.795	69.06
254.028	85.06
254.261	71.06
254.494	72.06
254.727	80.06
254.96	81.06
255.193	71.06
255.426	74.06
255.659	72.06
255.892	94.06
256.124	72.06
256.357	68.06
256.59	75.06
256.823	78.06
257.056	91.06
257.289	78.06
257.521	83.06
257.754	85.06
257.987	79.06
258.22	100.06
258.452	90.06
258.685	78.06
258.918	77.06
259.151	80.06
259.383	92.06
259.616	77.06
259.849	77.06
260.081	76.06
260.314	79.06
260.547	80.06
260.779	78.06
261.012	84.06
261.244	82.06
261.477	77.06
261.71	91.06
261.942	100.06
262.175	109.06
262.407	72.06
262.64	92.06
262.872	77.06
263.105	96.06
263.337	74.06
263.57	85.06
263.802	77.06
264.035	80.06
264.267	76.06
264.499	87.06
264.732	80.06
264.964	88.06
265.197	70.06
265.429	70.06
265.661	76.06
265.894	78.06
266.126	86.06
266.358	63.06
266.591	93.06
266.823	82.06
267.055	67.06
267.287	87.06
267.52	82.06
267.752	83.06
267.984	70.06
268.216	80.06
268.448	66.06
268.681	84.06
268.913	80.06
269.145	74.06
269.377	79.06
269.609	84.06
269.841	71.06
270.073	84.06
270.306	91.06
270.538	87.06
270.77	83.06
271.002	87.06
271.234	97.06
271.466	82.06
271.698	80.06
271.93	76.06
272.162	80.06
272.394	88.06
272.626	82.06
272.858	75.06
273.09	89.06
273.322	68.06
273.553	84.06
273.785	81.06
274.017	86.06
274.249	75.06
274.481	81.06
274.713	87.06
274.945	76.06
275.176	76.06
275.408	91.06
275.64	87.06
275.872	69.06
276.104	81.06
276.335	96.06
276.567	90.06
276.799	94.06
277.031	97.06
277.262	86.06
277.494	77.06
277.726	87.06
277.957	84.06
278.189	84.06
278.421	83.06
278.652	97.06
278.884	79.06
279.115	86.06
279.347	92.06
279.579	86.06
279.81	76.06
280.042	90.06
280.273	86.06
280.505	83.06
280.736	90.06
280.968	72.06
281.199	72.06
281.431	84.06
281.662	78.06
281.894	80.06
282.125	92.06
282.356	107.06
282.588	118.06
282.819	118.06
283.051	84.06
283.282	92.06
283.513	92.06
283.745	104.06
283.976	78.06
284.207	96.06
284.439	94.06
284.67	85.06
284.901	83.06
285.132	86.06
285.364	76.06
285.595	90.06
285.826	84.06
286.057	82.06
286.288	88.06
286.52	80.06
286.751	68.06
286.982	85.06
287.213	88.06
287.444	78.06
287.675	80.06
287.906	79.06
288.138	75.06
288.369	91.06
288.6	99.06
288.831	82.06
289.062	83.06
289.293	69.06
289.524	84.06
289.755	74.06
289.986	74.06
290.217	87.06
290.448	86.06
290.679	87.06
290.91	74.06
291.141	90.06
291.371	77.06
291.602	87.06
291.833	97.06
292.064	86.06
292.295	74.06
292.526	81.06
292.757	89.06
292.987	83.06
293.218	76.06
293.449	78.06
293.68	77.06
293.91	97.06
294.141	96.06
294.372	91.06
294.603	83.06
294.833	87.06
295.064	93.06
295.295	82.06
295.525	81.06
295.756	94.06
295.987	110.06
296.217	122.06
296.448	91.06
296.679	94.06
296.909	83.06
297.14	78.06
297.37	99.06
297.601	83.06
297.831	101.06
298.062	93.06
298.292	85.06
298.523	92.06
298.753	94.06
298.984	83.06
299.214	74.06
299.445	78.06
299.675	86.06
299.905	97.06
300.136	80.06
300.366	84.06
300.597	87.06
300.827	100.06
301.057	94.06
301.288	102.06
301.518	89.06
301.748	77.06
301.979	92.06
302.209	83.06
302.439	71.06
302.669	89.06
302.9	91.06
303.13	95.06
303.36	91.06
303.59	79.06
303.82	109.06
304.051	93.06
304.281	97.06
304.511	94.06
304.741	87.06
304.971	71.06
305.201	79.06
305.431	79.06
305.661	100.06
305.891	87.06
306.121	78.06
306.352	98.06
306.582	99.06
306.812	93.06
307.042	76.06
307.272	86.06
307.502	76.06
307.731	95.06
307.961	86.06
308.191	83.06
308.421	86.06
308.651	84.06
308.881	84.06
309.111	67.06
309.341	80.06
309.571	111.06
309.8	91.06
310.03	92.06
310.26	78.06
310.49	84.06
310.72	100.06
310.949	85.06
311.179	85.06
311.409	90.06
311.639	95.06
311.868	86.06
312.098	100.06
312.328	91.06
312.557	96.06
312.787	92.06
313.017	98.06
313.246	107.06
313.476	86.06
313.706	88.06
313.935	83.06
314.165	90.06
314.394	96.06
314.624	78.06
314.853	91.06
315.083	77.06
315.312	82.06
315.542	84.06
315.771	68.06
316.001	68.06
316.23	97.06
316.46	92.06
316.689	79.06
316.919	85.06
317.148	100.06
317.377	95.06
317.607	81.06
317.836	95.06
318.065	79.06
318.295	79.06
318.524	86.06
318.753	83.06
318.983	101.06
319.212	101.06
319.441	110.06
319.67	102.06
319.9	79.06
320.129	88.06
320.358	90.06
320.587	89.06
320.816	89.06
321.046	91.06
321.275	88.06
321.504	74.06
321.733	95.06
321.962	103.06
322.191	81.06
322.42	100.06
322.649	114.06
322.878	101.06
323.108	111.06
323.337	108.06
323.566	126.06
323.795	134.06
324.024	187.06
324.253	365.06
324.482	726.06
324.71	1496.06
324.939	1980.06
325.168	706.06
325.397	223.06
325.626	144.06
325.855	111.06
326.084	122.06
326.313	132.06
326.542	141.06
326.77	204.06
326.999	396.06
327.228	821.06
327.457	1515.06
327.686	1221.06
327.914	330.06
328.143	174.06
328.372	140.06
328.6	104.06
328.829	105.06
329.058	119.06
329.287	112.06
329.515	91.06
329.744	89.06
329.972	103.06
330.201	98.06
330.43	117.06
330.658	116.06
330.887	119.06
331.115	108.06
331.344	79.06
331.572	95.06
331.801	90.06
332.03	98.06
332.258	104.06
332.486	86.06
332.715	99.06
332.943	86.06
333.172	82.06
333.4	88.06
333.629	107.06
333.857	104.06
334.085	111.06
334.314	95.06
334.542	109.06
334.771	98.06
334.999	84.06
335.227	93.06
335.455	76.06
335.684	97.06
335.912	91.06
336.14	104.06
336.369	92.06
336.597	106.06
336.825	74.06
337.053	94.06
337.281	87.06
337.51	92.06
337.738	100.06
337.966	95.06
338.194	93.06
338.422	84.06
338.65	80.06
338.878	81.06
339.106	90.06
339.334	87.06
339.562	83.06
339.79	83.06
340.018	82.06
340.246	86.06
340.474	87.06
340.702	102.06
340.93	85.06
341.158	85.06
341.386	102.06
341.614	84.06
341.842	92.06
342.07	87.06
342.298	84.06
342.526	102.06
342.754	85.06
342.981	83.06
343.209	89.06
343.437	100.06
343.665	76.06
343.893	80.06
344.12	93.06
344.348	87.06
344.576	86.06
344.804	83.06
345.031	82.06
345.259	110.06
345.487	91.06
345.714	91.06
345.942	91.06
346.17	85.06
346.397	78.06
346.625	96.06
346.853	86.06
347.08	88.06
347.308	88.06
347.535	99.06
347.763	101.06
347.99	99.06
348.218	80.06
348.445	94.06
348.673	94.06
348.9	96.06
349.128	84.06
349.355	82.06
349.583	91.06
349.81	92.06
350.037	80.06
350.265	86.06
350.492	92.06
350.72	93.06
350.947	87.06
351.174	85.06
351.402	99.06
351.629	82.06
351.856	100.06
352.083	112.06
352.311	114.06
352.538	92.06
352.765	99.06
352.992	99.06
353.22	90.06
353.447	92.06
353.674	94.06
353.901	95.06
354.128	89.06
354.355	97.06
354.583	113.06
354.81	85.06
355.037	97.06
355.264	91.06
355.491	88.06
355.718	100.06
355.945	96.06
356.172	85.06
356.399	95.06
356.626	86.06
356.853	78.06
357.08	98.06
357.307	88.06
357.534	95.06
357.761	94.06
357.988	90.06
358.215	88.06
358.441	80.06
358.668	90.06
358.895	77.06
359.122	81.06
359.349	88.06
359.576	86.06
359.802	74.06
360.029	90.06
360.256	98.06
360.483	83.06
360.709	88.06
360.936	85.06
361.163	89.06
361.39	81.06
361.616	78.06
361.843	83.06
362.07	91.06
362.296	88.06
362.523	83.06
362.749	76.06
362.976	77.06
363.203	76.06
363.429	72.06
363.656	94.06
363.882	83.06
364.109	76.06
364.335	74.06
364.562	80.06
364.788	82.06
365.015	93.06
365.241	104.06
365.468	98.06
365.694	94.06
365.92	81.06
366.147	92.06
366.373	89.06
366.599	90.06
366.826	94.06
367.052	88.06
367.278	85.06
367.505	82.06
367.731	97.06
367.957	71.06
368.184	98.06
368.41	90.06
368.636	77.06
368.862	107.06
369.089	82.06
369.315	90.06
369.541	84.06
369.767	89.06
369.993	79.06
370.219	80.06
370.445	84.06
370.672	80.06
370.898	82.06
371.124	87.06
371.35	72.06
371.576	62.06
371.802	84.06
372.028	81.06
372.254	94.06
372.48	83.06
372.706	83.06
372.932	81.06
373.158	85.06
373.384	90.06
373.61	94.06
373.835	97.06
374.061	86.06
374.287	74.06
374.513	68.06
374.739	88.06
374.965	95.06
375.191	86.06
375.416	72.06
375.642	85.06
375.868	87.06
376.094	73.06
376.319	90.06
376.545	81.06
376.771	84.06
376.997	68.06
377.222	81.06
377.448	85.06
377.674	91.06
377.899	77.06
378.125	92.06
378.35	74.06
378.576	99.06
378.802	95.06
379.027	90.06
379.253	79.06
379.478	94.06
379.704	83.06
379.929	93.06
380.155	79.06
380.38	93.06
380.606	78.06
380.831	75.06
381.057	91.06
381.282	86.06
381.507	84.06
381.733	94.06
381.958	85.06
382.184	96.06
382.409	90.06
382.634	90.06
382.86	88.06
383.085	97.06
383.31	88.06
383.535	95.06
383.761	99.06
383.986	79.06
384.211	87.06
384.436	97.06
384.662	96.06
384.887	86.06
385.112	87.06
385.337	85.06
385.562	82.06
385.787	97.06
386.013	98.06
386.238	97.06
386.463	85.06
386.688	104.06
386.913	90.06
387.138	98.06
387.363	90.06
387.588	82.06
387.813	91.06
388.038	102.06
388.263	102.06
388.488	98.06
388.713	90.06
388.938	84.06
389.163	73.06
389.387	84.06
389.612	98.06
389.837	92.06
390.062	82.06
390.287	88.06
390.512	90.06
390.736	75.06
390.961	84.06
391.186	93.06
391.411	94.06
391.636	90.06
391.86	91.06
392.085	84.06
392.31	85.06
392.534	80.06
392.759	92.06
392.984	88.06
393.208	79.06
393.433	92.06
393.658	89.06
393.882	77.06
394.107	75.06
394.331	84.06
394.556	86.06
394.78	93.06
395.005	77.06
395.229	90.06
395.454	90.06
395.678	71.06
395.903	92.06
396.127	73.06
396.352	84.06
396.576	68.06
396.801	94.06
397.025	82.06
397.249	88.06
397.474	91.06
397.698	88.06
397.922	86.06
398.147	84.06
398.371	82.06
398.595	72.06
398.82	77.06
399.044	77.06
399.268	70.06
399.492	82.06
399.717	83.06
399.941	89.06
400.165	84.06
400.389	89.06
400.613	96.06
400.837	82.06
401.062	76.06
401.286	76.06
401.51	93.06
401.734	86.06
401.958	95.06
402.182	111.06
402.406	141.06
402.63	109.06
402.854	86.06
403.078	82.06
403.302	84.06
403.526	88.06
403.75	84.06
403.974	77.06
404.198	87.06
404.422	84.06
404.645	68.06
404.869	77.06
405.093	83.06
405.317	88.06
405.541	69.06
405.765	76.06
405.988	108.06
406.212	153.06
406.436	180.06
406.66	123.06
406.883	83.06
407.107	82.06
407.331	97.06
407.555	86.06
407.778	94.06
408.002	85.06
408.226	92.06
408.449	80.06
408.673	86.06
408.896	100.06
409.12	95.06
409.344	104.06
409.567	86.06
409.791	80.06
410.014	90.06
410.238	85.06
410.461	88.06
410.685	100.06
410.908	74.06
411.132	101.06
411.355	85.06
411.578	75.06
411.802	92.06
412.025	91.06
412.249	81.06
412.472	86.06
412.695	79.06
412.919	87.06
413.142	90.06
413.365	80.06
413.589	70.06
413.812	80.06
414.035	78.06
414.258	71.06
414.482	69.06
414.705	82.06
414.928	78.06
415.151	82.06
415.374	81.06
415.597	68.06
415.821	75.06
416.044	71.06
416.267	86.06
416.49	81.06
416.713	88.06
416.936	77.06
417.159	89.06
417.382	82.06
417.605	84.06
417.828	90.06
418.051	87.06
418.274	84.06
418.497	76.06
418.72	79.06
418.943	79.06
419.166	77.06
419.389	76.06
419.611	83.06
419.834	71.06
420.057	84.06
420.28	91.06
420.503	87.06
420.726	81.06
420.948	91.06
421.171	98.06
421.394	77.06
421.617	85.06
421.839	76.06
422.062	79.06
422.285	104.06
422.507	96.06
422.73	98.06
422.953	75.06
423.175	104.06
423.398	92.06
423.621	78.06
423.843	87.06
424.066	82.06
424.288	76.06
424.511	84.06
424.733	100.06
424.956	97.06
425.178	80.06
425.401	94.06
425.623	94.06
425.846	93.06
426.068	80.06
426.291	91.06
426.513	97.06
426.735	89.06
426.958	86.06
427.18	88.06
427.402	112.06
427.625	152.06
427.847	125.06
428.069	104.06
428.292	92.06
428.514	79.06
428.736	75.06
428.958	89.06
429.181	93.06
429.403	75.06
429.625	92.06
429.847	84.06
430.069	94.06
430.292	91.06
430.514	81.06
430.736	71.06
430.958	75.06
431.18	88.06
431.402	85.06
431.624	91.06
431.846	86.06
432.068	80.06
432.29	82.06
432.512	75.06
432.734	83.06
432.956	92.06
433.178	109.06
433.4	109.06
433.622	78.06
433.844	85.06
434.066	94.06
434.287	102.06
434.509	86.06
434.731	114.06
434.953	77.06
435.175	96.06
435.397	110.06
435.618	94.06
435.84	88.06
436.062	118.06
436.284	111.06
436.505	93.06
436.727	104.06
436.949	94.06
437.17	86.06
437.392	82.06
437.614	93.06
437.835	92.06
438.057	105.06
438.278	100.06
438.5	86.06
438.721	117.06
438.943	107.06
439.165	92.06
439.386	82.06
439.608	83.06
439.829	94.06
440.05	105.06
440.272	123.06
440.493	84.06
440.715	103.06
440.936	90.06
441.158	88.06
441.379	83.06
441.6	96.06
441.822	83.06
442.043	90.06
442.264	99.06
442.486	89.06
442.707	92.06
442.928	78.06
443.149	106.06
443.371	116.06
443.592	96.06
443.813	104.06
444.034	118.06
444.255	93.06
444.476	91.06
444.698	93.06
444.919	77.06
445.14	115.06
445.361	124.06
445.582	101.06
445.803	119.06
446.024	119.06
446.245	121.06
446.466	112.06
446.687	84.06
446.908	83.06
447.129	99.06
447.35	79.06
447.571	78.06
447.792	102.06
448.013	92.06
448.234	94.06
448.455	87.06
448.675	106.06
448.896	108.06
449.117	100.06
449.338	103.06
449.559	125.06
449.779	108.06
450	84.06
450.221	81.06
450.442	94.06
450.662	78.06
450.883	103.06
451.104	109.06
451.324	84.06
451.545	93.06
451.766	91.06
451.986	60.06
452.207	88.06
452.428	86.06
452.648	96.06
452.869	87.06
453.089	99.06
453.31	91.06
453.53	90.06
453.751	93.06
453.971	83.06
454.192	85.06
454.412	74.06
454.633	68.06
454.853	82.06
455.073	85.06
455.294	85.06
455.514	91.06
455.734	83.06
455.955	86.06
456.175	86.06
456.395	87.06
456.616	87.06
456.836	83.06
457.056	81.06
457.276	82.06
457.497	85.06
457.717	88.06
457.937	83.06
458.157	78.06
458.377	91.06
458.598	100.06
458.818	121.06
459.038	135.06
459.258	113.06
459.478	82.06
459.698	89.06
459.918	88.06
460.138	85.06
460.358	83.06
460.578	88.06
460.798	84.06
461.018	84.06
461.238	93.06
461.458	78.06
461.678	70.06
461.898	78.06
462.118	72.06
462.338	90.06
462.558	90.06
462.777	69.06
462.997	94.06
463.217	78.06
463.437	80.06
463.657	82.06
463.876	97.06
464.096	85.06
464.316	91.06
464.536	88.06
464.755	76.06
464.975	92.06
465.195	144.06
465.414	153.06
465.634	91.06
465.854	86.06
466.073	86.06
466.293	95.06
466.512	98.06
466.732	86.06
466.951	88.06
467.171	86.06
467.391	71.06
467.61	94.06
467.829	80.06
468.049	104.06
468.268	78.06
468.488	81.06
468.707	82.06
468.927	95.06
469.146	91.06
469.365	91.06
469.585	100.06
469.804	85.06
470.023	91.06
470.243	92.06
470.462	105.06
470.681	96.06
470.901	91.06
471.12	82.06
471.339	87.06
471.558	86.06
471.777	90.06
471.997	81.06
472.216	102.06
472.435	99.06
472.654	84.06
472.873	77.06
473.092	82.06
473.311	82.06
473.53	80.06
473.749	92.06
473.968	90.06
474.187	92.06
474.406	109.06
474.625	86.06
474.844	95.06
475.063	99.06
475.282	70.06
475.501	88.06
475.72	85.06
475.939	83.06
476.158	83.06
476.377	76.06
476.596	86.06
476.814	76.06
477.033	79.06
477.252	90.06
477.471	85.06
477.69	81.06
477.908	89.06
478.127	84.06
478.346	88.06
478.564	94.06
478.783	87.06
479.002	92.06
479.22	92.06
479.439	102.06
479.658	90.06
479.876	91.06
480.095	78.06
480.313	101.06
480.532	94.06
480.751	78.06
480.969	94.06
481.188	112.06
481.406	104.06
481.624	88.06
481.843	72.06
482.061	87.06
482.28	98.06
482.498	90.06
482.717	75.06
482.935	82.06
483.153	91.06
483.372	76.06
483.59	102.06
483.808	82.06
484.027	102.06
484.245	97.06
484.463	96.06
484.681	79.06
484.9	86.06
485.118	86.06
485.336	90.06
485.554	111.06
485.772	93.06
485.99	93.06
486.209	79.06
486.427	106.06
486.645	109.06
486.863	92.06
487.081	94.06
487.299	91.06
487.517	88.06
487.735	97.06
487.953	90.06
488.171	88.06
488.389	102.06
488.607	84.06
488.825	93.06
489.043	83.06
489.261	82.06
489.479	84.06
489.696	80.06
489.914	101.06
490.132	94.06
490.35	89.06
490.568	84.06
490.786	84.06
491.003	72.06
491.221	82.06
491.439	69.06
491.657	85.06
491.874	85.06
492.092	77.06
492.31	86.06
492.527	77.06
492.745	83.06
492.963	93.06
493.18	99.06
493.398	98.06
493.615	102.06
493.833	95.06
494.05	92.06
494.268	91.06
494.485	75.06
494.703	68.06
494.92	67.06
495.138	78.06
495.355	96.06
495.573	82.06
495.79	93.06
496.008	104.06
496.225	95.06
496.442	83.06
496.66	92.06
496.877	81.06
497.094	92.06
497.312	88.06
497.529	104.06
497.746	105.06
497.963	87.06
498.181	79.06
498.398	83.06
498.615	100.06
498.832	104.06
499.049	87.06
499.267	71.06
499.484	62.06
499.701	98.06
499.918	95.06
500.135	89.06
500.352	92.06
500.569	95.06
500.786	91.06
501.003	77.06
501.22	91.06
501.437	90.06
501.654	91.06
501.871	85.06
502.088	97.06
502.305	84.06
502.522	90.06
502.739	75.06
502.956	99.06
503.172	106.06
503.389	90.06
503.606	91.06
503.823	78.06
504.04	95.06
504.256	89.06
504.473	84.06
504.69	82.06
504.907	85.06
505.123	103.06
505.34	91.06
505.557	87.06
505.773	75.06
505.99	83.06
506.207	90.06
506.423	86.06
506.64	93.06
506.856	92.06
507.073	96.06
507.289	87.06
507.506	109.06
507.722	103.06
507.939	97.06
508.155	80.06
508.372	70.06
508.588	81.06
508.805	90.06
509.021	92.06
509.238	110.06
509.454	100.06
509.67	79.06
509.887	91.06
510.103	117.06
510.319	197.06
510.536	687.06
510.752	2039.06
510.968	559.06
511.184	135.06
511.401	99.06
511.617	85.06
511.833	83.06
512.049	80.06
512.265	86.06
512.481	79.06
512.698	95.06
512.914	93.06
513.13	99.06
513.346	95.06
513.562	87.06
513.778	91.06
513.994	87.06
514.21	95.06
514.426	122.06
514.642	120.06
514.858	127.06
515.074	163.06
515.29	363.06
515.506	1208.06
515.721	438.06
515.937	130.06
516.153	97.06
516.369	85.06
516.585	95.06
516.801	90.06
517.016	89.06
517.232	96.06
517.448	93.06
