Data from Uncirc_1986_H10_HRD10591_00075.txt Node
Date: Wed Jan 03 12:14:41 EST 2024
User: Yrep
Spectrometer: HR+D1059
Trigger mode: 1
Integration Time (sec): 1.000000E-1
Scans to average: 1
Electric dark correction enabled: true
Nonlinearity correction enabled: false
Boxcar width: 0
XAxis mode: Wavelengths
Number of Pixels in Spectrum: 2048
>>>>>Begin Spectral Data<<<<<
223.165	-10.5
223.4	-10.5
223.635	-10.5
223.869	-20.5
224.104	-21.5
224.338	-22.5
224.573	-17.5
224.808	-14.5
225.042	-8.5
225.277	-2.5
225.511	-0.5
225.746	-1.5
225.98	8.5
226.215	5.5
226.449	25.5
226.683	23.5
226.918	29.5
227.152	27.5
227.387	29.5
227.621	39.5
227.856	43.5
228.09	40.5
228.324	52.5
228.559	53.5
228.793	158.5
229.027	453.5
229.262	548.5
229.496	628.5
229.73	826.5
229.964	830.5
230.199	543.5
230.433	484.5
230.667	490.5
230.901	470.5
231.136	442.5
231.37	453.5
231.604	468.5
231.838	473.5
232.072	461.5
232.306	467.5
232.541	484.5
232.775	469.5
233.009	479.5
233.243	483.5
233.477	479.5
233.711	489.5
233.945	529.5
234.179	501.5
234.413	499.5
234.647	530.5
234.881	547.5
235.115	543.5
235.349	555.5
235.583	578.5
235.817	611.5
236.051	642.5
236.285	636.5
236.519	619.5
236.753	717.5
236.987	960.5
237.221	1431.5
237.455	1567.5
237.689	920.5
237.922	778.5
238.156	737.5
238.39	696.5
238.624	679.5
238.858	644.5
239.091	673.5
239.325	671.5
239.559	689.5
239.793	720.5
240.027	789.5
240.26	961.5
240.494	981.5
240.728	989.5
240.961	923.5
241.195	851.5
241.429	805.5
241.662	802.5
241.896	789.5
242.13	784.5
242.363	795.5
242.597	821.5
242.83	867.5
243.064	858.5
243.298	857.5
243.531	843.5
243.765	845.5
243.998	875.5
244.232	893.5
244.465	911.5
244.699	907.5
244.932	937.5
245.166	918.5
245.399	920.5
245.633	946.5
245.866	957.5
246.099	958.5
246.333	950.5
246.566	976.5
246.8	995.5
247.033	1045.5
247.266	1088.5
247.5	1145.5
247.733	1198.5
247.966	1186.5
248.2	1175.5
248.433	1195.5
248.666	1249.5
248.899	1416.5
249.133	1499.5
249.366	1466.5
249.599	1347.5
249.832	1261.5
250.066	1253.5
250.299	1311.5
250.532	1379.5
250.765	1519.5
250.998	1779.5
251.231	1701.5
251.465	1497.5
251.698	1444.5
251.931	1453.5
252.164	1435.5
252.397	1459.5
252.63	1495.5
252.863	1579.5
253.096	1725.5
253.329	1780.5
253.562	1684.5
253.795	1652.5
254.028	1631.5
254.261	1651.5
254.494	1855.5
254.727	2151.5
254.96	2281.5
255.193	2067.5
255.426	1783.5
255.659	1662.5
255.892	1637.5
256.124	1617.5
256.357	1593.5
256.59	1560.5
256.823	1564.5
257.056	1520.5
257.289	1543.5
257.521	1560.5
257.754	1578.5
257.987	1547.5
258.22	1544.5
258.452	1566.5
258.685	1597.5
258.918	1576.5
259.151	1640.5
259.383	1761.5
259.616	1701.5
259.849	1819.5
260.081	1975.5
260.314	2163.5
260.547	2062.5
260.779	1926.5
261.012	1805.5
261.244	1773.5
261.477	1750.5
261.71	1728.5
261.942	1769.5
262.175	1798.5
262.407	1761.5
262.64	1672.5
262.872	1667.5
263.105	1650.5
263.337	1654.5
263.57	1665.5
263.802	1755.5
264.035	1681.5
264.267	1709.5
264.499	1697.5
264.732	1722.5
264.964	1697.5
265.197	1698.5
265.429	1730.5
265.661	1766.5
265.894	1745.5
266.126	1754.5
266.358	1756.5
266.591	1834.5
266.823	1891.5
267.055	1898.5
267.287	1937.5
267.52	1837.5
267.752	1863.5
267.984	1937.5
268.216	1957.5
268.448	1966.5
268.681	2014.5
268.913	2154.5
269.145	2369.5
269.377	2463.5
269.609	2354.5
269.841	2296.5
270.073	2401.5
270.306	2700.5
270.538	2911.5
270.77	2742.5
271.002	2564.5
271.234	2504.5
271.466	2698.5
271.698	2785.5
271.93	2843.5
272.162	2845.5
272.394	2727.5
272.626	2607.5
272.858	2435.5
273.09	2361.5
273.322	2287.5
273.553	2278.5
273.785	2254.5
274.017	2239.5
274.249	2337.5
274.481	2333.5
274.713	2287.5
274.945	2335.5
275.176	2339.5
275.408	2305.5
275.64	2302.5
275.872	2270.5
276.104	2311.5
276.335	2339.5
276.567	2449.5
276.799	2560.5
277.031	2835.5
277.262	2945.5
277.494	2818.5
277.726	2640.5
277.957	2533.5
278.189	2496.5
278.421	2428.5
278.652	2439.5
278.884	2397.5
279.115	2407.5
279.347	2366.5
279.579	2415.5
279.81	2399.5
280.042	2372.5
280.273	2417.5
280.505	2368.5
280.736	2453.5
280.968	2435.5
281.199	2408.5
281.431	2493.5
281.662	2480.5
281.894	2480.5
282.125	2521.5
282.356	2707.5
282.588	2874.5
282.819	2711.5
283.051	2582.5
283.282	2518.5
283.513	2592.5
283.745	2633.5
283.976	2731.5
284.207	2652.5
284.439	2664.5
284.67	2649.5
284.901	2634.5
285.132	2695.5
285.364	2626.5
285.595	2647.5
285.826	2650.5
286.057	2650.5
286.288	2674.5
286.52	2692.5
286.751	2718.5
286.982	2746.5
287.213	2719.5
287.444	2749.5
287.675	2840.5
287.906	2907.5
288.138	3011.5
288.369	2937.5
288.6	2930.5
288.831	2922.5
289.062	2871.5
289.293	2865.5
289.524	2840.5
289.755	2808.5
289.986	2852.5
290.217	2820.5
290.448	2789.5
290.679	2811.5
290.91	2798.5
291.141	2825.5
291.371	2823.5
291.602	2862.5
291.833	2804.5
292.064	2806.5
292.295	2896.5
292.526	2851.5
292.757	2888.5
292.987	2858.5
293.218	2852.5
293.449	2890.5
293.68	2874.5
293.91	2833.5
294.141	2875.5
294.372	2841.5
294.603	2867.5
294.833	2895.5
295.064	2927.5
295.295	2927.5
295.525	2884.5
295.756	2977.5
295.987	3014.5
296.217	3226.5
296.448	3169.5
296.679	2999.5
296.909	2983.5
297.14	2974.5
297.37	3016.5
297.601	3061.5
297.831	3059.5
298.062	3066.5
298.292	3115.5
298.523	3117.5
298.753	3096.5
298.984	3086.5
299.214	3120.5
299.445	3136.5
299.675	3201.5
299.905	3226.5
300.136	3139.5
300.366	3128.5
300.597	3135.5
300.827	3336.5
301.057	3376.5
301.288	3375.5
301.518	3355.5
301.748	3350.5
301.979	3406.5
302.209	3409.5
302.439	3382.5
302.669	3351.5
302.9	3324.5
303.13	3297.5
303.36	3347.5
303.59	3406.5
303.82	3383.5
304.051	3435.5
304.281	3322.5
304.511	3333.5
304.741	3336.5
304.971	3288.5
305.201	3272.5
305.431	3318.5
305.661	3307.5
305.891	3299.5
306.121	3345.5
306.352	3330.5
306.582	3313.5
306.812	3282.5
307.042	3280.5
307.272	3266.5
307.502	3292.5
307.731	3292.5
307.961	3316.5
308.191	3281.5
308.421	3291.5
308.651	3326.5
308.881	3303.5
309.111	3344.5
309.341	3367.5
309.571	3476.5
309.8	3503.5
310.03	3568.5
310.26	3603.5
310.49	3595.5
310.72	3755.5
310.949	3807.5
311.179	3769.5
311.409	3633.5
311.639	3680.5
311.868	3620.5
312.098	3657.5
312.328	3795.5
312.557	3955.5
312.787	3930.5
313.017	3895.5
313.246	3776.5
313.476	3739.5
313.706	3791.5
313.935	3908.5
314.165	3931.5
314.394	3905.5
314.624	3895.5
314.853	3814.5
315.083	3778.5
315.312	3743.5
315.542	3701.5
315.771	3676.5
316.001	3718.5
316.23	3671.5
316.46	3762.5
316.689	3836.5
316.919	3797.5
317.148	3782.5
317.377	3800.5
317.607	3705.5
317.836	3784.5
318.065	3630.5
318.295	3671.5
318.524	3715.5
318.753	3701.5
318.983	3755.5
319.212	3719.5
319.441	3787.5
319.67	3794.5
319.9	3674.5
320.129	3712.5
320.358	3758.5
320.587	3732.5
320.816	3783.5
321.046	3833.5
321.275	3876.5
321.504	3891.5
321.733	3840.5
321.962	3947.5
322.191	4024.5
322.42	4081.5
322.649	4178.5
322.878	4302.5
323.108	4350.5
323.337	4624.5
323.566	4712.5
323.795	5027.5
324.024	5570.5
324.253	7237.5
324.482	10907.5
324.71	15204.5
324.939	15627.5
325.168	13025.5
325.397	6660.5
325.626	5282.5
325.855	4952.5
326.084	4775.5
326.313	4821.5
326.542	4960.5
326.77	5508.5
326.999	6984.5
327.228	10062.5
327.457	14362.5
327.686	13555.5
327.914	7331.5
328.143	5893.5
328.372	5446.5
328.6	5254.5
328.829	5193.5
329.058	5321.5
329.287	5258.5
329.515	4967.5
329.744	4788.5
329.972	4805.5
330.201	4889.5
330.43	5147.5
330.658	5412.5
330.887	5674.5
331.115	5313.5
331.344	4969.5
331.572	4941.5
331.801	4980.5
332.03	5025.5
332.258	4895.5
332.486	4980.5
332.715	5062.5
332.943	5119.5
333.172	5310.5
333.4	5418.5
333.629	5520.5
333.857	5551.5
334.085	5525.5
334.314	5434.5
334.542	5475.5
334.771	5413.5
334.999	5205.5
335.227	5128.5
335.455	5155.5
335.684	5035.5
335.912	5000.5
336.14	4926.5
336.369	4935.5
336.597	4981.5
336.825	4870.5
337.053	4847.5
337.281	4819.5
337.51	4761.5
337.738	4726.5
337.966	4657.5
338.194	4675.5
338.422	4634.5
338.65	4570.5
338.878	4487.5
339.106	4521.5
339.334	4515.5
339.562	4488.5
339.79	4441.5
340.018	4470.5
340.246	4455.5
340.474	4482.5
340.702	4395.5
340.93	4448.5
341.158	4382.5
341.386	4463.5
341.614	4431.5
341.842	4406.5
342.07	4372.5
342.298	4259.5
342.526	4330.5
342.754	4321.5
342.981	4406.5
343.209	4453.5
343.437	4659.5
343.665	4904.5
343.893	5128.5
344.12	5216.5
344.348	4922.5
344.576	4738.5
344.804	4708.5
345.031	4651.5
345.259	4591.5
345.487	4411.5
345.714	4449.5
345.942	4335.5
346.17	4196.5
346.397	4210.5
346.625	4228.5
346.853	4194.5
347.08	4204.5
347.308	4206.5
347.535	4332.5
347.763	4381.5
347.99	4311.5
348.218	4333.5
348.445	4382.5
348.673	4209.5
348.9	4196.5
349.128	4148.5
349.355	4127.5
349.583	4104.5
349.81	4020.5
350.037	4081.5
350.265	4038.5
350.492	4054.5
350.72	4111.5
350.947	4119.5
351.174	4183.5
351.402	4263.5
351.629	4201.5
351.856	4177.5
352.083	4293.5
352.311	4301.5
352.538	4208.5
352.765	4265.5
352.992	4281.5
353.22	4156.5
353.447	4057.5
353.674	4017.5
353.901	4034.5
354.128	3941.5
354.355	3983.5
354.583	3981.5
354.81	3934.5
355.037	4004.5
355.264	3881.5
355.491	3980.5
355.718	3914.5
355.945	3953.5
356.172	3918.5
356.399	3950.5
356.626	3953.5
356.853	3994.5
357.08	3978.5
357.307	3969.5
357.534	3958.5
357.761	3985.5
357.988	3946.5
358.215	3923.5
358.441	4039.5
358.668	3996.5
358.895	4052.5
359.122	4083.5
359.349	4132.5
359.576	4253.5
359.802	4455.5
360.029	4558.5
360.256	4578.5
360.483	4398.5
360.709	4206.5
360.936	4219.5
361.163	4229.5
361.39	4231.5
361.616	4214.5
361.843	4151.5
362.07	4134.5
362.296	4247.5
362.523	4191.5
362.749	4135.5
362.976	4112.5
363.203	4071.5
363.429	4003.5
363.656	4108.5
363.882	4047.5
364.109	4019.5
364.335	4002.5
364.562	4061.5
364.788	4019.5
365.015	4059.5
365.241	4104.5
365.468	4054.5
365.694	4148.5
365.92	4090.5
366.147	3969.5
366.373	4060.5
366.599	4000.5
366.826	3960.5
367.052	3999.5
367.278	4070.5
367.505	4079.5
367.731	4078.5
367.957	4065.5
368.184	4082.5
368.41	4192.5
368.636	4262.5
368.862	4263.5
369.089	4220.5
369.315	4153.5
369.541	4143.5
369.767	4224.5
369.993	4193.5
370.219	4183.5
370.445	4185.5
370.672	4150.5
370.898	4221.5
371.124	4229.5
371.35	4327.5
371.576	4260.5
371.802	4221.5
372.028	4265.5
372.254	4303.5
372.48	4351.5
372.706	4484.5
372.932	4424.5
373.158	4433.5
373.384	4385.5
373.61	4273.5
373.835	4303.5
374.061	4327.5
374.287	4463.5
374.513	4453.5
374.739	4623.5
374.965	4737.5
375.191	4708.5
375.416	4639.5
375.642	4542.5
375.868	4499.5
376.094	4417.5
376.319	4396.5
376.545	4378.5
376.771	4337.5
376.997	4379.5
377.222	4298.5
377.448	4296.5
377.674	4257.5
377.899	4261.5
378.125	4244.5
378.35	4253.5
378.576	4258.5
378.802	4233.5
379.027	4207.5
379.253	4218.5
379.478	4255.5
379.704	4340.5
379.929	4238.5
380.155	4288.5
380.38	4310.5
380.606	4360.5
380.831	4338.5
381.057	4374.5
381.282	4360.5
381.507	4391.5
381.733	4453.5
381.958	4473.5
382.184	4414.5
382.409	4470.5
382.634	4527.5
382.86	4516.5
383.085	4606.5
383.31	4681.5
383.535	4730.5
383.761	4709.5
383.986	4829.5
384.211	4919.5
384.436	5035.5
384.662	5042.5
384.887	5149.5
385.112	5117.5
385.337	5140.5
385.562	5189.5
385.787	5214.5
386.013	5300.5
386.238	5256.5
386.463	5244.5
386.688	5282.5
386.913	5113.5
387.138	5162.5
387.363	5205.5
387.588	5050.5
387.813	5153.5
388.038	5119.5
388.263	5217.5
388.488	5121.5
388.713	5185.5
388.938	5095.5
389.163	5112.5
389.387	5148.5
389.612	5013.5
389.837	5082.5
390.062	5023.5
390.287	5066.5
390.512	5139.5
390.736	5148.5
390.961	5210.5
391.186	5361.5
391.411	5426.5
391.636	5525.5
391.86	5765.5
392.085	5743.5
392.31	5699.5
392.534	5550.5
392.759	5520.5
392.984	5373.5
393.208	5343.5
393.433	5393.5
393.658	5327.5
393.882	5347.5
394.107	5395.5
394.331	5426.5
394.556	5373.5
394.78	5469.5
395.005	5525.5
395.229	5499.5
395.454	5645.5
395.678	5843.5
395.903	5774.5
396.127	5896.5
396.352	5679.5
396.576	5505.5
396.801	5429.5
397.025	5498.5
397.249	5613.5
397.474	5790.5
397.698	5831.5
397.922	5910.5
398.147	6100.5
398.371	6144.5
398.595	6290.5
398.82	6474.5
399.044	7172.5
399.268	7767.5
399.492	8936.5
399.717	9453.5
399.941	9309.5
400.165	8579.5
400.389	8017.5
400.613	7225.5
400.837	6797.5
401.062	6593.5
401.286	6542.5
401.51	6446.5
401.734	6459.5
401.958	6631.5
402.182	6721.5
402.406	6842.5
402.63	6903.5
402.854	6958.5
403.078	6893.5
403.302	7205.5
403.526	7287.5
403.75	7315.5
403.974	7379.5
404.198	7307.5
404.422	7315.5
404.645	7312.5
404.869	7242.5
405.093	7422.5
405.317	7587.5
405.541	7676.5
405.765	7217.5
405.988	7182.5
406.212	7318.5
406.436	7544.5
406.66	7812.5
406.883	7652.5
407.107	8379.5
407.331	8873.5
407.555	9357.5
407.778	9051.5
408.002	8329.5
408.226	7860.5
408.449	7730.5
408.673	7652.5
408.896	7878.5
409.12	8047.5
409.344	7567.5
409.567	7146.5
409.791	7136.5
410.014	7060.5
410.238	7061.5
410.461	6945.5
410.685	7030.5
410.908	7099.5
411.132	7307.5
411.355	7338.5
411.578	7005.5
411.802	6696.5
412.025	6767.5
412.249	6737.5
412.472	6769.5
412.695	6775.5
412.919	6505.5
413.142	6510.5
413.365	6441.5
413.589	6425.5
413.812	6379.5
414.035	6325.5
414.258	6264.5
414.482	6402.5
414.705	6467.5
414.928	6353.5
415.151	6362.5
415.374	6395.5
415.597	6331.5
415.821	6173.5
416.044	6297.5
416.267	6275.5
416.49	6240.5
416.713	6129.5
416.936	6321.5
417.159	6224.5
417.382	6415.5
417.605	6319.5
417.828	6489.5
418.051	6671.5
418.274	6469.5
418.497	6439.5
418.72	6547.5
418.943	6421.5
419.166	6860.5
419.389	7298.5
419.611	7128.5
419.834	6812.5
420.057	6760.5
420.28	6555.5
420.503	6360.5
420.726	6467.5
420.948	6623.5
421.171	7072.5
421.394	7031.5
421.617	6516.5
421.839	6463.5
422.062	6609.5
422.285	6738.5
422.507	7386.5
422.73	7974.5
422.953	7375.5
423.175	6989.5
423.398	7017.5
423.621	6985.5
423.843	7313.5
424.066	7172.5
424.288	7183.5
424.511	7303.5
424.733	7827.5
424.956	8317.5
425.178	7807.5
425.401	8095.5
425.623	7768.5
425.846	6841.5
426.068	6631.5
426.291	6600.5
426.513	6580.5
426.735	6800.5
426.958	7251.5
427.18	7970.5
427.402	9200.5
427.625	9102.5
427.847	7673.5
428.069	6861.5
428.292	6400.5
428.514	6198.5
428.736	5991.5
428.958	5988.5
429.181	5796.5
429.403	5866.5
429.625	6079.5
429.847	6423.5
430.069	6886.5
430.292	6392.5
430.514	5844.5
430.736	5917.5
430.958	5758.5
431.18	5719.5
431.402	5641.5
431.624	5616.5
431.846	5786.5
432.068	5711.5
432.29	5831.5
432.512	5760.5
432.734	5858.5
432.956	5855.5
433.178	5870.5
433.4	5852.5
433.622	5738.5
433.844	5801.5
434.066	5795.5
434.287	5852.5
434.509	6100.5
434.731	6230.5
434.953	6474.5
435.175	6617.5
435.397	6809.5
435.618	6697.5
435.84	7103.5
436.062	7893.5
436.284	7954.5
436.505	6671.5
436.727	6282.5
436.949	6026.5
437.17	5870.5
437.392	5789.5
437.614	6080.5
437.835	6407.5
438.057	7441.5
438.278	8146.5
438.5	8113.5
438.721	8821.5
438.943	7724.5
439.165	6466.5
439.386	6293.5
439.608	6308.5
439.829	6377.5
440.05	6722.5
440.272	7093.5
440.493	6489.5
440.715	6181.5
440.936	6138.5
441.158	6165.5
441.379	6290.5
441.6	6655.5
441.822	6847.5
442.043	7377.5
442.264	8149.5
442.486	7822.5
442.707	6940.5
442.928	6725.5
443.149	6935.5
443.371	7151.5
443.592	7749.5
443.813	8879.5
444.034	8775.5
444.255	7592.5
444.476	7399.5
444.698	7520.5
444.919	7558.5
445.14	7397.5
445.361	7282.5
445.582	7463.5
445.803	8078.5
446.024	8729.5
446.245	8333.5
446.466	7497.5
446.687	6596.5
446.908	6195.5
447.129	5837.5
447.35	5723.5
447.571	5661.5
447.792	5536.5
448.013	5722.5
448.234	5869.5
448.455	6612.5
448.675	7922.5
448.896	8357.5
449.117	6892.5
449.338	7075.5
449.559	8426.5
449.779	8594.5
450	6525.5
450.221	5853.5
450.442	5536.5
450.662	5545.5
450.883	5574.5
451.104	5725.5
451.324	5542.5
451.545	5376.5
451.766	5242.5
451.986	5143.5
452.207	5062.5
452.428	5037.5
452.648	5050.5
452.869	5172.5
453.089	5272.5
453.31	5297.5
453.53	5106.5
453.751	5070.5
453.971	5015.5
454.192	5227.5
454.412	4979.5
454.633	4914.5
454.853	4954.5
455.073	5050.5
455.294	5350.5
455.514	5960.5
455.734	5363.5
455.955	4859.5
456.175	4750.5
456.395	4744.5
456.616	4669.5
456.836	4758.5
457.056	4630.5
457.276	4554.5
457.497	4730.5
457.717	4728.5
457.937	4829.5
458.157	4915.5
458.377	4956.5
458.598	5347.5
458.818	5962.5
459.038	6701.5
459.258	6667.5
459.478	6011.5
459.698	5799.5
459.918	5866.5
460.138	6037.5
460.358	6220.5
460.578	6323.5
460.798	6330.5
461.018	6353.5
461.238	6266.5
461.458	6179.5
461.678	6105.5
461.898	6309.5
462.118	6370.5
462.338	6726.5
462.558	6813.5
462.777	7117.5
462.997	7524.5
463.217	8090.5
463.437	7899.5
463.657	7333.5
463.876	7083.5
464.096	7089.5
464.316	7132.5
464.536	7088.5
464.755	6931.5
464.975	6812.5
465.195	6995.5
465.414	7016.5
465.634	6186.5
465.854	5864.5
466.073	5702.5
466.293	5479.5
466.512	5342.5
466.732	5275.5
466.951	5167.5
467.171	5270.5
467.391	5282.5
467.61	5326.5
467.829	5306.5
468.049	5200.5
468.268	5025.5
468.488	4979.5
468.707	5011.5
468.927	5010.5
469.146	4919.5
469.365	5099.5
469.585	5056.5
469.804	5206.5
470.023	5387.5
470.243	5410.5
470.462	5539.5
470.681	5593.5
470.901	5480.5
471.12	5337.5
471.339	5307.5
471.558	5251.5
471.777	5176.5
471.997	4983.5
472.216	5022.5
472.435	5097.5
472.654	5041.5
472.873	4987.5
473.092	4962.5
473.311	4930.5
473.53	4931.5
473.749	5112.5
473.968	5675.5
474.187	6733.5
474.406	6175.5
474.625	5341.5
474.844	5025.5
475.063	4971.5
475.282	5008.5
475.501	5146.5
475.72	5151.5
475.939	5137.5
476.158	5247.5
476.377	5268.5
476.596	5232.5
476.814	5330.5
477.033	5385.5
477.252	5473.5
477.471	5517.5
477.69	5635.5
477.908	5613.5
478.127	5943.5
478.346	5979.5
478.564	5989.5
478.783	6187.5
479.002	6321.5
479.22	6247.5
479.439	6391.5
479.658	6496.5
479.876	6645.5
480.095	6799.5
480.313	7107.5
480.532	7058.5
480.751	6885.5
480.969	6772.5
481.188	6806.5
481.406	6543.5
481.624	6234.5
481.843	6102.5
482.061	6006.5
482.28	5924.5
482.498	5882.5
482.717	5846.5
482.935	5799.5
483.153	5840.5
483.372	5843.5
483.59	5848.5
483.808	5934.5
484.027	5879.5
484.245	5960.5
484.463	5985.5
484.681	6059.5
484.9	6064.5
485.118	6037.5
485.336	6153.5
485.554	6231.5
485.772	6229.5
485.99	6251.5
486.209	6366.5
486.427	6394.5
486.645	6456.5
486.863	6366.5
487.081	6396.5
487.299	6342.5
487.517	6371.5
487.735	6287.5
487.953	6210.5
488.171	6189.5
488.389	6207.5
488.607	6315.5
488.825	6270.5
489.043	6411.5
489.261	6385.5
489.479	6447.5
489.696	6462.5
489.914	6534.5
490.132	6612.5
490.35	6595.5
490.568	6661.5
490.786	6744.5
491.003	6770.5
491.221	6862.5
491.439	7083.5
491.657	7074.5
491.874	7122.5
492.092	7153.5
492.31	7105.5
492.527	7122.5
492.745	7221.5
492.963	7397.5
493.18	7313.5
493.398	7398.5
493.615	7534.5
493.833	7577.5
494.05	7462.5
494.268	7476.5
494.485	7453.5
494.703	7422.5
494.92	7466.5
495.138	7443.5
495.355	7535.5
495.573	7552.5
495.79	7614.5
496.008	7593.5
496.225	7480.5
496.442	7553.5
496.66	7613.5
496.877	7650.5
497.094	7714.5
497.312	7994.5
497.529	8136.5
497.746	8330.5
497.963	8492.5
498.181	8975.5
498.398	9193.5
498.615	9453.5
498.832	10000.5
499.049	10511.5
499.267	11076.5
499.484	11823.5
499.701	12645.5
499.918	13386.5
500.135	14189.5
500.352	14755.5
500.569	14863.5
500.786	14776.5
501.003	14263.5
501.22	13696.5
501.437	12913.5
501.654	12203.5
501.871	11661.5
502.088	10749.5
502.305	10218.5
502.522	9679.5
502.739	9374.5
502.956	8925.5
503.172	8529.5
503.389	8331.5
503.606	8194.5
