Data from Uncirc_1986_H10_HRD10591_00058.txt Node
Date: Wed Jan 03 12:14:38 EST 2024
User: Yrep
Spectrometer: HR+D1059
Trigger mode: 1
Integration Time (sec): 1.000000E-1
Scans to average: 1
Electric dark correction enabled: true
Nonlinearity correction enabled: false
Boxcar width: 0
XAxis mode: Wavelengths
Number of Pixels in Spectrum: 2048
>>>>>Begin Spectral Data<<<<<
223.165	-31.38
223.4	-31.38
223.635	-31.38
223.869	-12.38
224.104	-23.38
224.338	-6.38
224.573	-21.38
224.808	-0.38
225.042	-16.38
225.277	0.62
225.511	1.62
225.746	-5.38
225.98	-5.38
226.215	10.62
226.449	22.62
226.683	24.62
226.918	34.62
227.152	27.62
227.387	27.62
227.621	37.62
227.856	42.62
228.09	41.62
228.324	43.62
228.559	75.62
228.793	53.62
229.027	56.62
229.262	66.62
229.496	78.62
229.73	91.62
229.964	86.62
230.199	61.62
230.433	69.62
230.667	78.62
230.901	78.62
231.136	70.62
231.37	90.62
231.604	74.62
231.838	79.62
232.072	84.62
232.306	84.62
232.541	85.62
232.775	81.62
233.009	91.62
233.243	74.62
233.477	77.62
233.711	75.62
233.945	79.62
234.179	82.62
234.413	79.62
234.647	79.62
234.881	74.62
235.115	75.62
235.349	72.62
235.583	73.62
235.817	77.62
236.051	74.62
236.285	85.62
236.519	78.62
236.753	72.62
236.987	71.62
237.221	83.62
237.455	73.62
237.689	86.62
237.922	67.62
238.156	95.62
238.39	74.62
238.624	75.62
238.858	77.62
239.091	70.62
239.325	77.62
239.559	81.62
239.793	63.62
240.027	84.62
240.26	61.62
240.494	84.62
240.728	81.62
240.961	74.62
241.195	58.62
241.429	75.62
241.662	72.62
241.896	77.62
242.13	83.62
242.363	67.62
242.597	70.62
242.83	90.62
243.064	80.62
243.298	77.62
243.531	84.62
243.765	88.62
243.998	77.62
244.232	74.62
244.465	93.62
244.699	85.62
244.932	75.62
245.166	81.62
245.399	83.62
245.633	83.62
245.866	75.62
246.099	64.62
246.333	81.62
246.566	72.62
246.8	77.62
247.033	74.62
247.266	81.62
247.5	83.62
247.733	87.62
247.966	83.62
248.2	86.62
248.433	85.62
248.666	88.62
248.899	74.62
249.133	85.62
249.366	89.62
249.599	104.62
249.832	84.62
250.066	69.62
250.299	94.62
250.532	90.62
250.765	71.62
250.998	73.62
251.231	74.62
251.465	78.62
251.698	65.62
251.931	85.62
252.164	72.62
252.397	73.62
252.63	82.62
252.863	87.62
253.096	80.62
253.329	87.62
253.562	85.62
253.795	69.62
254.028	79.62
254.261	81.62
254.494	71.62
254.727	91.62
254.96	81.62
255.193	80.62
255.426	82.62
255.659	65.62
255.892	70.62
256.124	78.62
256.357	85.62
256.59	69.62
256.823	86.62
257.056	86.62
257.289	80.62
257.521	78.62
257.754	82.62
257.987	73.62
258.22	92.62
258.452	84.62
258.685	86.62
258.918	86.62
259.151	78.62
259.383	89.62
259.616	83.62
259.849	81.62
260.081	78.62
260.314	75.62
260.547	92.62
260.779	88.62
261.012	65.62
261.244	73.62
261.477	69.62
261.71	84.62
261.942	93.62
262.175	98.62
262.407	83.62
262.64	63.62
262.872	88.62
263.105	84.62
263.337	96.62
263.57	62.62
263.802	71.62
264.035	85.62
264.267	94.62
264.499	71.62
264.732	87.62
264.964	82.62
265.197	82.62
265.429	78.62
265.661	81.62
265.894	82.62
266.126	74.62
266.358	72.62
266.591	75.62
266.823	96.62
267.055	93.62
267.287	86.62
267.52	81.62
267.752	81.62
267.984	71.62
268.216	78.62
268.448	80.62
268.681	85.62
268.913	89.62
269.145	72.62
269.377	81.62
269.609	82.62
269.841	96.62
270.073	88.62
270.306	81.62
270.538	83.62
270.77	88.62
271.002	80.62
271.234	77.62
271.466	87.62
271.698	77.62
271.93	91.62
272.162	76.62
272.394	85.62
272.626	91.62
272.858	87.62
273.09	82.62
273.322	92.62
273.553	87.62
273.785	93.62
274.017	61.62
274.249	81.62
274.481	68.62
274.713	97.62
274.945	89.62
275.176	81.62
275.408	82.62
275.64	82.62
275.872	88.62
276.104	89.62
276.335	77.62
276.567	94.62
276.799	110.62
277.031	86.62
277.262	95.62
277.494	85.62
277.726	74.62
277.957	78.62
278.189	76.62
278.421	85.62
278.652	93.62
278.884	98.62
279.115	87.62
279.347	86.62
279.579	87.62
279.81	94.62
280.042	90.62
280.273	93.62
280.505	89.62
280.736	77.62
280.968	73.62
281.199	87.62
281.431	94.62
281.662	73.62
281.894	83.62
282.125	95.62
282.356	114.62
282.588	131.62
282.819	105.62
283.051	83.62
283.282	91.62
283.513	75.62
283.745	85.62
283.976	66.62
284.207	82.62
284.439	78.62
284.67	87.62
284.901	78.62
285.132	87.62
285.364	84.62
285.595	89.62
285.826	96.62
286.057	77.62
286.288	63.62
286.52	84.62
286.751	85.62
286.982	93.62
287.213	74.62
287.444	89.62
287.675	91.62
287.906	77.62
288.138	81.62
288.369	96.62
288.6	86.62
288.831	84.62
289.062	90.62
289.293	94.62
289.524	85.62
289.755	81.62
289.986	95.62
290.217	91.62
290.448	69.62
290.679	89.62
290.91	101.62
291.141	83.62
291.371	99.62
291.602	79.62
291.833	85.62
292.064	80.62
292.295	97.62
292.526	95.62
292.757	94.62
292.987	80.62
293.218	85.62
293.449	94.62
293.68	73.62
293.91	100.62
294.141	94.62
294.372	100.62
294.603	92.62
294.833	81.62
295.064	81.62
295.295	82.62
295.525	81.62
295.756	99.62
295.987	93.62
296.217	116.62
296.448	111.62
296.679	93.62
296.909	98.62
297.14	85.62
297.37	87.62
297.601	82.62
297.831	85.62
298.062	89.62
298.292	78.62
298.523	103.62
298.753	74.62
298.984	91.62
299.214	87.62
299.445	99.62
299.675	104.62
299.905	88.62
300.136	96.62
300.366	87.62
300.597	69.62
300.827	74.62
301.057	93.62
301.288	93.62
301.518	97.62
301.748	94.62
301.979	104.62
302.209	86.62
302.439	90.62
302.669	84.62
302.9	82.62
303.13	82.62
303.36	97.62
303.59	87.62
303.82	102.62
304.051	90.62
304.281	85.62
304.511	83.62
304.741	93.62
304.971	94.62
305.201	91.62
305.431	82.62
305.661	88.62
305.891	88.62
306.121	101.62
306.352	88.62
306.582	93.62
306.812	83.62
307.042	86.62
307.272	92.62
307.502	90.62
307.731	76.62
307.961	91.62
308.191	86.62
308.421	100.62
308.651	85.62
308.881	91.62
309.111	102.62
309.341	89.62
309.571	103.62
309.8	100.62
310.03	92.62
310.26	97.62
310.49	96.62
310.72	98.62
310.949	100.62
311.179	99.62
311.409	86.62
311.639	88.62
311.868	80.62
312.098	90.62
312.328	90.62
312.557	87.62
312.787	90.62
313.017	94.62
313.246	108.62
313.476	79.62
313.706	90.62
313.935	95.62
314.165	99.62
314.394	91.62
314.624	80.62
314.853	85.62
315.083	95.62
315.312	89.62
315.542	93.62
315.771	86.62
316.001	99.62
316.23	90.62
316.46	87.62
316.689	80.62
316.919	104.62
317.148	111.62
317.377	85.62
317.607	85.62
317.836	84.62
318.065	83.62
318.295	95.62
318.524	83.62
318.753	80.62
318.983	81.62
319.212	98.62
319.441	98.62
319.67	107.62
319.9	98.62
320.129	86.62
320.358	85.62
320.587	100.62
320.816	100.62
321.046	105.62
321.275	100.62
321.504	85.62
321.733	93.62
321.962	101.62
322.191	100.62
322.42	93.62
322.649	120.62
322.878	110.62
323.108	93.62
323.337	113.62
323.566	136.62
323.795	147.62
324.024	177.62
324.253	333.62
324.482	697.62
324.71	1433.62
324.939	1924.62
325.168	702.62
325.397	226.62
325.626	145.62
325.855	113.62
326.084	112.62
326.313	124.62
326.542	151.62
326.77	193.62
326.999	395.62
327.228	813.62
327.457	1492.62
327.686	1181.62
327.914	344.62
328.143	171.62
328.372	131.62
328.6	112.62
328.829	119.62
329.058	107.62
329.287	111.62
329.515	101.62
329.744	94.62
329.972	94.62
330.201	91.62
330.43	108.62
330.658	112.62
330.887	116.62
331.115	103.62
331.344	104.62
331.572	94.62
331.801	110.62
332.03	100.62
332.258	85.62
332.486	98.62
332.715	95.62
332.943	80.62
333.172	87.62
333.4	98.62
333.629	93.62
333.857	106.62
334.085	101.62
334.314	96.62
334.542	111.62
334.771	97.62
334.999	79.62
335.227	98.62
335.455	97.62
335.684	104.62
335.912	105.62
336.14	103.62
336.369	80.62
336.597	93.62
336.825	96.62
337.053	90.62
337.281	98.62
337.51	85.62
337.738	79.62
337.966	89.62
338.194	96.62
338.422	78.62
338.65	80.62
338.878	90.62
339.106	81.62
339.334	95.62
339.562	85.62
339.79	89.62
340.018	95.62
340.246	87.62
340.474	85.62
340.702	86.62
340.93	97.62
341.158	94.62
341.386	94.62
341.614	90.62
341.842	101.62
342.07	85.62
342.298	100.62
342.526	77.62
342.754	93.62
342.981	92.62
343.209	96.62
343.437	101.62
343.665	86.62
343.893	95.62
344.12	83.62
344.348	89.62
344.576	83.62
344.804	89.62
345.031	105.62
345.259	81.62
345.487	80.62
345.714	93.62
345.942	102.62
346.17	87.62
346.397	88.62
346.625	95.62
346.853	89.62
347.08	88.62
347.308	93.62
347.535	93.62
347.763	105.62
347.99	97.62
348.218	110.62
348.445	101.62
348.673	107.62
348.9	95.62
349.128	87.62
349.355	92.62
349.583	89.62
349.81	95.62
350.037	81.62
350.265	85.62
350.492	103.62
350.72	89.62
350.947	97.62
351.174	114.62
351.402	99.62
351.629	99.62
351.856	90.62
352.083	88.62
352.311	112.62
352.538	102.62
352.765	100.62
352.992	99.62
353.22	99.62
353.447	112.62
353.674	90.62
353.901	89.62
354.128	94.62
354.355	90.62
354.583	113.62
354.81	106.62
355.037	103.62
355.264	81.62
355.491	100.62
355.718	94.62
355.945	93.62
356.172	94.62
356.399	98.62
356.626	94.62
356.853	89.62
357.08	84.62
357.307	88.62
357.534	105.62
357.761	96.62
357.988	100.62
358.215	97.62
358.441	102.62
358.668	96.62
358.895	90.62
359.122	88.62
359.349	77.62
359.576	100.62
359.802	96.62
360.029	97.62
360.256	103.62
360.483	102.62
360.709	101.62
360.936	98.62
361.163	94.62
361.39	81.62
361.616	91.62
361.843	93.62
362.07	85.62
362.296	96.62
362.523	89.62
362.749	87.62
362.976	79.62
363.203	105.62
363.429	79.62
363.656	77.62
363.882	81.62
364.109	81.62
364.335	96.62
364.562	90.62
364.788	85.62
365.015	95.62
365.241	101.62
365.468	100.62
365.694	99.62
365.92	103.62
366.147	93.62
366.373	94.62
366.599	78.62
366.826	92.62
367.052	88.62
367.278	97.62
367.505	78.62
367.731	87.62
367.957	79.62
368.184	80.62
368.41	95.62
368.636	121.62
368.862	106.62
369.089	86.62
369.315	92.62
369.541	92.62
369.767	85.62
369.993	82.62
370.219	97.62
370.445	99.62
370.672	90.62
370.898	87.62
371.124	87.62
371.35	73.62
371.576	71.62
371.802	93.62
372.028	95.62
372.254	93.62
372.48	83.62
372.706	86.62
372.932	82.62
373.158	101.62
373.384	100.62
373.61	87.62
373.835	82.62
374.061	88.62
374.287	94.62
374.513	103.62
374.739	92.62
374.965	81.62
375.191	85.62
375.416	86.62
375.642	93.62
375.868	74.62
376.094	83.62
376.319	90.62
376.545	100.62
376.771	86.62
376.997	86.62
377.222	88.62
377.448	98.62
377.674	89.62
377.899	88.62
378.125	89.62
378.35	82.62
378.576	85.62
378.802	87.62
379.027	98.62
379.253	90.62
379.478	101.62
379.704	94.62
379.929	82.62
380.155	110.62
380.38	108.62
380.606	86.62
380.831	89.62
381.057	96.62
381.282	84.62
381.507	87.62
381.733	84.62
381.958	79.62
382.184	104.62
382.409	106.62
382.634	95.62
382.86	97.62
383.085	91.62
383.31	91.62
383.535	94.62
383.761	107.62
383.986	93.62
384.211	98.62
384.436	99.62
384.662	90.62
384.887	106.62
385.112	90.62
385.337	98.62
385.562	108.62
385.787	105.62
386.013	111.62
386.238	114.62
386.463	115.62
386.688	112.62
386.913	93.62
387.138	93.62
387.363	98.62
387.588	103.62
387.813	108.62
388.038	114.62
388.263	112.62
388.488	93.62
388.713	91.62
388.938	103.62
389.163	94.62
389.387	92.62
389.612	96.62
389.837	79.62
390.062	98.62
390.287	91.62
390.512	93.62
390.736	86.62
390.961	86.62
391.186	82.62
391.411	92.62
391.636	103.62
391.86	93.62
392.085	97.62
392.31	71.62
392.534	82.62
392.759	67.62
392.984	75.62
393.208	94.62
393.433	97.62
393.658	94.62
393.882	90.62
394.107	75.62
394.331	83.62
394.556	83.62
394.78	82.62
395.005	91.62
395.229	77.62
395.454	92.62
395.678	99.62
395.903	91.62
396.127	96.62
396.352	87.62
396.576	89.62
396.801	74.62
397.025	89.62
397.249	93.62
397.474	92.62
397.698	75.62
397.922	91.62
398.147	86.62
398.371	73.62
398.595	88.62
398.82	77.62
399.044	86.62
399.268	98.62
399.492	78.62
399.717	91.62
399.941	97.62
400.165	79.62
400.389	95.62
400.613	97.62
400.837	77.62
401.062	86.62
401.286	95.62
401.51	82.62
401.734	94.62
401.958	86.62
402.182	107.62
402.406	132.62
402.63	101.62
402.854	103.62
403.078	78.62
403.302	79.62
403.526	80.62
403.75	89.62
403.974	87.62
404.198	95.62
404.422	81.62
404.645	80.62
404.869	95.62
405.093	93.62
405.317	101.62
405.541	84.62
405.765	99.62
405.988	97.62
406.212	144.62
406.436	193.62
406.66	146.62
406.883	97.62
407.107	91.62
407.331	102.62
407.555	91.62
407.778	98.62
408.002	81.62
408.226	86.62
408.449	88.62
408.673	86.62
408.896	88.62
409.12	88.62
409.344	105.62
409.567	111.62
409.791	85.62
410.014	97.62
410.238	82.62
410.461	97.62
410.685	90.62
410.908	103.62
411.132	100.62
411.355	126.62
411.578	96.62
411.802	85.62
412.025	109.62
412.249	85.62
412.472	78.62
412.695	99.62
412.919	71.62
413.142	82.62
413.365	92.62
413.589	102.62
413.812	84.62
414.035	94.62
414.258	79.62
414.482	91.62
414.705	93.62
414.928	84.62
415.151	94.62
415.374	86.62
415.597	86.62
415.821	88.62
416.044	75.62
416.267	101.62
416.49	86.62
416.713	103.62
416.936	91.62
417.159	90.62
417.382	84.62
417.605	84.62
417.828	101.62
418.051	91.62
418.274	74.62
418.497	93.62
418.72	83.62
418.943	78.62
419.166	73.62
419.389	95.62
419.611	96.62
419.834	91.62
420.057	84.62
420.28	88.62
420.503	90.62
420.726	86.62
420.948	98.62
421.171	87.62
421.394	82.62
421.617	98.62
421.839	71.62
422.062	81.62
422.285	104.62
422.507	89.62
422.73	99.62
422.953	92.62
423.175	88.62
423.398	87.62
423.621	91.62
423.843	81.62
424.066	84.62
424.288	77.62
424.511	86.62
424.733	96.62
424.956	99.62
425.178	97.62
425.401	94.62
425.623	102.62
425.846	86.62
426.068	83.62
426.291	88.62
426.513	90.62
426.735	94.62
426.958	94.62
427.18	98.62
427.402	130.62
427.625	152.62
427.847	123.62
428.069	103.62
428.292	90.62
428.514	86.62
428.736	81.62
428.958	88.62
429.181	90.62
429.403	84.62
429.625	87.62
429.847	71.62
430.069	85.62
430.292	104.62
430.514	88.62
430.736	81.62
430.958	73.62
431.18	86.62
431.402	79.62
431.624	71.62
431.846	84.62
432.068	80.62
432.29	73.62
432.512	84.62
432.734	94.62
432.956	84.62
433.178	95.62
433.4	101.62
433.622	81.62
433.844	77.62
434.066	95.62
434.287	94.62
434.509	97.62
434.731	83.62
434.953	83.62
435.175	89.62
435.397	91.62
435.618	88.62
435.84	96.62
436.062	105.62
436.284	105.62
436.505	94.62
436.727	98.62
436.949	101.62
437.17	91.62
437.392	96.62
437.614	89.62
437.835	99.62
438.057	114.62
438.278	101.62
438.5	97.62
438.721	123.62
438.943	106.62
439.165	73.62
439.386	94.62
439.608	84.62
439.829	79.62
440.05	99.62
440.272	120.62
440.493	100.62
440.715	91.62
440.936	86.62
441.158	88.62
441.379	78.62
441.6	88.62
441.822	109.62
442.043	93.62
442.264	101.62
442.486	107.62
442.707	79.62
442.928	94.62
443.149	113.62
443.371	119.62
443.592	78.62
443.813	111.62
444.034	106.62
444.255	93.62
444.476	102.62
444.698	95.62
444.919	79.62
445.14	114.62
445.361	121.62
445.582	96.62
445.803	116.62
446.024	129.62
446.245	131.62
446.466	117.62
446.687	86.62
446.908	89.62
447.129	90.62
447.35	93.62
447.571	85.62
447.792	90.62
448.013	104.62
448.234	92.62
448.455	110.62
448.675	112.62
448.896	117.62
449.117	93.62
449.338	106.62
449.559	108.62
449.779	129.62
450	90.62
450.221	105.62
450.442	82.62
450.662	95.62
450.883	93.62
451.104	101.62
451.324	90.62
451.545	83.62
451.766	88.62
451.986	83.62
452.207	92.62
452.428	92.62
452.648	93.62
452.869	112.62
453.089	99.62
453.31	94.62
453.53	91.62
453.751	95.62
453.971	94.62
454.192	107.62
454.412	83.62
454.633	98.62
454.853	72.62
455.073	86.62
455.294	81.62
455.514	92.62
455.734	102.62
455.955	95.62
456.175	75.62
456.395	84.62
456.616	84.62
456.836	82.62
457.056	79.62
457.276	83.62
457.497	89.62
457.717	80.62
457.937	83.62
458.157	78.62
458.377	87.62
458.598	116.62
458.818	133.62
459.038	127.62
459.258	102.62
459.478	83.62
459.698	82.62
459.918	94.62
460.138	82.62
460.358	82.62
460.578	98.62
460.798	85.62
461.018	92.62
461.238	77.62
461.458	88.62
461.678	89.62
461.898	77.62
462.118	96.62
462.338	101.62
462.558	85.62
462.777	93.62
462.997	85.62
463.217	90.62
463.437	83.62
463.657	78.62
463.876	78.62
464.096	82.62
464.316	75.62
464.536	95.62
464.755	89.62
464.975	107.62
465.195	141.62
465.414	145.62
465.634	101.62
465.854	89.62
466.073	90.62
466.293	101.62
466.512	72.62
466.732	78.62
466.951	85.62
467.171	86.62
467.391	113.62
467.61	108.62
467.829	72.62
468.049	87.62
468.268	88.62
468.488	83.62
468.707	89.62
468.927	82.62
469.146	87.62
469.365	94.62
469.585	77.62
469.804	88.62
470.023	95.62
470.243	80.62
470.462	88.62
470.681	106.62
470.901	85.62
471.12	90.62
471.339	75.62
471.558	83.62
471.777	96.62
471.997	75.62
472.216	90.62
472.435	88.62
472.654	76.62
472.873	97.62
473.092	97.62
473.311	92.62
473.53	76.62
473.749	92.62
473.968	85.62
474.187	102.62
474.406	87.62
474.625	92.62
474.844	83.62
475.063	95.62
475.282	103.62
475.501	93.62
475.72	97.62
475.939	96.62
476.158	82.62
476.377	81.62
476.596	74.62
476.814	93.62
477.033	94.62
477.252	92.62
477.471	83.62
477.69	95.62
477.908	85.62
478.127	98.62
478.346	88.62
478.564	94.62
478.783	79.62
479.002	90.62
479.22	86.62
479.439	94.62
479.658	89.62
479.876	92.62
480.095	90.62
480.313	89.62
480.532	89.62
480.751	88.62
480.969	81.62
481.188	112.62
481.406	103.62
481.624	79.62
481.843	99.62
482.061	98.62
482.28	103.62
482.498	98.62
482.717	107.62
482.935	82.62
483.153	95.62
483.372	85.62
483.59	94.62
483.808	97.62
484.027	95.62
484.245	91.62
484.463	101.62
484.681	107.62
484.9	95.62
485.118	97.62
485.336	86.62
485.554	102.62
485.772	101.62
485.99	93.62
486.209	106.62
486.427	95.62
486.645	101.62
486.863	90.62
487.081	99.62
487.299	100.62
487.517	90.62
487.735	92.62
487.953	78.62
488.171	88.62
488.389	98.62
488.607	101.62
488.825	93.62
489.043	88.62
489.261	90.62
489.479	100.62
489.696	93.62
489.914	83.62
490.132	82.62
490.35	94.62
490.568	85.62
490.786	81.62
491.003	88.62
491.221	90.62
491.439	90.62
491.657	91.62
491.874	96.62
492.092	91.62
492.31	87.62
492.527	78.62
492.745	100.62
492.963	89.62
493.18	94.62
493.398	100.62
493.615	93.62
493.833	91.62
494.05	90.62
494.268	100.62
494.485	93.62
494.703	86.62
494.92	108.62
495.138	84.62
495.355	78.62
495.573	74.62
495.79	90.62
496.008	83.62
496.225	107.62
496.442	95.62
496.66	97.62
496.877	70.62
497.094	77.62
497.312	93.62
497.529	96.62
497.746	101.62
497.963	82.62
498.181	104.62
498.398	87.62
498.615	97.62
498.832	102.62
499.049	90.62
499.267	69.62
499.484	90.62
499.701	94.62
499.918	89.62
500.135	85.62
500.352	85.62
500.569	95.62
500.786	97.62
501.003	89.62
501.22	89.62
501.437	89.62
501.654	95.62
501.871	109.62
502.088	86.62
502.305	71.62
502.522	89.62
502.739	95.62
502.956	92.62
503.172	105.62
503.389	91.62
503.606	109.62
503.823	98.62
504.04	81.62
504.256	97.62
504.473	83.62
504.69	97.62
504.907	101.62
505.123	85.62
505.34	91.62
505.557	78.62
505.773	79.62
505.99	109.62
506.207	101.62
506.423	95.62
506.64	84.62
506.856	85.62
507.073	81.62
507.289	84.62
507.506	101.62
507.722	121.62
507.939	115.62
508.155	88.62
508.372	87.62
508.588	88.62
508.805	96.62
509.021	93.62
509.238	100.62
509.454	94.62
509.67	98.62
509.887	106.62
510.103	119.62
510.319	181.62
510.536	668.62
510.752	2043.62
510.968	573.62
511.184	146.62
511.401	111.62
511.617	97.62
511.833	91.62
512.049	87.62
512.265	97.62
512.481	110.62
512.698	88.62
512.914	98.62
513.13	106.62
513.346	96.62
513.562	109.62
513.778	105.62
513.994	94.62
514.21	109.62
514.426	114.62
514.642	120.62
514.858	111.62
515.074	145.62
515.29	381.62
515.506	1215.62
515.721	445.62
515.937	135.62
516.153	105.62
516.369	95.62
