Data from Uncirc_1986_H10_HRD10591_00027.txt Node
Date: Wed Jan 03 12:14:31 EST 2024
User: Yrep
Spectrometer: HR+D1059
Trigger mode: 1
Integration Time (sec): 1.000000E-1
Scans to average: 1
Electric dark correction enabled: true
Nonlinearity correction enabled: false
Boxcar width: 0
XAxis mode: Wavelengths
Number of Pixels in Spectrum: 2048
>>>>>Begin Spectral Data<<<<<
223.165	-25.56
223.4	-25.56
223.635	-25.56
223.869	-20.56
224.104	-17.56
224.338	-0.56
224.573	-22.56
224.808	-3.56
225.042	-7.56
225.277	-17.56
225.511	0.44
225.746	-2.56
225.98	11.44
226.215	12.44
226.449	10.44
226.683	19.44
226.918	22.44
227.152	41.44
227.387	31.44
227.621	43.44
227.856	42.44
228.09	55.44
228.324	43.44
228.559	64.44
228.793	58.44
229.027	73.44
229.262	76.44
229.496	84.44
229.73	86.44
229.964	86.44
230.199	63.44
230.433	70.44
230.667	73.44
230.901	75.44
231.136	82.44
231.37	74.44
231.604	82.44
231.838	78.44
232.072	81.44
232.306	80.44
232.541	85.44
232.775	75.44
233.009	92.44
233.243	86.44
233.477	85.44
233.711	85.44
233.945	66.44
234.179	100.44
234.413	76.44
234.647	66.44
234.881	76.44
235.115	74.44
235.349	83.44
235.583	87.44
235.817	61.44
236.051	82.44
236.285	71.44
236.519	80.44
236.753	75.44
236.987	72.44
237.221	82.44
237.455	88.44
237.689	84.44
237.922	77.44
238.156	92.44
238.39	76.44
238.624	73.44
238.858	82.44
239.091	83.44
239.325	67.44
239.559	76.44
239.793	66.44
240.027	84.44
240.26	67.44
240.494	85.44
240.728	76.44
240.961	85.44
241.195	70.44
241.429	80.44
241.662	76.44
241.896	82.44
242.13	81.44
242.363	86.44
242.597	77.44
242.83	66.44
243.064	87.44
243.298	80.44
243.531	77.44
243.765	78.44
243.998	70.44
244.232	84.44
244.465	88.44
244.699	72.44
244.932	80.44
245.166	81.44
245.399	86.44
245.633	76.44
245.866	82.44
246.099	75.44
246.333	84.44
246.566	61.44
246.8	86.44
247.033	82.44
247.266	80.44
247.5	84.44
247.733	91.44
247.966	89.44
248.2	86.44
248.433	74.44
248.666	72.44
248.899	86.44
249.133	88.44
249.366	90.44
249.599	106.44
249.832	81.44
250.066	80.44
250.299	84.44
250.532	88.44
250.765	72.44
250.998	73.44
251.231	78.44
251.465	74.44
251.698	82.44
251.931	85.44
252.164	83.44
252.397	71.44
252.63	77.44
252.863	81.44
253.096	86.44
253.329	82.44
253.562	84.44
253.795	86.44
254.028	97.44
254.261	63.44
254.494	65.44
254.727	78.44
254.96	82.44
255.193	90.44
255.426	81.44
255.659	87.44
255.892	96.44
256.124	92.44
256.357	86.44
256.59	92.44
256.823	88.44
257.056	80.44
257.289	89.44
257.521	84.44
257.754	107.44
257.987	91.44
258.22	93.44
258.452	69.44
258.685	84.44
258.918	74.44
259.151	85.44
259.383	83.44
259.616	103.44
259.849	66.44
260.081	89.44
260.314	95.44
260.547	92.44
260.779	84.44
261.012	71.44
261.244	87.44
261.477	89.44
261.71	92.44
261.942	107.44
262.175	122.44
262.407	102.44
262.64	86.44
262.872	83.44
263.105	86.44
263.337	86.44
263.57	79.44
263.802	88.44
264.035	100.44
264.267	90.44
264.499	97.44
264.732	93.44
264.964	89.44
265.197	84.44
265.429	95.44
265.661	104.44
265.894	85.44
266.126	84.44
266.358	88.44
266.591	85.44
266.823	97.44
267.055	73.44
267.287	92.44
267.52	90.44
267.752	83.44
267.984	89.44
268.216	91.44
268.448	71.44
268.681	89.44
268.913	94.44
269.145	82.44
269.377	80.44
269.609	76.44
269.841	90.44
270.073	99.44
270.306	84.44
270.538	89.44
270.77	81.44
271.002	89.44
271.234	73.44
271.466	85.44
271.698	85.44
271.93	101.44
272.162	90.44
272.394	88.44
272.626	89.44
272.858	87.44
273.09	91.44
273.322	90.44
273.553	87.44
273.785	90.44
274.017	69.44
274.249	81.44
274.481	82.44
274.713	90.44
274.945	84.44
275.176	100.44
275.408	75.44
275.64	82.44
275.872	94.44
276.104	101.44
276.335	102.44
276.567	101.44
276.799	114.44
277.031	96.44
277.262	97.44
277.494	94.44
277.726	90.44
277.957	86.44
278.189	96.44
278.421	87.44
278.652	80.44
278.884	92.44
279.115	90.44
279.347	91.44
279.579	93.44
279.81	74.44
280.042	84.44
280.273	92.44
280.505	90.44
280.736	97.44
280.968	84.44
281.199	84.44
281.431	102.44
281.662	89.44
281.894	92.44
282.125	104.44
282.356	116.44
282.588	140.44
282.819	112.44
283.051	98.44
283.282	89.44
283.513	92.44
283.745	90.44
283.976	86.44
284.207	86.44
284.439	90.44
284.67	98.44
284.901	88.44
285.132	90.44
285.364	84.44
285.595	84.44
285.826	86.44
286.057	103.44
286.288	110.44
286.52	94.44
286.751	93.44
286.982	85.44
287.213	87.44
287.444	87.44
287.675	99.44
287.906	92.44
288.138	81.44
288.369	110.44
288.6	95.44
288.831	96.44
289.062	90.44
289.293	86.44
289.524	90.44
289.755	85.44
289.986	81.44
290.217	95.44
290.448	88.44
290.679	86.44
290.91	93.44
291.141	84.44
291.371	101.44
291.602	86.44
291.833	83.44
292.064	92.44
292.295	88.44
292.526	83.44
292.757	88.44
292.987	99.44
293.218	84.44
293.449	86.44
293.68	82.44
293.91	81.44
294.141	87.44
294.372	94.44
294.603	93.44
294.833	84.44
295.064	97.44
295.295	88.44
295.525	99.44
295.756	91.44
295.987	107.44
296.217	146.44
296.448	114.44
296.679	84.44
296.909	92.44
297.14	84.44
297.37	102.44
297.601	109.44
297.831	90.44
298.062	103.44
298.292	76.44
298.523	99.44
298.753	100.44
298.984	94.44
299.214	97.44
299.445	100.44
299.675	96.44
299.905	88.44
300.136	101.44
300.366	82.44
300.597	90.44
300.827	92.44
301.057	96.44
301.288	103.44
301.518	90.44
301.748	92.44
301.979	100.44
302.209	98.44
302.439	98.44
302.669	92.44
302.9	91.44
303.13	110.44
303.36	89.44
303.59	87.44
303.82	100.44
304.051	88.44
304.281	102.44
304.511	86.44
304.741	88.44
304.971	83.44
305.201	101.44
305.431	105.44
305.661	97.44
305.891	92.44
306.121	103.44
306.352	104.44
306.582	112.44
306.812	96.44
307.042	108.44
307.272	90.44
307.502	80.44
307.731	81.44
307.961	100.44
308.191	84.44
308.421	100.44
308.651	86.44
308.881	97.44
309.111	91.44
309.341	88.44
309.571	106.44
309.8	96.44
310.03	92.44
310.26	105.44
310.49	111.44
310.72	108.44
310.949	115.44
311.179	97.44
311.409	101.44
311.639	93.44
311.868	96.44
312.098	88.44
312.328	95.44
312.557	96.44
312.787	104.44
313.017	96.44
313.246	81.44
313.476	99.44
313.706	102.44
313.935	96.44
314.165	102.44
314.394	91.44
314.624	90.44
314.853	97.44
315.083	111.44
315.312	90.44
315.542	91.44
315.771	110.44
316.001	97.44
316.23	96.44
316.46	94.44
316.689	86.44
316.919	89.44
317.148	106.44
317.377	77.44
317.607	92.44
317.836	94.44
318.065	87.44
318.295	96.44
318.524	106.44
318.753	102.44
318.983	100.44
319.212	109.44
319.441	116.44
319.67	106.44
319.9	95.44
320.129	97.44
320.358	98.44
320.587	98.44
320.816	88.44
321.046	113.44
321.275	104.44
321.504	76.44
321.733	100.44
321.962	105.44
322.191	105.44
322.42	104.44
322.649	108.44
322.878	113.44
323.108	114.44
323.337	113.44
323.566	122.44
323.795	150.44
324.024	197.44
324.253	405.44
324.482	794.44
324.71	1612.44
324.939	2110.44
325.168	784.44
325.397	237.44
325.626	157.44
325.855	135.44
326.084	129.44
326.313	131.44
326.542	146.44
326.77	242.44
326.999	429.44
327.228	905.44
327.457	1656.44
327.686	1312.44
327.914	355.44
328.143	172.44
328.372	147.44
328.6	122.44
328.829	124.44
329.058	124.44
329.287	136.44
329.515	114.44
329.744	108.44
329.972	93.44
330.201	105.44
330.43	110.44
330.658	115.44
330.887	129.44
331.115	129.44
331.344	108.44
331.572	110.44
331.801	103.44
332.03	99.44
332.258	99.44
332.486	105.44
332.715	98.44
332.943	101.44
333.172	99.44
333.4	104.44
333.629	121.44
333.857	115.44
334.085	94.44
334.314	89.44
334.542	87.44
334.771	102.44
334.999	95.44
335.227	83.44
335.455	91.44
335.684	96.44
335.912	94.44
336.14	107.44
336.369	113.44
336.597	103.44
336.825	103.44
337.053	93.44
337.281	113.44
337.51	94.44
337.738	101.44
337.966	91.44
338.194	89.44
338.422	96.44
338.65	79.44
338.878	84.44
339.106	93.44
339.334	90.44
339.562	85.44
339.79	99.44
340.018	97.44
340.246	97.44
340.474	93.44
340.702	86.44
340.93	99.44
341.158	91.44
341.386	97.44
341.614	94.44
341.842	104.44
342.07	94.44
342.298	89.44
342.526	88.44
342.754	82.44
342.981	92.44
343.209	112.44
343.437	103.44
343.665	83.44
343.893	82.44
344.12	98.44
344.348	101.44
344.576	95.44
344.804	98.44
345.031	98.44
345.259	106.44
345.487	94.44
345.714	93.44
345.942	104.44
346.17	97.44
346.397	106.44
346.625	86.44
346.853	83.44
347.08	101.44
347.308	94.44
347.535	83.44
347.763	98.44
347.99	94.44
348.218	103.44
348.445	101.44
348.673	113.44
348.9	99.44
349.128	87.44
349.355	93.44
349.583	98.44
349.81	94.44
350.037	95.44
350.265	100.44
350.492	93.44
350.72	96.44
350.947	104.44
351.174	113.44
351.402	99.44
351.629	86.44
351.856	109.44
352.083	97.44
352.311	116.44
352.538	104.44
352.765	112.44
352.992	113.44
353.22	110.44
353.447	90.44
353.674	107.44
353.901	107.44
354.128	109.44
354.355	111.44
354.583	100.44
354.81	101.44
355.037	116.44
355.264	82.44
355.491	106.44
355.718	101.44
355.945	100.44
356.172	97.44
356.399	92.44
356.626	96.44
356.853	90.44
357.08	102.44
357.307	102.44
357.534	102.44
357.761	93.44
357.988	90.44
358.215	91.44
358.441	100.44
358.668	90.44
358.895	100.44
359.122	74.44
359.349	94.44
359.576	98.44
359.802	100.44
360.029	101.44
360.256	95.44
360.483	93.44
360.709	101.44
360.936	83.44
361.163	93.44
361.39	96.44
361.616	92.44
361.843	85.44
362.07	110.44
362.296	92.44
362.523	91.44
362.749	96.44
362.976	93.44
363.203	90.44
363.429	98.44
363.656	92.44
363.882	94.44
364.109	83.44
364.335	92.44
364.562	102.44
364.788	93.44
365.015	91.44
365.241	110.44
365.468	106.44
365.694	98.44
365.92	100.44
366.147	103.44
366.373	89.44
366.599	101.44
366.826	88.44
367.052	76.44
367.278	88.44
367.505	101.44
367.731	101.44
367.957	104.44
368.184	87.44
368.41	98.44
368.636	97.44
368.862	111.44
369.089	97.44
369.315	88.44
369.541	98.44
369.767	100.44
369.993	109.44
370.219	94.44
370.445	92.44
370.672	83.44
370.898	92.44
371.124	92.44
371.35	91.44
371.576	105.44
371.802	86.44
372.028	85.44
372.254	81.44
372.48	95.44
372.706	101.44
372.932	105.44
373.158	93.44
373.384	97.44
373.61	90.44
373.835	96.44
374.061	84.44
374.287	93.44
374.513	97.44
374.739	105.44
374.965	90.44
375.191	96.44
375.416	87.44
375.642	77.44
375.868	100.44
376.094	92.44
376.319	109.44
376.545	106.44
376.771	84.44
376.997	97.44
377.222	93.44
377.448	99.44
377.674	86.44
377.899	97.44
378.125	91.44
378.35	102.44
378.576	88.44
378.802	96.44
379.027	85.44
379.253	88.44
379.478	87.44
379.704	89.44
379.929	92.44
380.155	93.44
380.38	91.44
380.606	96.44
380.831	94.44
381.057	97.44
381.282	97.44
381.507	91.44
381.733	92.44
381.958	98.44
382.184	102.44
382.409	97.44
382.634	110.44
382.86	93.44
383.085	101.44
383.31	110.44
383.535	93.44
383.761	104.44
383.986	101.44
384.211	93.44
384.436	103.44
384.662	107.44
384.887	110.44
385.112	105.44
385.337	110.44
385.562	100.44
385.787	103.44
386.013	111.44
386.238	113.44
386.463	86.44
386.688	110.44
386.913	104.44
387.138	108.44
387.363	100.44
387.588	107.44
387.813	85.44
388.038	108.44
388.263	89.44
388.488	104.44
388.713	97.44
388.938	93.44
389.163	96.44
389.387	111.44
389.612	90.44
389.837	96.44
390.062	106.44
390.287	99.44
390.512	84.44
390.736	94.44
390.961	98.44
391.186	100.44
391.411	95.44
391.636	97.44
391.86	90.44
392.085	89.44
392.31	71.44
392.534	94.44
392.759	79.44
392.984	101.44
393.208	88.44
393.433	86.44
393.658	87.44
393.882	94.44
394.107	90.44
394.331	89.44
394.556	81.44
394.78	82.44
395.005	82.44
395.229	92.44
395.454	82.44
395.678	96.44
395.903	84.44
396.127	97.44
396.352	92.44
396.576	95.44
396.801	90.44
397.025	102.44
397.249	86.44
397.474	89.44
397.698	86.44
397.922	98.44
398.147	81.44
398.371	96.44
398.595	86.44
398.82	77.44
399.044	91.44
399.268	75.44
399.492	74.44
399.717	84.44
399.941	82.44
400.165	101.44
400.389	96.44
400.613	84.44
400.837	85.44
401.062	98.44
401.286	104.44
401.51	89.44
401.734	99.44
401.958	98.44
402.182	124.44
402.406	164.44
402.63	109.44
402.854	80.44
403.078	80.44
403.302	92.44
403.526	92.44
403.75	87.44
403.974	81.44
404.198	92.44
404.422	87.44
404.645	76.44
404.869	90.44
405.093	105.44
405.317	100.44
405.541	104.44
405.765	99.44
405.988	112.44
406.212	176.44
406.436	207.44
406.66	138.44
406.883	84.44
407.107	105.44
407.331	102.44
407.555	104.44
407.778	107.44
408.002	89.44
408.226	78.44
408.449	97.44
408.673	91.44
408.896	87.44
409.12	108.44
409.344	98.44
409.567	88.44
409.791	98.44
410.014	92.44
410.238	91.44
410.461	87.44
410.685	100.44
410.908	102.44
411.132	104.44
411.355	103.44
411.578	98.44
411.802	69.44
412.025	97.44
412.249	91.44
412.472	96.44
412.695	90.44
412.919	77.44
413.142	92.44
413.365	89.44
413.589	91.44
413.812	95.44
414.035	98.44
414.258	84.44
414.482	100.44
414.705	96.44
414.928	81.44
415.151	83.44
415.374	98.44
415.597	74.44
415.821	101.44
416.044	84.44
416.267	76.44
416.49	93.44
416.713	91.44
416.936	97.44
417.159	88.44
417.382	83.44
417.605	90.44
417.828	84.44
418.051	92.44
418.274	82.44
418.497	95.44
418.72	88.44
418.943	101.44
419.166	80.44
419.389	104.44
419.611	86.44
419.834	83.44
420.057	77.44
420.28	90.44
420.503	79.44
420.726	87.44
420.948	84.44
421.171	93.44
421.394	84.44
421.617	84.44
421.839	91.44
422.062	84.44
422.285	93.44
422.507	105.44
422.73	109.44
422.953	91.44
423.175	89.44
423.398	90.44
423.621	99.44
423.843	89.44
424.066	87.44
424.288	94.44
424.511	88.44
424.733	99.44
424.956	100.44
425.178	92.44
425.401	92.44
425.623	108.44
425.846	90.44
426.068	89.44
426.291	98.44
426.513	87.44
426.735	108.44
426.958	88.44
427.18	94.44
427.402	128.44
427.625	162.44
427.847	126.44
428.069	106.44
428.292	91.44
428.514	80.44
428.736	99.44
428.958	94.44
429.181	82.44
429.403	90.44
429.625	111.44
429.847	104.44
430.069	115.44
430.292	89.44
430.514	87.44
430.736	81.44
430.958	91.44
431.18	81.44
431.402	93.44
431.624	84.44
431.846	99.44
432.068	96.44
432.29	101.44
432.512	85.44
432.734	94.44
432.956	97.44
433.178	95.44
433.4	93.44
433.622	104.44
433.844	107.44
434.066	96.44
434.287	105.44
434.509	100.44
434.731	87.44
434.953	85.44
435.175	87.44
435.397	104.44
435.618	95.44
435.84	110.44
436.062	120.44
436.284	111.44
436.505	105.44
436.727	113.44
436.949	94.44
437.17	80.44
437.392	82.44
437.614	106.44
437.835	100.44
438.057	104.44
438.278	98.44
438.5	101.44
438.721	118.44
438.943	109.44
439.165	90.44
439.386	85.44
439.608	82.44
439.829	90.44
440.05	124.44
440.272	151.44
440.493	94.44
440.715	93.44
440.936	84.44
441.158	91.44
441.379	91.44
441.6	91.44
441.822	92.44
442.043	91.44
442.264	107.44
442.486	109.44
442.707	89.44
442.928	97.44
443.149	131.44
443.371	128.44
443.592	104.44
443.813	119.44
444.034	106.44
444.255	91.44
444.476	83.44
444.698	70.44
444.919	93.44
445.14	113.44
445.361	129.44
445.582	113.44
445.803	134.44
446.024	129.44
446.245	133.44
446.466	110.44
446.687	98.44
446.908	91.44
447.129	86.44
447.35	90.44
447.571	89.44
447.792	94.44
448.013	103.44
448.234	99.44
448.455	101.44
448.675	116.44
448.896	128.44
449.117	108.44
449.338	104.44
449.559	126.44
449.779	130.44
450	98.44
450.221	97.44
450.442	93.44
450.662	105.44
450.883	107.44
451.104	103.44
451.324	87.44
451.545	94.44
451.766	85.44
451.986	74.44
452.207	92.44
452.428	96.44
452.648	95.44
452.869	97.44
453.089	104.44
453.31	125.44
453.53	94.44
453.751	76.44
453.971	104.44
454.192	120.44
454.412	100.44
454.633	66.44
454.853	91.44
455.073	98.44
455.294	88.44
455.514	80.44
455.734	88.44
455.955	94.44
456.175	85.44
456.395	93.44
456.616	76.44
456.836	96.44
457.056	88.44
457.276	91.44
457.497	97.44
457.717	92.44
457.937	86.44
458.157	90.44
458.377	67.44
458.598	104.44
458.818	128.44
459.038	149.44
459.258	101.44
459.478	92.44
459.698	93.44
459.918	88.44
460.138	91.44
460.358	84.44
460.578	87.44
460.798	75.44
461.018	103.44
461.238	90.44
461.458	90.44
461.678	90.44
461.898	97.44
462.118	79.44
462.338	97.44
462.558	72.44
462.777	84.44
462.997	96.44
463.217	109.44
463.437	77.44
463.657	75.44
463.876	85.44
464.096	89.44
464.316	93.44
464.536	99.44
464.755	96.44
464.975	101.44
465.195	148.44
465.414	151.44
465.634	93.44
465.854	86.44
466.073	67.44
466.293	71.44
466.512	80.44
466.732	78.44
466.951	100.44
467.171	97.44
467.391	91.44
467.61	99.44
467.829	102.44
468.049	82.44
468.268	97.44
468.488	78.44
468.707	98.44
468.927	96.44
469.146	92.44
469.365	91.44
469.585	101.44
469.804	85.44
470.023	85.44
470.243	85.44
470.462	100.44
470.681	109.44
470.901	91.44
471.12	81.44
471.339	83.44
471.558	84.44
471.777	101.44
471.997	88.44
472.216	77.44
472.435	90.44
472.654	93.44
472.873	94.44
473.092	81.44
473.311	87.44
473.53	86.44
473.749	96.44
473.968	94.44
474.187	103.44
474.406	93.44
474.625	88.44
474.844	82.44
475.063	89.44
475.282	71.44
475.501	78.44
475.72	93.44
475.939	83.44
476.158	92.44
476.377	91.44
476.596	81.44
476.814	99.44
477.033	97.44
477.252	98.44
477.471	82.44
477.69	108.44
477.908	94.44
478.127	93.44
478.346	80.44
478.564	92.44
478.783	98.44
479.002	92.44
479.22	85.44
479.439	96.44
479.658	110.44
479.876	95.44
480.095	93.44
480.313	94.44
480.532	84.44
480.751	94.44
480.969	96.44
481.188	87.44
481.406	94.44
481.624	85.44
481.843	80.44
482.061	87.44
482.28	77.44
482.498	92.44
482.717	97.44
482.935	78.44
483.153	88.44
483.372	82.44
483.59	79.44
483.808	84.44
484.027	93.44
484.245	101.44
484.463	90.44
484.681	96.44
484.9	86.44
485.118	88.44
485.336	103.44
485.554	97.44
485.772	107.44
485.99	110.44
486.209	110.44
486.427	108.44
486.645	107.44
486.863	118.44
487.081	101.44
487.299	113.44
487.517	104.44
487.735	93.44
487.953	94.44
488.171	89.44
488.389	113.44
488.607	101.44
488.825	95.44
489.043	88.44
489.261	92.44
489.479	102.44
489.696	97.44
489.914	86.44
490.132	83.44
490.35	100.44
490.568	93.44
490.786	94.44
491.003	97.44
491.221	86.44
491.439	91.44
491.657	90.44
491.874	91.44
492.092	97.44
492.31	90.44
492.527	96.44
492.745	101.44
492.963	98.44
493.18	103.44
493.398	81.44
493.615	91.44
493.833	94.44
494.05	107.44
494.268	101.44
494.485	84.44
494.703	97.44
494.92	93.44
495.138	83.44
495.355	88.44
495.573	89.44
495.79	93.44
496.008	99.44
496.225	96.44
496.442	101.44
496.66	86.44
496.877	92.44
497.094	101.44
497.312	94.44
497.529	95.44
497.746	93.44
497.963	101.44
498.181	103.44
498.398	96.44
498.615	119.44
498.832	107.44
499.049	83.44
499.267	88.44
499.484	88.44
499.701	101.44
499.918	96.44
500.135	95.44
500.352	86.44
500.569	80.44
500.786	99.44
501.003	80.44
501.22	92.44
501.437	89.44
501.654	97.44
501.871	115.44
502.088	81.44
502.305	96.44
502.522	90.44
502.739	98.44
502.956	95.44
503.172	99.44
503.389	101.44
503.606	101.44
503.823	98.44
504.04	103.44
504.256	103.44
504.473	91.44
504.69	91.44
504.907	98.44
505.123	96.44
505.34	84.44
505.557	91.44
505.773	90.44
505.99	86.44
506.207	88.44
506.423	97.44
506.64	82.44
506.856	98.44
507.073	97.44
507.289	87.44
507.506	105.44
507.722	110.44
507.939	108.44
508.155	101.44
508.372	88.44
508.588	86.44
508.805	104.44
509.021	108.44
509.238	92.44
509.454	100.44
509.67	104.44
509.887	117.44
510.103	119.44
510.319	211.44
510.536	724.44
510.752	2306.44
510.968	616.44
511.184	153.44
511.401	105.44
511.617	114.44
511.833	93.44
512.049	86.44
512.265	88.44
512.481	91.44
512.698	97.44
512.914	98.44
513.13	108.44
513.346	99.44
513.562	90.44
513.778	95.44
513.994	100.44
514.21	103.44
514.426	107.44
514.642	112.44
514.858	118.44
