Data from Uncirc_1986_H10_HRD10591_00042.txt Node
Date: Wed Jan 03 12:14:34 EST 2024
User: Yrep
Spectrometer: HR+D1059
Trigger mode: 1
Integration Time (sec): 1.000000E-1
Scans to average: 1
Electric dark correction enabled: true
Nonlinearity correction enabled: false
Boxcar width: 0
XAxis mode: Wavelengths
Number of Pixels in Spectrum: 2048
>>>>>Begin Spectral Data<<<<<
223.165	-22.06
223.4	-22.06
223.635	-22.06
223.869	-25.06
224.104	-14.06
224.338	-12.06
224.573	-27.06
224.808	-10.06
225.042	-4.06
225.277	1.94
225.511	-1.06
225.746	-2.06
225.98	4.94
226.215	4.94
226.449	12.94
226.683	26.94
226.918	29.94
227.152	35.94
227.387	18.94
227.621	33.94
227.856	38.94
228.09	28.94
228.324	54.94
228.559	39.94
228.793	53.94
229.027	56.94
229.262	66.94
229.496	75.94
229.73	62.94
229.964	80.94
230.199	78.94
230.433	84.94
230.667	81.94
230.901	83.94
231.136	74.94
231.37	78.94
231.604	81.94
231.838	71.94
232.072	81.94
232.306	68.94
232.541	87.94
232.775	74.94
233.009	90.94
233.243	80.94
233.477	88.94
233.711	81.94
233.945	79.94
234.179	61.94
234.413	80.94
234.647	70.94
234.881	63.94
235.115	76.94
235.349	86.94
235.583	67.94
235.817	70.94
236.051	78.94
236.285	77.94
236.519	79.94
236.753	68.94
236.987	73.94
237.221	81.94
237.455	77.94
237.689	77.94
237.922	78.94
238.156	65.94
238.39	55.94
238.624	68.94
238.858	66.94
239.091	66.94
239.325	76.94
239.559	72.94
239.793	86.94
240.027	85.94
240.26	62.94
240.494	65.94
240.728	69.94
240.961	61.94
241.195	70.94
241.429	80.94
241.662	77.94
241.896	67.94
242.13	75.94
242.363	72.94
242.597	72.94
242.83	61.94
243.064	72.94
243.298	71.94
243.531	81.94
243.765	76.94
243.998	74.94
244.232	80.94
244.465	82.94
244.699	65.94
244.932	61.94
245.166	61.94
245.399	70.94
245.633	74.94
245.866	69.94
246.099	68.94
246.333	76.94
246.566	75.94
246.8	88.94
247.033	84.94
247.266	70.94
247.5	72.94
247.733	76.94
247.966	92.94
248.2	77.94
248.433	68.94
248.666	68.94
248.899	64.94
249.133	82.94
249.366	91.94
249.599	89.94
249.832	83.94
250.066	67.94
250.299	65.94
250.532	70.94
250.765	86.94
250.998	78.94
251.231	77.94
251.465	79.94
251.698	65.94
251.931	77.94
252.164	72.94
252.397	74.94
252.63	71.94
252.863	69.94
253.096	77.94
253.329	79.94
253.562	75.94
253.795	80.94
254.028	67.94
254.261	69.94
254.494	66.94
254.727	69.94
254.96	75.94
255.193	76.94
255.426	69.94
255.659	80.94
255.892	68.94
256.124	66.94
256.357	83.94
256.59	84.94
256.823	76.94
257.056	83.94
257.289	86.94
257.521	78.94
257.754	70.94
257.987	74.94
258.22	68.94
258.452	80.94
258.685	61.94
258.918	67.94
259.151	63.94
259.383	81.94
259.616	71.94
259.849	92.94
260.081	81.94
260.314	68.94
260.547	72.94
260.779	83.94
261.012	72.94
261.244	81.94
261.477	88.94
261.71	83.94
261.942	106.94
262.175	112.94
262.407	79.94
262.64	78.94
262.872	70.94
263.105	68.94
263.337	67.94
263.57	92.94
263.802	73.94
264.035	72.94
264.267	78.94
264.499	82.94
264.732	69.94
264.964	76.94
265.197	70.94
265.429	83.94
265.661	83.94
265.894	84.94
266.126	79.94
266.358	78.94
266.591	79.94
266.823	63.94
267.055	69.94
267.287	76.94
267.52	76.94
267.752	65.94
267.984	83.94
268.216	76.94
268.448	77.94
268.681	69.94
268.913	72.94
269.145	72.94
269.377	76.94
269.609	79.94
269.841	88.94
270.073	76.94
270.306	100.94
270.538	71.94
270.77	81.94
271.002	80.94
271.234	78.94
271.466	75.94
271.698	73.94
271.93	78.94
272.162	83.94
272.394	74.94
272.626	84.94
272.858	74.94
273.09	79.94
273.322	82.94
273.553	88.94
273.785	73.94
274.017	74.94
274.249	79.94
274.481	73.94
274.713	77.94
274.945	82.94
275.176	67.94
275.408	83.94
275.64	78.94
275.872	78.94
276.104	82.94
276.335	77.94
276.567	93.94
276.799	108.94
277.031	97.94
277.262	95.94
277.494	84.94
277.726	82.94
277.957	75.94
278.189	53.94
278.421	72.94
278.652	83.94
278.884	79.94
279.115	91.94
279.347	71.94
279.579	73.94
279.81	77.94
280.042	79.94
280.273	84.94
280.505	98.94
280.736	67.94
280.968	76.94
281.199	80.94
281.431	84.94
281.662	89.94
281.894	85.94
282.125	94.94
282.356	107.94
282.588	123.94
282.819	102.94
283.051	86.94
283.282	70.94
283.513	84.94
283.745	80.94
283.976	82.94
284.207	90.94
284.439	92.94
284.67	81.94
284.901	76.94
285.132	78.94
285.364	76.94
285.595	67.94
285.826	82.94
286.057	80.94
286.288	69.94
286.52	60.94
286.751	74.94
286.982	97.94
287.213	82.94
287.444	92.94
287.675	91.94
287.906	78.94
288.138	90.94
288.369	92.94
288.6	85.94
288.831	90.94
289.062	92.94
289.293	90.94
289.524	69.94
289.755	78.94
289.986	95.94
290.217	86.94
290.448	76.94
290.679	83.94
290.91	85.94
291.141	99.94
291.371	88.94
291.602	85.94
291.833	89.94
292.064	77.94
292.295	91.94
292.526	86.94
292.757	77.94
292.987	92.94
293.218	78.94
293.449	71.94
293.68	81.94
293.91	68.94
294.141	86.94
294.372	88.94
294.603	100.94
294.833	81.94
295.064	81.94
295.295	80.94
295.525	77.94
295.756	96.94
295.987	98.94
296.217	110.94
296.448	116.94
296.679	82.94
296.909	84.94
297.14	79.94
297.37	85.94
297.601	83.94
297.831	75.94
298.062	87.94
298.292	93.94
298.523	89.94
298.753	89.94
298.984	70.94
299.214	88.94
299.445	88.94
299.675	91.94
299.905	87.94
300.136	90.94
300.366	80.94
300.597	80.94
300.827	104.94
301.057	85.94
301.288	74.94
301.518	86.94
301.748	82.94
301.979	95.94
302.209	84.94
302.439	95.94
302.669	76.94
302.9	76.94
303.13	68.94
303.36	82.94
303.59	95.94
303.82	102.94
304.051	92.94
304.281	77.94
304.511	98.94
304.741	94.94
304.971	85.94
305.201	95.94
305.431	86.94
305.661	91.94
305.891	96.94
306.121	99.94
306.352	94.94
306.582	97.94
306.812	97.94
307.042	91.94
307.272	86.94
307.502	91.94
307.731	92.94
307.961	81.94
308.191	85.94
308.421	92.94
308.651	83.94
308.881	98.94
309.111	88.94
309.341	94.94
309.571	94.94
309.8	92.94
310.03	95.94
310.26	82.94
310.49	89.94
310.72	88.94
310.949	92.94
311.179	86.94
311.409	83.94
311.639	71.94
311.868	99.94
312.098	110.94
312.328	94.94
312.557	108.94
312.787	103.94
313.017	93.94
313.246	85.94
313.476	84.94
313.706	91.94
313.935	81.94
314.165	90.94
314.394	92.94
314.624	89.94
314.853	84.94
315.083	97.94
315.312	101.94
315.542	92.94
315.771	84.94
316.001	89.94
316.23	94.94
316.46	85.94
316.689	93.94
316.919	94.94
317.148	98.94
317.377	85.94
317.607	93.94
317.836	79.94
318.065	82.94
318.295	78.94
318.524	68.94
318.753	98.94
318.983	80.94
319.212	93.94
319.441	93.94
319.67	100.94
319.9	75.94
320.129	96.94
320.358	94.94
320.587	80.94
320.816	94.94
321.046	96.94
321.275	91.94
321.504	96.94
321.733	91.94
321.962	82.94
322.191	90.94
322.42	113.94
322.649	103.94
322.878	105.94
323.108	89.94
323.337	113.94
323.566	123.94
323.795	140.94
324.024	198.94
324.253	332.94
324.482	704.94
324.71	1427.94
324.939	1978.94
325.168	718.94
325.397	221.94
325.626	141.94
325.855	110.94
326.084	108.94
326.313	119.94
326.542	145.94
326.77	205.94
326.999	403.94
327.228	813.94
327.457	1480.94
327.686	1201.94
327.914	329.94
328.143	169.94
328.372	128.94
328.6	117.94
328.829	99.94
329.058	110.94
329.287	104.94
329.515	88.94
329.744	104.94
329.972	106.94
330.201	88.94
330.43	99.94
330.658	102.94
330.887	115.94
331.115	112.94
331.344	87.94
331.572	104.94
331.801	97.94
332.03	96.94
332.258	93.94
332.486	78.94
332.715	91.94
332.943	99.94
333.172	89.94
333.4	94.94
333.629	99.94
333.857	93.94
334.085	106.94
334.314	92.94
334.542	102.94
334.771	89.94
334.999	88.94
335.227	78.94
335.455	91.94
335.684	103.94
335.912	90.94
336.14	100.94
336.369	90.94
336.597	101.94
336.825	99.94
337.053	84.94
337.281	80.94
337.51	80.94
337.738	85.94
337.966	74.94
338.194	78.94
338.422	86.94
338.65	92.94
338.878	99.94
339.106	88.94
339.334	75.94
339.562	83.94
339.79	87.94
340.018	72.94
340.246	82.94
340.474	109.94
340.702	80.94
340.93	82.94
341.158	89.94
341.386	92.94
341.614	87.94
341.842	77.94
342.07	97.94
342.298	82.94
342.526	79.94
342.754	83.94
342.981	83.94
343.209	74.94
343.437	95.94
343.665	90.94
343.893	92.94
344.12	88.94
344.348	83.94
344.576	88.94
344.804	88.94
345.031	74.94
345.259	91.94
345.487	90.94
345.714	74.94
345.942	79.94
346.17	82.94
346.397	74.94
346.625	81.94
346.853	80.94
347.08	98.94
347.308	99.94
347.535	89.94
347.763	90.94
347.99	98.94
348.218	106.94
348.445	81.94
348.673	87.94
348.9	97.94
349.128	86.94
349.355	81.94
349.583	97.94
349.81	85.94
350.037	92.94
350.265	85.94
350.492	98.94
350.72	88.94
350.947	89.94
351.174	105.94
351.402	114.94
351.629	101.94
351.856	76.94
352.083	102.94
352.311	94.94
352.538	104.94
352.765	103.94
352.992	102.94
353.22	104.94
353.447	92.94
353.674	84.94
353.901	98.94
354.128	77.94
354.355	78.94
354.583	97.94
354.81	104.94
355.037	95.94
355.264	89.94
355.491	88.94
355.718	85.94
355.945	77.94
356.172	72.94
356.399	88.94
356.626	89.94
356.853	95.94
357.08	92.94
357.307	85.94
357.534	85.94
357.761	94.94
357.988	96.94
358.215	82.94
358.441	100.94
358.668	85.94
358.895	101.94
359.122	92.94
359.349	83.94
359.576	89.94
359.802	91.94
360.029	80.94
360.256	87.94
360.483	83.94
360.709	76.94
360.936	94.94
361.163	90.94
361.39	68.94
361.616	94.94
361.843	98.94
362.07	93.94
362.296	83.94
362.523	81.94
362.749	87.94
362.976	92.94
363.203	79.94
363.429	85.94
363.656	92.94
363.882	91.94
364.109	88.94
364.335	86.94
364.562	94.94
364.788	89.94
365.015	88.94
365.241	86.94
365.468	89.94
365.694	95.94
365.92	97.94
366.147	82.94
366.373	76.94
366.599	84.94
366.826	80.94
367.052	83.94
367.278	81.94
367.505	79.94
367.731	81.94
367.957	81.94
368.184	86.94
368.41	96.94
368.636	100.94
368.862	105.94
369.089	108.94
369.315	85.94
369.541	77.94
369.767	80.94
369.993	89.94
370.219	83.94
370.445	76.94
370.672	96.94
370.898	90.94
371.124	82.94
371.35	80.94
371.576	78.94
371.802	85.94
372.028	83.94
372.254	91.94
372.48	73.94
372.706	94.94
372.932	96.94
373.158	77.94
373.384	92.94
373.61	79.94
373.835	82.94
374.061	80.94
374.287	83.94
374.513	81.94
374.739	78.94
374.965	82.94
375.191	75.94
375.416	95.94
375.642	90.94
375.868	78.94
376.094	89.94
376.319	83.94
376.545	95.94
376.771	92.94
376.997	93.94
377.222	87.94
377.448	93.94
377.674	74.94
377.899	99.94
378.125	83.94
378.35	85.94
378.576	104.94
378.802	65.94
379.027	88.94
379.253	86.94
379.478	88.94
379.704	94.94
379.929	96.94
380.155	81.94
380.38	83.94
380.606	93.94
380.831	103.94
381.057	82.94
381.282	75.94
381.507	77.94
381.733	98.94
381.958	77.94
382.184	86.94
382.409	89.94
382.634	96.94
382.86	82.94
383.085	96.94
383.31	100.94
383.535	94.94
383.761	104.94
383.986	102.94
384.211	90.94
384.436	97.94
384.662	85.94
384.887	98.94
385.112	98.94
385.337	92.94
385.562	101.94
385.787	100.94
386.013	89.94
386.238	99.94
386.463	88.94
386.688	108.94
386.913	93.94
387.138	92.94
387.363	88.94
387.588	87.94
387.813	85.94
388.038	93.94
388.263	107.94
388.488	104.94
388.713	92.94
388.938	86.94
389.163	86.94
389.387	90.94
389.612	88.94
389.837	91.94
390.062	84.94
390.287	73.94
390.512	91.94
390.736	87.94
390.961	86.94
391.186	91.94
391.411	92.94
391.636	81.94
391.86	76.94
392.085	72.94
392.31	69.94
392.534	74.94
392.759	93.94
392.984	82.94
393.208	102.94
393.433	78.94
393.658	90.94
393.882	88.94
394.107	74.94
394.331	83.94
394.556	90.94
394.78	90.94
395.005	86.94
395.229	97.94
395.454	90.94
395.678	78.94
395.903	81.94
396.127	89.94
396.352	85.94
396.576	82.94
396.801	76.94
397.025	83.94
397.249	86.94
397.474	90.94
397.698	76.94
397.922	90.94
398.147	81.94
398.371	80.94
398.595	93.94
398.82	82.94
399.044	80.94
399.268	84.94
399.492	89.94
399.717	68.94
399.941	77.94
400.165	80.94
400.389	94.94
400.613	95.94
400.837	89.94
401.062	86.94
401.286	84.94
401.51	97.94
401.734	76.94
401.958	92.94
402.182	114.94
402.406	136.94
402.63	108.94
402.854	83.94
403.078	74.94
403.302	76.94
403.526	81.94
403.75	73.94
403.974	76.94
404.198	83.94
404.422	84.94
404.645	86.94
404.869	81.94
405.093	89.94
405.317	90.94
405.541	80.94
405.765	86.94
405.988	93.94
406.212	143.94
406.436	186.94
406.66	129.94
406.883	95.94
407.107	87.94
407.331	95.94
407.555	85.94
407.778	90.94
408.002	95.94
408.226	76.94
408.449	75.94
408.673	95.94
408.896	100.94
409.12	90.94
409.344	78.94
409.567	91.94
409.791	80.94
410.014	91.94
410.238	92.94
410.461	97.94
410.685	92.94
410.908	82.94
411.132	106.94
411.355	108.94
411.578	94.94
411.802	86.94
412.025	93.94
412.249	91.94
412.472	97.94
412.695	94.94
412.919	79.94
413.142	85.94
413.365	92.94
413.589	86.94
413.812	86.94
414.035	85.94
414.258	83.94
414.482	82.94
414.705	78.94
414.928	70.94
415.151	80.94
415.374	78.94
415.597	78.94
415.821	75.94
416.044	88.94
416.267	70.94
416.49	88.94
416.713	78.94
416.936	74.94
417.159	63.94
417.382	90.94
417.605	88.94
417.828	89.94
418.051	97.94
418.274	69.94
418.497	95.94
418.72	89.94
418.943	75.94
419.166	96.94
419.389	86.94
419.611	79.94
419.834	89.94
420.057	84.94
420.28	86.94
420.503	86.94
420.726	86.94
420.948	92.94
421.171	83.94
421.394	86.94
421.617	85.94
421.839	82.94
422.062	87.94
422.285	86.94
422.507	88.94
422.73	88.94
422.953	79.94
423.175	90.94
423.398	80.94
423.621	82.94
423.843	81.94
424.066	90.94
424.288	92.94
424.511	84.94
424.733	100.94
424.956	87.94
425.178	106.94
425.401	92.94
425.623	106.94
425.846	84.94
426.068	96.94
426.291	73.94
426.513	84.94
426.735	82.94
426.958	86.94
427.18	87.94
427.402	130.94
427.625	143.94
427.847	116.94
428.069	106.94
428.292	69.94
428.514	82.94
428.736	66.94
428.958	72.94
429.181	76.94
429.403	80.94
429.625	85.94
429.847	85.94
430.069	78.94
430.292	80.94
430.514	88.94
430.736	86.94
430.958	90.94
431.18	75.94
431.402	74.94
431.624	77.94
431.846	85.94
432.068	82.94
432.29	76.94
432.512	79.94
432.734	76.94
432.956	77.94
433.178	94.94
433.4	91.94
433.622	84.94
433.844	76.94
434.066	90.94
434.287	88.94
434.509	90.94
434.731	88.94
434.953	88.94
435.175	80.94
435.397	67.94
435.618	89.94
435.84	96.94
436.062	102.94
436.284	100.94
436.505	94.94
436.727	92.94
436.949	96.94
437.17	96.94
437.392	85.94
437.614	92.94
437.835	106.94
438.057	104.94
438.278	99.94
438.5	106.94
438.721	118.94
438.943	112.94
439.165	77.94
439.386	75.94
439.608	90.94
439.829	103.94
440.05	100.94
440.272	123.94
440.493	82.94
440.715	76.94
440.936	77.94
441.158	82.94
441.379	89.94
441.6	92.94
441.822	85.94
442.043	74.94
442.264	88.94
442.486	88.94
442.707	89.94
442.928	78.94
443.149	115.94
443.371	108.94
443.592	105.94
443.813	113.94
444.034	85.94
444.255	84.94
444.476	80.94
444.698	74.94
444.919	88.94
445.14	136.94
445.361	112.94
445.582	112.94
445.803	131.94
446.024	117.94
446.245	126.94
446.466	101.94
446.687	89.94
446.908	65.94
447.129	85.94
447.35	80.94
447.571	98.94
447.792	77.94
448.013	86.94
448.234	101.94
448.455	90.94
448.675	102.94
448.896	105.94
449.117	104.94
449.338	84.94
449.559	114.94
449.779	129.94
450	105.94
450.221	80.94
450.442	82.94
450.662	89.94
450.883	104.94
451.104	95.94
451.324	101.94
451.545	80.94
451.766	79.94
451.986	76.94
452.207	82.94
452.428	79.94
452.648	91.94
452.869	103.94
453.089	109.94
453.31	101.94
453.53	76.94
453.751	92.94
453.971	96.94
454.192	98.94
454.412	105.94
454.633	68.94
454.853	76.94
455.073	81.94
455.294	87.94
455.514	92.94
455.734	80.94
455.955	81.94
456.175	94.94
456.395	98.94
456.616	77.94
456.836	84.94
457.056	76.94
457.276	63.94
457.497	82.94
457.717	88.94
457.937	83.94
458.157	82.94
458.377	78.94
458.598	90.94
458.818	125.94
459.038	122.94
459.258	96.94
459.478	92.94
459.698	87.94
459.918	69.94
460.138	78.94
460.358	80.94
460.578	74.94
460.798	78.94
461.018	81.94
461.238	76.94
461.458	79.94
461.678	75.94
461.898	80.94
462.118	96.94
462.338	69.94
462.558	85.94
462.777	85.94
462.997	73.94
463.217	76.94
463.437	79.94
463.657	78.94
463.876	76.94
464.096	95.94
464.316	69.94
464.536	86.94
464.755	78.94
464.975	112.94
465.195	126.94
465.414	130.94
465.634	94.94
465.854	84.94
466.073	78.94
466.293	91.94
466.512	78.94
466.732	69.94
466.951	78.94
467.171	86.94
467.391	89.94
467.61	102.94
467.829	88.94
468.049	89.94
468.268	94.94
468.488	81.94
468.707	86.94
468.927	75.94
469.146	74.94
469.365	76.94
469.585	75.94
469.804	88.94
470.023	88.94
470.243	90.94
470.462	89.94
470.681	95.94
470.901	88.94
471.12	94.94
471.339	77.94
471.558	71.94
471.777	81.94
471.997	91.94
472.216	76.94
472.435	90.94
472.654	91.94
472.873	84.94
473.092	81.94
473.311	88.94
473.53	83.94
473.749	80.94
473.968	89.94
474.187	96.94
474.406	87.94
474.625	84.94
474.844	69.94
475.063	72.94
475.282	83.94
475.501	90.94
475.72	85.94
475.939	85.94
476.158	91.94
476.377	66.94
476.596	83.94
476.814	83.94
477.033	82.94
477.252	72.94
477.471	86.94
477.69	67.94
477.908	83.94
478.127	89.94
478.346	82.94
478.564	77.94
478.783	73.94
479.002	83.94
479.22	81.94
479.439	105.94
479.658	90.94
479.876	80.94
480.095	80.94
480.313	100.94
480.532	62.94
480.751	75.94
480.969	79.94
481.188	84.94
481.406	86.94
481.624	75.94
481.843	84.94
482.061	79.94
482.28	73.94
482.498	94.94
482.717	81.94
482.935	81.94
483.153	93.94
483.372	81.94
483.59	92.94
483.808	76.94
484.027	91.94
484.245	86.94
484.463	82.94
484.681	83.94
484.9	85.94
485.118	100.94
485.336	97.94
485.554	93.94
485.772	91.94
485.99	98.94
486.209	86.94
486.427	94.94
486.645	112.94
486.863	95.94
487.081	79.94
487.299	85.94
487.517	74.94
487.735	79.94
487.953	85.94
488.171	76.94
488.389	83.94
488.607	90.94
488.825	77.94
489.043	79.94
489.261	78.94
489.479	82.94
489.696	90.94
489.914	89.94
490.132	88.94
490.35	87.94
490.568	73.94
490.786	91.94
491.003	78.94
491.221	76.94
491.439	70.94
491.657	81.94
491.874	85.94
492.092	80.94
492.31	80.94
492.527	87.94
492.745	82.94
492.963	78.94
493.18	89.94
493.398	85.94
493.615	76.94
493.833	91.94
494.05	86.94
494.268	80.94
494.485	86.94
494.703	97.94
494.92	94.94
495.138	93.94
495.355	93.94
495.573	78.94
495.79	97.94
496.008	91.94
496.225	92.94
496.442	94.94
496.66	79.94
496.877	93.94
497.094	88.94
497.312	83.94
497.529	88.94
497.746	92.94
497.963	102.94
498.181	83.94
498.398	92.94
498.615	99.94
498.832	78.94
499.049	88.94
499.267	90.94
499.484	88.94
499.701	70.94
499.918	81.94
500.135	88.94
500.352	89.94
500.569	79.94
500.786	86.94
501.003	97.94
501.22	80.94
501.437	88.94
501.654	75.94
501.871	88.94
502.088	93.94
502.305	86.94
502.522	89.94
502.739	86.94
502.956	76.94
503.172	87.94
503.389	89.94
503.606	97.94
503.823	91.94
504.04	97.94
504.256	92.94
504.473	74.94
504.69	89.94
504.907	94.94
505.123	81.94
505.34	84.94
505.557	78.94
505.773	90.94
505.99	87.94
506.207	82.94
506.423	65.94
506.64	77.94
506.856	82.94
507.073	78.94
507.289	90.94
507.506	97.94
507.722	102.94
507.939	92.94
508.155	87.94
508.372	90.94
508.588	81.94
508.805	84.94
509.021	94.94
509.238	92.94
509.454	95.94
509.67	98.94
509.887	109.94
510.103	122.94
510.319	200.94
510.536	644.94
510.752	2079.94
510.968	576.94
511.184	149.94
511.401	108.94
511.617	93.94
511.833	81.94
512.049	88.94
512.265	86.94
512.481	82.94
512.698	80.94
512.914	83.94
513.13	79.94
513.346	88.94
513.562	81.94
513.778	86.94
513.994	91.94
514.21	96.94
514.426	115.94
514.642	102.94
514.858	113.94
515.074	141.94
515.29	377.94
515.506	1271.94
515.721	477.94
515.937	130.94
516.153	106.94
516.369	92.94
516.585	84.94
516.801	76.94
517.016	82.94
517.232	84.94
517.448	91.94
517.664	85.94
