Data from Uncirc_1986_H10_HRD10591_00100.txt Node
Date: Wed Jan 03 12:14:46 EST 2024
User: Yrep
Spectrometer: HR+D1059
Trigger mode: 1
Integration Time (sec): 1.000000E-1
Scans to average: 1
Electric dark correction enabled: true
Nonlinearity correction enabled: false
Boxcar width: 0
XAxis mode: Wavelengths
Number of Pixels in Spectrum: 2048
>>>>>Begin Spectral Data<<<<<
223.165	-15.19
223.4	-15.19
223.635	-15.19
223.869	-13.19
224.104	-32.19
224.338	-17.19
224.573	-10.19
224.808	-14.19
225.042	-8.19
225.277	-6.19
225.511	-5.19
225.746	0.81
225.98	10.81
226.215	9.81
226.449	5.81
226.683	29.81
226.918	25.81
227.152	38.81
227.387	46.81
227.621	38.81
227.856	34.81
228.09	44.81
228.324	53.81
228.559	69.81
228.793	62.81
229.027	56.81
229.262	68.81
229.496	79.81
229.73	83.81
229.964	70.81
230.199	66.81
230.433	78.81
230.667	81.81
230.901	55.81
231.136	77.81
231.37	83.81
231.604	83.81
231.838	88.81
232.072	72.81
232.306	81.81
232.541	84.81
232.775	83.81
233.009	87.81
233.243	73.81
233.477	72.81
233.711	79.81
233.945	99.81
234.179	80.81
234.413	56.81
234.647	69.81
234.881	67.81
235.115	74.81
235.349	84.81
235.583	81.81
235.817	69.81
236.051	83.81
236.285	79.81
236.519	77.81
236.753	82.81
236.987	73.81
237.221	82.81
237.455	83.81
237.689	74.81
237.922	85.81
238.156	71.81
238.39	81.81
238.624	65.81
238.858	64.81
239.091	73.81
239.325	73.81
239.559	75.81
239.793	83.81
240.027	71.81
240.26	86.81
240.494	96.81
240.728	86.81
240.961	73.81
241.195	77.81
241.429	64.81
241.662	63.81
241.896	70.81
242.13	72.81
242.363	74.81
242.597	77.81
242.83	62.81
243.064	79.81
243.298	85.81
243.531	79.81
243.765	77.81
243.998	78.81
244.232	86.81
244.465	86.81
244.699	86.81
244.932	80.81
245.166	88.81
245.399	74.81
245.633	75.81
245.866	74.81
246.099	89.81
246.333	77.81
246.566	73.81
246.8	68.81
247.033	90.81
247.266	83.81
247.5	74.81
247.733	78.81
247.966	81.81
248.2	69.81
248.433	84.81
248.666	91.81
248.899	75.81
249.133	78.81
249.366	94.81
249.599	106.81
249.832	80.81
250.066	63.81
250.299	87.81
250.532	61.81
250.765	73.81
250.998	83.81
251.231	65.81
251.465	66.81
251.698	80.81
251.931	93.81
252.164	83.81
252.397	80.81
252.63	90.81
252.863	77.81
253.096	84.81
253.329	87.81
253.562	80.81
253.795	90.81
254.028	81.81
254.261	80.81
254.494	70.81
254.727	67.81
254.96	66.81
255.193	84.81
255.426	67.81
255.659	84.81
255.892	68.81
256.124	73.81
256.357	83.81
256.59	87.81
256.823	79.81
257.056	63.81
257.289	74.81
257.521	77.81
257.754	77.81
257.987	77.81
258.22	78.81
258.452	71.81
258.685	73.81
258.918	78.81
259.151	87.81
259.383	72.81
259.616	79.81
259.849	77.81
260.081	83.81
260.314	84.81
260.547	84.81
260.779	90.81
261.012	73.81
261.244	98.81
261.477	85.81
261.71	104.81
261.942	107.81
262.175	124.81
262.407	103.81
262.64	86.81
262.872	79.81
263.105	78.81
263.337	79.81
263.57	73.81
263.802	69.81
264.035	75.81
264.267	84.81
264.499	78.81
264.732	87.81
264.964	91.81
265.197	80.81
265.429	74.81
265.661	88.81
265.894	83.81
266.126	87.81
266.358	90.81
266.591	69.81
266.823	81.81
267.055	84.81
267.287	77.81
267.52	87.81
267.752	79.81
267.984	95.81
268.216	95.81
268.448	90.81
268.681	85.81
268.913	86.81
269.145	89.81
269.377	72.81
269.609	63.81
269.841	82.81
270.073	81.81
270.306	79.81
270.538	90.81
270.77	93.81
271.002	80.81
271.234	77.81
271.466	89.81
271.698	71.81
271.93	75.81
272.162	90.81
272.394	80.81
272.626	78.81
272.858	90.81
273.09	89.81
273.322	86.81
273.553	86.81
273.785	78.81
274.017	77.81
274.249	84.81
274.481	82.81
274.713	85.81
274.945	91.81
275.176	88.81
275.408	87.81
275.64	79.81
275.872	79.81
276.104	90.81
276.335	93.81
276.567	88.81
276.799	97.81
277.031	86.81
277.262	78.81
277.494	86.81
277.726	86.81
277.957	88.81
278.189	85.81
278.421	82.81
278.652	87.81
278.884	87.81
279.115	97.81
279.347	93.81
279.579	77.81
279.81	79.81
280.042	85.81
280.273	75.81
280.505	76.81
280.736	85.81
280.968	71.81
281.199	81.81
281.431	67.81
281.662	77.81
281.894	81.81
282.125	94.81
282.356	116.81
282.588	126.81
282.819	113.81
283.051	98.81
283.282	86.81
283.513	88.81
283.745	83.81
283.976	74.81
284.207	88.81
284.439	71.81
284.67	93.81
284.901	72.81
285.132	76.81
285.364	74.81
285.595	81.81
285.826	79.81
286.057	67.81
286.288	94.81
286.52	79.81
286.751	94.81
286.982	61.81
287.213	79.81
287.444	90.81
287.675	99.81
287.906	99.81
288.138	85.81
288.369	84.81
288.6	94.81
288.831	86.81
289.062	101.81
289.293	75.81
289.524	82.81
289.755	76.81
289.986	93.81
290.217	78.81
290.448	87.81
290.679	85.81
290.91	87.81
291.141	69.81
291.371	95.81
291.602	105.81
291.833	91.81
292.064	91.81
292.295	83.81
292.526	94.81
292.757	86.81
292.987	88.81
293.218	78.81
293.449	86.81
293.68	69.81
293.91	81.81
294.141	80.81
294.372	86.81
294.603	83.81
294.833	92.81
295.064	95.81
295.295	83.81
295.525	88.81
295.756	110.81
295.987	101.81
296.217	130.81
296.448	118.81
296.679	77.81
296.909	86.81
297.14	101.81
297.37	80.81
297.601	77.81
297.831	54.81
298.062	92.81
298.292	88.81
298.523	88.81
298.753	93.81
298.984	94.81
299.214	91.81
299.445	89.81
299.675	99.81
299.905	86.81
300.136	101.81
300.366	95.81
300.597	76.81
300.827	81.81
301.057	89.81
301.288	96.81
301.518	91.81
301.748	88.81
301.979	98.81
302.209	91.81
302.439	100.81
302.669	90.81
302.9	86.81
303.13	89.81
303.36	99.81
303.59	104.81
303.82	107.81
304.051	96.81
304.281	104.81
304.511	80.81
304.741	79.81
304.971	83.81
305.201	92.81
305.431	74.81
305.661	91.81
305.891	102.81
306.121	106.81
306.352	99.81
306.582	86.81
306.812	95.81
307.042	94.81
307.272	96.81
307.502	91.81
307.731	79.81
307.961	99.81
308.191	86.81
308.421	88.81
308.651	96.81
308.881	86.81
309.111	94.81
309.341	100.81
309.571	92.81
309.8	98.81
310.03	88.81
310.26	97.81
310.49	102.81
310.72	90.81
310.949	93.81
311.179	84.81
311.409	94.81
311.639	70.81
311.868	77.81
312.098	102.81
312.328	99.81
312.557	90.81
312.787	113.81
313.017	100.81
313.246	74.81
313.476	74.81
313.706	84.81
313.935	75.81
314.165	89.81
314.394	88.81
314.624	81.81
314.853	100.81
315.083	97.81
315.312	105.81
315.542	73.81
315.771	98.81
316.001	85.81
316.23	88.81
316.46	88.81
316.689	95.81
316.919	87.81
317.148	98.81
317.377	77.81
317.607	105.81
317.836	94.81
318.065	74.81
318.295	87.81
318.524	85.81
318.753	91.81
318.983	69.81
319.212	93.81
319.441	100.81
319.67	122.81
319.9	99.81
320.129	82.81
320.358	104.81
320.587	98.81
320.816	85.81
321.046	99.81
321.275	112.81
321.504	82.81
321.733	100.81
321.962	88.81
322.191	103.81
322.42	95.81
322.649	102.81
322.878	106.81
323.108	114.81
323.337	126.81
323.566	118.81
323.795	131.81
324.024	185.81
324.253	337.81
324.482	706.81
324.71	1425.81
324.939	1916.81
325.168	729.81
325.397	234.81
325.626	135.81
325.855	113.81
326.084	111.81
326.313	118.81
326.542	149.81
326.77	205.81
326.999	399.81
327.228	805.81
327.457	1427.81
327.686	1193.81
327.914	335.81
328.143	175.81
328.372	136.81
328.6	118.81
328.829	98.81
329.058	106.81
329.287	107.81
329.515	102.81
329.744	92.81
329.972	85.81
330.201	105.81
330.43	104.81
330.658	113.81
330.887	125.81
331.115	105.81
331.344	94.81
331.572	102.81
331.801	97.81
332.03	107.81
332.258	95.81
332.486	83.81
332.715	96.81
332.943	99.81
333.172	101.81
333.4	96.81
333.629	103.81
333.857	104.81
334.085	106.81
334.314	111.81
334.542	104.81
334.771	104.81
334.999	90.81
335.227	92.81
335.455	96.81
335.684	100.81
335.912	90.81
336.14	98.81
336.369	102.81
336.597	99.81
336.825	93.81
337.053	119.81
337.281	99.81
337.51	87.81
337.738	105.81
337.966	81.81
338.194	95.81
338.422	96.81
338.65	83.81
338.878	84.81
339.106	90.81
339.334	88.81
339.562	87.81
339.79	90.81
340.018	80.81
340.246	90.81
340.474	94.81
340.702	98.81
340.93	95.81
341.158	96.81
341.386	101.81
341.614	99.81
341.842	97.81
342.07	95.81
342.298	87.81
342.526	90.81
342.754	81.81
342.981	93.81
343.209	97.81
343.437	109.81
343.665	98.81
343.893	90.81
344.12	91.81
344.348	99.81
344.576	86.81
344.804	91.81
345.031	114.81
345.259	107.81
345.487	99.81
345.714	86.81
345.942	102.81
346.17	100.81
346.397	103.81
346.625	91.81
346.853	90.81
347.08	83.81
347.308	97.81
347.535	93.81
347.763	96.81
347.99	94.81
348.218	110.81
348.445	104.81
348.673	104.81
348.9	103.81
349.128	89.81
349.355	95.81
349.583	102.81
349.81	85.81
350.037	112.81
350.265	98.81
350.492	104.81
350.72	104.81
350.947	107.81
351.174	98.81
351.402	106.81
351.629	103.81
351.856	101.81
352.083	85.81
352.311	106.81
352.538	101.81
352.765	97.81
352.992	111.81
353.22	113.81
353.447	109.81
353.674	120.81
353.901	88.81
354.128	114.81
354.355	94.81
354.583	94.81
354.81	74.81
355.037	116.81
355.264	80.81
355.491	100.81
355.718	89.81
355.945	103.81
356.172	91.81
356.399	90.81
356.626	92.81
356.853	93.81
357.08	80.81
357.307	90.81
357.534	86.81
357.761	107.81
357.988	92.81
358.215	84.81
358.441	86.81
358.668	95.81
358.895	86.81
359.122	84.81
359.349	78.81
359.576	83.81
359.802	96.81
360.029	107.81
360.256	106.81
360.483	98.81
360.709	85.81
360.936	97.81
361.163	97.81
361.39	103.81
361.616	89.81
361.843	86.81
362.07	82.81
362.296	91.81
362.523	70.81
362.749	93.81
362.976	79.81
363.203	110.81
363.429	95.81
363.656	90.81
363.882	94.81
364.109	93.81
364.335	88.81
364.562	105.81
364.788	91.81
365.015	83.81
365.241	89.81
365.468	104.81
365.694	86.81
365.92	84.81
366.147	93.81
366.373	81.81
366.599	83.81
366.826	82.81
367.052	86.81
367.278	89.81
367.505	88.81
367.731	97.81
367.957	99.81
368.184	101.81
368.41	99.81
368.636	99.81
368.862	96.81
369.089	96.81
369.315	84.81
369.541	90.81
369.767	78.81
369.993	88.81
370.219	90.81
370.445	96.81
370.672	90.81
370.898	82.81
371.124	82.81
371.35	95.81
371.576	82.81
371.802	90.81
372.028	89.81
372.254	96.81
372.48	80.81
372.706	84.81
372.932	85.81
373.158	88.81
373.384	89.81
373.61	90.81
373.835	93.81
374.061	79.81
374.287	83.81
374.513	86.81
374.739	85.81
374.965	75.81
375.191	85.81
375.416	84.81
375.642	99.81
375.868	97.81
376.094	85.81
376.319	106.81
376.545	75.81
376.771	81.81
376.997	94.81
377.222	79.81
377.448	101.81
377.674	91.81
377.899	85.81
378.125	82.81
378.35	85.81
378.576	94.81
378.802	90.81
379.027	97.81
379.253	88.81
379.478	91.81
379.704	98.81
379.929	88.81
380.155	83.81
380.38	93.81
380.606	97.81
380.831	99.81
381.057	96.81
381.282	83.81
381.507	79.81
381.733	91.81
381.958	105.81
382.184	87.81
382.409	105.81
382.634	98.81
382.86	94.81
383.085	102.81
383.31	94.81
383.535	92.81
383.761	96.81
383.986	80.81
384.211	86.81
384.436	103.81
384.662	101.81
384.887	100.81
385.112	110.81
385.337	105.81
385.562	109.81
385.787	89.81
386.013	107.81
386.238	98.81
386.463	112.81
386.688	107.81
386.913	87.81
387.138	106.81
387.363	107.81
387.588	105.81
387.813	102.81
388.038	104.81
388.263	117.81
388.488	111.81
388.713	104.81
388.938	86.81
389.163	99.81
389.387	98.81
389.612	98.81
389.837	86.81
390.062	87.81
390.287	96.81
390.512	94.81
390.736	92.81
390.961	89.81
391.186	93.81
391.411	103.81
391.636	95.81
391.86	90.81
392.085	90.81
392.31	83.81
392.534	81.81
392.759	87.81
392.984	89.81
393.208	74.81
393.433	93.81
393.658	86.81
393.882	90.81
394.107	93.81
394.331	77.81
394.556	98.81
394.78	83.81
395.005	69.81
395.229	103.81
395.454	95.81
395.678	74.81
395.903	94.81
396.127	96.81
396.352	73.81
396.576	85.81
396.801	93.81
397.025	91.81
397.249	97.81
397.474	100.81
397.698	87.81
397.922	83.81
398.147	92.81
398.371	105.81
398.595	70.81
398.82	89.81
399.044	94.81
399.268	86.81
399.492	84.81
399.717	81.81
399.941	72.81
400.165	85.81
400.389	89.81
400.613	95.81
400.837	82.81
401.062	94.81
401.286	86.81
401.51	103.81
401.734	95.81
401.958	91.81
402.182	123.81
402.406	144.81
402.63	106.81
402.854	82.81
403.078	95.81
403.302	97.81
403.526	92.81
403.75	96.81
403.974	79.81
404.198	86.81
404.422	95.81
404.645	82.81
404.869	97.81
405.093	93.81
405.317	70.81
405.541	89.81
405.765	113.81
405.988	113.81
406.212	152.81
406.436	197.81
406.66	125.81
406.883	82.81
407.107	99.81
407.331	95.81
407.555	87.81
407.778	103.81
408.002	88.81
408.226	99.81
408.449	92.81
408.673	93.81
408.896	91.81
409.12	86.81
409.344	90.81
409.567	78.81
409.791	95.81
410.014	98.81
410.238	78.81
410.461	91.81
410.685	101.81
410.908	93.81
411.132	97.81
411.355	101.81
411.578	94.81
411.802	94.81
412.025	97.81
412.249	82.81
412.472	85.81
412.695	98.81
412.919	77.81
413.142	98.81
413.365	103.81
413.589	95.81
413.812	95.81
414.035	87.81
414.258	82.81
414.482	87.81
414.705	91.81
414.928	99.81
415.151	85.81
415.374	90.81
415.597	94.81
415.821	77.81
416.044	96.81
416.267	80.81
416.49	91.81
416.713	77.81
416.936	97.81
417.159	97.81
417.382	89.81
417.605	63.81
417.828	85.81
418.051	93.81
418.274	99.81
418.497	84.81
418.72	93.81
418.943	91.81
419.166	82.81
419.389	85.81
419.611	89.81
419.834	94.81
420.057	95.81
420.28	89.81
420.503	95.81
420.726	86.81
420.948	91.81
421.171	97.81
421.394	96.81
421.617	84.81
421.839	81.81
422.062	90.81
422.285	97.81
422.507	111.81
422.73	96.81
422.953	85.81
423.175	67.81
423.398	89.81
423.621	96.81
423.843	82.81
424.066	85.81
424.288	107.81
424.511	94.81
424.733	96.81
424.956	99.81
425.178	87.81
425.401	95.81
425.623	93.81
425.846	87.81
426.068	94.81
426.291	92.81
426.513	96.81
426.735	97.81
426.958	91.81
427.18	98.81
427.402	130.81
427.625	149.81
427.847	110.81
428.069	101.81
428.292	90.81
428.514	79.81
428.736	87.81
428.958	92.81
429.181	83.81
429.403	88.81
429.625	77.81
429.847	81.81
430.069	92.81
430.292	95.81
430.514	86.81
430.736	82.81
430.958	73.81
431.18	96.81
431.402	92.81
431.624	77.81
431.846	103.81
432.068	86.81
432.29	87.81
432.512	83.81
432.734	88.81
432.956	78.81
433.178	81.81
433.4	97.81
433.622	95.81
433.844	89.81
434.066	92.81
434.287	92.81
434.509	88.81
434.731	100.81
434.953	93.81
435.175	93.81
435.397	88.81
435.618	93.81
435.84	96.81
436.062	112.81
436.284	104.81
436.505	102.81
436.727	99.81
436.949	94.81
437.17	75.81
437.392	100.81
437.614	99.81
437.835	108.81
438.057	112.81
438.278	96.81
438.5	118.81
438.721	127.81
438.943	101.81
439.165	102.81
439.386	95.81
439.608	90.81
439.829	89.81
440.05	114.81
440.272	121.81
440.493	102.81
440.715	98.81
440.936	78.81
441.158	78.81
441.379	91.81
441.6	96.81
441.822	93.81
442.043	87.81
442.264	86.81
442.486	96.81
442.707	94.81
442.928	110.81
443.149	117.81
443.371	116.81
443.592	106.81
443.813	95.81
444.034	102.81
444.255	89.81
444.476	70.81
444.698	92.81
444.919	86.81
445.14	134.81
445.361	122.81
445.582	103.81
445.803	119.81
446.024	123.81
446.245	135.81
446.466	101.81
446.687	84.81
446.908	90.81
447.129	94.81
447.35	74.81
447.571	88.81
447.792	90.81
448.013	82.81
448.234	118.81
448.455	99.81
448.675	121.81
448.896	113.81
449.117	98.81
449.338	111.81
449.559	126.81
449.779	123.81
450	107.81
450.221	86.81
450.442	95.81
450.662	83.81
450.883	106.81
451.104	103.81
451.324	98.81
451.545	84.81
451.766	91.81
451.986	78.81
452.207	102.81
452.428	93.81
452.648	105.81
452.869	97.81
453.089	110.81
453.31	107.81
453.53	92.81
453.751	87.81
453.971	93.81
454.192	90.81
454.412	76.81
454.633	89.81
454.853	86.81
455.073	93.81
455.294	96.81
455.514	86.81
455.734	86.81
455.955	97.81
456.175	88.81
456.395	74.81
456.616	66.81
456.836	89.81
457.056	87.81
457.276	92.81
457.497	86.81
457.717	99.81
457.937	96.81
458.157	85.81
458.377	71.81
458.598	94.81
458.818	142.81
459.038	146.81
459.258	115.81
459.478	91.81
459.698	90.81
459.918	102.81
460.138	96.81
460.358	88.81
460.578	97.81
460.798	93.81
461.018	81.81
461.238	95.81
461.458	99.81
461.678	84.81
461.898	95.81
462.118	100.81
462.338	85.81
462.558	95.81
462.777	75.81
462.997	93.81
463.217	80.81
463.437	87.81
463.657	102.81
463.876	80.81
464.096	87.81
464.316	102.81
464.536	89.81
464.755	91.81
464.975	93.81
465.195	168.81
465.414	136.81
465.634	100.81
465.854	86.81
466.073	73.81
466.293	78.81
466.512	85.81
466.732	70.81
466.951	86.81
467.171	83.81
467.391	83.81
467.61	86.81
467.829	94.81
468.049	101.81
468.268	96.81
468.488	87.81
468.707	84.81
468.927	92.81
469.146	89.81
469.365	87.81
469.585	94.81
469.804	87.81
470.023	93.81
470.243	83.81
470.462	90.81
470.681	91.81
470.901	95.81
471.12	90.81
471.339	86.81
471.558	82.81
471.777	78.81
471.997	98.81
472.216	98.81
472.435	122.81
472.654	81.81
472.873	90.81
473.092	104.81
473.311	74.81
473.53	98.81
473.749	88.81
473.968	91.81
474.187	88.81
474.406	95.81
474.625	93.81
474.844	91.81
475.063	87.81
475.282	86.81
475.501	66.81
475.72	87.81
475.939	93.81
476.158	74.81
476.377	77.81
476.596	77.81
476.814	101.81
477.033	103.81
477.252	80.81
477.471	101.81
477.69	81.81
477.908	76.81
478.127	84.81
478.346	83.81
478.564	78.81
478.783	91.81
479.002	101.81
479.22	79.81
479.439	100.81
479.658	106.81
479.876	93.81
480.095	97.81
480.313	81.81
480.532	77.81
480.751	81.81
480.969	96.81
481.188	158.81
481.406	122.81
481.624	100.81
481.843	72.81
482.061	95.81
482.28	83.81
482.498	86.81
482.717	82.81
482.935	78.81
483.153	94.81
483.372	87.81
483.59	112.81
483.808	92.81
484.027	88.81
484.245	101.81
484.463	83.81
484.681	98.81
484.9	89.81
485.118	110.81
485.336	96.81
485.554	97.81
485.772	87.81
485.99	102.81
486.209	100.81
486.427	91.81
486.645	107.81
486.863	103.81
487.081	100.81
487.299	97.81
487.517	93.81
487.735	95.81
487.953	106.81
488.171	89.81
488.389	97.81
488.607	94.81
488.825	92.81
489.043	93.81
489.261	85.81
489.479	85.81
489.696	80.81
489.914	79.81
490.132	83.81
490.35	90.81
490.568	89.81
490.786	93.81
491.003	82.81
491.221	80.81
491.439	90.81
491.657	77.81
491.874	82.81
492.092	97.81
492.31	74.81
492.527	89.81
492.745	83.81
492.963	97.81
493.18	111.81
493.398	88.81
493.615	67.81
493.833	94.81
494.05	89.81
494.268	100.81
494.485	92.81
494.703	89.81
494.92	91.81
495.138	74.81
495.355	96.81
495.573	90.81
495.79	82.81
496.008	90.81
496.225	85.81
496.442	94.81
496.66	96.81
496.877	94.81
497.094	83.81
497.312	93.81
497.529	84.81
497.746	87.81
497.963	83.81
498.181	95.81
498.398	101.81
498.615	114.81
498.832	105.81
499.049	84.81
499.267	88.81
499.484	91.81
499.701	88.81
499.918	93.81
500.135	92.81
500.352	95.81
500.569	91.81
500.786	96.81
501.003	96.81
501.22	98.81
501.437	104.81
501.654	84.81
501.871	101.81
502.088	90.81
502.305	86.81
502.522	85.81
502.739	88.81
502.956	82.81
503.172	97.81
503.389	101.81
503.606	93.81
503.823	95.81
504.04	97.81
504.256	91.81
504.473	94.81
504.69	78.81
504.907	87.81
505.123	95.81
505.34	96.81
505.557	77.81
505.773	98.81
505.99	84.81
506.207	88.81
506.423	83.81
506.64	82.81
506.856	82.81
507.073	93.81
507.289	101.81
507.506	118.81
507.722	105.81
507.939	107.81
508.155	101.81
508.372	111.81
508.588	95.81
508.805	94.81
509.021	79.81
509.238	97.81
509.454	105.81
509.67	95.81
509.887	100.81
510.103	110.81
510.319	214.81
510.536	666.81
510.752	2042.81
510.968	562.81
511.184	147.81
511.401	103.81
511.617	95.81
511.833	101.81
512.049	89.81
512.265	80.81
512.481	87.81
512.698	85.81
512.914	86.81
513.13	89.81
513.346	84.81
513.562	89.81
513.778	92.81
513.994	111.81
514.21	88.81
514.426	114.81
514.642	115.81
514.858	111.81
515.074	148.81
515.29	389.81
515.506	1251.81
515.721	461.81
515.937	145.81
516.153	109.81
