Data from Uncirc_1986_H10_HRD10591_00057.txt Node
Date: Wed Jan 03 12:14:37 EST 2024
User: Yrep
Spectrometer: HR+D1059
Trigger mode: 1
Integration Time (sec): 1.000000E-1
Scans to average: 1
Electric dark correction enabled: true
Nonlinearity correction enabled: false
Boxcar width: 0
XAxis mode: Wavelengths
Number of Pixels in Spectrum: 2048
>>>>>Begin Spectral Data<<<<<
223.165	-27.38
223.4	-27.38
223.635	-27.38
223.869	-19.38
224.104	-15.38
224.338	-9.38
224.573	-5.38
224.808	-26.38
225.042	-9.38
225.277	-25.38
225.511	7.62
225.746	18.62
225.98	11.62
226.215	24.62
226.449	17.62
226.683	13.62
226.918	24.62
227.152	19.62
227.387	29.62
227.621	26.62
227.856	31.62
228.09	49.62
228.324	65.62
228.559	54.62
228.793	61.62
229.027	63.62
229.262	67.62
229.496	69.62
229.73	94.62
229.964	72.62
230.199	63.62
230.433	62.62
230.667	70.62
230.901	86.62
231.136	79.62
231.37	97.62
231.604	78.62
231.838	82.62
232.072	77.62
232.306	84.62
232.541	76.62
232.775	82.62
233.009	81.62
233.243	81.62
233.477	89.62
233.711	79.62
233.945	78.62
234.179	62.62
234.413	94.62
234.647	86.62
234.881	84.62
235.115	84.62
235.349	85.62
235.583	95.62
235.817	82.62
236.051	78.62
236.285	86.62
236.519	72.62
236.753	80.62
236.987	77.62
237.221	89.62
237.455	73.62
237.689	75.62
237.922	75.62
238.156	86.62
238.39	81.62
238.624	79.62
238.858	81.62
239.091	79.62
239.325	73.62
239.559	98.62
239.793	70.62
240.027	82.62
240.26	78.62
240.494	78.62
240.728	82.62
240.961	68.62
241.195	72.62
241.429	75.62
241.662	73.62
241.896	67.62
242.13	43.62
242.363	80.62
242.597	85.62
242.83	74.62
243.064	87.62
243.298	86.62
243.531	73.62
243.765	84.62
243.998	80.62
244.232	78.62
244.465	81.62
244.699	83.62
244.932	66.62
245.166	68.62
245.399	73.62
245.633	69.62
245.866	80.62
246.099	91.62
246.333	73.62
246.566	79.62
246.8	87.62
247.033	82.62
247.266	72.62
247.5	74.62
247.733	82.62
247.966	70.62
248.2	86.62
248.433	80.62
248.666	69.62
248.899	80.62
249.133	80.62
249.366	100.62
249.599	82.62
249.832	99.62
250.066	87.62
250.299	91.62
250.532	69.62
250.765	74.62
250.998	87.62
251.231	86.62
251.465	80.62
251.698	82.62
251.931	83.62
252.164	72.62
252.397	64.62
252.63	65.62
252.863	86.62
253.096	73.62
253.329	78.62
253.562	73.62
253.795	79.62
254.028	96.62
254.261	74.62
254.494	81.62
254.727	67.62
254.96	84.62
255.193	74.62
255.426	70.62
255.659	76.62
255.892	67.62
256.124	89.62
256.357	78.62
256.59	75.62
256.823	83.62
257.056	72.62
257.289	80.62
257.521	91.62
257.754	78.62
257.987	78.62
258.22	86.62
258.452	69.62
258.685	84.62
258.918	78.62
259.151	80.62
259.383	81.62
259.616	74.62
259.849	71.62
260.081	86.62
260.314	82.62
260.547	79.62
260.779	76.62
261.012	80.62
261.244	82.62
261.477	80.62
261.71	96.62
261.942	118.62
262.175	98.62
262.407	101.62
262.64	83.62
262.872	80.62
263.105	88.62
263.337	87.62
263.57	81.62
263.802	90.62
264.035	92.62
264.267	75.62
264.499	86.62
264.732	86.62
264.964	81.62
265.197	78.62
265.429	88.62
265.661	96.62
265.894	69.62
266.126	84.62
266.358	94.62
266.591	87.62
266.823	97.62
267.055	80.62
267.287	84.62
267.52	76.62
267.752	71.62
267.984	84.62
268.216	73.62
268.448	84.62
268.681	75.62
268.913	81.62
269.145	87.62
269.377	78.62
269.609	80.62
269.841	88.62
270.073	85.62
270.306	86.62
270.538	90.62
270.77	91.62
271.002	87.62
271.234	83.62
271.466	94.62
271.698	88.62
271.93	80.62
272.162	70.62
272.394	91.62
272.626	94.62
272.858	75.62
273.09	69.62
273.322	80.62
273.553	88.62
273.785	79.62
274.017	88.62
274.249	91.62
274.481	75.62
274.713	83.62
274.945	86.62
275.176	88.62
275.408	87.62
275.64	84.62
275.872	90.62
276.104	81.62
276.335	91.62
276.567	98.62
276.799	116.62
277.031	102.62
277.262	89.62
277.494	82.62
277.726	90.62
277.957	81.62
278.189	95.62
278.421	86.62
278.652	76.62
278.884	80.62
279.115	86.62
279.347	72.62
279.579	75.62
279.81	81.62
280.042	88.62
280.273	78.62
280.505	81.62
280.736	71.62
280.968	84.62
281.199	85.62
281.431	84.62
281.662	86.62
281.894	100.62
282.125	100.62
282.356	109.62
282.588	143.62
282.819	111.62
283.051	95.62
283.282	86.62
283.513	71.62
283.745	82.62
283.976	84.62
284.207	89.62
284.439	92.62
284.67	88.62
284.901	98.62
285.132	97.62
285.364	83.62
285.595	94.62
285.826	80.62
286.057	86.62
286.288	88.62
286.52	85.62
286.751	82.62
286.982	83.62
287.213	75.62
287.444	77.62
287.675	75.62
287.906	86.62
288.138	82.62
288.369	99.62
288.6	87.62
288.831	84.62
289.062	94.62
289.293	88.62
289.524	90.62
289.755	80.62
289.986	88.62
290.217	75.62
290.448	85.62
290.679	94.62
290.91	82.62
291.141	82.62
291.371	108.62
291.602	81.62
291.833	86.62
292.064	89.62
292.295	88.62
292.526	90.62
292.757	79.62
292.987	88.62
293.218	87.62
293.449	80.62
293.68	81.62
293.91	97.62
294.141	90.62
294.372	93.62
294.603	101.62
294.833	76.62
295.064	81.62
295.295	93.62
295.525	87.62
295.756	93.62
295.987	122.62
296.217	133.62
296.448	127.62
296.679	106.62
296.909	101.62
297.14	81.62
297.37	86.62
297.601	86.62
297.831	76.62
298.062	91.62
298.292	81.62
298.523	80.62
298.753	94.62
298.984	103.62
299.214	96.62
299.445	92.62
299.675	99.62
299.905	96.62
300.136	107.62
300.366	92.62
300.597	85.62
300.827	86.62
301.057	99.62
301.288	94.62
301.518	83.62
301.748	82.62
301.979	85.62
302.209	89.62
302.439	93.62
302.669	88.62
302.9	97.62
303.13	114.62
303.36	90.62
303.59	105.62
303.82	105.62
304.051	88.62
304.281	98.62
304.511	92.62
304.741	107.62
304.971	96.62
305.201	86.62
305.431	89.62
305.661	91.62
305.891	86.62
306.121	97.62
306.352	102.62
306.582	119.62
306.812	77.62
307.042	81.62
307.272	85.62
307.502	79.62
307.731	85.62
307.961	89.62
308.191	107.62
308.421	96.62
308.651	78.62
308.881	83.62
309.111	90.62
309.341	99.62
309.571	96.62
309.8	85.62
310.03	91.62
310.26	97.62
310.49	74.62
310.72	104.62
310.949	98.62
311.179	104.62
311.409	102.62
311.639	79.62
311.868	98.62
312.098	95.62
312.328	92.62
312.557	100.62
312.787	103.62
313.017	89.62
313.246	100.62
313.476	96.62
313.706	93.62
313.935	78.62
314.165	95.62
314.394	83.62
314.624	80.62
314.853	96.62
315.083	95.62
315.312	87.62
315.542	98.62
315.771	85.62
316.001	92.62
316.23	89.62
316.46	99.62
316.689	98.62
316.919	89.62
317.148	98.62
317.377	87.62
317.607	94.62
317.836	96.62
318.065	95.62
318.295	87.62
318.524	88.62
318.753	87.62
318.983	90.62
319.212	84.62
319.441	113.62
319.67	96.62
319.9	106.62
320.129	93.62
320.358	104.62
320.587	102.62
320.816	87.62
321.046	87.62
321.275	93.62
321.504	91.62
321.733	96.62
321.962	90.62
322.191	95.62
322.42	115.62
322.649	106.62
322.878	106.62
323.108	116.62
323.337	112.62
323.566	124.62
323.795	137.62
324.024	186.62
324.253	343.62
324.482	734.62
324.71	1467.62
324.939	1938.62
325.168	730.62
325.397	226.62
325.626	131.62
325.855	143.62
326.084	126.62
326.313	129.62
326.542	157.62
326.77	214.62
326.999	410.62
327.228	856.62
327.457	1522.62
327.686	1218.62
327.914	320.62
328.143	175.62
328.372	135.62
328.6	133.62
328.829	113.62
329.058	118.62
329.287	118.62
329.515	112.62
329.744	112.62
329.972	92.62
330.201	107.62
330.43	105.62
330.658	107.62
330.887	129.62
331.115	129.62
331.344	104.62
331.572	90.62
331.801	88.62
332.03	105.62
332.258	101.62
332.486	101.62
332.715	90.62
332.943	103.62
333.172	92.62
333.4	104.62
333.629	84.62
333.857	112.62
334.085	114.62
334.314	104.62
334.542	102.62
334.771	96.62
334.999	113.62
335.227	98.62
335.455	92.62
335.684	114.62
335.912	100.62
336.14	108.62
336.369	82.62
336.597	96.62
336.825	89.62
337.053	100.62
337.281	87.62
337.51	90.62
337.738	83.62
337.966	92.62
338.194	89.62
338.422	97.62
338.65	112.62
338.878	81.62
339.106	96.62
339.334	86.62
339.562	92.62
339.79	80.62
340.018	82.62
340.246	99.62
340.474	95.62
340.702	99.62
340.93	84.62
341.158	96.62
341.386	104.62
341.614	93.62
341.842	108.62
342.07	107.62
342.298	84.62
342.526	90.62
342.754	81.62
342.981	83.62
343.209	104.62
343.437	110.62
343.665	106.62
343.893	84.62
344.12	89.62
344.348	83.62
344.576	100.62
344.804	99.62
345.031	100.62
345.259	74.62
345.487	82.62
345.714	72.62
345.942	93.62
346.17	90.62
346.397	90.62
346.625	104.62
346.853	102.62
347.08	98.62
347.308	98.62
347.535	100.62
347.763	99.62
347.99	91.62
348.218	105.62
348.445	98.62
348.673	98.62
348.9	100.62
349.128	104.62
349.355	102.62
349.583	95.62
349.81	94.62
350.037	97.62
350.265	99.62
350.492	97.62
350.72	104.62
350.947	97.62
351.174	104.62
351.402	111.62
351.629	101.62
351.856	90.62
352.083	91.62
352.311	96.62
352.538	112.62
352.765	99.62
352.992	113.62
353.22	104.62
353.447	103.62
353.674	99.62
353.901	112.62
354.128	96.62
354.355	99.62
354.583	101.62
354.81	90.62
355.037	98.62
355.264	93.62
355.491	98.62
355.718	84.62
355.945	86.62
356.172	89.62
356.399	78.62
356.626	92.62
356.853	103.62
357.08	93.62
357.307	90.62
357.534	87.62
357.761	91.62
357.988	104.62
358.215	104.62
358.441	95.62
358.668	94.62
358.895	76.62
359.122	98.62
359.349	92.62
359.576	91.62
359.802	106.62
360.029	105.62
360.256	108.62
360.483	111.62
360.709	94.62
360.936	95.62
361.163	88.62
361.39	88.62
361.616	90.62
361.843	90.62
362.07	102.62
362.296	86.62
362.523	87.62
362.749	95.62
362.976	79.62
363.203	92.62
363.429	89.62
363.656	82.62
363.882	86.62
364.109	87.62
364.335	100.62
364.562	91.62
364.788	93.62
365.015	99.62
365.241	94.62
365.468	100.62
365.694	114.62
365.92	94.62
366.147	97.62
366.373	98.62
366.599	99.62
366.826	89.62
367.052	86.62
367.278	96.62
367.505	91.62
367.731	85.62
367.957	80.62
368.184	111.62
368.41	102.62
368.636	119.62
368.862	114.62
369.089	79.62
369.315	92.62
369.541	93.62
369.767	98.62
369.993	85.62
370.219	90.62
370.445	84.62
370.672	89.62
370.898	105.62
371.124	98.62
371.35	82.62
371.576	87.62
371.802	88.62
372.028	80.62
372.254	83.62
372.48	82.62
372.706	83.62
372.932	84.62
373.158	99.62
373.384	82.62
373.61	88.62
373.835	97.62
374.061	102.62
374.287	83.62
374.513	71.62
374.739	101.62
374.965	90.62
375.191	81.62
375.416	88.62
375.642	91.62
375.868	94.62
376.094	90.62
376.319	94.62
376.545	86.62
376.771	82.62
376.997	100.62
377.222	91.62
377.448	102.62
377.674	90.62
377.899	100.62
378.125	94.62
378.35	92.62
378.576	93.62
378.802	102.62
379.027	84.62
379.253	89.62
379.478	98.62
379.704	90.62
379.929	97.62
380.155	100.62
380.38	95.62
380.606	88.62
380.831	98.62
381.057	98.62
381.282	89.62
381.507	82.62
381.733	102.62
381.958	99.62
382.184	105.62
382.409	95.62
382.634	108.62
382.86	88.62
383.085	99.62
383.31	95.62
383.535	97.62
383.761	94.62
383.986	105.62
384.211	102.62
384.436	112.62
384.662	99.62
384.887	90.62
385.112	108.62
385.337	101.62
385.562	105.62
385.787	96.62
386.013	105.62
386.238	102.62
386.463	96.62
386.688	114.62
386.913	83.62
387.138	89.62
387.363	98.62
387.588	94.62
387.813	103.62
388.038	92.62
388.263	86.62
388.488	101.62
388.713	98.62
388.938	96.62
389.163	98.62
389.387	115.62
389.612	80.62
389.837	103.62
390.062	92.62
390.287	100.62
390.512	92.62
390.736	91.62
390.961	83.62
391.186	93.62
391.411	97.62
391.636	79.62
391.86	89.62
392.085	92.62
392.31	81.62
392.534	94.62
392.759	90.62
392.984	94.62
393.208	97.62
393.433	90.62
393.658	99.62
393.882	98.62
394.107	93.62
394.331	78.62
394.556	95.62
394.78	88.62
395.005	81.62
395.229	89.62
395.454	76.62
395.678	104.62
395.903	81.62
396.127	89.62
396.352	94.62
396.576	88.62
396.801	80.62
397.025	86.62
397.249	87.62
397.474	100.62
397.698	101.62
397.922	96.62
398.147	99.62
398.371	101.62
398.595	98.62
398.82	92.62
399.044	89.62
399.268	82.62
399.492	83.62
399.717	92.62
399.941	87.62
400.165	96.62
400.389	102.62
400.613	99.62
400.837	90.62
401.062	97.62
401.286	87.62
401.51	83.62
401.734	93.62
401.958	101.62
402.182	135.62
402.406	146.62
402.63	108.62
402.854	93.62
403.078	99.62
403.302	99.62
403.526	94.62
403.75	95.62
403.974	92.62
404.198	88.62
404.422	87.62
404.645	91.62
404.869	83.62
405.093	79.62
405.317	98.62
405.541	101.62
405.765	89.62
405.988	103.62
406.212	167.62
406.436	209.62
406.66	139.62
406.883	99.62
407.107	97.62
407.331	94.62
407.555	104.62
407.778	94.62
408.002	99.62
408.226	105.62
408.449	92.62
408.673	94.62
408.896	88.62
409.12	101.62
409.344	78.62
409.567	89.62
409.791	88.62
410.014	86.62
410.238	90.62
410.461	107.62
410.685	101.62
410.908	96.62
411.132	101.62
411.355	89.62
411.578	94.62
411.802	72.62
412.025	74.62
412.249	95.62
412.472	77.62
412.695	101.62
412.919	97.62
413.142	100.62
413.365	92.62
413.589	87.62
413.812	97.62
414.035	74.62
414.258	96.62
414.482	96.62
414.705	87.62
414.928	96.62
415.151	107.62
415.374	92.62
415.597	96.62
415.821	75.62
416.044	81.62
416.267	90.62
416.49	100.62
416.713	104.62
416.936	87.62
417.159	87.62
417.382	73.62
417.605	91.62
417.828	86.62
418.051	89.62
418.274	82.62
418.497	90.62
418.72	82.62
418.943	90.62
419.166	89.62
419.389	92.62
419.611	92.62
419.834	80.62
420.057	91.62
420.28	92.62
420.503	89.62
420.726	80.62
420.948	69.62
421.171	94.62
421.394	86.62
421.617	78.62
421.839	89.62
422.062	91.62
422.285	85.62
422.507	96.62
422.73	103.62
422.953	108.62
423.175	107.62
423.398	92.62
423.621	95.62
423.843	84.62
424.066	102.62
424.288	84.62
424.511	96.62
424.733	100.62
424.956	94.62
425.178	95.62
425.401	90.62
425.623	107.62
425.846	102.62
426.068	102.62
426.291	92.62
426.513	90.62
426.735	99.62
426.958	83.62
427.18	107.62
427.402	145.62
427.625	166.62
427.847	105.62
428.069	112.62
428.292	88.62
428.514	85.62
428.736	91.62
428.958	87.62
429.181	94.62
429.403	95.62
429.625	94.62
429.847	103.62
430.069	97.62
430.292	107.62
430.514	85.62
430.736	81.62
430.958	91.62
431.18	82.62
431.402	88.62
431.624	84.62
431.846	82.62
432.068	83.62
432.29	95.62
432.512	91.62
432.734	85.62
432.956	88.62
433.178	100.62
433.4	112.62
433.622	102.62
433.844	98.62
434.066	90.62
434.287	107.62
434.509	79.62
434.731	95.62
434.953	83.62
435.175	86.62
435.397	86.62
435.618	97.62
435.84	106.62
436.062	111.62
436.284	113.62
436.505	100.62
436.727	98.62
436.949	84.62
437.17	94.62
437.392	86.62
437.614	99.62
437.835	102.62
438.057	116.62
438.278	103.62
438.5	89.62
438.721	122.62
438.943	85.62
439.165	90.62
439.386	97.62
439.608	88.62
439.829	103.62
440.05	120.62
440.272	138.62
440.493	106.62
440.715	96.62
440.936	83.62
441.158	80.62
441.379	83.62
441.6	97.62
441.822	99.62
442.043	101.62
442.264	104.62
442.486	99.62
442.707	84.62
442.928	113.62
443.149	122.62
443.371	128.62
443.592	95.62
443.813	104.62
444.034	98.62
444.255	100.62
444.476	94.62
444.698	83.62
444.919	90.62
445.14	114.62
445.361	114.62
445.582	111.62
445.803	128.62
446.024	116.62
446.245	131.62
446.466	87.62
446.687	91.62
446.908	86.62
447.129	88.62
447.35	93.62
447.571	96.62
447.792	102.62
448.013	90.62
448.234	90.62
448.455	101.62
448.675	111.62
448.896	109.62
449.117	89.62
449.338	96.62
449.559	135.62
449.779	138.62
450	99.62
450.221	88.62
450.442	78.62
450.662	85.62
450.883	90.62
451.104	120.62
451.324	96.62
451.545	93.62
451.766	84.62
451.986	86.62
452.207	82.62
452.428	80.62
452.648	89.62
452.869	121.62
453.089	116.62
453.31	97.62
453.53	89.62
453.751	107.62
453.971	99.62
454.192	106.62
454.412	99.62
454.633	84.62
454.853	92.62
455.073	101.62
455.294	94.62
455.514	99.62
455.734	88.62
455.955	73.62
456.175	94.62
456.395	85.62
456.616	94.62
456.836	89.62
457.056	96.62
457.276	93.62
457.497	91.62
457.717	83.62
457.937	88.62
458.157	89.62
458.377	87.62
458.598	114.62
458.818	132.62
459.038	132.62
459.258	118.62
459.478	86.62
459.698	87.62
459.918	83.62
460.138	85.62
460.358	80.62
460.578	89.62
460.798	101.62
461.018	93.62
461.238	79.62
461.458	92.62
461.678	88.62
461.898	95.62
462.118	93.62
462.338	89.62
462.558	83.62
462.777	91.62
462.997	72.62
463.217	85.62
463.437	84.62
463.657	90.62
463.876	91.62
464.096	96.62
464.316	108.62
464.536	99.62
464.755	102.62
464.975	102.62
465.195	156.62
465.414	148.62
465.634	97.62
465.854	90.62
466.073	88.62
466.293	94.62
466.512	87.62
466.732	83.62
466.951	97.62
467.171	91.62
467.391	75.62
467.61	97.62
467.829	83.62
468.049	106.62
468.268	104.62
468.488	88.62
468.707	83.62
468.927	91.62
469.146	88.62
469.365	85.62
469.585	79.62
469.804	85.62
470.023	100.62
470.243	90.62
470.462	94.62
470.681	97.62
470.901	86.62
471.12	96.62
471.339	87.62
471.558	83.62
471.777	89.62
471.997	101.62
472.216	100.62
472.435	103.62
472.654	96.62
472.873	98.62
473.092	89.62
473.311	89.62
473.53	96.62
473.749	68.62
473.968	101.62
474.187	106.62
474.406	96.62
474.625	85.62
474.844	83.62
475.063	78.62
475.282	86.62
475.501	86.62
475.72	86.62
475.939	84.62
476.158	84.62
476.377	85.62
476.596	79.62
476.814	84.62
477.033	93.62
477.252	81.62
477.471	97.62
477.69	89.62
477.908	100.62
478.127	105.62
478.346	65.62
478.564	102.62
478.783	90.62
479.002	92.62
479.22	80.62
479.439	87.62
479.658	104.62
479.876	87.62
480.095	86.62
480.313	88.62
480.532	99.62
480.751	75.62
480.969	87.62
481.188	122.62
481.406	92.62
481.624	85.62
481.843	85.62
482.061	87.62
482.28	82.62
482.498	87.62
482.717	88.62
482.935	84.62
483.153	78.62
483.372	91.62
483.59	98.62
483.808	82.62
484.027	103.62
484.245	87.62
484.463	98.62
484.681	106.62
484.9	95.62
485.118	88.62
485.336	95.62
485.554	97.62
485.772	104.62
485.99	107.62
486.209	95.62
486.427	110.62
486.645	96.62
486.863	112.62
487.081	100.62
487.299	89.62
487.517	95.62
487.735	90.62
487.953	91.62
488.171	99.62
488.389	88.62
488.607	95.62
488.825	90.62
489.043	101.62
489.261	88.62
489.479	94.62
489.696	86.62
489.914	88.62
490.132	81.62
490.35	95.62
490.568	95.62
490.786	104.62
491.003	100.62
491.221	94.62
491.439	89.62
491.657	98.62
491.874	74.62
492.092	95.62
492.31	96.62
492.527	107.62
492.745	87.62
492.963	84.62
493.18	88.62
493.398	80.62
493.615	101.62
493.833	100.62
494.05	95.62
494.268	99.62
494.485	98.62
494.703	91.62
494.92	83.62
495.138	98.62
495.355	91.62
495.573	78.62
495.79	82.62
496.008	76.62
496.225	90.62
496.442	95.62
496.66	91.62
496.877	82.62
497.094	86.62
497.312	100.62
497.529	102.62
497.746	92.62
497.963	112.62
498.181	98.62
498.398	96.62
498.615	110.62
498.832	106.62
499.049	85.62
499.267	80.62
499.484	87.62
499.701	81.62
499.918	92.62
500.135	94.62
500.352	87.62
500.569	100.62
500.786	94.62
501.003	94.62
501.22	98.62
501.437	106.62
501.654	106.62
501.871	99.62
502.088	91.62
502.305	89.62
502.522	87.62
502.739	95.62
502.956	99.62
503.172	84.62
503.389	89.62
503.606	102.62
503.823	89.62
504.04	101.62
504.256	100.62
504.473	89.62
504.69	86.62
504.907	97.62
505.123	95.62
505.34	90.62
505.557	88.62
505.773	100.62
505.99	88.62
506.207	91.62
506.423	98.62
506.64	90.62
506.856	90.62
507.073	75.62
507.289	107.62
507.506	95.62
507.722	111.62
507.939	105.62
508.155	84.62
508.372	90.62
508.588	92.62
508.805	91.62
509.021	89.62
509.238	83.62
509.454	101.62
509.67	114.62
509.887	98.62
510.103	120.62
510.319	203.62
510.536	655.62
510.752	2094.62
510.968	576.62
511.184	139.62
511.401	100.62
511.617	91.62
511.833	97.62
512.049	98.62
512.265	92.62
512.481	99.62
512.698	88.62
512.914	86.62
513.13	95.62
513.346	103.62
513.562	103.62
513.778	100.62
513.994	91.62
514.21	110.62
514.426	121.62
514.642	134.62
514.858	126.62
515.074	160.62
515.29	381.62
515.506	1262.62
515.721	482.62
