Data from Uncirc_1986_H10_HRD10591_00044.txt Node
Date: Wed Jan 03 12:14:35 EST 2024
User: Yrep
Spectrometer: HR+D1059
Trigger mode: 1
Integration Time (sec): 1.000000E-1
Scans to average: 1
Electric dark correction enabled: true
Nonlinearity correction enabled: false
Boxcar width: 0
XAxis mode: Wavelengths
Number of Pixels in Spectrum: 2048
>>>>>Begin Spectral Data<<<<<
223.165	-15.56
223.4	-15.56
223.635	-15.56
223.869	-19.56
224.104	-25.56
224.338	-20.56
224.573	-16.56
224.808	-11.56
225.042	-6.56
225.277	-11.56
225.511	-2.56
225.746	2.44
225.98	19.44
226.215	17.44
226.449	21.44
226.683	25.44
226.918	32.44
227.152	11.44
227.387	34.44
227.621	46.44
227.856	55.44
228.09	38.44
228.324	57.44
228.559	39.44
228.793	70.44
229.027	66.44
229.262	78.44
229.496	73.44
229.73	84.44
229.964	88.44
230.199	87.44
230.433	70.44
230.667	82.44
230.901	83.44
231.136	84.44
231.37	69.44
231.604	77.44
231.838	90.44
232.072	91.44
232.306	99.44
232.541	86.44
232.775	76.44
233.009	89.44
233.243	75.44
233.477	83.44
233.711	88.44
233.945	94.44
234.179	86.44
234.413	87.44
234.647	78.44
234.881	76.44
235.115	76.44
235.349	88.44
235.583	84.44
235.817	86.44
236.051	78.44
236.285	91.44
236.519	71.44
236.753	86.44
236.987	89.44
237.221	75.44
237.455	78.44
237.689	85.44
237.922	82.44
238.156	71.44
238.39	74.44
238.624	77.44
238.858	78.44
239.091	66.44
239.325	68.44
239.559	77.44
239.793	87.44
240.027	85.44
240.26	95.44
240.494	70.44
240.728	77.44
240.961	67.44
241.195	84.44
241.429	88.44
241.662	71.44
241.896	63.44
242.13	67.44
242.363	81.44
242.597	94.44
242.83	73.44
243.064	70.44
243.298	76.44
243.531	69.44
243.765	94.44
243.998	78.44
244.232	66.44
244.465	85.44
244.699	77.44
244.932	76.44
245.166	79.44
245.399	74.44
245.633	72.44
245.866	80.44
246.099	78.44
246.333	79.44
246.566	84.44
246.8	76.44
247.033	70.44
247.266	74.44
247.5	86.44
247.733	89.44
247.966	72.44
248.2	74.44
248.433	80.44
248.666	82.44
248.899	82.44
249.133	83.44
249.366	91.44
249.599	96.44
249.832	68.44
250.066	87.44
250.299	94.44
250.532	70.44
250.765	83.44
250.998	74.44
251.231	82.44
251.465	94.44
251.698	85.44
251.931	86.44
252.164	68.44
252.397	86.44
252.63	74.44
252.863	75.44
253.096	94.44
253.329	86.44
253.562	83.44
253.795	91.44
254.028	86.44
254.261	91.44
254.494	92.44
254.727	76.44
254.96	85.44
255.193	86.44
255.426	93.44
255.659	75.44
255.892	78.44
256.124	89.44
256.357	90.44
256.59	96.44
256.823	102.44
257.056	93.44
257.289	95.44
257.521	86.44
257.754	72.44
257.987	77.44
258.22	91.44
258.452	86.44
258.685	90.44
258.918	86.44
259.151	73.44
259.383	88.44
259.616	92.44
259.849	84.44
260.081	95.44
260.314	82.44
260.547	106.44
260.779	84.44
261.012	72.44
261.244	90.44
261.477	94.44
261.71	96.44
261.942	92.44
262.175	111.44
262.407	96.44
262.64	83.44
262.872	94.44
263.105	103.44
263.337	92.44
263.57	88.44
263.802	71.44
264.035	78.44
264.267	80.44
264.499	86.44
264.732	89.44
264.964	81.44
265.197	86.44
265.429	83.44
265.661	89.44
265.894	78.44
266.126	83.44
266.358	89.44
266.591	82.44
266.823	73.44
267.055	97.44
267.287	82.44
267.52	87.44
267.752	78.44
267.984	78.44
268.216	77.44
268.448	95.44
268.681	90.44
268.913	81.44
269.145	92.44
269.377	94.44
269.609	79.44
269.841	90.44
270.073	97.44
270.306	103.44
270.538	88.44
270.77	99.44
271.002	72.44
271.234	80.44
271.466	98.44
271.698	92.44
271.93	82.44
272.162	94.44
272.394	90.44
272.626	66.44
272.858	84.44
273.09	94.44
273.322	78.44
273.553	102.44
273.785	91.44
274.017	79.44
274.249	86.44
274.481	79.44
274.713	93.44
274.945	96.44
275.176	87.44
275.408	84.44
275.64	91.44
275.872	95.44
276.104	92.44
276.335	102.44
276.567	103.44
276.799	112.44
277.031	104.44
277.262	78.44
277.494	104.44
277.726	87.44
277.957	74.44
278.189	84.44
278.421	100.44
278.652	81.44
278.884	91.44
279.115	88.44
279.347	95.44
279.579	92.44
279.81	95.44
280.042	90.44
280.273	90.44
280.505	95.44
280.736	68.44
280.968	77.44
281.199	98.44
281.431	89.44
281.662	99.44
281.894	98.44
282.125	88.44
282.356	115.44
282.588	136.44
282.819	103.44
283.051	83.44
283.282	83.44
283.513	92.44
283.745	84.44
283.976	87.44
284.207	93.44
284.439	103.44
284.67	90.44
284.901	89.44
285.132	86.44
285.364	93.44
285.595	91.44
285.826	101.44
286.057	100.44
286.288	76.44
286.52	71.44
286.751	86.44
286.982	66.44
287.213	88.44
287.444	103.44
287.675	99.44
287.906	99.44
288.138	95.44
288.369	87.44
288.6	84.44
288.831	86.44
289.062	99.44
289.293	88.44
289.524	94.44
289.755	95.44
289.986	99.44
290.217	88.44
290.448	98.44
290.679	84.44
290.91	94.44
291.141	87.44
291.371	84.44
291.602	91.44
291.833	94.44
292.064	95.44
292.295	86.44
292.526	89.44
292.757	95.44
292.987	96.44
293.218	92.44
293.449	87.44
293.68	85.44
293.91	104.44
294.141	99.44
294.372	100.44
294.603	103.44
294.833	88.44
295.064	83.44
295.295	91.44
295.525	101.44
295.756	111.44
295.987	116.44
296.217	130.44
296.448	124.44
296.679	90.44
296.909	96.44
297.14	104.44
297.37	99.44
297.601	97.44
297.831	87.44
298.062	83.44
298.292	87.44
298.523	96.44
298.753	93.44
298.984	91.44
299.214	88.44
299.445	97.44
299.675	107.44
299.905	103.44
300.136	102.44
300.366	99.44
300.597	98.44
300.827	110.44
301.057	100.44
301.288	105.44
301.518	93.44
301.748	100.44
301.979	105.44
302.209	92.44
302.439	76.44
302.669	94.44
302.9	93.44
303.13	99.44
303.36	94.44
303.59	99.44
303.82	102.44
304.051	97.44
304.281	89.44
304.511	95.44
304.741	90.44
304.971	94.44
305.201	92.44
305.431	92.44
305.661	100.44
305.891	78.44
306.121	94.44
306.352	107.44
306.582	104.44
306.812	97.44
307.042	96.44
307.272	101.44
307.502	96.44
307.731	100.44
307.961	94.44
308.191	80.44
308.421	92.44
308.651	93.44
308.881	84.44
309.111	111.44
309.341	92.44
309.571	96.44
309.8	105.44
310.03	102.44
310.26	100.44
310.49	101.44
310.72	99.44
310.949	104.44
311.179	102.44
311.409	91.44
311.639	93.44
311.868	85.44
312.098	99.44
312.328	106.44
312.557	101.44
312.787	108.44
313.017	107.44
313.246	95.44
313.476	98.44
313.706	96.44
313.935	85.44
314.165	105.44
314.394	90.44
314.624	109.44
314.853	98.44
315.083	100.44
315.312	84.44
315.542	91.44
315.771	102.44
316.001	90.44
316.23	95.44
316.46	86.44
316.689	91.44
316.919	88.44
317.148	93.44
317.377	92.44
317.607	95.44
317.836	92.44
318.065	84.44
318.295	95.44
318.524	82.44
318.753	96.44
318.983	95.44
319.212	116.44
319.441	96.44
319.67	113.44
319.9	96.44
320.129	92.44
320.358	103.44
320.587	106.44
320.816	105.44
321.046	104.44
321.275	108.44
321.504	89.44
321.733	101.44
321.962	114.44
322.191	109.44
322.42	112.44
322.649	123.44
322.878	127.44
323.108	115.44
323.337	110.44
323.566	134.44
323.795	141.44
324.024	182.44
324.253	371.44
324.482	766.44
324.71	1604.44
324.939	2126.44
325.168	797.44
325.397	259.44
325.626	138.44
325.855	134.44
326.084	140.44
326.313	143.44
326.542	141.44
326.77	205.44
326.999	431.44
327.228	930.44
327.457	1648.44
327.686	1305.44
327.914	351.44
328.143	178.44
328.372	125.44
328.6	127.44
328.829	108.44
329.058	123.44
329.287	124.44
329.515	97.44
329.744	105.44
329.972	104.44
330.201	104.44
330.43	114.44
330.658	123.44
330.887	131.44
331.115	122.44
331.344	93.44
331.572	102.44
331.801	108.44
332.03	113.44
332.258	96.44
332.486	96.44
332.715	87.44
332.943	86.44
333.172	94.44
333.4	116.44
333.629	111.44
333.857	116.44
334.085	92.44
334.314	104.44
334.542	108.44
334.771	119.44
334.999	111.44
335.227	86.44
335.455	96.44
335.684	109.44
335.912	102.44
336.14	107.44
336.369	99.44
336.597	109.44
336.825	97.44
337.053	106.44
337.281	91.44
337.51	84.44
337.738	90.44
337.966	78.44
338.194	104.44
338.422	87.44
338.65	102.44
338.878	98.44
339.106	97.44
339.334	103.44
339.562	86.44
339.79	98.44
340.018	109.44
340.246	101.44
340.474	95.44
340.702	90.44
340.93	93.44
341.158	113.44
341.386	90.44
341.614	102.44
341.842	108.44
342.07	97.44
342.298	107.44
342.526	97.44
342.754	108.44
342.981	104.44
343.209	95.44
343.437	101.44
343.665	89.44
343.893	86.44
344.12	88.44
344.348	97.44
344.576	86.44
344.804	107.44
345.031	75.44
345.259	101.44
345.487	92.44
345.714	112.44
345.942	101.44
346.17	91.44
346.397	114.44
346.625	104.44
346.853	94.44
347.08	103.44
347.308	86.44
347.535	101.44
347.763	92.44
347.99	109.44
348.218	114.44
348.445	108.44
348.673	98.44
348.9	84.44
349.128	89.44
349.355	76.44
349.583	80.44
349.81	103.44
350.037	96.44
350.265	105.44
350.492	111.44
350.72	104.44
350.947	111.44
351.174	116.44
351.402	123.44
351.629	111.44
351.856	93.44
352.083	128.44
352.311	120.44
352.538	103.44
352.765	127.44
352.992	107.44
353.22	102.44
353.447	108.44
353.674	98.44
353.901	111.44
354.128	104.44
354.355	90.44
354.583	99.44
354.81	103.44
355.037	104.44
355.264	100.44
355.491	106.44
355.718	99.44
355.945	102.44
356.172	98.44
356.399	105.44
356.626	112.44
356.853	103.44
357.08	100.44
357.307	89.44
357.534	102.44
357.761	97.44
357.988	102.44
358.215	98.44
358.441	106.44
358.668	97.44
358.895	90.44
359.122	104.44
359.349	98.44
359.576	102.44
359.802	112.44
360.029	121.44
360.256	102.44
360.483	111.44
360.709	104.44
360.936	93.44
361.163	99.44
361.39	87.44
361.616	92.44
361.843	84.44
362.07	106.44
362.296	108.44
362.523	103.44
362.749	90.44
362.976	108.44
363.203	85.44
363.429	90.44
363.656	110.44
363.882	87.44
364.109	98.44
364.335	98.44
364.562	100.44
364.788	92.44
365.015	102.44
365.241	103.44
365.468	104.44
365.694	103.44
365.92	108.44
366.147	91.44
366.373	102.44
366.599	96.44
366.826	93.44
367.052	96.44
367.278	96.44
367.505	90.44
367.731	90.44
367.957	85.44
368.184	84.44
368.41	105.44
368.636	113.44
368.862	120.44
369.089	104.44
369.315	98.44
369.541	100.44
369.767	99.44
369.993	90.44
370.219	102.44
370.445	101.44
370.672	92.44
370.898	86.44
371.124	101.44
371.35	90.44
371.576	86.44
371.802	86.44
372.028	99.44
372.254	96.44
372.48	91.44
372.706	94.44
372.932	76.44
373.158	92.44
373.384	101.44
373.61	102.44
373.835	91.44
374.061	93.44
374.287	86.44
374.513	103.44
374.739	96.44
374.965	85.44
375.191	84.44
375.416	93.44
375.642	85.44
375.868	92.44
376.094	87.44
376.319	103.44
376.545	79.44
376.771	102.44
376.997	88.44
377.222	98.44
377.448	92.44
377.674	105.44
377.899	102.44
378.125	111.44
378.35	89.44
378.576	98.44
378.802	90.44
379.027	88.44
379.253	91.44
379.478	94.44
379.704	102.44
379.929	105.44
380.155	94.44
380.38	95.44
380.606	90.44
380.831	111.44
381.057	104.44
381.282	94.44
381.507	103.44
381.733	107.44
381.958	92.44
382.184	87.44
382.409	98.44
382.634	92.44
382.86	105.44
383.085	103.44
383.31	117.44
383.535	101.44
383.761	90.44
383.986	103.44
384.211	92.44
384.436	105.44
384.662	102.44
384.887	100.44
385.112	107.44
385.337	105.44
385.562	101.44
385.787	101.44
386.013	101.44
386.238	107.44
386.463	109.44
386.688	116.44
386.913	122.44
387.138	103.44
387.363	103.44
387.588	107.44
387.813	104.44
388.038	95.44
388.263	101.44
388.488	99.44
388.713	96.44
388.938	93.44
389.163	95.44
389.387	84.44
389.612	104.44
389.837	99.44
390.062	96.44
390.287	94.44
390.512	87.44
390.736	101.44
390.961	90.44
391.186	100.44
391.411	92.44
391.636	100.44
391.86	86.44
392.085	84.44
392.31	95.44
392.534	119.44
392.759	86.44
392.984	93.44
393.208	100.44
393.433	107.44
393.658	97.44
393.882	90.44
394.107	89.44
394.331	86.44
394.556	94.44
394.78	84.44
395.005	83.44
395.229	97.44
395.454	98.44
395.678	90.44
395.903	85.44
396.127	119.44
396.352	71.44
396.576	90.44
396.801	88.44
397.025	99.44
397.249	90.44
397.474	103.44
397.698	98.44
397.922	98.44
398.147	101.44
398.371	91.44
398.595	84.44
398.82	101.44
399.044	92.44
399.268	75.44
399.492	89.44
399.717	89.44
399.941	101.44
400.165	100.44
400.389	100.44
400.613	91.44
400.837	93.44
401.062	93.44
401.286	95.44
401.51	76.44
401.734	99.44
401.958	103.44
402.182	133.44
402.406	142.44
402.63	111.44
402.854	94.44
403.078	85.44
403.302	90.44
403.526	87.44
403.75	107.44
403.974	91.44
404.198	87.44
404.422	90.44
404.645	94.44
404.869	103.44
405.093	97.44
405.317	94.44
405.541	94.44
405.765	112.44
405.988	116.44
406.212	181.44
406.436	213.44
406.66	132.44
406.883	123.44
407.107	106.44
407.331	95.44
407.555	111.44
407.778	100.44
408.002	92.44
408.226	100.44
408.449	83.44
408.673	87.44
408.896	85.44
409.12	94.44
409.344	87.44
409.567	93.44
409.791	106.44
410.014	98.44
410.238	94.44
410.461	90.44
410.685	89.44
410.908	95.44
411.132	104.44
411.355	105.44
411.578	78.44
411.802	79.44
412.025	92.44
412.249	102.44
412.472	98.44
412.695	98.44
412.919	93.44
413.142	93.44
413.365	80.44
413.589	105.44
413.812	98.44
414.035	106.44
414.258	98.44
414.482	102.44
414.705	87.44
414.928	94.44
415.151	98.44
415.374	103.44
415.597	90.44
415.821	86.44
416.044	88.44
416.267	111.44
416.49	88.44
416.713	92.44
416.936	95.44
417.159	90.44
417.382	95.44
417.605	92.44
417.828	93.44
418.051	82.44
418.274	90.44
418.497	91.44
418.72	83.44
418.943	98.44
419.166	89.44
419.389	80.44
419.611	93.44
419.834	78.44
420.057	77.44
420.28	95.44
420.503	95.44
420.726	87.44
420.948	95.44
421.171	106.44
421.394	95.44
421.617	91.44
421.839	88.44
422.062	95.44
422.285	98.44
422.507	108.44
422.73	108.44
422.953	93.44
423.175	98.44
423.398	86.44
423.621	82.44
423.843	76.44
424.066	86.44
424.288	98.44
424.511	99.44
424.733	98.44
424.956	122.44
425.178	104.44
425.401	110.44
425.623	105.44
425.846	107.44
426.068	110.44
426.291	98.44
426.513	90.44
426.735	96.44
426.958	106.44
427.18	107.44
427.402	133.44
427.625	140.44
427.847	140.44
428.069	109.44
428.292	83.44
428.514	100.44
428.736	99.44
428.958	96.44
429.181	96.44
429.403	85.44
429.625	79.44
429.847	90.44
430.069	103.44
430.292	94.44
430.514	100.44
430.736	88.44
430.958	86.44
431.18	102.44
431.402	97.44
431.624	93.44
431.846	92.44
432.068	74.44
432.29	93.44
432.512	88.44
432.734	101.44
432.956	102.44
433.178	99.44
433.4	100.44
433.622	92.44
433.844	99.44
434.066	101.44
434.287	83.44
434.509	92.44
434.731	91.44
434.953	99.44
435.175	100.44
435.397	106.44
435.618	99.44
435.84	109.44
436.062	118.44
436.284	120.44
436.505	103.44
436.727	103.44
436.949	87.44
437.17	85.44
437.392	82.44
437.614	101.44
437.835	106.44
438.057	110.44
438.278	105.44
438.5	118.44
438.721	123.44
438.943	95.44
439.165	102.44
439.386	102.44
439.608	89.44
439.829	113.44
440.05	125.44
440.272	132.44
440.493	98.44
440.715	96.44
440.936	104.44
441.158	106.44
441.379	89.44
441.6	99.44
441.822	93.44
442.043	103.44
442.264	99.44
442.486	109.44
442.707	95.44
442.928	108.44
443.149	120.44
443.371	135.44
443.592	122.44
443.813	130.44
444.034	119.44
444.255	99.44
444.476	84.44
444.698	85.44
444.919	93.44
445.14	123.44
445.361	109.44
445.582	119.44
445.803	134.44
446.024	142.44
446.245	117.44
446.466	110.44
446.687	110.44
446.908	95.44
447.129	95.44
447.35	92.44
447.571	93.44
447.792	92.44
448.013	86.44
448.234	95.44
448.455	114.44
448.675	122.44
448.896	130.44
449.117	109.44
449.338	117.44
449.559	139.44
449.779	138.44
450	105.44
450.221	88.44
450.442	95.44
450.662	92.44
450.883	88.44
451.104	108.44
451.324	90.44
451.545	106.44
451.766	96.44
451.986	97.44
452.207	86.44
452.428	103.44
452.648	109.44
452.869	115.44
453.089	110.44
453.31	114.44
453.53	93.44
453.751	91.44
453.971	111.44
454.192	111.44
454.412	102.44
454.633	96.44
454.853	103.44
455.073	92.44
455.294	110.44
455.514	103.44
455.734	83.44
455.955	90.44
456.175	89.44
456.395	78.44
456.616	80.44
456.836	99.44
457.056	86.44
457.276	95.44
457.497	105.44
457.717	87.44
457.937	87.44
458.157	91.44
458.377	90.44
458.598	88.44
458.818	160.44
459.038	136.44
459.258	117.44
459.478	95.44
459.698	88.44
459.918	102.44
460.138	93.44
460.358	93.44
460.578	84.44
460.798	96.44
461.018	88.44
461.238	83.44
461.458	92.44
461.678	94.44
461.898	102.44
462.118	96.44
462.338	85.44
462.558	90.44
462.777	93.44
462.997	84.44
463.217	86.44
463.437	86.44
463.657	91.44
463.876	99.44
464.096	91.44
464.316	103.44
464.536	101.44
464.755	102.44
464.975	98.44
465.195	144.44
465.414	162.44
465.634	87.44
465.854	98.44
466.073	79.44
466.293	94.44
466.512	87.44
466.732	98.44
466.951	84.44
467.171	99.44
467.391	107.44
467.61	84.44
467.829	112.44
468.049	114.44
468.268	89.44
468.488	82.44
468.707	94.44
468.927	114.44
469.146	77.44
469.365	79.44
469.585	95.44
469.804	78.44
470.023	92.44
470.243	95.44
470.462	102.44
470.681	114.44
470.901	98.44
471.12	88.44
471.339	92.44
471.558	91.44
471.777	87.44
471.997	85.44
472.216	85.44
472.435	104.44
472.654	95.44
472.873	88.44
473.092	93.44
473.311	106.44
473.53	74.44
473.749	78.44
473.968	101.44
474.187	106.44
474.406	106.44
474.625	107.44
474.844	107.44
475.063	80.44
475.282	100.44
475.501	93.44
475.72	95.44
475.939	95.44
476.158	83.44
476.377	82.44
476.596	98.44
476.814	101.44
477.033	95.44
477.252	84.44
477.471	86.44
477.69	94.44
477.908	97.44
478.127	93.44
478.346	93.44
478.564	101.44
478.783	97.44
479.002	85.44
479.22	99.44
479.439	95.44
479.658	111.44
479.876	97.44
480.095	107.44
480.313	90.44
480.532	84.44
480.751	86.44
480.969	88.44
481.188	107.44
481.406	108.44
481.624	79.44
481.843	91.44
482.061	99.44
482.28	86.44
482.498	82.44
482.717	93.44
482.935	96.44
483.153	98.44
483.372	97.44
483.59	93.44
483.808	102.44
484.027	99.44
484.245	78.44
484.463	88.44
484.681	95.44
484.9	100.44
485.118	86.44
485.336	106.44
485.554	103.44
485.772	94.44
485.99	107.44
486.209	114.44
486.427	110.44
486.645	116.44
486.863	111.44
487.081	109.44
487.299	88.44
487.517	90.44
487.735	97.44
487.953	92.44
488.171	98.44
488.389	86.44
488.607	98.44
488.825	93.44
489.043	99.44
489.261	95.44
489.479	106.44
489.696	81.44
489.914	105.44
490.132	87.44
490.35	107.44
490.568	89.44
490.786	104.44
491.003	99.44
491.221	102.44
491.439	96.44
491.657	112.44
491.874	102.44
492.092	101.44
492.31	100.44
492.527	93.44
492.745	94.44
492.963	98.44
493.18	95.44
493.398	87.44
493.615	94.44
493.833	106.44
494.05	82.44
494.268	105.44
494.485	79.44
494.703	110.44
494.92	90.44
495.138	85.44
495.355	108.44
495.573	103.44
495.79	77.44
496.008	96.44
496.225	96.44
496.442	91.44
496.66	97.44
496.877	98.44
497.094	110.44
497.312	91.44
497.529	91.44
497.746	89.44
497.963	98.44
498.181	98.44
498.398	100.44
498.615	119.44
498.832	104.44
499.049	94.44
499.267	91.44
499.484	95.44
499.701	93.44
499.918	91.44
500.135	84.44
500.352	76.44
500.569	90.44
500.786	106.44
501.003	93.44
501.22	102.44
501.437	80.44
501.654	99.44
501.871	115.44
502.088	100.44
502.305	106.44
502.522	84.44
502.739	89.44
502.956	112.44
503.172	92.44
503.389	88.44
503.606	104.44
503.823	100.44
504.04	102.44
504.256	98.44
504.473	102.44
504.69	103.44
504.907	99.44
505.123	102.44
505.34	86.44
505.557	92.44
505.773	105.44
505.99	87.44
506.207	101.44
506.423	96.44
506.64	109.44
506.856	94.44
507.073	86.44
507.289	94.44
507.506	98.44
507.722	102.44
507.939	102.44
508.155	83.44
508.372	99.44
508.588	85.44
508.805	92.44
509.021	104.44
509.238	92.44
509.454	103.44
509.67	102.44
509.887	98.44
510.103	128.44
510.319	238.44
510.536	725.44
510.752	2183.44
510.968	612.44
511.184	158.44
511.401	118.44
511.617	104.44
511.833	106.44
512.049	88.44
512.265	106.44
512.481	107.44
512.698	105.44
512.914	110.44
513.13	92.44
513.346	92.44
513.562	89.44
