Data from Uncirc_1986_H10_HRD10591_00082.txt Node
Date: Wed Jan 03 12:14:42 EST 2024
User: Yrep
Spectrometer: HR+D1059
Trigger mode: 1
Integration Time (sec): 1.000000E-1
Scans to average: 1
Electric dark correction enabled: true
Nonlinearity correction enabled: false
Boxcar width: 0
XAxis mode: Wavelengths
Number of Pixels in Spectrum: 2048
>>>>>Begin Spectral Data<<<<<
223.165	-16.62
223.4	-16.62
223.635	-16.62
223.869	-17.62
224.104	-5.62
224.338	-16.62
224.573	-7.62
224.808	-26.62
225.042	-12.62
225.277	-14.62
225.511	-11.62
225.746	-0.62
225.98	9.38
226.215	16.38
226.449	27.38
226.683	14.38
226.918	21.38
227.152	41.38
227.387	35.38
227.621	29.38
227.856	50.38
228.09	45.38
228.324	49.38
228.559	57.38
228.793	165.38
229.027	475.38
229.262	549.38
229.496	610.38
229.73	833.38
229.964	815.38
230.199	583.38
230.433	516.38
230.667	482.38
230.901	479.38
231.136	459.38
231.37	444.38
231.604	486.38
231.838	460.38
232.072	484.38
232.306	485.38
232.541	481.38
232.775	485.38
233.009	474.38
233.243	514.38
233.477	492.38
233.711	506.38
233.945	505.38
234.179	535.38
234.413	511.38
234.647	518.38
234.881	557.38
235.115	551.38
235.349	532.38
235.583	587.38
235.817	596.38
236.051	659.38
236.285	640.38
236.519	651.38
236.753	730.38
236.987	955.38
237.221	1418.38
237.455	1578.38
237.689	956.38
237.922	767.38
238.156	755.38
238.39	698.38
238.624	671.38
238.858	656.38
239.091	659.38
239.325	679.38
239.559	696.38
239.793	707.38
240.027	794.38
240.26	942.38
240.494	978.38
240.728	1007.38
240.961	940.38
241.195	834.38
241.429	805.38
241.662	785.38
241.896	791.38
242.13	789.38
242.363	799.38
242.597	812.38
242.83	853.38
243.064	832.38
243.298	857.38
243.531	841.38
243.765	895.38
243.998	844.38
244.232	868.38
244.465	923.38
244.699	931.38
244.932	953.38
245.166	933.38
245.399	927.38
245.633	940.38
245.866	921.38
246.099	943.38
246.333	966.38
246.566	959.38
246.8	1016.38
247.033	1053.38
247.266	1083.38
247.5	1130.38
247.733	1211.38
247.966	1189.38
248.2	1151.38
248.433	1197.38
248.666	1273.38
248.899	1429.38
249.133	1489.38
249.366	1477.38
249.599	1354.38
249.832	1236.38
250.066	1245.38
250.299	1256.38
250.532	1397.38
250.765	1539.38
250.998	1759.38
251.231	1682.38
251.465	1516.38
251.698	1459.38
251.931	1429.38
252.164	1417.38
252.397	1439.38
252.63	1531.38
252.863	1585.38
253.096	1701.38
253.329	1777.38
253.562	1694.38
253.795	1624.38
254.028	1552.38
254.261	1702.38
254.494	1863.38
254.727	2235.38
254.96	2283.38
255.193	2029.38
255.426	1837.38
255.659	1687.38
255.892	1650.38
256.124	1621.38
256.357	1562.38
256.59	1543.38
256.823	1574.38
257.056	1555.38
257.289	1540.38
257.521	1576.38
257.754	1603.38
257.987	1549.38
258.22	1523.38
258.452	1561.38
258.685	1565.38
258.918	1602.38
259.151	1684.38
259.383	1759.38
259.616	1727.38
259.849	1793.38
260.081	1966.38
260.314	2156.38
260.547	2092.38
260.779	1917.38
261.012	1863.38
261.244	1765.38
261.477	1723.38
261.71	1765.38
261.942	1788.38
262.175	1825.38
262.407	1715.38
262.64	1684.38
262.872	1675.38
263.105	1676.38
263.337	1706.38
263.57	1746.38
263.802	1684.38
264.035	1668.38
264.267	1723.38
264.499	1717.38
264.732	1759.38
264.964	1738.38
265.197	1698.38
265.429	1771.38
265.661	1758.38
265.894	1779.38
266.126	1775.38
266.358	1827.38
266.591	1835.38
266.823	1887.38
267.055	1928.38
267.287	1946.38
267.52	1843.38
267.752	1906.38
267.984	1931.38
268.216	1928.38
268.448	1998.38
268.681	2049.38
268.913	2192.38
269.145	2380.38
269.377	2501.38
269.609	2370.38
269.841	2312.38
270.073	2432.38
270.306	2682.38
270.538	2891.38
270.77	2730.38
271.002	2610.38
271.234	2531.38
271.466	2677.38
271.698	2819.38
271.93	2851.38
272.162	2829.38
272.394	2752.38
272.626	2595.38
272.858	2458.38
273.09	2374.38
273.322	2362.38
273.553	2355.38
273.785	2275.38
274.017	2271.38
274.249	2316.38
274.481	2319.38
274.713	2340.38
274.945	2316.38
275.176	2347.38
275.408	2311.38
275.64	2342.38
275.872	2330.38
276.104	2348.38
276.335	2347.38
276.567	2443.38
276.799	2615.38
277.031	2831.38
277.262	2985.38
277.494	2840.38
277.726	2666.38
277.957	2549.38
278.189	2529.38
278.421	2496.38
278.652	2463.38
278.884	2418.38
279.115	2395.38
279.347	2419.38
279.579	2416.38
279.81	2397.38
280.042	2395.38
280.273	2437.38
280.505	2461.38
280.736	2461.38
280.968	2477.38
281.199	2443.38
281.431	2506.38
281.662	2508.38
281.894	2538.38
282.125	2531.38
282.356	2755.38
282.588	2921.38
282.819	2716.38
283.051	2585.38
283.282	2563.38
283.513	2603.38
283.745	2630.38
283.976	2685.38
284.207	2693.38
284.439	2629.38
284.67	2623.38
284.901	2695.38
285.132	2677.38
285.364	2630.38
285.595	2663.38
285.826	2666.38
286.057	2694.38
286.288	2682.38
286.52	2715.38
286.751	2721.38
286.982	2761.38
287.213	2764.38
287.444	2808.38
287.675	2899.38
287.906	2956.38
288.138	2964.38
288.369	2954.38
288.6	2969.38
288.831	2890.38
289.062	2850.38
289.293	2875.38
289.524	2831.38
289.755	2945.38
289.986	2858.38
290.217	2859.38
290.448	2841.38
290.679	2857.38
290.91	2878.38
291.141	2841.38
291.371	2831.38
291.602	2794.38
291.833	2863.38
292.064	2887.38
292.295	2881.38
292.526	2860.38
292.757	2869.38
292.987	2842.38
293.218	2771.38
293.449	2932.38
293.68	2892.38
293.91	2892.38
294.141	2833.38
294.372	2892.38
294.603	2911.38
294.833	2945.38
295.064	2864.38
295.295	2912.38
295.525	2921.38
295.756	3036.38
295.987	3081.38
296.217	3176.38
296.448	3133.38
296.679	3025.38
296.909	2937.38
297.14	2981.38
297.37	3062.38
297.601	3112.38
297.831	3056.38
298.062	3120.38
298.292	3107.38
298.523	3121.38
298.753	3162.38
298.984	3107.38
299.214	3091.38
299.445	3175.38
299.675	3186.38
299.905	3185.38
300.136	3165.38
300.366	3193.38
300.597	3188.38
300.827	3347.38
301.057	3345.38
301.288	3400.38
301.518	3382.38
301.748	3341.38
301.979	3444.38
302.209	3449.38
302.439	3439.38
302.669	3410.38
302.9	3356.38
303.13	3347.38
303.36	3342.38
303.59	3383.38
303.82	3489.38
304.051	3358.38
304.281	3403.38
304.511	3324.38
304.741	3336.38
304.971	3307.38
305.201	3282.38
305.431	3355.38
305.661	3295.38
305.891	3314.38
306.121	3319.38
306.352	3320.38
306.582	3369.38
306.812	3309.38
307.042	3290.38
307.272	3315.38
307.502	3227.38
307.731	3319.38
307.961	3331.38
308.191	3308.38
308.421	3317.38
308.651	3324.38
308.881	3338.38
309.111	3377.38
309.341	3419.38
309.571	3542.38
309.8	3583.38
310.03	3631.38
310.26	3635.38
310.49	3663.38
310.72	3719.38
310.949	3871.38
311.179	3767.38
311.409	3688.38
311.639	3672.38
311.868	3727.38
312.098	3752.38
312.328	3813.38
312.557	3987.38
312.787	3934.38
313.017	3859.38
313.246	3876.38
313.476	3781.38
313.706	3776.38
313.935	3920.38
314.165	3996.38
314.394	3998.38
314.624	3919.38
314.853	3832.38
315.083	3763.38
315.312	3784.38
315.542	3815.38
315.771	3694.38
316.001	3700.38
316.23	3659.38
316.46	3679.38
316.689	3789.38
316.919	3719.38
317.148	3788.38
317.377	3777.38
317.607	3730.38
317.836	3657.38
318.065	3742.38
318.295	3679.38
318.524	3696.38
318.753	3678.38
318.983	3764.38
319.212	3714.38
319.441	3850.38
319.67	3825.38
319.9	3704.38
320.129	3812.38
320.358	3770.38
320.587	3780.38
320.816	3841.38
321.046	3903.38
321.275	3851.38
321.504	3879.38
321.733	3914.38
321.962	3963.38
322.191	4120.38
322.42	4138.38
322.649	4192.38
322.878	4299.38
323.108	4407.38
323.337	4614.38
323.566	4716.38
323.795	5058.38
324.024	5630.38
324.253	7301.38
324.482	11093.38
324.71	15357.38
324.939	15629.38
325.168	13308.38
325.397	6805.38
325.626	5367.38
325.855	4965.38
326.084	4858.38
326.313	4891.38
326.542	4939.38
326.77	5620.38
326.999	7048.38
327.228	10302.38
327.457	14435.38
327.686	13765.38
327.914	7544.38
328.143	5929.38
328.372	5546.38
328.6	5279.38
328.829	5231.38
329.058	5441.38
329.287	5411.38
329.515	5066.38
329.744	4854.38
329.972	4831.38
330.201	4947.38
330.43	5211.38
330.658	5492.38
330.887	5781.38
331.115	5414.38
331.344	5064.38
331.572	4903.38
331.801	5003.38
332.03	5054.38
332.258	4956.38
332.486	4973.38
332.715	5079.38
332.943	5178.38
333.172	5308.38
333.4	5474.38
333.629	5565.38
333.857	5598.38
334.085	5638.38
334.314	5494.38
334.542	5519.38
334.771	5529.38
334.999	5313.38
335.227	5255.38
335.455	5157.38
335.684	5100.38
335.912	5023.38
336.14	4991.38
336.369	5078.38
336.597	5077.38
336.825	4982.38
337.053	4872.38
337.281	4754.38
337.51	4761.38
337.738	4765.38
337.966	4768.38
338.194	4734.38
338.422	4688.38
338.65	4635.38
338.878	4663.38
339.106	4537.38
339.334	4514.38
339.562	4529.38
339.79	4400.38
340.018	4445.38
340.246	4467.38
340.474	4441.38
340.702	4446.38
340.93	4464.38
341.158	4457.38
341.386	4389.38
341.614	4451.38
341.842	4357.38
342.07	4405.38
342.298	4356.38
342.526	4383.38
342.754	4327.38
342.981	4329.38
343.209	4485.38
343.437	4658.38
343.665	4936.38
343.893	5186.38
344.12	5246.38
344.348	4974.38
344.576	4790.38
344.804	4797.38
345.031	4643.38
345.259	4681.38
345.487	4466.38
345.714	4395.38
345.942	4290.38
346.17	4248.38
346.397	4257.38
346.625	4266.38
346.853	4171.38
347.08	4227.38
347.308	4224.38
347.535	4314.38
347.763	4397.38
347.99	4263.38
348.218	4385.38
348.445	4354.38
348.673	4269.38
348.9	4229.38
349.128	4215.38
349.355	4106.38
349.583	4085.38
349.81	4069.38
350.037	4089.38
350.265	4044.38
350.492	4096.38
350.72	4060.38
350.947	4139.38
351.174	4263.38
351.402	4353.38
351.629	4251.38
351.856	4209.38
352.083	4321.38
352.311	4267.38
352.538	4261.38
352.765	4290.38
352.992	4179.38
353.22	4103.38
353.447	4105.38
353.674	4059.38
353.901	3953.38
354.128	4007.38
354.355	3940.38
354.583	3973.38
354.81	3941.38
355.037	4030.38
355.264	3989.38
355.491	3925.38
355.718	3949.38
355.945	4004.38
356.172	3987.38
356.399	3983.38
356.626	3987.38
356.853	3935.38
357.08	3947.38
357.307	4003.38
357.534	3939.38
357.761	4016.38
357.988	4028.38
358.215	3979.38
358.441	3974.38
358.668	3999.38
358.895	4057.38
359.122	4116.38
359.349	4236.38
359.576	4268.38
359.802	4514.38
360.029	4694.38
360.256	4699.38
360.483	4471.38
360.709	4287.38
360.936	4295.38
361.163	4250.38
361.39	4237.38
361.616	4305.38
361.843	4201.38
362.07	4221.38
362.296	4240.38
362.523	4163.38
362.749	4151.38
362.976	4147.38
363.203	4178.38
363.429	4102.38
363.656	4113.38
363.882	4097.38
364.109	4029.38
364.335	4041.38
364.562	4072.38
364.788	4029.38
365.015	4076.38
365.241	4044.38
365.468	4102.38
365.694	4127.38
365.92	4098.38
366.147	4011.38
366.373	4076.38
366.599	4082.38
366.826	4051.38
367.052	3989.38
367.278	4084.38
367.505	4123.38
367.731	4217.38
367.957	4096.38
368.184	4116.38
368.41	4210.38
368.636	4268.38
368.862	4346.38
369.089	4189.38
369.315	4192.38
369.541	4124.38
369.767	4206.38
369.993	4168.38
370.219	4254.38
370.445	4221.38
370.672	4241.38
370.898	4256.38
371.124	4307.38
371.35	4299.38
371.576	4279.38
371.802	4300.38
372.028	4297.38
372.254	4314.38
372.48	4328.38
372.706	4499.38
372.932	4463.38
373.158	4443.38
373.384	4391.38
373.61	4284.38
373.835	4369.38
374.061	4342.38
374.287	4379.38
374.513	4535.38
374.739	4654.38
374.965	4841.38
375.191	4760.38
375.416	4669.38
375.642	4551.38
375.868	4565.38
376.094	4504.38
376.319	4423.38
376.545	4389.38
376.771	4403.38
376.997	4375.38
377.222	4335.38
377.448	4334.38
377.674	4296.38
377.899	4309.38
378.125	4300.38
378.35	4301.38
378.576	4272.38
378.802	4273.38
379.027	4294.38
379.253	4307.38
379.478	4235.38
379.704	4303.38
379.929	4364.38
380.155	4294.38
380.38	4311.38
380.606	4403.38
380.831	4356.38
381.057	4364.38
381.282	4362.38
381.507	4334.38
381.733	4401.38
381.958	4443.38
382.184	4460.38
382.409	4488.38
382.634	4521.38
382.86	4588.38
383.085	4697.38
383.31	4697.38
383.535	4727.38
383.761	4764.38
383.986	4832.38
384.211	4966.38
384.436	4993.38
384.662	5104.38
384.887	5113.38
385.112	5155.38
385.337	5234.38
385.562	5205.38
385.787	5250.38
386.013	5386.38
386.238	5299.38
386.463	5304.38
386.688	5250.38
386.913	5234.38
387.138	5184.38
387.363	5151.38
387.588	5074.38
387.813	5176.38
388.038	5186.38
388.263	5160.38
388.488	5157.38
388.713	5147.38
388.938	5116.38
389.163	5126.38
389.387	5153.38
389.612	5092.38
389.837	5098.38
390.062	5065.38
390.287	5137.38
390.512	5109.38
390.736	5152.38
390.961	5287.38
391.186	5398.38
391.411	5516.38
391.636	5578.38
391.86	5761.38
392.085	5855.38
392.31	5723.38
392.534	5633.38
392.759	5476.38
392.984	5429.38
393.208	5361.38
393.433	5407.38
393.658	5352.38
393.882	5403.38
394.107	5412.38
394.331	5465.38
394.556	5437.38
394.78	5516.38
395.005	5563.38
395.229	5554.38
395.454	5717.38
395.678	5800.38
395.903	5868.38
396.127	5899.38
396.352	5691.38
396.576	5500.38
396.801	5509.38
397.025	5615.38
397.249	5703.38
397.474	5771.38
397.698	5869.38
397.922	5996.38
398.147	6105.38
398.371	6124.38
398.595	6286.38
398.82	6597.38
399.044	7156.38
399.268	7871.38
399.492	8980.38
399.717	9610.38
399.941	9373.38
400.165	8759.38
400.389	8125.38
400.613	7231.38
400.837	6755.38
401.062	6698.38
401.286	6574.38
401.51	6538.38
401.734	6432.38
401.958	6608.38
402.182	6808.38
402.406	6787.38
402.63	6949.38
402.854	7028.38
403.078	7098.38
403.302	7207.38
403.526	7249.38
403.75	7240.38
403.974	7410.38
404.198	7371.38
404.422	7461.38
404.645	7366.38
404.869	7277.38
405.093	7509.38
405.317	7621.38
405.541	7696.38
405.765	7283.38
405.988	7196.38
406.212	7479.38
406.436	7540.38
406.66	7711.38
406.883	7784.38
407.107	8272.38
407.331	8916.38
407.555	9526.38
407.778	9036.38
408.002	8318.38
408.226	7880.38
408.449	7771.38
408.673	7724.38
408.896	7904.38
409.12	8073.38
409.344	7650.38
409.567	7189.38
409.791	7208.38
410.014	7036.38
410.238	7006.38
410.461	7001.38
410.685	7012.38
410.908	7219.38
411.132	7368.38
411.355	7370.38
411.578	7068.38
411.802	6794.38
412.025	6732.38
412.249	6883.38
412.472	6851.38
412.695	6837.38
412.919	6587.38
413.142	6474.38
413.365	6362.38
413.589	6479.38
413.812	6352.38
414.035	6287.38
414.258	6331.38
414.482	6426.38
414.705	6463.38
414.928	6457.38
415.151	6339.38
415.374	6432.38
415.597	6375.38
415.821	6295.38
416.044	6267.38
416.267	6342.38
416.49	6257.38
416.713	6220.38
416.936	6298.38
417.159	6248.38
417.382	6420.38
417.605	6395.38
417.828	6578.38
418.051	6651.38
418.274	6568.38
418.497	6439.38
418.72	6535.38
418.943	6506.38
419.166	6858.38
419.389	7368.38
419.611	7193.38
419.834	6902.38
420.057	6797.38
420.28	6605.38
420.503	6442.38
420.726	6509.38
420.948	6661.38
421.171	7109.38
421.394	7107.38
421.617	6580.38
421.839	6570.38
422.062	6712.38
422.285	6801.38
422.507	7603.38
422.73	8084.38
422.953	7403.38
423.175	7033.38
423.398	6984.38
423.621	6972.38
423.843	7320.38
424.066	7232.38
424.288	7141.38
424.511	7341.38
424.733	7920.38
424.956	8259.38
425.178	7918.38
425.401	8025.38
425.623	7947.38
425.846	6852.38
426.068	6762.38
426.291	6645.38
426.513	6655.38
426.735	6765.38
426.958	7155.38
427.18	7984.38
427.402	9261.38
427.625	9207.38
427.847	7818.38
428.069	6970.38
428.292	6495.38
428.514	6186.38
428.736	6001.38
428.958	6049.38
429.181	5863.38
429.403	5819.38
429.625	6114.38
429.847	6353.38
430.069	6953.38
430.292	6508.38
430.514	5872.38
430.736	5990.38
430.958	5776.38
431.18	5647.38
431.402	5675.38
431.624	5604.38
431.846	5730.38
432.068	5825.38
432.29	5947.38
432.512	5791.38
432.734	5860.38
432.956	5840.38
433.178	5952.38
433.4	5880.38
433.622	5760.38
433.844	5739.38
434.066	5881.38
434.287	5927.38
434.509	6080.38
434.731	6360.38
434.953	6549.38
435.175	6711.38
435.397	6757.38
435.618	6692.38
435.84	7046.38
436.062	8009.38
436.284	7928.38
436.505	6642.38
436.727	6327.38
436.949	6086.38
437.17	5931.38
437.392	5830.38
437.614	6077.38
437.835	6426.38
438.057	7428.38
438.278	8176.38
438.5	8169.38
438.721	8923.38
438.943	7716.38
439.165	6486.38
439.386	6376.38
439.608	6352.38
439.829	6400.38
440.05	6785.38
440.272	7280.38
440.493	6478.38
440.715	6249.38
440.936	6145.38
441.158	6180.38
441.379	6333.38
441.6	6642.38
441.822	6917.38
442.043	7385.38
442.264	8164.38
442.486	7828.38
442.707	6979.38
442.928	6788.38
443.149	7003.38
443.371	7273.38
443.592	7849.38
443.813	8861.38
444.034	8775.38
444.255	7619.38
444.476	7467.38
444.698	7652.38
444.919	7618.38
445.14	7393.38
445.361	7307.38
445.582	7543.38
445.803	8050.38
446.024	8837.38
446.245	8465.38
446.466	7540.38
446.687	6605.38
446.908	6253.38
447.129	5923.38
447.35	5800.38
447.571	5731.38
447.792	5621.38
448.013	5750.38
448.234	5975.38
448.455	6609.38
448.675	7866.38
448.896	8371.38
449.117	6902.38
449.338	7173.38
449.559	8575.38
449.779	8621.38
450	6651.38
450.221	5838.38
450.442	5682.38
450.662	5494.38
450.883	5620.38
451.104	5716.38
451.324	5610.38
451.545	5349.38
451.766	5317.38
451.986	5175.38
452.207	5041.38
452.428	5096.38
452.648	5147.38
452.869	5204.38
453.089	5244.38
453.31	5287.38
453.53	5132.38
453.751	5089.38
453.971	5031.38
454.192	5232.38
454.412	5047.38
454.633	5007.38
454.853	4935.38
455.073	5038.38
455.294	5441.38
455.514	5949.38
455.734	5403.38
455.955	4917.38
456.175	4755.38
456.395	4679.38
456.616	4685.38
456.836	4632.38
457.056	4657.38
457.276	4549.38
457.497	4786.38
457.717	4730.38
457.937	4883.38
458.157	4923.38
458.377	4939.38
458.598	5402.38
458.818	6078.38
459.038	6817.38
459.258	6787.38
459.478	6008.38
459.698	5858.38
459.918	5930.38
460.138	6202.38
460.358	6305.38
460.578	6289.38
460.798	6384.38
461.018	6377.38
461.238	6255.38
461.458	6108.38
461.678	6187.38
461.898	6402.38
462.118	6296.38
462.338	6715.38
462.558	6874.38
462.777	7120.38
462.997	7698.38
463.217	8139.38
463.437	7928.38
463.657	7325.38
463.876	7171.38
464.096	7197.38
464.316	7160.38
464.536	7192.38
464.755	6948.38
464.975	6829.38
465.195	7060.38
465.414	7027.38
465.634	6277.38
465.854	5954.38
466.073	5681.38
466.293	5532.38
466.512	5357.38
466.732	5239.38
466.951	5244.38
467.171	5290.38
467.391	5350.38
467.61	5357.38
467.829	5280.38
468.049	5176.38
468.268	5111.38
468.488	4992.38
468.707	4973.38
468.927	5010.38
469.146	4982.38
469.365	5084.38
469.585	5079.38
469.804	5284.38
470.023	5444.38
470.243	5422.38
470.462	5498.38
470.681	5557.38
470.901	5528.38
471.12	5344.38
471.339	5405.38
471.558	5323.38
471.777	5192.38
471.997	5135.38
472.216	5049.38
472.435	5082.38
472.654	5030.38
472.873	4990.38
473.092	4960.38
473.311	4999.38
473.53	5029.38
473.749	5174.38
473.968	5738.38
474.187	6872.38
474.406	6271.38
474.625	5362.38
474.844	5121.38
475.063	4999.38
475.282	5013.38
475.501	5161.38
475.72	5234.38
475.939	5163.38
476.158	5208.38
476.377	5217.38
476.596	5244.38
476.814	5420.38
477.033	5413.38
477.252	5504.38
477.471	5546.38
477.69	5631.38
477.908	5763.38
478.127	5894.38
478.346	6012.38
478.564	6122.38
478.783	6174.38
479.002	6315.38
479.22	6273.38
479.439	6379.38
479.658	6510.38
479.876	6637.38
480.095	6773.38
480.313	7269.38
480.532	7038.38
480.751	6885.38
480.969	6768.38
481.188	6735.38
481.406	6500.38
481.624	6247.38
481.843	6076.38
482.061	6074.38
482.28	5954.38
482.498	5881.38
482.717	5928.38
482.935	5932.38
483.153	5935.38
483.372	5864.38
483.59	5912.38
483.808	5900.38
484.027	5910.38
484.245	5927.38
484.463	5992.38
484.681	6072.38
484.9	6036.38
485.118	6144.38
485.336	6138.38
485.554	6257.38
485.772	6329.38
485.99	6268.38
486.209	6327.38
486.427	6424.38
486.645	6442.38
486.863	6536.38
487.081	6535.38
487.299	6396.38
487.517	6345.38
487.735	6364.38
