Data from Uncirc_1986_H10_HRD10591_00062.txt Node
Date: Wed Jan 03 12:14:38 EST 2024
User: Yrep
Spectrometer: HR+D1059
Trigger mode: 1
Integration Time (sec): 1.000000E-1
Scans to average: 1
Electric dark correction enabled: true
Nonlinearity correction enabled: false
Boxcar width: 0
XAxis mode: Wavelengths
Number of Pixels in Spectrum: 2048
>>>>>Begin Spectral Data<<<<<
223.165	-22.19
223.4	-22.19
223.635	-22.19
223.869	-24.19
224.104	-18.19
224.338	-11.19
224.573	-11.19
224.808	-2.19
225.042	-4.19
225.277	15.81
225.511	-4.19
225.746	-4.19
225.98	3.81
226.215	5.81
226.449	6.81
226.683	23.81
226.918	18.81
227.152	26.81
227.387	30.81
227.621	53.81
227.856	30.81
228.09	29.81
228.324	43.81
228.559	61.81
228.793	58.81
229.027	62.81
229.262	54.81
229.496	80.81
229.73	90.81
229.964	73.81
230.199	82.81
230.433	81.81
230.667	71.81
230.901	75.81
231.136	77.81
231.37	77.81
231.604	69.81
231.838	81.81
232.072	61.81
232.306	74.81
232.541	78.81
232.775	77.81
233.009	83.81
233.243	79.81
233.477	82.81
233.711	80.81
233.945	73.81
234.179	85.81
234.413	82.81
234.647	79.81
234.881	83.81
235.115	71.81
235.349	77.81
235.583	78.81
235.817	80.81
236.051	78.81
236.285	79.81
236.519	77.81
236.753	84.81
236.987	80.81
237.221	93.81
237.455	74.81
237.689	78.81
237.922	72.81
238.156	70.81
238.39	79.81
238.624	64.81
238.858	69.81
239.091	74.81
239.325	83.81
239.559	73.81
239.793	79.81
240.027	73.81
240.26	84.81
240.494	81.81
240.728	88.81
240.961	83.81
241.195	83.81
241.429	74.81
241.662	87.81
241.896	79.81
242.13	73.81
242.363	66.81
242.597	85.81
242.83	88.81
243.064	77.81
243.298	78.81
243.531	64.81
243.765	77.81
243.998	76.81
244.232	74.81
244.465	71.81
244.699	66.81
244.932	74.81
245.166	87.81
245.399	78.81
245.633	63.81
245.866	75.81
246.099	77.81
246.333	80.81
246.566	73.81
246.8	88.81
247.033	81.81
247.266	79.81
247.5	73.81
247.733	74.81
247.966	93.81
248.2	75.81
248.433	82.81
248.666	87.81
248.899	79.81
249.133	80.81
249.366	90.81
249.599	101.81
249.832	73.81
250.066	81.81
250.299	69.81
250.532	80.81
250.765	89.81
250.998	88.81
251.231	80.81
251.465	80.81
251.698	73.81
251.931	86.81
252.164	80.81
252.397	82.81
252.63	91.81
252.863	79.81
253.096	75.81
253.329	77.81
253.562	86.81
253.795	77.81
254.028	89.81
254.261	77.81
254.494	94.81
254.727	93.81
254.96	85.81
255.193	77.81
255.426	95.81
255.659	70.81
255.892	84.81
256.124	83.81
256.357	76.81
256.59	83.81
256.823	82.81
257.056	82.81
257.289	80.81
257.521	82.81
257.754	67.81
257.987	72.81
258.22	80.81
258.452	85.81
258.685	90.81
258.918	74.81
259.151	70.81
259.383	72.81
259.616	88.81
259.849	73.81
260.081	99.81
260.314	99.81
260.547	72.81
260.779	86.81
261.012	79.81
261.244	86.81
261.477	96.81
261.71	84.81
261.942	95.81
262.175	110.81
262.407	85.81
262.64	90.81
262.872	88.81
263.105	88.81
263.337	102.81
263.57	82.81
263.802	74.81
264.035	91.81
264.267	94.81
264.499	89.81
264.732	96.81
264.964	83.81
265.197	85.81
265.429	74.81
265.661	75.81
265.894	88.81
266.126	74.81
266.358	79.81
266.591	83.81
266.823	69.81
267.055	77.81
267.287	83.81
267.52	92.81
267.752	74.81
267.984	71.81
268.216	78.81
268.448	88.81
268.681	85.81
268.913	89.81
269.145	78.81
269.377	79.81
269.609	83.81
269.841	85.81
270.073	77.81
270.306	72.81
270.538	77.81
270.77	91.81
271.002	83.81
271.234	97.81
271.466	72.81
271.698	68.81
271.93	87.81
272.162	94.81
272.394	92.81
272.626	73.81
272.858	74.81
273.09	87.81
273.322	69.81
273.553	69.81
273.785	95.81
274.017	82.81
274.249	83.81
274.481	81.81
274.713	96.81
274.945	96.81
275.176	81.81
275.408	81.81
275.64	86.81
275.872	86.81
276.104	85.81
276.335	91.81
276.567	83.81
276.799	93.81
277.031	94.81
277.262	74.81
277.494	87.81
277.726	91.81
277.957	96.81
278.189	75.81
278.421	80.81
278.652	78.81
278.884	67.81
279.115	80.81
279.347	86.81
279.579	82.81
279.81	89.81
280.042	80.81
280.273	81.81
280.505	81.81
280.736	74.81
280.968	79.81
281.199	95.81
281.431	83.81
281.662	91.81
281.894	78.81
282.125	105.81
282.356	104.81
282.588	128.81
282.819	110.81
283.051	89.81
283.282	88.81
283.513	98.81
283.745	93.81
283.976	80.81
284.207	85.81
284.439	68.81
284.67	87.81
284.901	98.81
285.132	71.81
285.364	83.81
285.595	77.81
285.826	79.81
286.057	79.81
286.288	92.81
286.52	83.81
286.751	84.81
286.982	85.81
287.213	90.81
287.444	97.81
287.675	93.81
287.906	86.81
288.138	84.81
288.369	94.81
288.6	89.81
288.831	84.81
289.062	93.81
289.293	78.81
289.524	95.81
289.755	95.81
289.986	86.81
290.217	83.81
290.448	84.81
290.679	90.81
290.91	93.81
291.141	87.81
291.371	78.81
291.602	88.81
291.833	85.81
292.064	80.81
292.295	93.81
292.526	94.81
292.757	93.81
292.987	90.81
293.218	102.81
293.449	75.81
293.68	80.81
293.91	89.81
294.141	90.81
294.372	94.81
294.603	93.81
294.833	100.81
295.064	99.81
295.295	90.81
295.525	80.81
295.756	98.81
295.987	111.81
296.217	131.81
296.448	112.81
296.679	89.81
296.909	100.81
297.14	88.81
297.37	99.81
297.601	94.81
297.831	77.81
298.062	91.81
298.292	93.81
298.523	82.81
298.753	75.81
298.984	88.81
299.214	97.81
299.445	95.81
299.675	98.81
299.905	97.81
300.136	101.81
300.366	90.81
300.597	93.81
300.827	88.81
301.057	100.81
301.288	108.81
301.518	78.81
301.748	97.81
301.979	103.81
302.209	87.81
302.439	79.81
302.669	74.81
302.9	80.81
303.13	85.81
303.36	98.81
303.59	89.81
303.82	93.81
304.051	74.81
304.281	88.81
304.511	66.81
304.741	90.81
304.971	89.81
305.201	97.81
305.431	91.81
305.661	72.81
305.891	101.81
306.121	93.81
306.352	89.81
306.582	101.81
306.812	93.81
307.042	104.81
307.272	77.81
307.502	107.81
307.731	90.81
307.961	96.81
308.191	80.81
308.421	99.81
308.651	103.81
308.881	90.81
309.111	95.81
309.341	98.81
309.571	94.81
309.8	96.81
310.03	95.81
310.26	98.81
310.49	91.81
310.72	101.81
310.949	93.81
311.179	105.81
311.409	93.81
311.639	99.81
311.868	99.81
312.098	94.81
312.328	94.81
312.557	89.81
312.787	103.81
313.017	102.81
313.246	98.81
313.476	107.81
313.706	86.81
313.935	105.81
314.165	90.81
314.394	88.81
314.624	78.81
314.853	97.81
315.083	94.81
315.312	102.81
315.542	91.81
315.771	83.81
316.001	105.81
316.23	99.81
316.46	95.81
316.689	85.81
316.919	85.81
317.148	109.81
317.377	85.81
317.607	89.81
317.836	110.81
318.065	91.81
318.295	99.81
318.524	86.81
318.753	90.81
318.983	84.81
319.212	96.81
319.441	106.81
319.67	111.81
319.9	70.81
320.129	89.81
320.358	104.81
320.587	90.81
320.816	102.81
321.046	113.81
321.275	91.81
321.504	90.81
321.733	89.81
321.962	106.81
322.191	107.81
322.42	112.81
322.649	112.81
322.878	114.81
323.108	119.81
323.337	112.81
323.566	120.81
323.795	142.81
324.024	206.81
324.253	352.81
324.482	750.81
324.71	1516.81
324.939	2055.81
325.168	760.81
325.397	226.81
325.626	142.81
325.855	115.81
326.084	127.81
326.313	129.81
326.542	149.81
326.77	222.81
326.999	413.81
327.228	871.81
327.457	1552.81
327.686	1259.81
327.914	357.81
328.143	200.81
328.372	139.81
328.6	107.81
328.829	114.81
329.058	113.81
329.287	113.81
329.515	102.81
329.744	94.81
329.972	100.81
330.201	107.81
330.43	102.81
330.658	118.81
330.887	126.81
331.115	107.81
331.344	89.81
331.572	98.81
331.801	112.81
332.03	99.81
332.258	88.81
332.486	101.81
332.715	91.81
332.943	91.81
333.172	83.81
333.4	97.81
333.629	94.81
333.857	105.81
334.085	97.81
334.314	92.81
334.542	104.81
334.771	91.81
334.999	87.81
335.227	97.81
335.455	83.81
335.684	98.81
335.912	94.81
336.14	97.81
336.369	97.81
336.597	103.81
336.825	96.81
337.053	98.81
337.281	90.81
337.51	96.81
337.738	105.81
337.966	96.81
338.194	87.81
338.422	99.81
338.65	88.81
338.878	95.81
339.106	93.81
339.334	102.81
339.562	103.81
339.79	97.81
340.018	98.81
340.246	107.81
340.474	88.81
340.702	97.81
340.93	87.81
341.158	78.81
341.386	82.81
341.614	93.81
341.842	98.81
342.07	93.81
342.298	82.81
342.526	104.81
342.754	85.81
342.981	89.81
343.209	74.81
343.437	104.81
343.665	89.81
343.893	97.81
344.12	106.81
344.348	84.81
344.576	94.81
344.804	90.81
345.031	96.81
345.259	76.81
345.487	102.81
345.714	111.81
345.942	104.81
346.17	88.81
346.397	100.81
346.625	82.81
346.853	85.81
347.08	88.81
347.308	86.81
347.535	86.81
347.763	94.81
347.99	83.81
348.218	114.81
348.445	105.81
348.673	104.81
348.9	105.81
349.128	106.81
349.355	98.81
349.583	95.81
349.81	80.81
350.037	95.81
350.265	98.81
350.492	91.81
350.72	95.81
350.947	95.81
351.174	101.81
351.402	97.81
351.629	102.81
351.856	104.81
352.083	105.81
352.311	97.81
352.538	94.81
352.765	103.81
352.992	114.81
353.22	105.81
353.447	107.81
353.674	104.81
353.901	86.81
354.128	84.81
354.355	90.81
354.583	98.81
354.81	106.81
355.037	102.81
355.264	89.81
355.491	93.81
355.718	95.81
355.945	95.81
356.172	88.81
356.399	95.81
356.626	84.81
356.853	94.81
357.08	79.81
357.307	85.81
357.534	86.81
357.761	97.81
357.988	94.81
358.215	105.81
358.441	92.81
358.668	87.81
358.895	93.81
359.122	84.81
359.349	84.81
359.576	97.81
359.802	103.81
360.029	115.81
360.256	119.81
360.483	87.81
360.709	85.81
360.936	97.81
361.163	97.81
361.39	82.81
361.616	96.81
361.843	98.81
362.07	111.81
362.296	93.81
362.523	89.81
362.749	85.81
362.976	99.81
363.203	103.81
363.429	94.81
363.656	92.81
363.882	86.81
364.109	100.81
364.335	85.81
364.562	100.81
364.788	100.81
365.015	99.81
365.241	104.81
365.468	105.81
365.694	103.81
365.92	84.81
366.147	85.81
366.373	82.81
366.599	98.81
366.826	98.81
367.052	94.81
367.278	87.81
367.505	105.81
367.731	85.81
367.957	93.81
368.184	91.81
368.41	101.81
368.636	108.81
368.862	109.81
369.089	96.81
369.315	90.81
369.541	90.81
369.767	106.81
369.993	86.81
370.219	88.81
370.445	79.81
370.672	112.81
370.898	87.81
371.124	81.81
371.35	77.81
371.576	79.81
371.802	79.81
372.028	85.81
372.254	92.81
372.48	86.81
372.706	84.81
372.932	67.81
373.158	87.81
373.384	82.81
373.61	105.81
373.835	96.81
374.061	99.81
374.287	89.81
374.513	78.81
374.739	91.81
374.965	84.81
375.191	94.81
375.416	91.81
375.642	101.81
375.868	93.81
376.094	74.81
376.319	84.81
376.545	102.81
376.771	98.81
376.997	91.81
377.222	73.81
377.448	81.81
377.674	94.81
377.899	102.81
378.125	98.81
378.35	97.81
378.576	81.81
378.802	98.81
379.027	94.81
379.253	86.81
379.478	101.81
379.704	83.81
379.929	100.81
380.155	81.81
380.38	86.81
380.606	94.81
380.831	99.81
381.057	96.81
381.282	93.81
381.507	86.81
381.733	111.81
381.958	100.81
382.184	96.81
382.409	93.81
382.634	107.81
382.86	85.81
383.085	106.81
383.31	109.81
383.535	104.81
383.761	91.81
383.986	89.81
384.211	92.81
384.436	88.81
384.662	104.81
384.887	104.81
385.112	96.81
385.337	96.81
385.562	103.81
385.787	97.81
386.013	104.81
386.238	107.81
386.463	98.81
386.688	103.81
386.913	99.81
387.138	99.81
387.363	95.81
387.588	99.81
387.813	102.81
388.038	107.81
388.263	106.81
388.488	107.81
388.713	93.81
388.938	98.81
389.163	95.81
389.387	110.81
389.612	94.81
389.837	95.81
390.062	107.81
390.287	106.81
390.512	85.81
390.736	88.81
390.961	93.81
391.186	89.81
391.411	95.81
391.636	85.81
391.86	86.81
392.085	95.81
392.31	77.81
392.534	81.81
392.759	84.81
392.984	81.81
393.208	84.81
393.433	78.81
393.658	94.81
393.882	82.81
394.107	83.81
394.331	93.81
394.556	93.81
394.78	93.81
395.005	91.81
395.229	74.81
395.454	95.81
395.678	88.81
395.903	85.81
396.127	88.81
396.352	76.81
396.576	93.81
396.801	78.81
397.025	78.81
397.249	86.81
397.474	98.81
397.698	81.81
397.922	79.81
398.147	88.81
398.371	88.81
398.595	82.81
398.82	73.81
399.044	93.81
399.268	88.81
399.492	93.81
399.717	99.81
399.941	77.81
400.165	91.81
400.389	83.81
400.613	84.81
400.837	81.81
401.062	87.81
401.286	91.81
401.51	93.81
401.734	97.81
401.958	117.81
402.182	129.81
402.406	141.81
402.63	108.81
402.854	107.81
403.078	87.81
403.302	94.81
403.526	88.81
403.75	82.81
403.974	80.81
404.198	83.81
404.422	102.81
404.645	74.81
404.869	86.81
405.093	105.81
405.317	99.81
405.541	91.81
405.765	108.81
405.988	101.81
406.212	174.81
406.436	210.81
406.66	129.81
406.883	105.81
407.107	93.81
407.331	94.81
407.555	100.81
407.778	102.81
408.002	86.81
408.226	83.81
408.449	91.81
408.673	64.81
408.896	91.81
409.12	101.81
409.344	90.81
409.567	91.81
409.791	102.81
410.014	87.81
410.238	81.81
410.461	87.81
410.685	102.81
410.908	97.81
411.132	113.81
411.355	96.81
411.578	94.81
411.802	96.81
412.025	85.81
412.249	79.81
412.472	87.81
412.695	85.81
412.919	95.81
413.142	88.81
413.365	86.81
413.589	101.81
413.812	98.81
414.035	81.81
414.258	82.81
414.482	97.81
414.705	82.81
414.928	83.81
415.151	89.81
415.374	85.81
415.597	85.81
415.821	87.81
416.044	91.81
416.267	96.81
416.49	97.81
416.713	79.81
416.936	85.81
417.159	98.81
417.382	96.81
417.605	83.81
417.828	102.81
418.051	83.81
418.274	67.81
418.497	81.81
418.72	92.81
418.943	90.81
419.166	84.81
419.389	81.81
419.611	99.81
419.834	84.81
420.057	85.81
420.28	91.81
420.503	73.81
420.726	90.81
420.948	79.81
421.171	93.81
421.394	97.81
421.617	88.81
421.839	83.81
422.062	79.81
422.285	81.81
422.507	97.81
422.73	111.81
422.953	87.81
423.175	85.81
423.398	83.81
423.621	94.81
423.843	106.81
424.066	67.81
424.288	96.81
424.511	91.81
424.733	110.81
424.956	100.81
425.178	93.81
425.401	107.81
425.623	105.81
425.846	101.81
426.068	101.81
426.291	89.81
426.513	96.81
426.735	89.81
426.958	94.81
427.18	91.81
427.402	131.81
427.625	154.81
427.847	125.81
428.069	103.81
428.292	78.81
428.514	92.81
428.736	100.81
428.958	93.81
429.181	89.81
429.403	92.81
429.625	85.81
429.847	92.81
430.069	101.81
430.292	85.81
430.514	77.81
430.736	92.81
430.958	77.81
431.18	95.81
431.402	87.81
431.624	83.81
431.846	89.81
432.068	83.81
432.29	73.81
432.512	66.81
432.734	100.81
432.956	90.81
433.178	106.81
433.4	99.81
433.622	103.81
433.844	100.81
434.066	81.81
434.287	90.81
434.509	95.81
434.731	82.81
434.953	85.81
435.175	88.81
435.397	89.81
435.618	86.81
435.84	100.81
436.062	134.81
436.284	120.81
436.505	115.81
436.727	105.81
436.949	98.81
437.17	92.81
437.392	92.81
437.614	99.81
437.835	98.81
438.057	121.81
438.278	106.81
438.5	99.81
438.721	122.81
438.943	105.81
439.165	92.81
439.386	93.81
439.608	97.81
439.829	81.81
440.05	111.81
440.272	131.81
440.493	103.81
440.715	92.81
440.936	70.81
441.158	85.81
441.379	82.81
441.6	85.81
441.822	88.81
442.043	110.81
442.264	106.81
442.486	87.81
442.707	88.81
442.928	97.81
443.149	136.81
443.371	122.81
443.592	110.81
443.813	107.81
444.034	117.81
444.255	81.81
444.476	74.81
444.698	78.81
444.919	87.81
445.14	127.81
445.361	122.81
445.582	112.81
445.803	133.81
446.024	129.81
446.245	126.81
446.466	99.81
446.687	90.81
446.908	89.81
447.129	90.81
447.35	95.81
447.571	102.81
447.792	87.81
448.013	99.81
448.234	110.81
448.455	96.81
448.675	99.81
448.896	113.81
449.117	93.81
449.338	100.81
449.559	117.81
449.779	135.81
450	99.81
450.221	99.81
450.442	88.81
450.662	95.81
450.883	106.81
451.104	109.81
451.324	92.81
451.545	93.81
451.766	82.81
451.986	78.81
452.207	86.81
452.428	90.81
452.648	84.81
452.869	113.81
453.089	111.81
453.31	118.81
453.53	97.81
453.751	72.81
453.971	100.81
454.192	115.81
454.412	103.81
454.633	85.81
454.853	89.81
455.073	74.81
455.294	90.81
455.514	102.81
455.734	93.81
455.955	93.81
456.175	78.81
456.395	91.81
456.616	79.81
456.836	96.81
457.056	108.81
457.276	86.81
457.497	90.81
457.717	80.81
457.937	85.81
458.157	95.81
458.377	94.81
458.598	80.81
458.818	128.81
459.038	150.81
459.258	106.81
459.478	97.81
459.698	89.81
459.918	73.81
460.138	88.81
460.358	77.81
460.578	93.81
460.798	87.81
461.018	88.81
461.238	79.81
461.458	83.81
461.678	96.81
461.898	97.81
462.118	88.81
462.338	93.81
462.558	82.81
462.777	77.81
462.997	79.81
463.217	86.81
463.437	83.81
463.657	80.81
463.876	89.81
464.096	101.81
464.316	90.81
464.536	93.81
464.755	100.81
464.975	93.81
465.195	157.81
465.414	139.81
465.634	93.81
465.854	89.81
466.073	88.81
466.293	85.81
466.512	93.81
466.732	75.81
466.951	96.81
467.171	94.81
467.391	94.81
467.61	96.81
467.829	100.81
468.049	94.81
468.268	106.81
468.488	90.81
468.707	94.81
468.927	87.81
469.146	80.81
469.365	93.81
469.585	78.81
469.804	106.81
470.023	88.81
470.243	83.81
470.462	99.81
470.681	115.81
470.901	99.81
471.12	85.81
471.339	89.81
471.558	75.81
471.777	90.81
471.997	94.81
472.216	92.81
472.435	114.81
472.654	91.81
472.873	89.81
473.092	77.81
473.311	74.81
473.53	85.81
473.749	89.81
473.968	87.81
474.187	79.81
474.406	105.81
474.625	84.81
474.844	77.81
475.063	85.81
475.282	96.81
475.501	101.81
475.72	78.81
475.939	79.81
476.158	97.81
476.377	99.81
476.596	88.81
476.814	87.81
477.033	83.81
477.252	90.81
477.471	80.81
477.69	87.81
477.908	93.81
478.127	85.81
478.346	102.81
478.564	88.81
478.783	91.81
479.002	98.81
479.22	83.81
479.439	113.81
479.658	101.81
479.876	89.81
480.095	97.81
480.313	80.81
480.532	98.81
480.751	90.81
480.969	83.81
481.188	110.81
481.406	109.81
481.624	105.81
481.843	82.81
482.061	93.81
482.28	78.81
482.498	78.81
482.717	93.81
482.935	81.81
483.153	99.81
483.372	87.81
483.59	95.81
483.808	103.81
484.027	105.81
484.245	89.81
484.463	97.81
484.681	86.81
484.9	94.81
485.118	96.81
485.336	95.81
485.554	85.81
485.772	99.81
485.99	95.81
486.209	105.81
486.427	110.81
486.645	101.81
486.863	109.81
487.081	111.81
487.299	101.81
487.517	107.81
487.735	107.81
487.953	97.81
488.171	101.81
488.389	97.81
488.607	98.81
488.825	90.81
489.043	90.81
489.261	88.81
489.479	94.81
489.696	97.81
489.914	92.81
490.132	93.81
490.35	94.81
490.568	89.81
490.786	96.81
491.003	93.81
491.221	102.81
491.439	90.81
491.657	86.81
491.874	94.81
492.092	80.81
492.31	96.81
492.527	103.81
492.745	85.81
492.963	86.81
493.18	84.81
493.398	102.81
493.615	93.81
493.833	97.81
494.05	94.81
494.268	93.81
494.485	88.81
494.703	84.81
494.92	91.81
495.138	104.81
495.355	86.81
495.573	77.81
495.79	87.81
496.008	85.81
496.225	84.81
496.442	98.81
496.66	99.81
496.877	97.81
497.094	97.81
497.312	88.81
497.529	100.81
497.746	85.81
497.963	86.81
498.181	75.81
498.398	81.81
498.615	114.81
498.832	106.81
499.049	85.81
499.267	83.81
499.484	89.81
499.701	82.81
499.918	87.81
500.135	95.81
500.352	90.81
500.569	100.81
500.786	96.81
501.003	96.81
501.22	80.81
501.437	82.81
501.654	80.81
501.871	101.81
502.088	74.81
502.305	93.81
502.522	90.81
502.739	92.81
502.956	97.81
503.172	94.81
503.389	104.81
503.606	90.81
503.823	107.81
504.04	89.81
504.256	89.81
504.473	81.81
504.69	83.81
504.907	77.81
505.123	93.81
505.34	79.81
505.557	90.81
505.773	95.81
505.99	83.81
506.207	83.81
506.423	90.81
506.64	98.81
506.856	76.81
507.073	81.81
507.289	92.81
507.506	74.81
507.722	117.81
507.939	102.81
508.155	96.81
508.372	102.81
508.588	95.81
508.805	95.81
509.021	96.81
509.238	94.81
509.454	89.81
509.67	96.81
509.887	109.81
510.103	125.81
510.319	194.81
510.536	725.81
510.752	2193.81
510.968	609.81
511.184	153.81
511.401	106.81
511.617	93.81
511.833	91.81
512.049	101.81
512.265	98.81
512.481	98.81
512.698	91.81
512.914	77.81
513.13	101.81
513.346	81.81
513.562	102.81
513.778	93.81
513.994	91.81
514.21	91.81
514.426	111.81
514.642	132.81
514.858	113.81
515.074	154.81
515.29	417.81
515.506	1357.81
515.721	501.81
515.937	141.81
