Data from Uncirc_1986_H10_HRD10591_00006.txt Node
Date: Wed Jan 03 12:14:27 EST 2024
User: Yrep
Spectrometer: HR+D1059
Trigger mode: 1
Integration Time (sec): 1.000000E-1
Scans to average: 1
Electric dark correction enabled: true
Nonlinearity correction enabled: false
Boxcar width: 0
XAxis mode: Wavelengths
Number of Pixels in Spectrum: 2048
>>>>>Begin Spectral Data<<<<<
223.165	-21.5
223.4	-21.5
223.635	-21.5
223.869	-27.5
224.104	-8.5
224.338	-18.5
224.573	-15.5
224.808	-14.5
225.042	-8.5
225.277	-3.5
225.511	0.5
225.746	7.5
225.98	9.5
226.215	12.5
226.449	20.5
226.683	8.5
226.918	26.5
227.152	32.5
227.387	37.5
227.621	38.5
227.856	46.5
228.09	46.5
228.324	56.5
228.559	73.5
228.793	57.5
229.027	53.5
229.262	74.5
229.496	68.5
229.73	92.5
229.964	91.5
230.199	77.5
230.433	75.5
230.667	84.5
230.901	82.5
231.136	87.5
231.37	85.5
231.604	82.5
231.838	76.5
232.072	87.5
232.306	91.5
232.541	97.5
232.775	65.5
233.009	90.5
233.243	72.5
233.477	75.5
233.711	83.5
233.945	75.5
234.179	81.5
234.413	85.5
234.647	87.5
234.881	89.5
235.115	76.5
235.349	83.5
235.583	66.5
235.817	81.5
236.051	79.5
236.285	88.5
236.519	79.5
236.753	77.5
236.987	79.5
237.221	93.5
237.455	80.5
237.689	71.5
237.922	77.5
238.156	83.5
238.39	90.5
238.624	90.5
238.858	74.5
239.091	79.5
239.325	75.5
239.559	89.5
239.793	92.5
240.027	86.5
240.26	65.5
240.494	92.5
240.728	99.5
240.961	77.5
241.195	82.5
241.429	75.5
241.662	81.5
241.896	79.5
242.13	84.5
242.363	83.5
242.597	56.5
242.83	90.5
243.064	73.5
243.298	72.5
243.531	76.5
243.765	73.5
243.998	89.5
244.232	66.5
244.465	72.5
244.699	69.5
244.932	79.5
245.166	69.5
245.399	68.5
245.633	80.5
245.866	88.5
246.099	83.5
246.333	82.5
246.566	89.5
246.8	82.5
247.033	83.5
247.266	57.5
247.5	75.5
247.733	82.5
247.966	71.5
248.2	84.5
248.433	72.5
248.666	72.5
248.899	76.5
249.133	73.5
249.366	108.5
249.599	82.5
249.832	89.5
250.066	84.5
250.299	93.5
250.532	90.5
250.765	76.5
250.998	85.5
251.231	84.5
251.465	80.5
251.698	83.5
251.931	85.5
252.164	94.5
252.397	92.5
252.63	76.5
252.863	74.5
253.096	85.5
253.329	70.5
253.562	87.5
253.795	87.5
254.028	92.5
254.261	76.5
254.494	94.5
254.727	103.5
254.96	88.5
255.193	80.5
255.426	86.5
255.659	81.5
255.892	73.5
256.124	71.5
256.357	77.5
256.59	87.5
256.823	82.5
257.056	82.5
257.289	92.5
257.521	79.5
257.754	96.5
257.987	90.5
258.22	86.5
258.452	80.5
258.685	81.5
258.918	91.5
259.151	79.5
259.383	79.5
259.616	88.5
259.849	88.5
260.081	80.5
260.314	76.5
260.547	95.5
260.779	85.5
261.012	96.5
261.244	68.5
261.477	76.5
261.71	98.5
261.942	91.5
262.175	92.5
262.407	108.5
262.64	76.5
262.872	89.5
263.105	82.5
263.337	95.5
263.57	79.5
263.802	82.5
264.035	75.5
264.267	82.5
264.499	91.5
264.732	77.5
264.964	87.5
265.197	84.5
265.429	83.5
265.661	74.5
265.894	97.5
266.126	92.5
266.358	88.5
266.591	92.5
266.823	89.5
267.055	72.5
267.287	89.5
267.52	80.5
267.752	72.5
267.984	93.5
268.216	103.5
268.448	91.5
268.681	87.5
268.913	87.5
269.145	97.5
269.377	97.5
269.609	76.5
269.841	64.5
270.073	70.5
270.306	96.5
270.538	83.5
270.77	84.5
271.002	83.5
271.234	91.5
271.466	98.5
271.698	93.5
271.93	87.5
272.162	71.5
272.394	82.5
272.626	82.5
272.858	90.5
273.09	88.5
273.322	85.5
273.553	79.5
273.785	90.5
274.017	79.5
274.249	83.5
274.481	91.5
274.713	85.5
274.945	82.5
275.176	92.5
275.408	80.5
275.64	85.5
275.872	82.5
276.104	100.5
276.335	88.5
276.567	86.5
276.799	108.5
277.031	82.5
277.262	85.5
277.494	90.5
277.726	81.5
277.957	77.5
278.189	109.5
278.421	89.5
278.652	87.5
278.884	76.5
279.115	89.5
279.347	93.5
279.579	83.5
279.81	91.5
280.042	91.5
280.273	79.5
280.505	86.5
280.736	76.5
280.968	90.5
281.199	80.5
281.431	93.5
281.662	85.5
281.894	94.5
282.125	106.5
282.356	97.5
282.588	134.5
282.819	99.5
283.051	101.5
283.282	88.5
283.513	89.5
283.745	87.5
283.976	95.5
284.207	77.5
284.439	97.5
284.67	77.5
284.901	101.5
285.132	103.5
285.364	96.5
285.595	82.5
285.826	83.5
286.057	76.5
286.288	79.5
286.52	85.5
286.751	85.5
286.982	102.5
287.213	69.5
287.444	92.5
287.675	106.5
287.906	91.5
288.138	96.5
288.369	98.5
288.6	99.5
288.831	84.5
289.062	113.5
289.293	103.5
289.524	82.5
289.755	82.5
289.986	92.5
290.217	83.5
290.448	99.5
290.679	96.5
290.91	82.5
291.141	90.5
291.371	98.5
291.602	93.5
291.833	92.5
292.064	100.5
292.295	79.5
292.526	86.5
292.757	94.5
292.987	94.5
293.218	91.5
293.449	95.5
293.68	93.5
293.91	83.5
294.141	87.5
294.372	93.5
294.603	89.5
294.833	93.5
295.064	95.5
295.295	87.5
295.525	89.5
295.756	90.5
295.987	100.5
296.217	128.5
296.448	105.5
296.679	103.5
296.909	97.5
297.14	79.5
297.37	83.5
297.601	89.5
297.831	91.5
298.062	87.5
298.292	81.5
298.523	97.5
298.753	87.5
298.984	81.5
299.214	87.5
299.445	94.5
299.675	88.5
299.905	89.5
300.136	88.5
300.366	85.5
300.597	96.5
300.827	85.5
301.057	97.5
301.288	108.5
301.518	83.5
301.748	96.5
301.979	89.5
302.209	105.5
302.439	79.5
302.669	84.5
302.9	88.5
303.13	106.5
303.36	94.5
303.59	82.5
303.82	100.5
304.051	102.5
304.281	89.5
304.511	90.5
304.741	85.5
304.971	92.5
305.201	95.5
305.431	90.5
305.661	97.5
305.891	91.5
306.121	85.5
306.352	103.5
306.582	90.5
306.812	88.5
307.042	84.5
307.272	89.5
307.502	102.5
307.731	88.5
307.961	101.5
308.191	93.5
308.421	84.5
308.651	86.5
308.881	96.5
309.111	105.5
309.341	91.5
309.571	105.5
309.8	102.5
310.03	99.5
310.26	94.5
310.49	93.5
310.72	98.5
310.949	77.5
311.179	106.5
311.409	100.5
311.639	102.5
311.868	95.5
312.098	101.5
312.328	85.5
312.557	104.5
312.787	106.5
313.017	103.5
313.246	95.5
313.476	94.5
313.706	80.5
313.935	90.5
314.165	91.5
314.394	97.5
314.624	71.5
314.853	86.5
315.083	95.5
315.312	86.5
315.542	101.5
315.771	88.5
316.001	89.5
316.23	91.5
316.46	88.5
316.689	92.5
316.919	95.5
317.148	83.5
317.377	89.5
317.607	87.5
317.836	89.5
318.065	88.5
318.295	88.5
318.524	101.5
318.753	75.5
318.983	105.5
319.212	95.5
319.441	106.5
319.67	103.5
319.9	95.5
320.129	85.5
320.358	106.5
320.587	95.5
320.816	106.5
321.046	112.5
321.275	100.5
321.504	85.5
321.733	98.5
321.962	88.5
322.191	92.5
322.42	91.5
322.649	132.5
322.878	98.5
323.108	114.5
323.337	113.5
323.566	116.5
323.795	130.5
324.024	187.5
324.253	325.5
324.482	659.5
324.71	1334.5
324.939	1773.5
325.168	649.5
325.397	213.5
325.626	130.5
325.855	112.5
326.084	112.5
326.313	113.5
326.542	138.5
326.77	195.5
326.999	380.5
327.228	774.5
327.457	1393.5
327.686	1137.5
327.914	317.5
328.143	159.5
328.372	136.5
328.6	106.5
328.829	111.5
329.058	122.5
329.287	109.5
329.515	110.5
329.744	104.5
329.972	101.5
330.201	87.5
330.43	94.5
330.658	97.5
330.887	121.5
331.115	102.5
331.344	92.5
331.572	103.5
331.801	92.5
332.03	95.5
332.258	90.5
332.486	100.5
332.715	92.5
332.943	106.5
333.172	92.5
333.4	86.5
333.629	104.5
333.857	105.5
334.085	99.5
334.314	95.5
334.542	95.5
334.771	108.5
334.999	92.5
335.227	112.5
335.455	84.5
335.684	102.5
335.912	97.5
336.14	95.5
336.369	98.5
336.597	95.5
336.825	75.5
337.053	97.5
337.281	86.5
337.51	99.5
337.738	97.5
337.966	91.5
338.194	106.5
338.422	100.5
338.65	96.5
338.878	95.5
339.106	100.5
339.334	109.5
339.562	92.5
339.79	94.5
340.018	87.5
340.246	101.5
340.474	95.5
340.702	102.5
340.93	85.5
341.158	100.5
341.386	89.5
341.614	100.5
341.842	91.5
342.07	89.5
342.298	90.5
342.526	93.5
342.754	93.5
342.981	97.5
343.209	87.5
343.437	113.5
343.665	98.5
343.893	105.5
344.12	107.5
344.348	88.5
344.576	74.5
344.804	95.5
345.031	105.5
345.259	92.5
345.487	101.5
345.714	90.5
345.942	92.5
346.17	89.5
346.397	95.5
346.625	90.5
346.853	97.5
347.08	85.5
347.308	100.5
347.535	109.5
347.763	112.5
347.99	97.5
348.218	102.5
348.445	99.5
348.673	96.5
348.9	98.5
349.128	91.5
349.355	93.5
349.583	98.5
349.81	99.5
350.037	103.5
350.265	95.5
350.492	89.5
350.72	103.5
350.947	89.5
351.174	103.5
351.402	89.5
351.629	95.5
351.856	113.5
352.083	109.5
352.311	110.5
352.538	94.5
352.765	107.5
352.992	114.5
353.22	107.5
353.447	102.5
353.674	101.5
353.901	99.5
354.128	103.5
354.355	108.5
354.583	97.5
354.81	93.5
355.037	93.5
355.264	86.5
355.491	87.5
355.718	95.5
355.945	97.5
356.172	91.5
356.399	97.5
356.626	85.5
356.853	93.5
357.08	91.5
357.307	113.5
357.534	85.5
357.761	102.5
357.988	103.5
358.215	98.5
358.441	81.5
358.668	97.5
358.895	69.5
359.122	89.5
359.349	79.5
359.576	86.5
359.802	100.5
360.029	96.5
360.256	107.5
360.483	106.5
360.709	101.5
360.936	84.5
361.163	89.5
361.39	88.5
361.616	74.5
361.843	83.5
362.07	97.5
362.296	81.5
362.523	91.5
362.749	73.5
362.976	83.5
363.203	88.5
363.429	89.5
363.656	103.5
363.882	96.5
364.109	92.5
364.335	89.5
364.562	88.5
364.788	76.5
365.015	84.5
365.241	79.5
365.468	96.5
365.694	93.5
365.92	99.5
366.147	108.5
366.373	88.5
366.599	99.5
366.826	85.5
367.052	96.5
367.278	95.5
367.505	85.5
367.731	97.5
367.957	83.5
368.184	75.5
368.41	92.5
368.636	105.5
368.862	101.5
369.089	96.5
369.315	94.5
369.541	101.5
369.767	92.5
369.993	100.5
370.219	90.5
370.445	87.5
370.672	91.5
370.898	98.5
371.124	89.5
371.35	82.5
371.576	95.5
371.802	80.5
372.028	93.5
372.254	98.5
372.48	84.5
372.706	75.5
372.932	96.5
373.158	84.5
373.384	92.5
373.61	85.5
373.835	96.5
374.061	82.5
374.287	96.5
374.513	104.5
374.739	91.5
374.965	89.5
375.191	100.5
375.416	96.5
375.642	80.5
375.868	97.5
376.094	92.5
376.319	90.5
376.545	91.5
376.771	77.5
376.997	88.5
377.222	92.5
377.448	89.5
377.674	90.5
377.899	91.5
378.125	86.5
378.35	89.5
378.576	92.5
378.802	84.5
379.027	96.5
379.253	85.5
379.478	94.5
379.704	88.5
379.929	93.5
380.155	91.5
380.38	91.5
380.606	96.5
380.831	87.5
381.057	99.5
381.282	99.5
381.507	80.5
381.733	100.5
381.958	109.5
382.184	102.5
382.409	89.5
382.634	102.5
382.86	87.5
383.085	96.5
383.31	96.5
383.535	87.5
383.761	102.5
383.986	86.5
384.211	103.5
384.436	106.5
384.662	96.5
384.887	99.5
385.112	84.5
385.337	90.5
385.562	100.5
385.787	107.5
386.013	101.5
386.238	97.5
386.463	89.5
386.688	122.5
386.913	113.5
387.138	94.5
387.363	109.5
387.588	108.5
387.813	96.5
388.038	109.5
388.263	94.5
388.488	90.5
388.713	96.5
388.938	95.5
389.163	99.5
389.387	91.5
389.612	112.5
389.837	109.5
390.062	106.5
390.287	106.5
390.512	92.5
390.736	94.5
390.961	101.5
391.186	99.5
391.411	103.5
391.636	92.5
391.86	82.5
392.085	96.5
392.31	115.5
392.534	88.5
392.759	101.5
392.984	83.5
393.208	92.5
393.433	115.5
393.658	93.5
393.882	87.5
394.107	94.5
394.331	83.5
394.556	93.5
394.78	93.5
395.005	100.5
395.229	90.5
395.454	103.5
395.678	92.5
395.903	91.5
396.127	103.5
396.352	75.5
396.576	82.5
396.801	91.5
397.025	87.5
397.249	86.5
397.474	95.5
397.698	99.5
397.922	88.5
398.147	97.5
398.371	92.5
398.595	65.5
398.82	85.5
399.044	72.5
399.268	75.5
399.492	92.5
399.717	83.5
399.941	95.5
400.165	92.5
400.389	89.5
400.613	97.5
400.837	97.5
401.062	87.5
401.286	86.5
401.51	94.5
401.734	88.5
401.958	86.5
402.182	114.5
402.406	129.5
402.63	100.5
402.854	101.5
403.078	96.5
403.302	85.5
403.526	93.5
403.75	88.5
403.974	85.5
404.198	81.5
404.422	83.5
404.645	84.5
404.869	97.5
405.093	84.5
405.317	104.5
405.541	91.5
405.765	86.5
405.988	99.5
406.212	141.5
406.436	173.5
406.66	113.5
406.883	91.5
407.107	101.5
407.331	100.5
407.555	90.5
407.778	98.5
408.002	86.5
408.226	89.5
408.449	90.5
408.673	84.5
408.896	89.5
409.12	104.5
409.344	85.5
409.567	93.5
409.791	101.5
410.014	93.5
410.238	105.5
410.461	89.5
410.685	90.5
410.908	107.5
411.132	93.5
411.355	113.5
411.578	95.5
411.802	90.5
412.025	81.5
412.249	87.5
412.472	89.5
412.695	94.5
412.919	96.5
413.142	93.5
413.365	92.5
413.589	81.5
413.812	86.5
414.035	89.5
414.258	91.5
414.482	92.5
414.705	94.5
414.928	86.5
415.151	92.5
415.374	92.5
415.597	89.5
415.821	87.5
416.044	98.5
416.267	73.5
416.49	86.5
416.713	94.5
416.936	97.5
417.159	79.5
417.382	97.5
417.605	85.5
417.828	100.5
418.051	89.5
418.274	97.5
418.497	88.5
418.72	84.5
418.943	82.5
419.166	101.5
419.389	87.5
419.611	91.5
419.834	93.5
420.057	91.5
420.28	76.5
420.503	73.5
420.726	99.5
420.948	83.5
421.171	100.5
421.394	106.5
421.617	95.5
421.839	83.5
422.062	79.5
422.285	93.5
422.507	91.5
422.73	105.5
422.953	100.5
423.175	112.5
423.398	96.5
423.621	88.5
423.843	86.5
424.066	100.5
424.288	86.5
424.511	87.5
424.733	95.5
424.956	96.5
425.178	100.5
425.401	98.5
425.623	93.5
425.846	83.5
426.068	107.5
426.291	90.5
426.513	74.5
426.735	95.5
426.958	103.5
427.18	97.5
427.402	129.5
427.625	141.5
427.847	124.5
428.069	105.5
428.292	87.5
428.514	101.5
428.736	81.5
428.958	76.5
429.181	85.5
429.403	91.5
429.625	88.5
429.847	93.5
430.069	103.5
430.292	86.5
430.514	91.5
430.736	92.5
430.958	108.5
431.18	81.5
431.402	76.5
431.624	85.5
431.846	83.5
432.068	84.5
432.29	88.5
432.512	76.5
432.734	86.5
432.956	89.5
433.178	108.5
433.4	107.5
433.622	89.5
433.844	88.5
434.066	88.5
434.287	95.5
434.509	97.5
434.731	106.5
434.953	96.5
435.175	89.5
435.397	73.5
435.618	96.5
435.84	104.5
436.062	122.5
436.284	105.5
436.505	110.5
436.727	99.5
436.949	92.5
437.17	95.5
437.392	97.5
437.614	81.5
437.835	87.5
438.057	107.5
438.278	100.5
438.5	97.5
438.721	105.5
438.943	111.5
439.165	67.5
439.386	89.5
439.608	80.5
439.829	102.5
440.05	118.5
440.272	118.5
440.493	81.5
440.715	92.5
440.936	80.5
441.158	86.5
441.379	96.5
441.6	77.5
441.822	90.5
442.043	99.5
442.264	97.5
442.486	100.5
442.707	102.5
442.928	95.5
443.149	120.5
443.371	124.5
443.592	100.5
443.813	123.5
444.034	102.5
444.255	91.5
444.476	77.5
444.698	98.5
444.919	99.5
445.14	130.5
445.361	122.5
445.582	108.5
445.803	108.5
446.024	113.5
446.245	121.5
446.466	112.5
446.687	92.5
446.908	85.5
447.129	84.5
447.35	82.5
447.571	89.5
447.792	79.5
448.013	97.5
448.234	105.5
448.455	96.5
448.675	111.5
448.896	105.5
449.117	97.5
449.338	90.5
449.559	117.5
449.779	123.5
450	95.5
450.221	89.5
450.442	89.5
450.662	109.5
450.883	92.5
451.104	93.5
451.324	85.5
451.545	84.5
451.766	75.5
451.986	89.5
452.207	84.5
452.428	96.5
452.648	91.5
452.869	89.5
453.089	104.5
453.31	91.5
453.53	87.5
453.751	91.5
453.971	103.5
454.192	86.5
454.412	84.5
454.633	89.5
454.853	98.5
455.073	82.5
455.294	65.5
455.514	115.5
455.734	95.5
455.955	84.5
456.175	87.5
456.395	84.5
456.616	67.5
456.836	85.5
457.056	94.5
457.276	84.5
457.497	91.5
457.717	85.5
457.937	94.5
458.157	81.5
458.377	95.5
458.598	100.5
458.818	123.5
459.038	134.5
459.258	97.5
459.478	89.5
459.698	84.5
459.918	92.5
460.138	79.5
460.358	95.5
460.578	82.5
460.798	91.5
461.018	83.5
461.238	85.5
461.458	90.5
461.678	89.5
461.898	91.5
462.118	80.5
462.338	91.5
462.558	106.5
462.777	68.5
462.997	79.5
463.217	76.5
463.437	91.5
463.657	76.5
463.876	82.5
464.096	86.5
464.316	104.5
464.536	93.5
464.755	77.5
464.975	102.5
465.195	125.5
465.414	125.5
465.634	90.5
465.854	81.5
466.073	70.5
466.293	105.5
466.512	103.5
466.732	87.5
466.951	95.5
467.171	90.5
467.391	91.5
467.61	102.5
467.829	119.5
468.049	97.5
468.268	84.5
468.488	94.5
468.707	83.5
468.927	97.5
469.146	85.5
469.365	87.5
469.585	84.5
469.804	91.5
470.023	82.5
470.243	80.5
470.462	97.5
470.681	98.5
470.901	88.5
471.12	83.5
471.339	72.5
471.558	83.5
471.777	91.5
471.997	84.5
472.216	82.5
472.435	81.5
472.654	85.5
472.873	79.5
473.092	104.5
473.311	88.5
473.53	104.5
473.749	80.5
473.968	90.5
474.187	102.5
474.406	85.5
474.625	81.5
474.844	86.5
475.063	86.5
475.282	96.5
475.501	92.5
475.72	93.5
475.939	84.5
476.158	91.5
476.377	85.5
476.596	77.5
476.814	89.5
477.033	79.5
477.252	87.5
477.471	88.5
477.69	80.5
477.908	81.5
478.127	100.5
478.346	82.5
478.564	84.5
478.783	87.5
479.002	72.5
479.22	88.5
479.439	106.5
479.658	104.5
479.876	99.5
480.095	106.5
480.313	82.5
480.532	79.5
480.751	79.5
480.969	95.5
481.188	107.5
481.406	105.5
481.624	98.5
481.843	91.5
482.061	81.5
482.28	81.5
482.498	92.5
482.717	88.5
482.935	92.5
483.153	97.5
483.372	85.5
483.59	101.5
483.808	100.5
484.027	97.5
484.245	91.5
484.463	83.5
484.681	104.5
484.9	83.5
485.118	101.5
485.336	103.5
485.554	83.5
485.772	106.5
485.99	94.5
486.209	94.5
486.427	105.5
486.645	91.5
486.863	104.5
487.081	102.5
487.299	106.5
487.517	93.5
487.735	93.5
487.953	96.5
488.171	98.5
488.389	104.5
488.607	95.5
488.825	92.5
489.043	93.5
489.261	75.5
489.479	92.5
489.696	90.5
489.914	82.5
490.132	91.5
490.35	102.5
490.568	96.5
490.786	106.5
491.003	81.5
491.221	83.5
491.439	98.5
491.657	89.5
491.874	93.5
492.092	84.5
492.31	71.5
492.527	83.5
492.745	91.5
492.963	96.5
493.18	85.5
493.398	100.5
493.615	99.5
493.833	99.5
494.05	80.5
494.268	87.5
494.485	74.5
494.703	92.5
494.92	99.5
495.138	99.5
495.355	90.5
495.573	97.5
495.79	91.5
496.008	95.5
496.225	100.5
496.442	111.5
496.66	95.5
496.877	96.5
497.094	108.5
497.312	92.5
497.529	88.5
497.746	84.5
497.963	81.5
498.181	85.5
498.398	102.5
498.615	114.5
498.832	99.5
499.049	98.5
499.267	97.5
499.484	104.5
499.701	79.5
499.918	81.5
500.135	104.5
500.352	98.5
500.569	101.5
500.786	98.5
501.003	101.5
501.22	83.5
501.437	100.5
501.654	93.5
501.871	99.5
502.088	84.5
502.305	84.5
502.522	83.5
502.739	94.5
502.956	97.5
503.172	82.5
503.389	93.5
503.606	86.5
503.823	89.5
504.04	99.5
504.256	92.5
504.473	104.5
504.69	95.5
504.907	103.5
505.123	92.5
505.34	79.5
505.557	88.5
505.773	92.5
505.99	74.5
506.207	84.5
506.423	94.5
506.64	93.5
506.856	110.5
507.073	88.5
507.289	85.5
507.506	80.5
507.722	102.5
507.939	104.5
508.155	97.5
508.372	89.5
508.588	104.5
508.805	103.5
509.021	100.5
509.238	81.5
509.454	72.5
509.67	100.5
509.887	109.5
510.103	113.5
510.319	194.5
510.536	595.5
510.752	1776.5
510.968	525.5
511.184	121.5
511.401	90.5
511.617	98.5
511.833	102.5
512.049	97.5
512.265	77.5
512.481	92.5
512.698	98.5
512.914	76.5
513.13	106.5
513.346	103.5
513.562	92.5
513.778	104.5
513.994	91.5
514.21	99.5
514.426	109.5
514.642	123.5
514.858	116.5
515.074	146.5
515.29	362.5
515.506	1067.5
515.721	373.5
515.937	131.5
516.153	95.5
516.369	94.5
516.585	107.5
516.801	88.5
517.016	107.5
517.232	94.5
517.448	99.5
517.664	95.5
517.879	106.5
518.095	95.5
518.311	87.5
518.527	97.5
518.742	99.5
518.958	82.5
519.173	93.5
519.389	108.5
519.605	96.5
519.82	111.5
520.036	107.5
520.251	107.5
520.467	109.5
520.682	111.5
520.898	97.5
521.113	100.5
521.329	119.5
521.544	151.5
521.76	415.5
521.975	1755.5
522.19	1041.5
522.406	266.5
522.621	123.5
522.836	98.5
523.052	86.5
523.267	89.5
523.482	103.5
523.698	93.5
523.913	96.5
524.128	102.5
524.343	95.5
524.559	94.5
524.774	79.5
524.989	81.5
525.204	106.5
525.419	91.5
525.634	85.5
525.849	90.5
526.064	99.5
526.28	113.5
526.495	92.5
526.71	85.5
526.925	91.5
527.14	86.5
527.355	90.5
527.57	88.5
527.785	93.5
527.999	88.5
528.214	100.5
528.429	105.5
528.644	96.5
528.859	90.5
529.074	90.5
529.289	113.5
529.503	137.5
529.718	110.5
529.933	88.5
530.148	101.5
530.363	92.5
530.577	80.5
530.792	91.5
531.007	98.5
531.221	105.5
531.436	99.5
531.651	92.5
531.865	84.5
532.08	102.5
532.295	88.5
532.509	95.5
532.724	84.5
532.938	85.5
533.153	91.5
533.367	91.5
533.582	102.5
533.796	90.5
534.011	101.5
534.225	85.5
534.44	84.5
534.654	93.5
534.868	102.5
535.083	111.5
535.297	89.5
