Data from Uncirc_1986_H10_HRD10591_00054.txt Node
Date: Wed Jan 03 12:14:37 EST 2024
User: Yrep
Spectrometer: HR+D1059
Trigger mode: 1
Integration Time (sec): 1.000000E-1
Scans to average: 1
Electric dark correction enabled: true
Nonlinearity correction enabled: false
Boxcar width: 0
XAxis mode: Wavelengths
Number of Pixels in Spectrum: 2048
>>>>>Begin Spectral Data<<<<<
223.165	-9.31
223.4	-9.31
223.635	-9.31
223.869	-23.31
224.104	-20.31
224.338	-6.31
224.573	-18.31
224.808	-24.31
225.042	4.69
225.277	-3.31
225.511	-9.31
225.746	5.69
225.98	15.69
226.215	12.69
226.449	16.69
226.683	8.69
226.918	24.69
227.152	25.69
227.387	48.69
227.621	27.69
227.856	52.69
228.09	52.69
228.324	64.69
228.559	63.69
228.793	66.69
229.027	71.69
229.262	80.69
229.496	62.69
229.73	85.69
229.964	85.69
230.199	70.69
230.433	82.69
230.667	81.69
230.901	81.69
231.136	70.69
231.37	84.69
231.604	84.69
231.838	78.69
232.072	71.69
232.306	88.69
232.541	83.69
232.775	74.69
233.009	68.69
233.243	82.69
233.477	88.69
233.711	72.69
233.945	69.69
234.179	89.69
234.413	94.69
234.647	76.69
234.881	75.69
235.115	83.69
235.349	78.69
235.583	77.69
235.817	76.69
236.051	82.69
236.285	71.69
236.519	86.69
236.753	74.69
236.987	81.69
237.221	95.69
237.455	86.69
237.689	80.69
237.922	77.69
238.156	84.69
238.39	95.69
238.624	83.69
238.858	84.69
239.091	77.69
239.325	81.69
239.559	76.69
239.793	85.69
240.027	78.69
240.26	89.69
240.494	78.69
240.728	71.69
240.961	85.69
241.195	90.69
241.429	82.69
241.662	76.69
241.896	54.69
242.13	64.69
242.363	82.69
242.597	76.69
242.83	71.69
243.064	85.69
243.298	80.69
243.531	70.69
243.765	83.69
243.998	77.69
244.232	82.69
244.465	89.69
244.699	85.69
244.932	88.69
245.166	84.69
245.399	95.69
245.633	77.69
245.866	86.69
246.099	74.69
246.333	85.69
246.566	81.69
246.8	90.69
247.033	82.69
247.266	78.69
247.5	61.69
247.733	76.69
247.966	84.69
248.2	82.69
248.433	83.69
248.666	84.69
248.899	75.69
249.133	83.69
249.366	94.69
249.599	81.69
249.832	83.69
250.066	88.69
250.299	80.69
250.532	78.69
250.765	91.69
250.998	87.69
251.231	84.69
251.465	81.69
251.698	70.69
251.931	99.69
252.164	98.69
252.397	93.69
252.63	89.69
252.863	76.69
253.096	66.69
253.329	76.69
253.562	74.69
253.795	87.69
254.028	90.69
254.261	82.69
254.494	85.69
254.727	92.69
254.96	70.69
255.193	86.69
255.426	73.69
255.659	83.69
255.892	93.69
256.124	77.69
256.357	75.69
256.59	89.69
256.823	90.69
257.056	92.69
257.289	78.69
257.521	80.69
257.754	76.69
257.987	78.69
258.22	93.69
258.452	94.69
258.685	102.69
258.918	84.69
259.151	84.69
259.383	77.69
259.616	75.69
259.849	100.69
260.081	88.69
260.314	97.69
260.547	92.69
260.779	95.69
261.012	92.69
261.244	86.69
261.477	84.69
261.71	75.69
261.942	106.69
262.175	108.69
262.407	76.69
262.64	85.69
262.872	90.69
263.105	86.69
263.337	77.69
263.57	83.69
263.802	92.69
264.035	75.69
264.267	86.69
264.499	72.69
264.732	78.69
264.964	89.69
265.197	96.69
265.429	85.69
265.661	92.69
265.894	84.69
266.126	70.69
266.358	70.69
266.591	78.69
266.823	80.69
267.055	88.69
267.287	81.69
267.52	77.69
267.752	86.69
267.984	86.69
268.216	77.69
268.448	101.69
268.681	93.69
268.913	90.69
269.145	96.69
269.377	89.69
269.609	98.69
269.841	90.69
270.073	107.69
270.306	87.69
270.538	88.69
270.77	75.69
271.002	100.69
271.234	88.69
271.466	89.69
271.698	88.69
271.93	93.69
272.162	75.69
272.394	81.69
272.626	86.69
272.858	77.69
273.09	82.69
273.322	80.69
273.553	99.69
273.785	91.69
274.017	81.69
274.249	84.69
274.481	90.69
274.713	82.69
274.945	84.69
275.176	92.69
275.408	87.69
275.64	80.69
275.872	86.69
276.104	98.69
276.335	101.69
276.567	85.69
276.799	113.69
277.031	98.69
277.262	81.69
277.494	94.69
277.726	94.69
277.957	82.69
278.189	100.69
278.421	96.69
278.652	91.69
278.884	95.69
279.115	88.69
279.347	81.69
279.579	82.69
279.81	90.69
280.042	96.69
280.273	83.69
280.505	101.69
280.736	98.69
280.968	84.69
281.199	96.69
281.431	81.69
281.662	88.69
281.894	97.69
282.125	95.69
282.356	114.69
282.588	125.69
282.819	108.69
283.051	84.69
283.282	93.69
283.513	91.69
283.745	73.69
283.976	82.69
284.207	72.69
284.439	91.69
284.67	93.69
284.901	92.69
285.132	102.69
285.364	95.69
285.595	85.69
285.826	99.69
286.057	91.69
286.288	88.69
286.52	82.69
286.751	93.69
286.982	92.69
287.213	82.69
287.444	100.69
287.675	84.69
287.906	86.69
288.138	81.69
288.369	77.69
288.6	76.69
288.831	86.69
289.062	104.69
289.293	87.69
289.524	101.69
289.755	76.69
289.986	92.69
290.217	87.69
290.448	91.69
290.679	89.69
290.91	85.69
291.141	86.69
291.371	101.69
291.602	100.69
291.833	82.69
292.064	86.69
292.295	92.69
292.526	90.69
292.757	93.69
292.987	89.69
293.218	94.69
293.449	90.69
293.68	84.69
293.91	93.69
294.141	95.69
294.372	82.69
294.603	92.69
294.833	82.69
295.064	93.69
295.295	79.69
295.525	96.69
295.756	115.69
295.987	111.69
296.217	121.69
296.448	108.69
296.679	97.69
296.909	83.69
297.14	93.69
297.37	97.69
297.601	96.69
297.831	80.69
298.062	96.69
298.292	89.69
298.523	109.69
298.753	90.69
298.984	96.69
299.214	89.69
299.445	88.69
299.675	92.69
299.905	94.69
300.136	85.69
300.366	92.69
300.597	93.69
300.827	97.69
301.057	101.69
301.288	97.69
301.518	109.69
301.748	85.69
301.979	96.69
302.209	97.69
302.439	101.69
302.669	102.69
302.9	97.69
303.13	92.69
303.36	93.69
303.59	97.69
303.82	102.69
304.051	86.69
304.281	100.69
304.511	92.69
304.741	103.69
304.971	88.69
305.201	92.69
305.431	87.69
305.661	72.69
305.891	92.69
306.121	96.69
306.352	109.69
306.582	95.69
306.812	105.69
307.042	98.69
307.272	107.69
307.502	92.69
307.731	96.69
307.961	102.69
308.191	89.69
308.421	96.69
308.651	94.69
308.881	90.69
309.111	95.69
309.341	95.69
309.571	100.69
309.8	90.69
310.03	94.69
310.26	100.69
310.49	92.69
310.72	95.69
310.949	102.69
311.179	82.69
311.409	94.69
311.639	97.69
311.868	115.69
312.098	89.69
312.328	89.69
312.557	98.69
312.787	107.69
313.017	94.69
313.246	86.69
313.476	79.69
313.706	89.69
313.935	90.69
314.165	101.69
314.394	116.69
314.624	110.69
314.853	90.69
315.083	85.69
315.312	93.69
315.542	92.69
315.771	98.69
316.001	109.69
316.23	104.69
316.46	97.69
316.689	83.69
316.919	77.69
317.148	88.69
317.377	101.69
317.607	113.69
317.836	73.69
318.065	108.69
318.295	101.69
318.524	91.69
318.753	92.69
318.983	104.69
319.212	90.69
319.441	125.69
319.67	98.69
319.9	86.69
320.129	100.69
320.358	112.69
320.587	98.69
320.816	99.69
321.046	97.69
321.275	85.69
321.504	88.69
321.733	89.69
321.962	104.69
322.191	93.69
322.42	90.69
322.649	112.69
322.878	106.69
323.108	119.69
323.337	114.69
323.566	137.69
323.795	146.69
324.024	184.69
324.253	326.69
324.482	690.69
324.71	1426.69
324.939	1890.69
325.168	727.69
325.397	226.69
325.626	160.69
325.855	121.69
326.084	112.69
326.313	114.69
326.542	150.69
326.77	210.69
326.999	382.69
327.228	819.69
327.457	1468.69
327.686	1178.69
327.914	334.69
328.143	175.69
328.372	128.69
328.6	121.69
328.829	111.69
329.058	129.69
329.287	119.69
329.515	107.69
329.744	101.69
329.972	98.69
330.201	107.69
330.43	114.69
330.658	107.69
330.887	122.69
331.115	126.69
331.344	113.69
331.572	98.69
331.801	94.69
332.03	105.69
332.258	98.69
332.486	92.69
332.715	104.69
332.943	92.69
333.172	104.69
333.4	103.69
333.629	74.69
333.857	99.69
334.085	93.69
334.314	92.69
334.542	99.69
334.771	94.69
334.999	97.69
335.227	90.69
335.455	93.69
335.684	86.69
335.912	103.69
336.14	109.69
336.369	94.69
336.597	100.69
336.825	105.69
337.053	110.69
337.281	91.69
337.51	97.69
337.738	97.69
337.966	92.69
338.194	101.69
338.422	93.69
338.65	95.69
338.878	100.69
339.106	100.69
339.334	78.69
339.562	97.69
339.79	85.69
340.018	88.69
340.246	91.69
340.474	108.69
340.702	108.69
340.93	101.69
341.158	97.69
341.386	90.69
341.614	110.69
341.842	87.69
342.07	98.69
342.298	102.69
342.526	63.69
342.754	93.69
342.981	87.69
343.209	85.69
343.437	100.69
343.665	92.69
343.893	92.69
344.12	87.69
344.348	97.69
344.576	92.69
344.804	90.69
345.031	94.69
345.259	99.69
345.487	81.69
345.714	98.69
345.942	104.69
346.17	96.69
346.397	103.69
346.625	106.69
346.853	90.69
347.08	98.69
347.308	84.69
347.535	81.69
347.763	107.69
347.99	99.69
348.218	104.69
348.445	104.69
348.673	109.69
348.9	89.69
349.128	96.69
349.355	97.69
349.583	93.69
349.81	90.69
350.037	101.69
350.265	83.69
350.492	105.69
350.72	101.69
350.947	110.69
351.174	106.69
351.402	95.69
351.629	92.69
351.856	101.69
352.083	107.69
352.311	118.69
352.538	112.69
352.765	114.69
352.992	123.69
353.22	100.69
353.447	115.69
353.674	101.69
353.901	89.69
354.128	105.69
354.355	99.69
354.583	97.69
354.81	100.69
355.037	89.69
355.264	102.69
355.491	102.69
355.718	100.69
355.945	89.69
356.172	96.69
356.399	97.69
356.626	86.69
356.853	100.69
357.08	96.69
357.307	77.69
357.534	92.69
357.761	91.69
357.988	90.69
358.215	108.69
358.441	105.69
358.668	86.69
358.895	83.69
359.122	86.69
359.349	93.69
359.576	88.69
359.802	98.69
360.029	107.69
360.256	111.69
360.483	109.69
360.709	85.69
360.936	83.69
361.163	100.69
361.39	94.69
361.616	91.69
361.843	96.69
362.07	98.69
362.296	91.69
362.523	101.69
362.749	90.69
362.976	95.69
363.203	103.69
363.429	77.69
363.656	95.69
363.882	84.69
364.109	89.69
364.335	104.69
364.562	84.69
364.788	96.69
365.015	104.69
365.241	93.69
365.468	101.69
365.694	96.69
365.92	108.69
366.147	99.69
366.373	91.69
366.599	95.69
366.826	93.69
367.052	98.69
367.278	98.69
367.505	98.69
367.731	91.69
367.957	100.69
368.184	91.69
368.41	92.69
368.636	111.69
368.862	111.69
369.089	106.69
369.315	95.69
369.541	99.69
369.767	93.69
369.993	103.69
370.219	91.69
370.445	88.69
370.672	89.69
370.898	90.69
371.124	91.69
371.35	82.69
371.576	85.69
371.802	97.69
372.028	90.69
372.254	87.69
372.48	88.69
372.706	97.69
372.932	91.69
373.158	99.69
373.384	83.69
373.61	108.69
373.835	102.69
374.061	92.69
374.287	80.69
374.513	94.69
374.739	87.69
374.965	103.69
375.191	96.69
375.416	84.69
375.642	95.69
375.868	84.69
376.094	102.69
376.319	93.69
376.545	100.69
376.771	80.69
376.997	97.69
377.222	79.69
377.448	96.69
377.674	91.69
377.899	82.69
378.125	74.69
378.35	93.69
378.576	96.69
378.802	93.69
379.027	93.69
379.253	94.69
379.478	100.69
379.704	94.69
379.929	94.69
380.155	99.69
380.38	96.69
380.606	89.69
380.831	95.69
381.057	96.69
381.282	80.69
381.507	98.69
381.733	94.69
381.958	94.69
382.184	102.69
382.409	94.69
382.634	100.69
382.86	91.69
383.085	107.69
383.31	102.69
383.535	103.69
383.761	103.69
383.986	87.69
384.211	85.69
384.436	99.69
384.662	90.69
384.887	99.69
385.112	103.69
385.337	97.69
385.562	92.69
385.787	105.69
386.013	108.69
386.238	123.69
386.463	115.69
386.688	120.69
386.913	102.69
387.138	103.69
387.363	107.69
387.588	104.69
387.813	117.69
388.038	96.69
388.263	109.69
388.488	111.69
388.713	92.69
388.938	92.69
389.163	104.69
389.387	98.69
389.612	100.69
389.837	93.69
390.062	86.69
390.287	98.69
390.512	97.69
390.736	97.69
390.961	83.69
391.186	82.69
391.411	97.69
391.636	81.69
391.86	86.69
392.085	81.69
392.31	88.69
392.534	88.69
392.759	82.69
392.984	82.69
393.208	81.69
393.433	82.69
393.658	85.69
393.882	90.69
394.107	92.69
394.331	88.69
394.556	92.69
394.78	94.69
395.005	85.69
395.229	89.69
395.454	89.69
395.678	88.69
395.903	93.69
396.127	85.69
396.352	93.69
396.576	81.69
396.801	92.69
397.025	92.69
397.249	99.69
397.474	85.69
397.698	88.69
397.922	98.69
398.147	82.69
398.371	85.69
398.595	94.69
398.82	96.69
399.044	88.69
399.268	82.69
399.492	108.69
399.717	92.69
399.941	95.69
400.165	91.69
400.389	98.69
400.613	76.69
400.837	104.69
401.062	81.69
401.286	80.69
401.51	94.69
401.734	84.69
401.958	87.69
402.182	130.69
402.406	151.69
402.63	107.69
402.854	95.69
403.078	75.69
403.302	88.69
403.526	89.69
403.75	98.69
403.974	109.69
404.198	86.69
404.422	93.69
404.645	91.69
404.869	93.69
405.093	95.69
405.317	99.69
405.541	96.69
405.765	100.69
405.988	108.69
406.212	159.69
406.436	194.69
406.66	123.69
406.883	104.69
407.107	108.69
407.331	94.69
407.555	78.69
407.778	98.69
408.002	97.69
408.226	96.69
408.449	81.69
408.673	100.69
408.896	94.69
409.12	97.69
409.344	102.69
409.567	93.69
409.791	80.69
410.014	90.69
410.238	88.69
410.461	109.69
410.685	100.69
410.908	101.69
411.132	93.69
411.355	93.69
411.578	89.69
411.802	88.69
412.025	101.69
412.249	82.69
412.472	86.69
412.695	111.69
412.919	89.69
413.142	89.69
413.365	91.69
413.589	101.69
413.812	97.69
414.035	104.69
414.258	89.69
414.482	88.69
414.705	104.69
414.928	97.69
415.151	95.69
415.374	100.69
415.597	100.69
415.821	95.69
416.044	74.69
416.267	76.69
416.49	98.69
416.713	84.69
416.936	94.69
417.159	87.69
417.382	89.69
417.605	77.69
417.828	82.69
418.051	78.69
418.274	94.69
418.497	93.69
418.72	98.69
418.943	86.69
419.166	92.69
419.389	102.69
419.611	92.69
419.834	91.69
420.057	93.69
420.28	106.69
420.503	88.69
420.726	76.69
420.948	84.69
421.171	95.69
421.394	99.69
421.617	85.69
421.839	104.69
422.062	84.69
422.285	80.69
422.507	99.69
422.73	99.69
422.953	89.69
423.175	80.69
423.398	98.69
423.621	88.69
423.843	98.69
424.066	94.69
424.288	80.69
424.511	87.69
424.733	105.69
424.956	103.69
425.178	103.69
425.401	93.69
425.623	108.69
425.846	94.69
426.068	92.69
426.291	89.69
426.513	103.69
426.735	85.69
426.958	84.69
427.18	108.69
427.402	146.69
427.625	158.69
427.847	127.69
428.069	108.69
428.292	96.69
428.514	98.69
428.736	82.69
428.958	97.69
429.181	92.69
429.403	84.69
429.625	89.69
429.847	108.69
430.069	106.69
430.292	88.69
430.514	93.69
430.736	74.69
430.958	92.69
431.18	88.69
431.402	84.69
431.624	73.69
431.846	77.69
432.068	98.69
432.29	91.69
432.512	103.69
432.734	95.69
432.956	102.69
433.178	98.69
433.4	98.69
433.622	90.69
433.844	80.69
434.066	98.69
434.287	91.69
434.509	101.69
434.731	98.69
434.953	94.69
435.175	69.69
435.397	100.69
435.618	96.69
435.84	96.69
436.062	124.69
436.284	122.69
436.505	95.69
436.727	93.69
436.949	87.69
437.17	98.69
437.392	93.69
437.614	109.69
437.835	115.69
438.057	122.69
438.278	105.69
438.5	94.69
438.721	123.69
438.943	112.69
439.165	77.69
439.386	94.69
439.608	96.69
439.829	84.69
440.05	114.69
440.272	154.69
440.493	102.69
440.715	87.69
440.936	83.69
441.158	80.69
441.379	81.69
441.6	92.69
441.822	97.69
442.043	92.69
442.264	102.69
442.486	112.69
442.707	99.69
442.928	92.69
443.149	124.69
443.371	125.69
443.592	107.69
443.813	118.69
444.034	103.69
444.255	94.69
444.476	101.69
444.698	90.69
444.919	92.69
445.14	132.69
445.361	111.69
445.582	106.69
445.803	117.69
446.024	133.69
446.245	142.69
446.466	102.69
446.687	96.69
446.908	98.69
447.129	94.69
447.35	91.69
447.571	94.69
447.792	94.69
448.013	95.69
448.234	112.69
448.455	108.69
448.675	105.69
448.896	106.69
449.117	105.69
449.338	108.69
449.559	120.69
449.779	141.69
450	98.69
450.221	87.69
450.442	90.69
450.662	93.69
450.883	101.69
451.104	89.69
451.324	88.69
451.545	84.69
451.766	84.69
451.986	83.69
452.207	97.69
452.428	78.69
452.648	88.69
452.869	112.69
453.089	125.69
453.31	107.69
453.53	98.69
453.751	97.69
453.971	101.69
454.192	100.69
454.412	95.69
454.633	90.69
454.853	84.69
455.073	94.69
455.294	96.69
455.514	88.69
455.734	97.69
455.955	88.69
456.175	86.69
456.395	78.69
456.616	80.69
456.836	90.69
457.056	95.69
457.276	94.69
457.497	80.69
457.717	93.69
457.937	101.69
458.157	98.69
458.377	100.69
458.598	97.69
458.818	134.69
459.038	144.69
459.258	105.69
459.478	92.69
459.698	60.69
459.918	91.69
460.138	92.69
460.358	89.69
460.578	86.69
460.798	78.69
461.018	91.69
461.238	87.69
461.458	97.69
461.678	89.69
461.898	91.69
462.118	96.69
462.338	91.69
462.558	93.69
462.777	93.69
462.997	81.69
463.217	88.69
463.437	91.69
463.657	92.69
463.876	78.69
464.096	93.69
464.316	108.69
464.536	100.69
464.755	97.69
464.975	88.69
465.195	137.69
465.414	148.69
465.634	99.69
465.854	77.69
466.073	94.69
466.293	86.69
466.512	72.69
466.732	94.69
466.951	88.69
467.171	99.69
467.391	84.69
467.61	95.69
467.829	86.69
468.049	91.69
468.268	93.69
468.488	90.69
468.707	90.69
468.927	80.69
469.146	83.69
469.365	92.69
469.585	93.69
469.804	88.69
470.023	98.69
470.243	103.69
470.462	91.69
470.681	105.69
470.901	92.69
471.12	82.69
471.339	97.69
471.558	84.69
471.777	99.69
471.997	90.69
472.216	82.69
472.435	98.69
472.654	90.69
472.873	82.69
473.092	92.69
473.311	71.69
473.53	106.69
473.749	92.69
473.968	94.69
474.187	98.69
474.406	95.69
474.625	84.69
474.844	81.69
475.063	88.69
475.282	100.69
475.501	85.69
475.72	98.69
475.939	93.69
476.158	92.69
476.377	100.69
476.596	90.69
476.814	98.69
477.033	104.69
477.252	92.69
477.471	90.69
477.69	88.69
477.908	102.69
478.127	100.69
478.346	71.69
478.564	85.69
478.783	92.69
479.002	97.69
479.22	86.69
479.439	96.69
479.658	102.69
479.876	88.69
480.095	91.69
480.313	92.69
480.532	86.69
480.751	83.69
480.969	77.69
481.188	114.69
481.406	114.69
481.624	99.69
481.843	84.69
482.061	90.69
482.28	94.69
482.498	77.69
482.717	88.69
482.935	93.69
483.153	99.69
483.372	94.69
483.59	91.69
483.808	86.69
484.027	87.69
484.245	90.69
484.463	95.69
484.681	91.69
484.9	100.69
485.118	106.69
485.336	103.69
485.554	87.69
485.772	106.69
485.99	100.69
486.209	114.69
486.427	114.69
486.645	120.69
486.863	106.69
487.081	103.69
487.299	100.69
487.517	94.69
487.735	94.69
487.953	83.69
488.171	88.69
488.389	88.69
488.607	83.69
488.825	74.69
489.043	87.69
489.261	81.69
489.479	102.69
489.696	90.69
489.914	89.69
490.132	81.69
490.35	86.69
490.568	86.69
490.786	92.69
491.003	95.69
491.221	104.69
491.439	112.69
491.657	77.69
491.874	80.69
492.092	72.69
492.31	97.69
492.527	94.69
492.745	80.69
492.963	114.69
493.18	105.69
493.398	101.69
493.615	89.69
493.833	100.69
494.05	93.69
494.268	84.69
494.485	100.69
494.703	96.69
494.92	93.69
495.138	96.69
495.355	77.69
495.573	94.69
495.79	81.69
496.008	89.69
496.225	103.69
496.442	89.69
496.66	100.69
496.877	96.69
497.094	94.69
497.312	90.69
497.529	96.69
497.746	101.69
497.963	105.69
498.181	94.69
498.398	95.69
498.615	118.69
498.832	100.69
499.049	86.69
499.267	115.69
499.484	78.69
499.701	97.69
499.918	90.69
500.135	81.69
500.352	96.69
500.569	91.69
500.786	82.69
501.003	91.69
501.22	88.69
501.437	84.69
501.654	85.69
501.871	101.69
502.088	74.69
502.305	102.69
502.522	88.69
502.739	98.69
502.956	92.69
503.172	84.69
503.389	85.69
503.606	98.69
503.823	99.69
504.04	94.69
504.256	101.69
504.473	86.69
504.69	91.69
504.907	105.69
505.123	89.69
505.34	74.69
505.557	90.69
505.773	90.69
505.99	85.69
506.207	84.69
506.423	83.69
506.64	90.69
506.856	89.69
507.073	102.69
507.289	86.69
507.506	99.69
507.722	108.69
507.939	113.69
508.155	98.69
508.372	77.69
508.588	90.69
508.805	101.69
509.021	95.69
509.238	99.69
509.454	91.69
509.67	95.69
509.887	100.69
510.103	110.69
510.319	178.69
510.536	620.69
510.752	1909.69
510.968	535.69
511.184	139.69
511.401	102.69
511.617	111.69
511.833	96.69
512.049	87.69
512.265	94.69
512.481	88.69
512.698	98.69
512.914	105.69
513.13	105.69
513.346	108.69
513.562	100.69
513.778	90.69
513.994	89.69
514.21	96.69
514.426	115.69
514.642	119.69
514.858	115.69
515.074	139.69
515.29	355.69
