Data from Uncirc_1986_H10_HRD10591_00048.txt Node
Date: Wed Jan 03 12:14:36 EST 2024
User: Yrep
Spectrometer: HR+D1059
Trigger mode: 1
Integration Time (sec): 1.000000E-1
Scans to average: 1
Electric dark correction enabled: true
Nonlinearity correction enabled: false
Boxcar width: 0
XAxis mode: Wavelengths
Number of Pixels in Spectrum: 2048
>>>>>Begin Spectral Data<<<<<
223.165	-21.12
223.4	-21.12
223.635	-21.12
223.869	-25.12
224.104	-14.12
224.338	-23.12
224.573	-12.12
224.808	-3.12
225.042	-9.12
225.277	-7.12
225.511	3.88
225.746	7.88
225.98	10.88
226.215	4.88
226.449	14.88
226.683	8.88
226.918	30.88
227.152	32.88
227.387	29.88
227.621	32.88
227.856	41.88
228.09	60.88
228.324	53.88
228.559	67.88
228.793	44.88
229.027	71.88
229.262	66.88
229.496	67.88
229.73	83.88
229.964	78.88
230.199	82.88
230.433	70.88
230.667	90.88
230.901	53.88
231.136	82.88
231.37	80.88
231.604	85.88
231.838	66.88
232.072	74.88
232.306	88.88
232.541	76.88
232.775	86.88
233.009	95.88
233.243	78.88
233.477	74.88
233.711	82.88
233.945	82.88
234.179	76.88
234.413	82.88
234.647	96.88
234.881	83.88
235.115	75.88
235.349	81.88
235.583	80.88
235.817	73.88
236.051	83.88
236.285	78.88
236.519	90.88
236.753	92.88
236.987	102.88
237.221	78.88
237.455	75.88
237.689	82.88
237.922	68.88
238.156	76.88
238.39	72.88
238.624	87.88
238.858	83.88
239.091	78.88
239.325	81.88
239.559	68.88
239.793	69.88
240.027	82.88
240.26	81.88
240.494	96.88
240.728	80.88
240.961	70.88
241.195	92.88
241.429	94.88
241.662	80.88
241.896	65.88
242.13	73.88
242.363	78.88
242.597	66.88
242.83	69.88
243.064	76.88
243.298	89.88
243.531	65.88
243.765	85.88
243.998	69.88
244.232	79.88
244.465	86.88
244.699	74.88
244.932	83.88
245.166	73.88
245.399	73.88
245.633	66.88
245.866	59.88
246.099	83.88
246.333	70.88
246.566	64.88
246.8	84.88
247.033	71.88
247.266	69.88
247.5	81.88
247.733	64.88
247.966	75.88
248.2	75.88
248.433	92.88
248.666	75.88
248.899	66.88
249.133	68.88
249.366	92.88
249.599	96.88
249.832	78.88
250.066	91.88
250.299	71.88
250.532	82.88
250.765	82.88
250.998	81.88
251.231	79.88
251.465	78.88
251.698	86.88
251.931	59.88
252.164	74.88
252.397	73.88
252.63	76.88
252.863	82.88
253.096	85.88
253.329	84.88
253.562	81.88
253.795	86.88
254.028	94.88
254.261	86.88
254.494	72.88
254.727	92.88
254.96	85.88
255.193	76.88
255.426	82.88
255.659	86.88
255.892	83.88
256.124	74.88
256.357	82.88
256.59	70.88
256.823	79.88
257.056	68.88
257.289	80.88
257.521	80.88
257.754	79.88
257.987	84.88
258.22	87.88
258.452	87.88
258.685	86.88
258.918	89.88
259.151	78.88
259.383	64.88
259.616	80.88
259.849	81.88
260.081	84.88
260.314	75.88
260.547	80.88
260.779	89.88
261.012	90.88
261.244	106.88
261.477	86.88
261.71	99.88
261.942	102.88
262.175	103.88
262.407	87.88
262.64	73.88
262.872	91.88
263.105	79.88
263.337	61.88
263.57	80.88
263.802	86.88
264.035	86.88
264.267	69.88
264.499	88.88
264.732	79.88
264.964	92.88
265.197	82.88
265.429	83.88
265.661	87.88
265.894	76.88
266.126	90.88
266.358	80.88
266.591	74.88
266.823	80.88
267.055	86.88
267.287	72.88
267.52	84.88
267.752	88.88
267.984	75.88
268.216	74.88
268.448	78.88
268.681	96.88
268.913	80.88
269.145	83.88
269.377	76.88
269.609	78.88
269.841	82.88
270.073	97.88
270.306	101.88
270.538	71.88
270.77	71.88
271.002	67.88
271.234	85.88
271.466	91.88
271.698	103.88
271.93	94.88
272.162	75.88
272.394	74.88
272.626	84.88
272.858	79.88
273.09	96.88
273.322	73.88
273.553	78.88
273.785	78.88
274.017	88.88
274.249	82.88
274.481	74.88
274.713	87.88
274.945	73.88
275.176	88.88
275.408	90.88
275.64	89.88
275.872	86.88
276.104	99.88
276.335	90.88
276.567	96.88
276.799	104.88
277.031	97.88
277.262	108.88
277.494	111.88
277.726	76.88
277.957	85.88
278.189	96.88
278.421	83.88
278.652	79.88
278.884	70.88
279.115	84.88
279.347	90.88
279.579	91.88
279.81	92.88
280.042	86.88
280.273	79.88
280.505	71.88
280.736	98.88
280.968	97.88
281.199	73.88
281.431	96.88
281.662	88.88
281.894	83.88
282.125	95.88
282.356	117.88
282.588	113.88
282.819	108.88
283.051	88.88
283.282	95.88
283.513	90.88
283.745	86.88
283.976	78.88
284.207	94.88
284.439	96.88
284.67	78.88
284.901	83.88
285.132	95.88
285.364	81.88
285.595	89.88
285.826	88.88
286.057	88.88
286.288	80.88
286.52	88.88
286.751	92.88
286.982	99.88
287.213	83.88
287.444	89.88
287.675	98.88
287.906	91.88
288.138	73.88
288.369	95.88
288.6	106.88
288.831	86.88
289.062	83.88
289.293	86.88
289.524	86.88
289.755	82.88
289.986	83.88
290.217	91.88
290.448	87.88
290.679	81.88
290.91	97.88
291.141	91.88
291.371	90.88
291.602	98.88
291.833	97.88
292.064	84.88
292.295	91.88
292.526	91.88
292.757	90.88
292.987	87.88
293.218	91.88
293.449	87.88
293.68	96.88
293.91	81.88
294.141	86.88
294.372	85.88
294.603	85.88
294.833	79.88
295.064	89.88
295.295	91.88
295.525	102.88
295.756	106.88
295.987	107.88
296.217	138.88
296.448	124.88
296.679	96.88
296.909	99.88
297.14	89.88
297.37	90.88
297.601	82.88
297.831	79.88
298.062	99.88
298.292	91.88
298.523	91.88
298.753	89.88
298.984	87.88
299.214	92.88
299.445	94.88
299.675	78.88
299.905	92.88
300.136	96.88
300.366	95.88
300.597	91.88
300.827	84.88
301.057	110.88
301.288	95.88
301.518	93.88
301.748	90.88
301.979	93.88
302.209	91.88
302.439	100.88
302.669	90.88
302.9	82.88
303.13	94.88
303.36	95.88
303.59	82.88
303.82	103.88
304.051	87.88
304.281	80.88
304.511	105.88
304.741	81.88
304.971	75.88
305.201	76.88
305.431	85.88
305.661	98.88
305.891	82.88
306.121	91.88
306.352	107.88
306.582	108.88
306.812	96.88
307.042	102.88
307.272	79.88
307.502	94.88
307.731	86.88
307.961	84.88
308.191	94.88
308.421	101.88
308.651	87.88
308.881	74.88
309.111	92.88
309.341	85.88
309.571	88.88
309.8	104.88
310.03	81.88
310.26	100.88
310.49	96.88
310.72	91.88
310.949	101.88
311.179	87.88
311.409	92.88
311.639	98.88
311.868	97.88
312.098	87.88
312.328	83.88
312.557	98.88
312.787	99.88
313.017	111.88
313.246	96.88
313.476	89.88
313.706	100.88
313.935	91.88
314.165	91.88
314.394	100.88
314.624	104.88
314.853	84.88
315.083	85.88
315.312	83.88
315.542	90.88
315.771	94.88
316.001	83.88
316.23	103.88
316.46	81.88
316.689	75.88
316.919	73.88
317.148	103.88
317.377	107.88
317.607	93.88
317.836	107.88
318.065	94.88
318.295	88.88
318.524	84.88
318.753	82.88
318.983	95.88
319.212	96.88
319.441	106.88
319.67	107.88
319.9	90.88
320.129	92.88
320.358	98.88
320.587	94.88
320.816	94.88
321.046	100.88
321.275	85.88
321.504	93.88
321.733	95.88
321.962	103.88
322.191	106.88
322.42	106.88
322.649	102.88
322.878	111.88
323.108	106.88
323.337	121.88
323.566	123.88
323.795	136.88
324.024	187.88
324.253	340.88
324.482	712.88
324.71	1426.88
324.939	1873.88
325.168	704.88
325.397	221.88
325.626	138.88
325.855	124.88
326.084	118.88
326.313	129.88
326.542	138.88
326.77	219.88
326.999	418.88
327.228	777.88
327.457	1432.88
327.686	1173.88
327.914	316.88
328.143	170.88
328.372	144.88
328.6	113.88
328.829	99.88
329.058	118.88
329.287	112.88
329.515	96.88
329.744	91.88
329.972	95.88
330.201	89.88
330.43	111.88
330.658	111.88
330.887	140.88
331.115	117.88
331.344	98.88
331.572	96.88
331.801	98.88
332.03	96.88
332.258	103.88
332.486	86.88
332.715	96.88
332.943	85.88
333.172	95.88
333.4	92.88
333.629	89.88
333.857	92.88
334.085	102.88
334.314	92.88
334.542	96.88
334.771	103.88
334.999	93.88
335.227	93.88
335.455	93.88
335.684	90.88
335.912	95.88
336.14	103.88
336.369	86.88
336.597	82.88
336.825	97.88
337.053	90.88
337.281	88.88
337.51	79.88
337.738	99.88
337.966	82.88
338.194	96.88
338.422	102.88
338.65	84.88
338.878	91.88
339.106	78.88
339.334	96.88
339.562	87.88
339.79	84.88
340.018	104.88
340.246	90.88
340.474	90.88
340.702	98.88
340.93	92.88
341.158	108.88
341.386	95.88
341.614	79.88
341.842	94.88
342.07	107.88
342.298	96.88
342.526	79.88
342.754	89.88
342.981	82.88
343.209	80.88
343.437	97.88
343.665	95.88
343.893	93.88
344.12	101.88
344.348	90.88
344.576	93.88
344.804	99.88
345.031	93.88
345.259	93.88
345.487	88.88
345.714	98.88
345.942	85.88
346.17	98.88
346.397	96.88
346.625	99.88
346.853	92.88
347.08	93.88
347.308	84.88
347.535	94.88
347.763	96.88
347.99	97.88
348.218	95.88
348.445	99.88
348.673	84.88
348.9	95.88
349.128	104.88
349.355	92.88
349.583	92.88
349.81	88.88
350.037	83.88
350.265	107.88
350.492	93.88
350.72	106.88
350.947	99.88
351.174	108.88
351.402	105.88
351.629	96.88
351.856	104.88
352.083	97.88
352.311	94.88
352.538	109.88
352.765	116.88
352.992	110.88
353.22	122.88
353.447	103.88
353.674	96.88
353.901	110.88
354.128	90.88
354.355	90.88
354.583	111.88
354.81	90.88
355.037	98.88
355.264	103.88
355.491	94.88
355.718	82.88
355.945	85.88
356.172	81.88
356.399	83.88
356.626	92.88
356.853	102.88
357.08	86.88
357.307	85.88
357.534	82.88
357.761	102.88
357.988	107.88
358.215	95.88
358.441	100.88
358.668	104.88
358.895	100.88
359.122	97.88
359.349	93.88
359.576	91.88
359.802	94.88
360.029	102.88
360.256	99.88
360.483	86.88
360.709	86.88
360.936	86.88
361.163	104.88
361.39	99.88
361.616	92.88
361.843	81.88
362.07	86.88
362.296	104.88
362.523	90.88
362.749	94.88
362.976	88.88
363.203	88.88
363.429	97.88
363.656	78.88
363.882	79.88
364.109	96.88
364.335	101.88
364.562	82.88
364.788	78.88
365.015	81.88
365.241	98.88
365.468	101.88
365.694	92.88
365.92	104.88
366.147	103.88
366.373	99.88
366.599	93.88
366.826	100.88
367.052	95.88
367.278	79.88
367.505	83.88
367.731	79.88
367.957	88.88
368.184	95.88
368.41	108.88
368.636	100.88
368.862	119.88
369.089	107.88
369.315	88.88
369.541	93.88
369.767	96.88
369.993	75.88
370.219	86.88
370.445	89.88
370.672	90.88
370.898	80.88
371.124	90.88
371.35	90.88
371.576	79.88
371.802	90.88
372.028	85.88
372.254	88.88
372.48	89.88
372.706	98.88
372.932	99.88
373.158	99.88
373.384	90.88
373.61	75.88
373.835	92.88
374.061	100.88
374.287	101.88
374.513	88.88
374.739	89.88
374.965	82.88
375.191	80.88
375.416	84.88
375.642	95.88
375.868	79.88
376.094	102.88
376.319	88.88
376.545	91.88
376.771	84.88
376.997	103.88
377.222	95.88
377.448	82.88
377.674	106.88
377.899	108.88
378.125	88.88
378.35	95.88
378.576	91.88
378.802	81.88
379.027	91.88
379.253	98.88
379.478	100.88
379.704	71.88
379.929	102.88
380.155	106.88
380.38	88.88
380.606	92.88
380.831	90.88
381.057	89.88
381.282	92.88
381.507	87.88
381.733	88.88
381.958	101.88
382.184	100.88
382.409	88.88
382.634	113.88
382.86	82.88
383.085	93.88
383.31	101.88
383.535	109.88
383.761	92.88
383.986	104.88
384.211	113.88
384.436	98.88
384.662	97.88
384.887	92.88
385.112	90.88
385.337	92.88
385.562	96.88
385.787	103.88
386.013	107.88
386.238	106.88
386.463	103.88
386.688	105.88
386.913	105.88
387.138	102.88
387.363	99.88
387.588	108.88
387.813	96.88
388.038	102.88
388.263	107.88
388.488	99.88
388.713	80.88
388.938	91.88
389.163	97.88
389.387	95.88
389.612	96.88
389.837	96.88
390.062	90.88
390.287	114.88
390.512	103.88
390.736	98.88
390.961	95.88
391.186	105.88
391.411	115.88
391.636	102.88
391.86	82.88
392.085	64.88
392.31	94.88
392.534	89.88
392.759	99.88
392.984	89.88
393.208	68.88
393.433	90.88
393.658	75.88
393.882	86.88
394.107	86.88
394.331	85.88
394.556	86.88
394.78	81.88
395.005	87.88
395.229	90.88
395.454	91.88
395.678	88.88
395.903	74.88
396.127	94.88
396.352	97.88
396.576	95.88
396.801	82.88
397.025	98.88
397.249	94.88
397.474	89.88
397.698	99.88
397.922	78.88
398.147	88.88
398.371	81.88
398.595	83.88
398.82	89.88
399.044	79.88
399.268	102.88
399.492	88.88
399.717	98.88
399.941	98.88
400.165	84.88
400.389	99.88
400.613	101.88
400.837	72.88
401.062	92.88
401.286	95.88
401.51	82.88
401.734	103.88
401.958	89.88
402.182	125.88
402.406	135.88
402.63	109.88
402.854	82.88
403.078	80.88
403.302	92.88
403.526	97.88
403.75	102.88
403.974	85.88
404.198	84.88
404.422	94.88
404.645	98.88
404.869	78.88
405.093	101.88
405.317	90.88
405.541	84.88
405.765	102.88
405.988	105.88
406.212	148.88
406.436	199.88
406.66	121.88
406.883	87.88
407.107	98.88
407.331	82.88
407.555	91.88
407.778	106.88
408.002	101.88
408.226	101.88
408.449	102.88
408.673	97.88
408.896	92.88
409.12	89.88
409.344	92.88
409.567	87.88
409.791	84.88
410.014	92.88
410.238	98.88
410.461	95.88
410.685	84.88
410.908	98.88
411.132	103.88
411.355	103.88
411.578	93.88
411.802	89.88
412.025	94.88
412.249	92.88
412.472	92.88
412.695	97.88
412.919	98.88
413.142	93.88
413.365	94.88
413.589	87.88
413.812	87.88
414.035	98.88
414.258	94.88
414.482	86.88
414.705	99.88
414.928	100.88
415.151	109.88
415.374	98.88
415.597	94.88
415.821	98.88
416.044	80.88
416.267	74.88
416.49	78.88
416.713	80.88
416.936	90.88
417.159	88.88
417.382	73.88
417.605	78.88
417.828	100.88
418.051	97.88
418.274	92.88
418.497	93.88
418.72	84.88
418.943	91.88
419.166	104.88
419.389	91.88
419.611	94.88
419.834	86.88
420.057	83.88
420.28	82.88
420.503	72.88
420.726	92.88
420.948	90.88
421.171	88.88
421.394	81.88
421.617	81.88
421.839	88.88
422.062	98.88
422.285	92.88
422.507	85.88
422.73	91.88
422.953	94.88
423.175	71.88
423.398	82.88
423.621	95.88
423.843	83.88
424.066	92.88
424.288	98.88
424.511	89.88
424.733	88.88
424.956	100.88
425.178	88.88
425.401	106.88
425.623	102.88
425.846	106.88
426.068	92.88
426.291	88.88
426.513	95.88
426.735	92.88
426.958	98.88
427.18	86.88
427.402	135.88
427.625	151.88
427.847	122.88
428.069	101.88
428.292	100.88
428.514	70.88
428.736	88.88
428.958	86.88
429.181	67.88
429.403	92.88
429.625	96.88
429.847	94.88
430.069	88.88
430.292	103.88
430.514	87.88
430.736	74.88
430.958	96.88
431.18	89.88
431.402	91.88
431.624	90.88
431.846	91.88
432.068	79.88
432.29	88.88
432.512	84.88
432.734	78.88
432.956	93.88
433.178	104.88
433.4	102.88
433.622	96.88
433.844	80.88
434.066	87.88
434.287	82.88
434.509	80.88
434.731	92.88
434.953	98.88
435.175	94.88
435.397	85.88
435.618	86.88
435.84	91.88
436.062	99.88
436.284	105.88
436.505	99.88
436.727	91.88
436.949	89.88
437.17	86.88
437.392	94.88
437.614	89.88
437.835	101.88
438.057	95.88
438.278	90.88
438.5	111.88
438.721	122.88
438.943	110.88
439.165	96.88
439.386	89.88
439.608	81.88
439.829	98.88
440.05	104.88
440.272	125.88
440.493	102.88
440.715	90.88
440.936	97.88
441.158	75.88
441.379	80.88
441.6	103.88
441.822	86.88
442.043	93.88
442.264	89.88
442.486	91.88
442.707	99.88
442.928	88.88
443.149	120.88
443.371	127.88
443.592	107.88
443.813	105.88
444.034	102.88
444.255	98.88
444.476	91.88
444.698	92.88
444.919	98.88
445.14	126.88
445.361	123.88
445.582	107.88
445.803	125.88
446.024	123.88
446.245	133.88
446.466	104.88
446.687	103.88
446.908	93.88
447.129	91.88
447.35	76.88
447.571	93.88
447.792	94.88
448.013	100.88
448.234	98.88
448.455	99.88
448.675	99.88
448.896	123.88
449.117	100.88
449.338	100.88
449.559	118.88
449.779	134.88
450	91.88
450.221	106.88
450.442	83.88
450.662	98.88
450.883	92.88
451.104	110.88
451.324	83.88
451.545	97.88
451.766	99.88
451.986	91.88
452.207	88.88
452.428	89.88
452.648	86.88
452.869	110.88
453.089	101.88
453.31	106.88
453.53	86.88
453.751	78.88
453.971	96.88
454.192	95.88
454.412	88.88
454.633	84.88
454.853	90.88
455.073	88.88
455.294	78.88
455.514	98.88
455.734	90.88
455.955	95.88
456.175	78.88
456.395	95.88
456.616	90.88
456.836	93.88
457.056	91.88
457.276	84.88
457.497	84.88
457.717	81.88
457.937	84.88
458.157	92.88
458.377	88.88
458.598	99.88
458.818	128.88
459.038	154.88
459.258	110.88
459.478	86.88
459.698	90.88
459.918	70.88
460.138	91.88
460.358	89.88
460.578	98.88
460.798	88.88
461.018	88.88
461.238	79.88
461.458	75.88
461.678	88.88
461.898	98.88
462.118	86.88
462.338	87.88
462.558	94.88
462.777	94.88
462.997	83.88
463.217	89.88
463.437	74.88
463.657	91.88
463.876	91.88
464.096	94.88
464.316	86.88
464.536	86.88
464.755	79.88
464.975	91.88
465.195	140.88
465.414	136.88
465.634	98.88
465.854	90.88
466.073	94.88
466.293	86.88
466.512	88.88
466.732	87.88
466.951	80.88
467.171	99.88
467.391	86.88
467.61	78.88
467.829	76.88
468.049	85.88
468.268	94.88
468.488	92.88
468.707	68.88
468.927	82.88
469.146	77.88
469.365	75.88
469.585	90.88
469.804	93.88
470.023	91.88
470.243	107.88
470.462	94.88
470.681	92.88
470.901	90.88
471.12	83.88
471.339	75.88
471.558	86.88
471.777	90.88
471.997	89.88
472.216	84.88
472.435	97.88
472.654	89.88
472.873	87.88
473.092	82.88
473.311	86.88
473.53	70.88
473.749	80.88
473.968	94.88
474.187	105.88
474.406	90.88
474.625	86.88
474.844	92.88
475.063	83.88
475.282	82.88
475.501	90.88
475.72	94.88
475.939	84.88
476.158	87.88
476.377	116.88
476.596	85.88
476.814	96.88
477.033	88.88
477.252	80.88
477.471	87.88
477.69	94.88
477.908	93.88
478.127	94.88
478.346	87.88
478.564	95.88
478.783	99.88
479.002	82.88
479.22	92.88
479.439	98.88
479.658	92.88
479.876	92.88
480.095	98.88
480.313	92.88
480.532	88.88
480.751	76.88
480.969	98.88
481.188	104.88
481.406	105.88
481.624	89.88
481.843	83.88
482.061	89.88
482.28	83.88
482.498	86.88
482.717	98.88
482.935	86.88
483.153	88.88
483.372	100.88
483.59	107.88
483.808	75.88
484.027	89.88
484.245	82.88
484.463	91.88
484.681	85.88
484.9	92.88
485.118	97.88
485.336	87.88
485.554	101.88
485.772	99.88
485.99	105.88
486.209	99.88
486.427	101.88
486.645	98.88
486.863	106.88
487.081	108.88
487.299	106.88
487.517	100.88
487.735	102.88
487.953	87.88
488.171	88.88
488.389	106.88
488.607	91.88
488.825	98.88
489.043	103.88
489.261	107.88
489.479	101.88
489.696	88.88
489.914	91.88
490.132	92.88
490.35	99.88
490.568	75.88
490.786	96.88
491.003	81.88
491.221	104.88
491.439	90.88
491.657	94.88
491.874	82.88
492.092	87.88
492.31	94.88
492.527	81.88
492.745	93.88
492.963	91.88
493.18	90.88
493.398	89.88
493.615	114.88
493.833	100.88
494.05	87.88
494.268	100.88
494.485	99.88
494.703	95.88
494.92	88.88
495.138	96.88
495.355	98.88
495.573	92.88
495.79	85.88
496.008	100.88
496.225	92.88
496.442	88.88
496.66	62.88
496.877	80.88
497.094	82.88
497.312	85.88
497.529	84.88
497.746	94.88
497.963	91.88
498.181	93.88
498.398	87.88
498.615	110.88
498.832	106.88
499.049	92.88
499.267	90.88
499.484	93.88
499.701	83.88
499.918	98.88
500.135	93.88
500.352	103.88
500.569	89.88
500.786	94.88
501.003	80.88
501.22	92.88
501.437	102.88
501.654	76.88
501.871	100.88
502.088	99.88
502.305	94.88
502.522	86.88
502.739	92.88
502.956	92.88
503.172	79.88
503.389	95.88
503.606	112.88
503.823	103.88
504.04	95.88
504.256	90.88
504.473	96.88
504.69	94.88
504.907	105.88
505.123	93.88
505.34	75.88
505.557	79.88
505.773	78.88
505.99	88.88
506.207	70.88
506.423	89.88
506.64	84.88
506.856	72.88
507.073	89.88
507.289	102.88
507.506	94.88
507.722	105.88
507.939	94.88
508.155	97.88
508.372	98.88
508.588	97.88
508.805	108.88
509.021	112.88
509.238	100.88
509.454	89.88
509.67	97.88
509.887	98.88
510.103	113.88
510.319	198.88
510.536	648.88
510.752	1998.88
510.968	542.88
511.184	142.88
511.401	108.88
511.617	88.88
511.833	92.88
512.049	97.88
512.265	90.88
512.481	91.88
512.698	94.88
512.914	84.88
513.13	101.88
513.346	94.88
513.562	96.88
513.778	91.88
513.994	101.88
514.21	102.88
514.426	120.88
514.642	119.88
514.858	119.88
515.074	137.88
515.29	372.88
515.506	1193.88
515.721	442.88
515.937	158.88
516.153	111.88
