Data from Uncirc_1986_H10_HRD10591_00055.txt Node
Date: Wed Jan 03 12:14:37 EST 2024
User: Yrep
Spectrometer: HR+D1059
Trigger mode: 1
Integration Time (sec): 1.000000E-1
Scans to average: 1
Electric dark correction enabled: true
Nonlinearity correction enabled: false
Boxcar width: 0
XAxis mode: Wavelengths
Number of Pixels in Spectrum: 2048
>>>>>Begin Spectral Data<<<<<
223.165	-21.88
223.4	-21.88
223.635	-21.88
223.869	-11.88
224.104	-27.88
224.338	-13.88
224.573	-6.88
224.808	-23.88
225.042	-7.88
225.277	-10.88
225.511	7.12
225.746	7.12
225.98	21.12
226.215	13.12
226.449	16.12
226.683	29.12
226.918	9.12
227.152	22.12
227.387	30.12
227.621	41.12
227.856	46.12
228.09	50.12
228.324	51.12
228.559	45.12
228.793	68.12
229.027	56.12
229.262	63.12
229.496	71.12
229.73	88.12
229.964	66.12
230.199	87.12
230.433	64.12
230.667	66.12
230.901	52.12
231.136	72.12
231.37	88.12
231.604	84.12
231.838	77.12
232.072	88.12
232.306	83.12
232.541	76.12
232.775	90.12
233.009	90.12
233.243	83.12
233.477	80.12
233.711	76.12
233.945	77.12
234.179	77.12
234.413	71.12
234.647	64.12
234.881	88.12
235.115	78.12
235.349	80.12
235.583	86.12
235.817	72.12
236.051	70.12
236.285	87.12
236.519	80.12
236.753	80.12
236.987	81.12
237.221	83.12
237.455	82.12
237.689	84.12
237.922	78.12
238.156	89.12
238.39	72.12
238.624	76.12
238.858	84.12
239.091	64.12
239.325	78.12
239.559	70.12
239.793	64.12
240.027	80.12
240.26	78.12
240.494	84.12
240.728	78.12
240.961	68.12
241.195	80.12
241.429	73.12
241.662	80.12
241.896	84.12
242.13	84.12
242.363	73.12
242.597	83.12
242.83	85.12
243.064	69.12
243.298	66.12
243.531	74.12
243.765	98.12
243.998	71.12
244.232	90.12
244.465	78.12
244.699	71.12
244.932	86.12
245.166	83.12
245.399	72.12
245.633	74.12
245.866	85.12
246.099	78.12
246.333	77.12
246.566	75.12
246.8	66.12
247.033	78.12
247.266	85.12
247.5	77.12
247.733	84.12
247.966	80.12
248.2	82.12
248.433	77.12
248.666	84.12
248.899	91.12
249.133	85.12
249.366	94.12
249.599	77.12
249.832	87.12
250.066	88.12
250.299	83.12
250.532	80.12
250.765	87.12
250.998	87.12
251.231	82.12
251.465	66.12
251.698	81.12
251.931	78.12
252.164	79.12
252.397	84.12
252.63	69.12
252.863	64.12
253.096	85.12
253.329	92.12
253.562	70.12
253.795	76.12
254.028	75.12
254.261	84.12
254.494	82.12
254.727	87.12
254.96	77.12
255.193	90.12
255.426	87.12
255.659	83.12
255.892	93.12
256.124	87.12
256.357	80.12
256.59	80.12
256.823	76.12
257.056	81.12
257.289	78.12
257.521	74.12
257.754	72.12
257.987	72.12
258.22	85.12
258.452	85.12
258.685	82.12
258.918	78.12
259.151	80.12
259.383	91.12
259.616	66.12
259.849	76.12
260.081	73.12
260.314	77.12
260.547	84.12
260.779	76.12
261.012	81.12
261.244	92.12
261.477	84.12
261.71	82.12
261.942	124.12
262.175	132.12
262.407	96.12
262.64	82.12
262.872	77.12
263.105	80.12
263.337	91.12
263.57	77.12
263.802	81.12
264.035	77.12
264.267	78.12
264.499	86.12
264.732	96.12
264.964	73.12
265.197	76.12
265.429	82.12
265.661	95.12
265.894	77.12
266.126	86.12
266.358	73.12
266.591	88.12
266.823	89.12
267.055	86.12
267.287	77.12
267.52	87.12
267.752	90.12
267.984	85.12
268.216	71.12
268.448	84.12
268.681	89.12
268.913	84.12
269.145	89.12
269.377	79.12
269.609	80.12
269.841	85.12
270.073	63.12
270.306	72.12
270.538	84.12
270.77	80.12
271.002	66.12
271.234	80.12
271.466	67.12
271.698	74.12
271.93	98.12
272.162	65.12
272.394	82.12
272.626	92.12
272.858	99.12
273.09	79.12
273.322	78.12
273.553	87.12
273.785	87.12
274.017	78.12
274.249	73.12
274.481	80.12
274.713	80.12
274.945	85.12
275.176	81.12
275.408	93.12
275.64	78.12
275.872	70.12
276.104	88.12
276.335	74.12
276.567	87.12
276.799	96.12
277.031	106.12
277.262	82.12
277.494	93.12
277.726	88.12
277.957	86.12
278.189	95.12
278.421	84.12
278.652	77.12
278.884	77.12
279.115	85.12
279.347	78.12
279.579	81.12
279.81	83.12
280.042	87.12
280.273	87.12
280.505	77.12
280.736	76.12
280.968	66.12
281.199	78.12
281.431	80.12
281.662	85.12
281.894	102.12
282.125	98.12
282.356	113.12
282.588	145.12
282.819	114.12
283.051	98.12
283.282	72.12
283.513	87.12
283.745	97.12
283.976	85.12
284.207	80.12
284.439	92.12
284.67	101.12
284.901	83.12
285.132	94.12
285.364	91.12
285.595	87.12
285.826	96.12
286.057	106.12
286.288	68.12
286.52	81.12
286.751	75.12
286.982	92.12
287.213	91.12
287.444	92.12
287.675	84.12
287.906	86.12
288.138	83.12
288.369	86.12
288.6	106.12
288.831	81.12
289.062	97.12
289.293	82.12
289.524	90.12
289.755	93.12
289.986	84.12
290.217	91.12
290.448	72.12
290.679	94.12
290.91	76.12
291.141	72.12
291.371	99.12
291.602	90.12
291.833	81.12
292.064	88.12
292.295	89.12
292.526	79.12
292.757	92.12
292.987	80.12
293.218	87.12
293.449	88.12
293.68	92.12
293.91	96.12
294.141	93.12
294.372	85.12
294.603	68.12
294.833	76.12
295.064	79.12
295.295	73.12
295.525	89.12
295.756	104.12
295.987	100.12
296.217	134.12
296.448	117.12
296.679	105.12
296.909	81.12
297.14	91.12
297.37	100.12
297.601	89.12
297.831	97.12
298.062	90.12
298.292	76.12
298.523	84.12
298.753	85.12
298.984	82.12
299.214	76.12
299.445	82.12
299.675	95.12
299.905	93.12
300.136	96.12
300.366	91.12
300.597	92.12
300.827	90.12
301.057	99.12
301.288	105.12
301.518	80.12
301.748	71.12
301.979	84.12
302.209	85.12
302.439	70.12
302.669	84.12
302.9	88.12
303.13	90.12
303.36	106.12
303.59	107.12
303.82	102.12
304.051	84.12
304.281	85.12
304.511	86.12
304.741	94.12
304.971	90.12
305.201	81.12
305.431	89.12
305.661	84.12
305.891	79.12
306.121	87.12
306.352	100.12
306.582	89.12
306.812	89.12
307.042	102.12
307.272	90.12
307.502	98.12
307.731	80.12
307.961	97.12
308.191	93.12
308.421	76.12
308.651	85.12
308.881	104.12
309.111	72.12
309.341	105.12
309.571	100.12
309.8	92.12
310.03	86.12
310.26	106.12
310.49	94.12
310.72	96.12
310.949	92.12
311.179	93.12
311.409	96.12
311.639	104.12
311.868	89.12
312.098	85.12
312.328	86.12
312.557	101.12
312.787	97.12
313.017	89.12
313.246	79.12
313.476	95.12
313.706	91.12
313.935	110.12
314.165	105.12
314.394	94.12
314.624	92.12
314.853	97.12
315.083	85.12
315.312	102.12
315.542	95.12
315.771	89.12
316.001	89.12
316.23	88.12
316.46	81.12
316.689	86.12
316.919	92.12
317.148	81.12
317.377	114.12
317.607	93.12
317.836	89.12
318.065	86.12
318.295	88.12
318.524	87.12
318.753	97.12
318.983	93.12
319.212	97.12
319.441	105.12
319.67	102.12
319.9	92.12
320.129	97.12
320.358	95.12
320.587	79.12
320.816	96.12
321.046	95.12
321.275	111.12
321.504	102.12
321.733	92.12
321.962	96.12
322.191	101.12
322.42	84.12
322.649	111.12
322.878	115.12
323.108	129.12
323.337	134.12
323.566	132.12
323.795	149.12
324.024	201.12
324.253	396.12
324.482	806.12
324.71	1738.12
324.939	2306.12
325.168	844.12
325.397	252.12
325.626	157.12
325.855	143.12
326.084	117.12
326.313	146.12
326.542	137.12
326.77	224.12
326.999	456.12
327.228	984.12
327.457	1818.12
327.686	1421.12
327.914	367.12
328.143	194.12
328.372	147.12
328.6	132.12
328.829	114.12
329.058	137.12
329.287	120.12
329.515	115.12
329.744	96.12
329.972	110.12
330.201	109.12
330.43	107.12
330.658	119.12
330.887	135.12
331.115	121.12
331.344	89.12
331.572	104.12
331.801	101.12
332.03	114.12
332.258	99.12
332.486	85.12
332.715	110.12
332.943	97.12
333.172	94.12
333.4	96.12
333.629	97.12
333.857	114.12
334.085	106.12
334.314	113.12
334.542	92.12
334.771	112.12
334.999	88.12
335.227	100.12
335.455	106.12
335.684	101.12
335.912	111.12
336.14	94.12
336.369	106.12
336.597	96.12
336.825	100.12
337.053	83.12
337.281	81.12
337.51	103.12
337.738	97.12
337.966	95.12
338.194	109.12
338.422	100.12
338.65	84.12
338.878	92.12
339.106	80.12
339.334	103.12
339.562	84.12
339.79	95.12
340.018	86.12
340.246	92.12
340.474	93.12
340.702	106.12
340.93	89.12
341.158	89.12
341.386	96.12
341.614	92.12
341.842	101.12
342.07	103.12
342.298	99.12
342.526	90.12
342.754	78.12
342.981	80.12
343.209	89.12
343.437	93.12
343.665	100.12
343.893	84.12
344.12	100.12
344.348	86.12
344.576	88.12
344.804	97.12
345.031	83.12
345.259	97.12
345.487	94.12
345.714	101.12
345.942	86.12
346.17	103.12
346.397	98.12
346.625	106.12
346.853	86.12
347.08	85.12
347.308	94.12
347.535	98.12
347.763	101.12
347.99	81.12
348.218	95.12
348.445	105.12
348.673	114.12
348.9	96.12
349.128	88.12
349.355	81.12
349.583	105.12
349.81	96.12
350.037	81.12
350.265	86.12
350.492	108.12
350.72	96.12
350.947	96.12
351.174	104.12
351.402	111.12
351.629	94.12
351.856	87.12
352.083	105.12
352.311	113.12
352.538	96.12
352.765	98.12
352.992	94.12
353.22	120.12
353.447	100.12
353.674	100.12
353.901	80.12
354.128	94.12
354.355	87.12
354.583	96.12
354.81	87.12
355.037	96.12
355.264	96.12
355.491	87.12
355.718	85.12
355.945	82.12
356.172	103.12
356.399	94.12
356.626	93.12
356.853	93.12
357.08	79.12
357.307	89.12
357.534	105.12
357.761	82.12
357.988	94.12
358.215	74.12
358.441	80.12
358.668	84.12
358.895	76.12
359.122	81.12
359.349	88.12
359.576	108.12
359.802	98.12
360.029	114.12
360.256	106.12
360.483	98.12
360.709	87.12
360.936	99.12
361.163	88.12
361.39	84.12
361.616	97.12
361.843	98.12
362.07	84.12
362.296	99.12
362.523	109.12
362.749	71.12
362.976	83.12
363.203	102.12
363.429	96.12
363.656	85.12
363.882	92.12
364.109	109.12
364.335	95.12
364.562	92.12
364.788	86.12
365.015	86.12
365.241	89.12
365.468	104.12
365.694	121.12
365.92	89.12
366.147	96.12
366.373	93.12
366.599	98.12
366.826	77.12
367.052	86.12
367.278	92.12
367.505	98.12
367.731	92.12
367.957	94.12
368.184	92.12
368.41	112.12
368.636	101.12
368.862	103.12
369.089	97.12
369.315	88.12
369.541	92.12
369.767	96.12
369.993	97.12
370.219	96.12
370.445	82.12
370.672	76.12
370.898	86.12
371.124	92.12
371.35	82.12
371.576	89.12
371.802	88.12
372.028	88.12
372.254	89.12
372.48	80.12
372.706	102.12
372.932	80.12
373.158	94.12
373.384	73.12
373.61	80.12
373.835	81.12
374.061	95.12
374.287	98.12
374.513	103.12
374.739	84.12
374.965	85.12
375.191	78.12
375.416	86.12
375.642	87.12
375.868	79.12
376.094	85.12
376.319	92.12
376.545	95.12
376.771	97.12
376.997	89.12
377.222	101.12
377.448	91.12
377.674	91.12
377.899	87.12
378.125	91.12
378.35	64.12
378.576	90.12
378.802	90.12
379.027	89.12
379.253	82.12
379.478	83.12
379.704	93.12
379.929	75.12
380.155	90.12
380.38	93.12
380.606	90.12
380.831	74.12
381.057	97.12
381.282	94.12
381.507	89.12
381.733	98.12
381.958	95.12
382.184	82.12
382.409	101.12
382.634	96.12
382.86	91.12
383.085	102.12
383.31	82.12
383.535	100.12
383.761	90.12
383.986	90.12
384.211	94.12
384.436	85.12
384.662	107.12
384.887	95.12
385.112	96.12
385.337	102.12
385.562	102.12
385.787	99.12
386.013	114.12
386.238	106.12
386.463	108.12
386.688	100.12
386.913	90.12
387.138	100.12
387.363	99.12
387.588	96.12
387.813	106.12
388.038	104.12
388.263	102.12
388.488	90.12
388.713	92.12
388.938	97.12
389.163	99.12
389.387	97.12
389.612	93.12
389.837	109.12
390.062	92.12
390.287	102.12
390.512	83.12
390.736	80.12
390.961	74.12
391.186	100.12
391.411	111.12
391.636	100.12
391.86	96.12
392.085	72.12
392.31	72.12
392.534	86.12
392.759	82.12
392.984	88.12
393.208	88.12
393.433	90.12
393.658	85.12
393.882	93.12
394.107	94.12
394.331	88.12
394.556	97.12
394.78	86.12
395.005	88.12
395.229	96.12
395.454	85.12
395.678	81.12
395.903	87.12
396.127	94.12
396.352	108.12
396.576	86.12
396.801	85.12
397.025	83.12
397.249	88.12
397.474	95.12
397.698	82.12
397.922	86.12
398.147	92.12
398.371	92.12
398.595	100.12
398.82	87.12
399.044	84.12
399.268	90.12
399.492	98.12
399.717	89.12
399.941	105.12
400.165	84.12
400.389	94.12
400.613	101.12
400.837	82.12
401.062	90.12
401.286	81.12
401.51	98.12
401.734	85.12
401.958	110.12
402.182	121.12
402.406	156.12
402.63	106.12
402.854	93.12
403.078	96.12
403.302	90.12
403.526	94.12
403.75	105.12
403.974	102.12
404.198	94.12
404.422	89.12
404.645	91.12
404.869	81.12
405.093	92.12
405.317	112.12
405.541	83.12
405.765	95.12
405.988	113.12
406.212	162.12
406.436	216.12
406.66	145.12
406.883	94.12
407.107	103.12
407.331	102.12
407.555	95.12
407.778	86.12
408.002	87.12
408.226	87.12
408.449	104.12
408.673	104.12
408.896	94.12
409.12	105.12
409.344	89.12
409.567	87.12
409.791	99.12
410.014	102.12
410.238	98.12
410.461	84.12
410.685	94.12
410.908	104.12
411.132	108.12
411.355	109.12
411.578	88.12
411.802	100.12
412.025	85.12
412.249	91.12
412.472	91.12
412.695	109.12
412.919	113.12
413.142	103.12
413.365	90.12
413.589	90.12
413.812	93.12
414.035	88.12
414.258	102.12
414.482	79.12
414.705	97.12
414.928	83.12
415.151	84.12
415.374	93.12
415.597	92.12
415.821	98.12
416.044	97.12
416.267	88.12
416.49	94.12
416.713	87.12
416.936	86.12
417.159	82.12
417.382	91.12
417.605	80.12
417.828	92.12
418.051	89.12
418.274	82.12
418.497	81.12
418.72	92.12
418.943	87.12
419.166	90.12
419.389	106.12
419.611	103.12
419.834	93.12
420.057	81.12
420.28	92.12
420.503	85.12
420.726	78.12
420.948	100.12
421.171	93.12
421.394	98.12
421.617	91.12
421.839	95.12
422.062	96.12
422.285	92.12
422.507	98.12
422.73	94.12
422.953	86.12
423.175	74.12
423.398	95.12
423.621	104.12
423.843	98.12
424.066	85.12
424.288	103.12
424.511	84.12
424.733	109.12
424.956	102.12
425.178	111.12
425.401	97.12
425.623	98.12
425.846	88.12
426.068	85.12
426.291	85.12
426.513	114.12
426.735	92.12
426.958	84.12
427.18	106.12
427.402	126.12
427.625	169.12
427.847	125.12
428.069	110.12
428.292	79.12
428.514	95.12
428.736	95.12
428.958	81.12
429.181	96.12
429.403	83.12
429.625	80.12
429.847	100.12
430.069	105.12
430.292	105.12
430.514	87.12
430.736	86.12
430.958	82.12
431.18	97.12
431.402	92.12
431.624	82.12
431.846	80.12
432.068	76.12
432.29	92.12
432.512	83.12
432.734	80.12
432.956	104.12
433.178	95.12
433.4	98.12
433.622	97.12
433.844	88.12
434.066	71.12
434.287	88.12
434.509	92.12
434.731	77.12
434.953	85.12
435.175	96.12
435.397	92.12
435.618	106.12
435.84	118.12
436.062	142.12
436.284	109.12
436.505	106.12
436.727	95.12
436.949	82.12
437.17	82.12
437.392	93.12
437.614	83.12
437.835	106.12
438.057	126.12
438.278	110.12
438.5	118.12
438.721	133.12
438.943	105.12
439.165	103.12
439.386	87.12
439.608	95.12
439.829	92.12
440.05	124.12
440.272	140.12
440.493	93.12
440.715	80.12
440.936	98.12
441.158	83.12
441.379	96.12
441.6	84.12
441.822	94.12
442.043	94.12
442.264	99.12
442.486	105.12
442.707	101.12
442.928	112.12
443.149	138.12
443.371	122.12
443.592	111.12
443.813	105.12
444.034	118.12
444.255	102.12
444.476	91.12
444.698	84.12
444.919	96.12
445.14	144.12
445.361	119.12
445.582	119.12
445.803	153.12
446.024	136.12
446.245	137.12
446.466	115.12
446.687	81.12
446.908	95.12
447.129	96.12
447.35	74.12
447.571	86.12
447.792	89.12
448.013	106.12
448.234	106.12
448.455	106.12
448.675	116.12
448.896	133.12
449.117	103.12
449.338	77.12
449.559	120.12
449.779	145.12
450	92.12
450.221	87.12
450.442	86.12
450.662	107.12
450.883	99.12
451.104	116.12
451.324	88.12
451.545	86.12
451.766	82.12
451.986	92.12
452.207	98.12
452.428	100.12
452.648	88.12
452.869	101.12
453.089	114.12
453.31	111.12
453.53	95.12
453.751	82.12
453.971	96.12
454.192	106.12
454.412	92.12
454.633	91.12
454.853	79.12
455.073	72.12
455.294	75.12
455.514	93.12
455.734	104.12
455.955	111.12
456.175	88.12
456.395	76.12
456.616	80.12
456.836	84.12
457.056	81.12
457.276	72.12
457.497	71.12
457.717	86.12
457.937	94.12
458.157	82.12
458.377	88.12
458.598	114.12
458.818	139.12
459.038	144.12
459.258	127.12
459.478	86.12
459.698	87.12
459.918	101.12
460.138	90.12
460.358	87.12
460.578	72.12
460.798	103.12
461.018	87.12
461.238	98.12
461.458	90.12
461.678	83.12
461.898	90.12
462.118	98.12
462.338	95.12
462.558	92.12
462.777	90.12
462.997	81.12
463.217	89.12
463.437	93.12
463.657	82.12
463.876	80.12
464.096	81.12
464.316	88.12
464.536	90.12
464.755	103.12
464.975	97.12
465.195	165.12
465.414	150.12
465.634	82.12
465.854	87.12
466.073	90.12
466.293	96.12
466.512	98.12
466.732	79.12
466.951	74.12
467.171	93.12
467.391	90.12
467.61	89.12
467.829	102.12
468.049	98.12
468.268	87.12
468.488	92.12
468.707	61.12
468.927	76.12
469.146	84.12
469.365	101.12
469.585	96.12
469.804	89.12
470.023	97.12
470.243	93.12
470.462	96.12
470.681	110.12
470.901	88.12
471.12	86.12
471.339	95.12
471.558	82.12
471.777	102.12
471.997	89.12
472.216	100.12
472.435	114.12
472.654	82.12
472.873	92.12
473.092	93.12
473.311	90.12
473.53	87.12
473.749	94.12
473.968	98.12
474.187	97.12
474.406	96.12
474.625	85.12
474.844	88.12
475.063	78.12
475.282	77.12
475.501	85.12
475.72	98.12
475.939	86.12
476.158	87.12
476.377	97.12
476.596	89.12
476.814	96.12
477.033	92.12
477.252	85.12
477.471	96.12
477.69	98.12
477.908	79.12
478.127	86.12
478.346	80.12
478.564	94.12
478.783	93.12
479.002	98.12
479.22	76.12
479.439	115.12
479.658	104.12
479.876	74.12
480.095	86.12
480.313	97.12
480.532	88.12
480.751	98.12
480.969	96.12
481.188	109.12
481.406	112.12
481.624	96.12
481.843	93.12
482.061	86.12
482.28	94.12
482.498	85.12
482.717	85.12
482.935	81.12
483.153	65.12
483.372	77.12
483.59	88.12
483.808	95.12
484.027	89.12
484.245	68.12
484.463	91.12
484.681	92.12
484.9	85.12
485.118	101.12
485.336	107.12
485.554	101.12
485.772	101.12
485.99	100.12
486.209	94.12
486.427	109.12
486.645	116.12
486.863	108.12
487.081	95.12
487.299	93.12
487.517	92.12
487.735	93.12
487.953	92.12
488.171	83.12
488.389	96.12
488.607	96.12
488.825	89.12
489.043	93.12
489.261	101.12
489.479	73.12
489.696	88.12
489.914	75.12
490.132	74.12
490.35	84.12
490.568	78.12
490.786	80.12
491.003	94.12
491.221	68.12
491.439	89.12
491.657	96.12
491.874	94.12
492.092	78.12
492.31	96.12
492.527	81.12
492.745	83.12
492.963	102.12
493.18	88.12
493.398	112.12
493.615	90.12
493.833	93.12
494.05	90.12
494.268	93.12
494.485	88.12
494.703	89.12
494.92	88.12
495.138	95.12
495.355	97.12
495.573	98.12
495.79	100.12
496.008	93.12
496.225	101.12
496.442	88.12
496.66	94.12
496.877	88.12
497.094	86.12
497.312	89.12
497.529	80.12
497.746	81.12
497.963	79.12
498.181	88.12
498.398	87.12
498.615	113.12
498.832	107.12
499.049	82.12
499.267	90.12
499.484	93.12
499.701	90.12
499.918	85.12
500.135	88.12
500.352	103.12
500.569	100.12
500.786	82.12
501.003	98.12
501.22	99.12
501.437	89.12
501.654	101.12
501.871	104.12
502.088	79.12
502.305	95.12
502.522	88.12
502.739	84.12
502.956	102.12
503.172	94.12
503.389	91.12
503.606	105.12
503.823	95.12
504.04	84.12
504.256	92.12
504.473	93.12
504.69	85.12
504.907	86.12
505.123	99.12
505.34	72.12
505.557	93.12
505.773	113.12
505.99	97.12
506.207	97.12
506.423	98.12
506.64	79.12
506.856	89.12
507.073	98.12
507.289	92.12
507.506	99.12
507.722	106.12
507.939	111.12
508.155	105.12
508.372	93.12
508.588	87.12
508.805	97.12
509.021	92.12
509.238	81.12
509.454	96.12
509.67	98.12
509.887	110.12
510.103	130.12
510.319	215.12
510.536	746.12
510.752	2359.12
510.968	629.12
511.184	135.12
511.401	104.12
511.617	95.12
511.833	94.12
512.049	101.12
512.265	102.12
512.481	104.12
512.698	73.12
512.914	89.12
513.13	88.12
513.346	98.12
513.562	81.12
513.778	94.12
513.994	100.12
514.21	84.12
514.426	101.12
514.642	125.12
514.858	122.12
515.074	168.12
515.29	441.12
515.506	1468.12
515.721	506.12
