Data from Uncirc_1986_H10_HRD10591_00066.txt Node
Date: Wed Jan 03 12:14:39 EST 2024
User: Yrep
Spectrometer: HR+D1059
Trigger mode: 1
Integration Time (sec): 1.000000E-1
Scans to average: 1
Electric dark correction enabled: true
Nonlinearity correction enabled: false
Boxcar width: 0
XAxis mode: Wavelengths
Number of Pixels in Spectrum: 2048
>>>>>Begin Spectral Data<<<<<
223.165	-1.19
223.4	-1.19
223.635	-1.19
223.869	-18.19
224.104	-18.19
224.338	-13.19
224.573	-15.19
224.808	-12.19
225.042	-2.19
225.277	-7.19
225.511	-3.19
225.746	1.81
225.98	11.81
226.215	0.81
226.449	5.81
226.683	22.81
226.918	22.81
227.152	24.81
227.387	28.81
227.621	44.81
227.856	37.81
228.09	59.81
228.324	59.81
228.559	68.81
228.793	54.81
229.027	74.81
229.262	64.81
229.496	72.81
229.73	85.81
229.964	76.81
230.199	78.81
230.433	68.81
230.667	70.81
230.901	88.81
231.136	84.81
231.37	72.81
231.604	86.81
231.838	77.81
232.072	76.81
232.306	87.81
232.541	96.81
232.775	76.81
233.009	82.81
233.243	77.81
233.477	75.81
233.711	87.81
233.945	68.81
234.179	86.81
234.413	92.81
234.647	80.81
234.881	86.81
235.115	85.81
235.349	94.81
235.583	84.81
235.817	86.81
236.051	90.81
236.285	76.81
236.519	84.81
236.753	85.81
236.987	92.81
237.221	84.81
237.455	86.81
237.689	71.81
237.922	85.81
238.156	73.81
238.39	73.81
238.624	74.81
238.858	81.81
239.091	69.81
239.325	80.81
239.559	90.81
239.793	96.81
240.027	72.81
240.26	73.81
240.494	74.81
240.728	64.81
240.961	67.81
241.195	88.81
241.429	94.81
241.662	77.81
241.896	72.81
242.13	76.81
242.363	75.81
242.597	88.81
242.83	90.81
243.064	75.81
243.298	80.81
243.531	72.81
243.765	82.81
243.998	83.81
244.232	76.81
244.465	85.81
244.699	88.81
244.932	77.81
245.166	75.81
245.399	90.81
245.633	80.81
245.866	88.81
246.099	82.81
246.333	92.81
246.566	77.81
246.8	80.81
247.033	62.81
247.266	74.81
247.5	89.81
247.733	73.81
247.966	77.81
248.2	89.81
248.433	82.81
248.666	84.81
248.899	84.81
249.133	93.81
249.366	101.81
249.599	94.81
249.832	81.81
250.066	88.81
250.299	84.81
250.532	86.81
250.765	80.81
250.998	79.81
251.231	86.81
251.465	75.81
251.698	75.81
251.931	85.81
252.164	89.81
252.397	68.81
252.63	92.81
252.863	75.81
253.096	69.81
253.329	75.81
253.562	72.81
253.795	87.81
254.028	80.81
254.261	74.81
254.494	69.81
254.727	72.81
254.96	86.81
255.193	87.81
255.426	75.81
255.659	86.81
255.892	89.81
256.124	86.81
256.357	88.81
256.59	92.81
256.823	78.81
257.056	88.81
257.289	72.81
257.521	77.81
257.754	86.81
257.987	88.81
258.22	101.81
258.452	78.81
258.685	86.81
258.918	84.81
259.151	70.81
259.383	88.81
259.616	93.81
259.849	80.81
260.081	96.81
260.314	78.81
260.547	86.81
260.779	91.81
261.012	85.81
261.244	75.81
261.477	88.81
261.71	87.81
261.942	100.81
262.175	93.81
262.407	93.81
262.64	95.81
262.872	77.81
263.105	84.81
263.337	87.81
263.57	88.81
263.802	94.81
264.035	76.81
264.267	80.81
264.499	96.81
264.732	76.81
264.964	85.81
265.197	77.81
265.429	75.81
265.661	70.81
265.894	91.81
266.126	99.81
266.358	81.81
266.591	95.81
266.823	84.81
267.055	71.81
267.287	70.81
267.52	88.81
267.752	84.81
267.984	88.81
268.216	86.81
268.448	86.81
268.681	88.81
268.913	98.81
269.145	97.81
269.377	85.81
269.609	93.81
269.841	85.81
270.073	94.81
270.306	97.81
270.538	74.81
270.77	82.81
271.002	82.81
271.234	74.81
271.466	96.81
271.698	90.81
271.93	87.81
272.162	92.81
272.394	79.81
272.626	96.81
272.858	88.81
273.09	92.81
273.322	98.81
273.553	80.81
273.785	86.81
274.017	72.81
274.249	71.81
274.481	84.81
274.713	85.81
274.945	93.81
275.176	96.81
275.408	102.81
275.64	83.81
275.872	96.81
276.104	95.81
276.335	91.81
276.567	93.81
276.799	97.81
277.031	102.81
277.262	84.81
277.494	92.81
277.726	81.81
277.957	93.81
278.189	82.81
278.421	76.81
278.652	90.81
278.884	90.81
279.115	75.81
279.347	70.81
279.579	75.81
279.81	101.81
280.042	98.81
280.273	94.81
280.505	75.81
280.736	98.81
280.968	94.81
281.199	105.81
281.431	83.81
281.662	98.81
281.894	92.81
282.125	104.81
282.356	109.81
282.588	124.81
282.819	105.81
283.051	90.81
283.282	72.81
283.513	87.81
283.745	92.81
283.976	95.81
284.207	84.81
284.439	82.81
284.67	91.81
284.901	97.81
285.132	100.81
285.364	94.81
285.595	97.81
285.826	85.81
286.057	96.81
286.288	86.81
286.52	78.81
286.751	72.81
286.982	91.81
287.213	76.81
287.444	78.81
287.675	93.81
287.906	89.81
288.138	96.81
288.369	85.81
288.6	84.81
288.831	78.81
289.062	86.81
289.293	88.81
289.524	71.81
289.755	86.81
289.986	98.81
290.217	91.81
290.448	76.81
290.679	70.81
290.91	83.81
291.141	76.81
291.371	90.81
291.602	104.81
291.833	105.81
292.064	82.81
292.295	100.81
292.526	82.81
292.757	80.81
292.987	86.81
293.218	91.81
293.449	88.81
293.68	96.81
293.91	80.81
294.141	84.81
294.372	89.81
294.603	88.81
294.833	77.81
295.064	87.81
295.295	99.81
295.525	104.81
295.756	110.81
295.987	100.81
296.217	131.81
296.448	118.81
296.679	93.81
296.909	98.81
297.14	86.81
297.37	93.81
297.601	85.81
297.831	90.81
298.062	87.81
298.292	92.81
298.523	90.81
298.753	92.81
298.984	104.81
299.214	98.81
299.445	90.81
299.675	85.81
299.905	97.81
300.136	109.81
300.366	97.81
300.597	93.81
300.827	91.81
301.057	85.81
301.288	100.81
301.518	91.81
301.748	90.81
301.979	99.81
302.209	91.81
302.439	96.81
302.669	90.81
302.9	98.81
303.13	97.81
303.36	92.81
303.59	85.81
303.82	101.81
304.051	97.81
304.281	99.81
304.511	94.81
304.741	99.81
304.971	81.81
305.201	99.81
305.431	73.81
305.661	88.81
305.891	93.81
306.121	99.81
306.352	98.81
306.582	91.81
306.812	95.81
307.042	93.81
307.272	102.81
307.502	93.81
307.731	100.81
307.961	87.81
308.191	94.81
308.421	91.81
308.651	109.81
308.881	93.81
309.111	88.81
309.341	76.81
309.571	94.81
309.8	93.81
310.03	93.81
310.26	101.81
310.49	95.81
310.72	94.81
310.949	104.81
311.179	96.81
311.409	92.81
311.639	100.81
311.868	98.81
312.098	80.81
312.328	94.81
312.557	110.81
312.787	96.81
313.017	90.81
313.246	104.81
313.476	106.81
313.706	97.81
313.935	92.81
314.165	93.81
314.394	90.81
314.624	87.81
314.853	81.81
315.083	81.81
315.312	97.81
315.542	99.81
315.771	85.81
316.001	92.81
316.23	88.81
316.46	93.81
316.689	84.81
316.919	91.81
317.148	99.81
317.377	93.81
317.607	95.81
317.836	83.81
318.065	98.81
318.295	94.81
318.524	84.81
318.753	81.81
318.983	89.81
319.212	100.81
319.441	106.81
319.67	95.81
319.9	98.81
320.129	108.81
320.358	90.81
320.587	117.81
320.816	96.81
321.046	94.81
321.275	110.81
321.504	94.81
321.733	103.81
321.962	99.81
322.191	104.81
322.42	116.81
322.649	90.81
322.878	112.81
323.108	115.81
323.337	140.81
323.566	118.81
323.795	142.81
324.024	184.81
324.253	337.81
324.482	720.81
324.71	1457.81
324.939	1887.81
325.168	712.81
325.397	224.81
325.626	153.81
325.855	118.81
326.084	112.81
326.313	120.81
326.542	147.81
326.77	214.81
326.999	406.81
327.228	795.81
327.457	1513.81
327.686	1230.81
327.914	342.81
328.143	178.81
328.372	135.81
328.6	104.81
328.829	105.81
329.058	122.81
329.287	112.81
329.515	112.81
329.744	123.81
329.972	101.81
330.201	104.81
330.43	106.81
330.658	120.81
330.887	133.81
331.115	118.81
331.344	96.81
331.572	94.81
331.801	98.81
332.03	116.81
332.258	109.81
332.486	100.81
332.715	89.81
332.943	94.81
333.172	98.81
333.4	86.81
333.629	122.81
333.857	110.81
334.085	110.81
334.314	98.81
334.542	99.81
334.771	104.81
334.999	99.81
335.227	91.81
335.455	86.81
335.684	97.81
335.912	91.81
336.14	93.81
336.369	96.81
336.597	110.81
336.825	80.81
337.053	97.81
337.281	101.81
337.51	104.81
337.738	100.81
337.966	108.81
338.194	104.81
338.422	90.81
338.65	86.81
338.878	93.81
339.106	102.81
339.334	112.81
339.562	92.81
339.79	92.81
340.018	104.81
340.246	89.81
340.474	91.81
340.702	99.81
340.93	100.81
341.158	92.81
341.386	90.81
341.614	94.81
341.842	82.81
342.07	104.81
342.298	110.81
342.526	107.81
342.754	76.81
342.981	91.81
343.209	84.81
343.437	98.81
343.665	85.81
343.893	93.81
344.12	94.81
344.348	94.81
344.576	90.81
344.804	103.81
345.031	102.81
345.259	102.81
345.487	90.81
345.714	108.81
345.942	88.81
346.17	95.81
346.397	100.81
346.625	94.81
346.853	92.81
347.08	104.81
347.308	98.81
347.535	91.81
347.763	106.81
347.99	111.81
348.218	85.81
348.445	104.81
348.673	85.81
348.9	78.81
349.128	101.81
349.355	98.81
349.583	94.81
349.81	97.81
350.037	105.81
350.265	100.81
350.492	95.81
350.72	80.81
350.947	105.81
351.174	96.81
351.402	108.81
351.629	116.81
351.856	92.81
352.083	100.81
352.311	103.81
352.538	111.81
352.765	101.81
352.992	110.81
353.22	120.81
353.447	108.81
353.674	109.81
353.901	104.81
354.128	93.81
354.355	104.81
354.583	101.81
354.81	99.81
355.037	84.81
355.264	103.81
355.491	105.81
355.718	114.81
355.945	92.81
356.172	94.81
356.399	107.81
356.626	95.81
356.853	101.81
357.08	92.81
357.307	94.81
357.534	86.81
357.761	83.81
357.988	88.81
358.215	86.81
358.441	83.81
358.668	97.81
358.895	90.81
359.122	85.81
359.349	98.81
359.576	82.81
359.802	97.81
360.029	101.81
360.256	108.81
360.483	87.81
360.709	90.81
360.936	90.81
361.163	95.81
361.39	92.81
361.616	107.81
361.843	89.81
362.07	94.81
362.296	100.81
362.523	98.81
362.749	87.81
362.976	79.81
363.203	98.81
363.429	98.81
363.656	85.81
363.882	76.81
364.109	106.81
364.335	86.81
364.562	85.81
364.788	83.81
365.015	99.81
365.241	102.81
365.468	101.81
365.694	100.81
365.92	89.81
366.147	97.81
366.373	100.81
366.599	89.81
366.826	85.81
367.052	102.81
367.278	88.81
367.505	92.81
367.731	93.81
367.957	80.81
368.184	101.81
368.41	96.81
368.636	104.81
368.862	97.81
369.089	103.81
369.315	89.81
369.541	87.81
369.767	88.81
369.993	101.81
370.219	106.81
370.445	89.81
370.672	92.81
370.898	84.81
371.124	87.81
371.35	86.81
371.576	77.81
371.802	81.81
372.028	82.81
372.254	89.81
372.48	85.81
372.706	98.81
372.932	88.81
373.158	105.81
373.384	107.81
373.61	101.81
373.835	99.81
374.061	91.81
374.287	88.81
374.513	98.81
374.739	97.81
374.965	88.81
375.191	89.81
375.416	96.81
375.642	85.81
375.868	86.81
376.094	98.81
376.319	95.81
376.545	83.81
376.771	94.81
376.997	83.81
377.222	87.81
377.448	88.81
377.674	93.81
377.899	82.81
378.125	90.81
378.35	88.81
378.576	106.81
378.802	104.81
379.027	99.81
379.253	113.81
379.478	101.81
379.704	87.81
379.929	76.81
380.155	84.81
380.38	89.81
380.606	84.81
380.831	85.81
381.057	90.81
381.282	100.81
381.507	97.81
381.733	96.81
381.958	96.81
382.184	97.81
382.409	90.81
382.634	92.81
382.86	118.81
383.085	105.81
383.31	98.81
383.535	101.81
383.761	93.81
383.986	101.81
384.211	109.81
384.436	106.81
384.662	105.81
384.887	106.81
385.112	110.81
385.337	97.81
385.562	92.81
385.787	91.81
386.013	93.81
386.238	117.81
386.463	107.81
386.688	120.81
386.913	104.81
387.138	116.81
387.363	97.81
387.588	98.81
387.813	106.81
388.038	104.81
388.263	92.81
388.488	93.81
388.713	99.81
388.938	102.81
389.163	97.81
389.387	90.81
389.612	97.81
389.837	96.81
390.062	89.81
390.287	105.81
390.512	81.81
390.736	107.81
390.961	89.81
391.186	90.81
391.411	104.81
391.636	91.81
391.86	97.81
392.085	76.81
392.31	91.81
392.534	85.81
392.759	88.81
392.984	80.81
393.208	97.81
393.433	94.81
393.658	100.81
393.882	93.81
394.107	98.81
394.331	81.81
394.556	87.81
394.78	88.81
395.005	104.81
395.229	83.81
395.454	87.81
395.678	80.81
395.903	85.81
396.127	94.81
396.352	96.81
396.576	95.81
396.801	89.81
397.025	97.81
397.249	90.81
397.474	110.81
397.698	93.81
397.922	85.81
398.147	78.81
398.371	84.81
398.595	96.81
398.82	78.81
399.044	89.81
399.268	88.81
399.492	84.81
399.717	99.81
399.941	90.81
400.165	84.81
400.389	94.81
400.613	84.81
400.837	91.81
401.062	90.81
401.286	96.81
401.51	92.81
401.734	100.81
401.958	97.81
402.182	123.81
402.406	141.81
402.63	114.81
402.854	90.81
403.078	94.81
403.302	86.81
403.526	92.81
403.75	98.81
403.974	100.81
404.198	73.81
404.422	80.81
404.645	86.81
404.869	89.81
405.093	90.81
405.317	89.81
405.541	111.81
405.765	107.81
405.988	134.81
406.212	151.81
406.436	183.81
406.66	120.81
406.883	108.81
407.107	88.81
407.331	93.81
407.555	100.81
407.778	99.81
408.002	96.81
408.226	98.81
408.449	105.81
408.673	93.81
408.896	93.81
409.12	93.81
409.344	84.81
409.567	96.81
409.791	87.81
410.014	84.81
410.238	95.81
410.461	92.81
410.685	98.81
410.908	107.81
411.132	105.81
411.355	109.81
411.578	78.81
411.802	101.81
412.025	89.81
412.249	89.81
412.472	76.81
412.695	96.81
412.919	83.81
413.142	85.81
413.365	93.81
413.589	93.81
413.812	92.81
414.035	101.81
414.258	96.81
414.482	88.81
414.705	95.81
414.928	80.81
415.151	104.81
415.374	90.81
415.597	103.81
415.821	101.81
416.044	90.81
416.267	94.81
416.49	84.81
416.713	88.81
416.936	87.81
417.159	92.81
417.382	89.81
417.605	82.81
417.828	93.81
418.051	97.81
418.274	101.81
418.497	91.81
418.72	104.81
418.943	92.81
419.166	101.81
419.389	88.81
419.611	90.81
419.834	98.81
420.057	82.81
420.28	83.81
420.503	84.81
420.726	90.81
420.948	89.81
421.171	97.81
421.394	104.81
421.617	99.81
421.839	89.81
422.062	83.81
422.285	88.81
422.507	92.81
422.73	99.81
422.953	101.81
423.175	94.81
423.398	87.81
423.621	82.81
423.843	85.81
424.066	90.81
424.288	94.81
424.511	84.81
424.733	110.81
424.956	108.81
425.178	96.81
425.401	109.81
425.623	106.81
425.846	94.81
426.068	86.81
426.291	97.81
426.513	83.81
426.735	105.81
426.958	101.81
427.18	111.81
427.402	148.81
427.625	160.81
427.847	110.81
428.069	109.81
428.292	104.81
428.514	94.81
428.736	87.81
428.958	90.81
429.181	93.81
429.403	110.81
429.625	97.81
429.847	100.81
430.069	95.81
430.292	82.81
430.514	68.81
430.736	76.81
430.958	92.81
431.18	86.81
431.402	75.81
431.624	78.81
431.846	84.81
432.068	79.81
432.29	105.81
432.512	82.81
432.734	91.81
432.956	87.81
433.178	95.81
433.4	94.81
433.622	88.81
433.844	88.81
434.066	83.81
434.287	100.81
434.509	95.81
434.731	85.81
434.953	93.81
435.175	90.81
435.397	110.81
435.618	87.81
435.84	109.81
436.062	131.81
436.284	118.81
436.505	106.81
436.727	96.81
436.949	89.81
437.17	86.81
437.392	92.81
437.614	103.81
437.835	104.81
438.057	106.81
438.278	118.81
438.5	97.81
438.721	117.81
438.943	84.81
439.165	94.81
439.386	104.81
439.608	108.81
439.829	93.81
440.05	116.81
440.272	139.81
440.493	106.81
440.715	103.81
440.936	97.81
441.158	95.81
441.379	94.81
441.6	83.81
441.822	99.81
442.043	83.81
442.264	104.81
442.486	104.81
442.707	82.81
442.928	102.81
443.149	121.81
443.371	119.81
443.592	110.81
443.813	113.81
444.034	96.81
444.255	86.81
444.476	93.81
444.698	76.81
444.919	86.81
445.14	131.81
445.361	116.81
445.582	106.81
445.803	121.81
446.024	130.81
446.245	134.81
446.466	105.81
446.687	99.81
446.908	88.81
447.129	93.81
447.35	84.81
447.571	81.81
447.792	87.81
448.013	104.81
448.234	117.81
448.455	106.81
448.675	125.81
448.896	111.81
449.117	114.81
449.338	117.81
449.559	117.81
449.779	129.81
450	97.81
450.221	85.81
450.442	97.81
450.662	97.81
450.883	108.81
451.104	97.81
451.324	79.81
451.545	86.81
451.766	78.81
451.986	93.81
452.207	94.81
452.428	98.81
452.648	91.81
452.869	106.81
453.089	107.81
453.31	117.81
453.53	113.81
453.751	67.81
453.971	85.81
454.192	94.81
454.412	100.81
454.633	101.81
454.853	93.81
455.073	88.81
455.294	87.81
455.514	88.81
455.734	92.81
455.955	82.81
456.175	86.81
456.395	85.81
456.616	83.81
456.836	96.81
457.056	98.81
457.276	100.81
457.497	90.81
457.717	92.81
457.937	93.81
458.157	81.81
458.377	93.81
458.598	109.81
458.818	129.81
459.038	148.81
459.258	120.81
459.478	92.81
459.698	89.81
459.918	83.81
460.138	87.81
460.358	70.81
460.578	90.81
460.798	84.81
461.018	93.81
461.238	79.81
461.458	93.81
461.678	82.81
461.898	69.81
462.118	75.81
462.338	89.81
462.558	72.81
462.777	86.81
462.997	93.81
463.217	88.81
463.437	94.81
463.657	83.81
463.876	70.81
464.096	101.81
464.316	98.81
464.536	83.81
464.755	90.81
464.975	99.81
465.195	138.81
465.414	138.81
465.634	106.81
465.854	98.81
466.073	74.81
466.293	86.81
466.512	82.81
466.732	94.81
466.951	96.81
467.171	101.81
467.391	98.81
467.61	93.81
467.829	104.81
468.049	93.81
468.268	81.81
468.488	85.81
468.707	91.81
468.927	88.81
469.146	88.81
469.365	85.81
469.585	82.81
469.804	97.81
470.023	97.81
470.243	87.81
470.462	101.81
470.681	111.81
470.901	85.81
471.12	92.81
471.339	94.81
471.558	99.81
471.777	93.81
471.997	89.81
472.216	88.81
472.435	105.81
472.654	89.81
472.873	97.81
473.092	88.81
473.311	88.81
473.53	88.81
473.749	93.81
473.968	93.81
474.187	104.81
474.406	99.81
474.625	90.81
474.844	98.81
475.063	97.81
475.282	91.81
475.501	79.81
475.72	93.81
475.939	86.81
476.158	93.81
476.377	101.81
476.596	94.81
476.814	93.81
477.033	86.81
477.252	84.81
477.471	93.81
477.69	95.81
477.908	88.81
478.127	93.81
478.346	90.81
478.564	87.81
478.783	83.81
479.002	94.81
479.22	88.81
479.439	99.81
479.658	93.81
479.876	90.81
480.095	85.81
480.313	95.81
480.532	100.81
480.751	88.81
480.969	104.81
481.188	111.81
481.406	105.81
481.624	100.81
481.843	100.81
482.061	72.81
482.28	102.81
482.498	84.81
482.717	98.81
482.935	87.81
483.153	75.81
483.372	80.81
483.59	85.81
483.808	86.81
484.027	101.81
484.245	99.81
484.463	94.81
484.681	84.81
484.9	91.81
485.118	90.81
485.336	96.81
485.554	116.81
485.772	103.81
485.99	107.81
486.209	115.81
486.427	105.81
486.645	105.81
486.863	113.81
487.081	100.81
487.299	90.81
487.517	89.81
487.735	86.81
487.953	99.81
488.171	96.81
488.389	92.81
488.607	102.81
488.825	95.81
489.043	93.81
489.261	83.81
489.479	91.81
489.696	104.81
489.914	100.81
490.132	79.81
490.35	82.81
490.568	77.81
490.786	96.81
491.003	101.81
491.221	91.81
491.439	89.81
491.657	109.81
491.874	101.81
492.092	90.81
492.31	88.81
492.527	87.81
492.745	87.81
492.963	100.81
493.18	88.81
493.398	93.81
493.615	98.81
493.833	88.81
494.05	74.81
494.268	103.81
494.485	91.81
494.703	97.81
494.92	97.81
495.138	90.81
495.355	101.81
495.573	93.81
495.79	94.81
496.008	104.81
496.225	92.81
496.442	85.81
496.66	100.81
496.877	96.81
497.094	100.81
497.312	94.81
497.529	96.81
497.746	93.81
497.963	84.81
498.181	86.81
498.398	95.81
498.615	121.81
498.832	104.81
499.049	92.81
499.267	90.81
499.484	92.81
499.701	90.81
499.918	106.81
500.135	104.81
500.352	89.81
500.569	95.81
500.786	90.81
501.003	98.81
501.22	83.81
501.437	85.81
501.654	85.81
501.871	103.81
502.088	92.81
502.305	95.81
502.522	95.81
502.739	108.81
502.956	111.81
503.172	97.81
503.389	97.81
503.606	117.81
503.823	96.81
504.04	101.81
504.256	107.81
504.473	94.81
504.69	95.81
504.907	96.81
505.123	103.81
505.34	85.81
505.557	88.81
505.773	105.81
505.99	102.81
506.207	85.81
506.423	113.81
506.64	81.81
506.856	83.81
507.073	100.81
507.289	92.81
507.506	95.81
507.722	102.81
507.939	109.81
508.155	92.81
508.372	97.81
508.588	98.81
508.805	99.81
509.021	102.81
509.238	115.81
509.454	102.81
509.67	89.81
509.887	96.81
510.103	125.81
510.319	185.81
510.536	608.81
510.752	1854.81
510.968	532.81
511.184	140.81
511.401	109.81
511.617	103.81
511.833	80.81
512.049	107.81
512.265	92.81
512.481	96.81
512.698	90.81
512.914	93.81
513.13	99.81
513.346	100.81
513.562	97.81
513.778	99.81
513.994	99.81
514.21	105.81
514.426	109.81
514.642	118.81
514.858	105.81
515.074	142.81
515.29	343.81
