Data from Uncirc_1986_H10_HRD10591_00099.txt Node
Date: Wed Jan 03 12:14:46 EST 2024
User: Yrep
Spectrometer: HR+D1059
Trigger mode: 1
Integration Time (sec): 1.000000E-1
Scans to average: 1
Electric dark correction enabled: true
Nonlinearity correction enabled: false
Boxcar width: 0
XAxis mode: Wavelengths
Number of Pixels in Spectrum: 2048
>>>>>Begin Spectral Data<<<<<
223.165	-18.88
223.4	-18.88
223.635	-18.88
223.869	-26.88
224.104	-11.88
224.338	-3.88
224.573	-13.88
224.808	-4.88
225.042	-15.88
225.277	-15.88
225.511	-11.88
225.746	13.12
225.98	9.12
226.215	-3.88
226.449	11.12
226.683	20.12
226.918	35.12
227.152	39.12
227.387	37.12
227.621	26.12
227.856	39.12
228.09	45.12
228.324	56.12
228.559	62.12
228.793	70.12
229.027	67.12
229.262	68.12
229.496	70.12
229.73	79.12
229.964	83.12
230.199	73.12
230.433	79.12
230.667	76.12
230.901	79.12
231.136	89.12
231.37	86.12
231.604	75.12
231.838	83.12
232.072	77.12
232.306	78.12
232.541	81.12
232.775	77.12
233.009	76.12
233.243	87.12
233.477	79.12
233.711	84.12
233.945	79.12
234.179	91.12
234.413	81.12
234.647	84.12
234.881	79.12
235.115	73.12
235.349	78.12
235.583	82.12
235.817	81.12
236.051	75.12
236.285	66.12
236.519	77.12
236.753	79.12
236.987	72.12
237.221	94.12
237.455	83.12
237.689	71.12
237.922	83.12
238.156	76.12
238.39	75.12
238.624	74.12
238.858	76.12
239.091	55.12
239.325	65.12
239.559	93.12
239.793	76.12
240.027	77.12
240.26	77.12
240.494	72.12
240.728	80.12
240.961	83.12
241.195	75.12
241.429	90.12
241.662	76.12
241.896	77.12
242.13	69.12
242.363	64.12
242.597	83.12
242.83	83.12
243.064	76.12
243.298	85.12
243.531	82.12
243.765	82.12
243.998	77.12
244.232	85.12
244.465	92.12
244.699	67.12
244.932	79.12
245.166	79.12
245.399	75.12
245.633	76.12
245.866	79.12
246.099	75.12
246.333	79.12
246.566	76.12
246.8	89.12
247.033	71.12
247.266	84.12
247.5	68.12
247.733	75.12
247.966	85.12
248.2	66.12
248.433	75.12
248.666	85.12
248.899	90.12
249.133	85.12
249.366	95.12
249.599	94.12
249.832	97.12
250.066	79.12
250.299	82.12
250.532	82.12
250.765	77.12
250.998	83.12
251.231	82.12
251.465	71.12
251.698	75.12
251.931	86.12
252.164	97.12
252.397	85.12
252.63	69.12
252.863	96.12
253.096	68.12
253.329	68.12
253.562	65.12
253.795	74.12
254.028	75.12
254.261	77.12
254.494	82.12
254.727	65.12
254.96	89.12
255.193	72.12
255.426	67.12
255.659	78.12
255.892	89.12
256.124	81.12
256.357	76.12
256.59	67.12
256.823	84.12
257.056	75.12
257.289	85.12
257.521	83.12
257.754	93.12
257.987	79.12
258.22	85.12
258.452	82.12
258.685	94.12
258.918	78.12
259.151	86.12
259.383	83.12
259.616	87.12
259.849	90.12
260.081	80.12
260.314	96.12
260.547	89.12
260.779	91.12
261.012	72.12
261.244	87.12
261.477	87.12
261.71	86.12
261.942	104.12
262.175	109.12
262.407	81.12
262.64	86.12
262.872	81.12
263.105	78.12
263.337	91.12
263.57	84.12
263.802	76.12
264.035	61.12
264.267	88.12
264.499	74.12
264.732	100.12
264.964	87.12
265.197	79.12
265.429	91.12
265.661	82.12
265.894	66.12
266.126	77.12
266.358	89.12
266.591	86.12
266.823	65.12
267.055	74.12
267.287	87.12
267.52	74.12
267.752	87.12
267.984	79.12
268.216	91.12
268.448	100.12
268.681	84.12
268.913	83.12
269.145	74.12
269.377	87.12
269.609	85.12
269.841	84.12
270.073	87.12
270.306	96.12
270.538	83.12
270.77	89.12
271.002	91.12
271.234	89.12
271.466	79.12
271.698	92.12
271.93	74.12
272.162	88.12
272.394	100.12
272.626	96.12
272.858	81.12
273.09	80.12
273.322	86.12
273.553	73.12
273.785	77.12
274.017	75.12
274.249	85.12
274.481	100.12
274.713	89.12
274.945	91.12
275.176	75.12
275.408	90.12
275.64	68.12
275.872	89.12
276.104	106.12
276.335	86.12
276.567	98.12
276.799	85.12
277.031	90.12
277.262	87.12
277.494	97.12
277.726	89.12
277.957	101.12
278.189	97.12
278.421	92.12
278.652	84.12
278.884	89.12
279.115	90.12
279.347	89.12
279.579	68.12
279.81	92.12
280.042	94.12
280.273	82.12
280.505	87.12
280.736	86.12
280.968	89.12
281.199	85.12
281.431	75.12
281.662	84.12
281.894	97.12
282.125	100.12
282.356	104.12
282.588	125.12
282.819	92.12
283.051	98.12
283.282	99.12
283.513	92.12
283.745	105.12
283.976	87.12
284.207	91.12
284.439	82.12
284.67	96.12
284.901	86.12
285.132	81.12
285.364	84.12
285.595	112.12
285.826	92.12
286.057	102.12
286.288	89.12
286.52	96.12
286.751	80.12
286.982	86.12
287.213	78.12
287.444	107.12
287.675	97.12
287.906	99.12
288.138	86.12
288.369	82.12
288.6	89.12
288.831	103.12
289.062	84.12
289.293	81.12
289.524	75.12
289.755	81.12
289.986	79.12
290.217	84.12
290.448	90.12
290.679	95.12
290.91	88.12
291.141	87.12
291.371	88.12
291.602	84.12
291.833	83.12
292.064	88.12
292.295	84.12
292.526	78.12
292.757	99.12
292.987	88.12
293.218	100.12
293.449	96.12
293.68	86.12
293.91	87.12
294.141	86.12
294.372	87.12
294.603	96.12
294.833	100.12
295.064	93.12
295.295	100.12
295.525	97.12
295.756	99.12
295.987	126.12
296.217	130.12
296.448	123.12
296.679	84.12
296.909	90.12
297.14	96.12
297.37	88.12
297.601	93.12
297.831	111.12
298.062	92.12
298.292	72.12
298.523	93.12
298.753	87.12
298.984	86.12
299.214	97.12
299.445	95.12
299.675	93.12
299.905	98.12
300.136	108.12
300.366	88.12
300.597	91.12
300.827	83.12
301.057	98.12
301.288	109.12
301.518	101.12
301.748	94.12
301.979	106.12
302.209	98.12
302.439	90.12
302.669	77.12
302.9	86.12
303.13	88.12
303.36	91.12
303.59	91.12
303.82	102.12
304.051	95.12
304.281	85.12
304.511	87.12
304.741	80.12
304.971	91.12
305.201	89.12
305.431	92.12
305.661	96.12
305.891	92.12
306.121	97.12
306.352	97.12
306.582	99.12
306.812	84.12
307.042	96.12
307.272	102.12
307.502	97.12
307.731	102.12
307.961	97.12
308.191	97.12
308.421	88.12
308.651	75.12
308.881	100.12
309.111	94.12
309.341	104.12
309.571	96.12
309.8	99.12
310.03	100.12
310.26	100.12
310.49	99.12
310.72	85.12
310.949	93.12
311.179	106.12
311.409	90.12
311.639	88.12
311.868	91.12
312.098	88.12
312.328	104.12
312.557	107.12
312.787	100.12
313.017	101.12
313.246	105.12
313.476	94.12
313.706	87.12
313.935	101.12
314.165	103.12
314.394	92.12
314.624	96.12
314.853	106.12
315.083	81.12
315.312	79.12
315.542	100.12
315.771	96.12
316.001	102.12
316.23	87.12
316.46	100.12
316.689	98.12
316.919	80.12
317.148	88.12
317.377	100.12
317.607	92.12
317.836	76.12
318.065	87.12
318.295	79.12
318.524	92.12
318.753	92.12
318.983	97.12
319.212	106.12
319.441	103.12
319.67	109.12
319.9	100.12
320.129	109.12
320.358	70.12
320.587	103.12
320.816	95.12
321.046	97.12
321.275	93.12
321.504	99.12
321.733	105.12
321.962	93.12
322.191	103.12
322.42	101.12
322.649	108.12
322.878	114.12
323.108	104.12
323.337	107.12
323.566	122.12
323.795	129.12
324.024	189.12
324.253	345.12
324.482	741.12
324.71	1510.12
324.939	1996.12
325.168	745.12
325.397	227.12
325.626	148.12
325.855	126.12
326.084	122.12
326.313	132.12
326.542	143.12
326.77	200.12
326.999	404.12
327.228	855.12
327.457	1528.12
327.686	1236.12
327.914	341.12
328.143	170.12
328.372	127.12
328.6	106.12
328.829	97.12
329.058	114.12
329.287	117.12
329.515	115.12
329.744	102.12
329.972	113.12
330.201	103.12
330.43	122.12
330.658	128.12
330.887	110.12
331.115	119.12
331.344	104.12
331.572	92.12
331.801	88.12
332.03	95.12
332.258	89.12
332.486	96.12
332.715	103.12
332.943	94.12
333.172	96.12
333.4	98.12
333.629	107.12
333.857	108.12
334.085	115.12
334.314	101.12
334.542	119.12
334.771	115.12
334.999	106.12
335.227	95.12
335.455	106.12
335.684	113.12
335.912	73.12
336.14	113.12
336.369	87.12
336.597	94.12
336.825	98.12
337.053	102.12
337.281	91.12
337.51	95.12
337.738	104.12
337.966	96.12
338.194	91.12
338.422	95.12
338.65	92.12
338.878	104.12
339.106	102.12
339.334	101.12
339.562	84.12
339.79	93.12
340.018	87.12
340.246	88.12
340.474	102.12
340.702	84.12
340.93	88.12
341.158	87.12
341.386	95.12
341.614	105.12
341.842	97.12
342.07	84.12
342.298	92.12
342.526	82.12
342.754	87.12
342.981	100.12
343.209	93.12
343.437	99.12
343.665	98.12
343.893	87.12
344.12	84.12
344.348	83.12
344.576	98.12
344.804	99.12
345.031	92.12
345.259	96.12
345.487	95.12
345.714	100.12
345.942	89.12
346.17	90.12
346.397	95.12
346.625	101.12
346.853	95.12
347.08	105.12
347.308	89.12
347.535	102.12
347.763	84.12
347.99	100.12
348.218	91.12
348.445	97.12
348.673	91.12
348.9	81.12
349.128	107.12
349.355	96.12
349.583	90.12
349.81	91.12
350.037	90.12
350.265	95.12
350.492	91.12
350.72	105.12
350.947	86.12
351.174	111.12
351.402	109.12
351.629	109.12
351.856	100.12
352.083	86.12
352.311	105.12
352.538	100.12
352.765	110.12
352.992	109.12
353.22	117.12
353.447	104.12
353.674	122.12
353.901	84.12
354.128	103.12
354.355	103.12
354.583	109.12
354.81	112.12
355.037	111.12
355.264	83.12
355.491	88.12
355.718	101.12
355.945	98.12
356.172	110.12
356.399	96.12
356.626	101.12
356.853	89.12
357.08	105.12
357.307	93.12
357.534	79.12
357.761	93.12
357.988	96.12
358.215	111.12
358.441	97.12
358.668	98.12
358.895	107.12
359.122	96.12
359.349	79.12
359.576	89.12
359.802	93.12
360.029	107.12
360.256	122.12
360.483	103.12
360.709	81.12
360.936	105.12
361.163	95.12
361.39	95.12
361.616	101.12
361.843	92.12
362.07	96.12
362.296	92.12
362.523	101.12
362.749	90.12
362.976	83.12
363.203	91.12
363.429	68.12
363.656	96.12
363.882	91.12
364.109	98.12
364.335	103.12
364.562	85.12
364.788	86.12
365.015	91.12
365.241	94.12
365.468	93.12
365.694	96.12
365.92	86.12
366.147	91.12
366.373	87.12
366.599	88.12
366.826	91.12
367.052	105.12
367.278	94.12
367.505	83.12
367.731	94.12
367.957	77.12
368.184	98.12
368.41	87.12
368.636	112.12
368.862	112.12
369.089	117.12
369.315	99.12
369.541	88.12
369.767	86.12
369.993	96.12
370.219	96.12
370.445	82.12
370.672	96.12
370.898	87.12
371.124	99.12
371.35	96.12
371.576	89.12
371.802	87.12
372.028	94.12
372.254	93.12
372.48	94.12
372.706	98.12
372.932	74.12
373.158	87.12
373.384	79.12
373.61	92.12
373.835	91.12
374.061	91.12
374.287	97.12
374.513	91.12
374.739	84.12
374.965	91.12
375.191	91.12
375.416	81.12
375.642	85.12
375.868	88.12
376.094	97.12
376.319	96.12
376.545	92.12
376.771	93.12
376.997	79.12
377.222	93.12
377.448	92.12
377.674	84.12
377.899	94.12
378.125	87.12
378.35	87.12
378.576	94.12
378.802	91.12
379.027	86.12
379.253	86.12
379.478	85.12
379.704	92.12
379.929	101.12
380.155	93.12
380.38	94.12
380.606	98.12
380.831	81.12
381.057	81.12
381.282	92.12
381.507	96.12
381.733	95.12
381.958	95.12
382.184	96.12
382.409	112.12
382.634	105.12
382.86	104.12
383.085	92.12
383.31	99.12
383.535	96.12
383.761	99.12
383.986	95.12
384.211	95.12
384.436	98.12
384.662	98.12
384.887	89.12
385.112	99.12
385.337	118.12
385.562	107.12
385.787	110.12
386.013	104.12
386.238	100.12
386.463	90.12
386.688	100.12
386.913	100.12
387.138	98.12
387.363	88.12
387.588	88.12
387.813	99.12
388.038	89.12
388.263	103.12
388.488	104.12
388.713	99.12
388.938	104.12
389.163	96.12
389.387	83.12
389.612	101.12
389.837	90.12
390.062	87.12
390.287	112.12
390.512	96.12
390.736	80.12
390.961	90.12
391.186	103.12
391.411	113.12
391.636	102.12
391.86	98.12
392.085	105.12
392.31	100.12
392.534	85.12
392.759	84.12
392.984	99.12
393.208	86.12
393.433	89.12
393.658	87.12
393.882	85.12
394.107	96.12
394.331	85.12
394.556	89.12
394.78	84.12
395.005	92.12
395.229	73.12
395.454	103.12
395.678	99.12
395.903	93.12
396.127	84.12
396.352	81.12
396.576	89.12
396.801	75.12
397.025	99.12
397.249	84.12
397.474	87.12
397.698	94.12
397.922	102.12
398.147	75.12
398.371	80.12
398.595	97.12
398.82	86.12
399.044	85.12
399.268	102.12
399.492	92.12
399.717	95.12
399.941	81.12
400.165	97.12
400.389	88.12
400.613	84.12
400.837	85.12
401.062	98.12
401.286	83.12
401.51	99.12
401.734	98.12
401.958	102.12
402.182	134.12
402.406	145.12
402.63	120.12
402.854	79.12
403.078	81.12
403.302	93.12
403.526	94.12
403.75	89.12
403.974	98.12
404.198	89.12
404.422	95.12
404.645	90.12
404.869	82.12
405.093	83.12
405.317	101.12
405.541	100.12
405.765	100.12
405.988	120.12
406.212	137.12
406.436	209.12
406.66	148.12
406.883	105.12
407.107	96.12
407.331	96.12
407.555	97.12
407.778	92.12
408.002	83.12
408.226	87.12
408.449	86.12
408.673	81.12
408.896	100.12
409.12	95.12
409.344	99.12
409.567	98.12
409.791	99.12
410.014	91.12
410.238	106.12
410.461	98.12
410.685	89.12
410.908	102.12
411.132	110.12
411.355	87.12
411.578	97.12
411.802	103.12
412.025	105.12
412.249	101.12
412.472	87.12
412.695	101.12
412.919	77.12
413.142	84.12
413.365	95.12
413.589	87.12
413.812	71.12
414.035	96.12
414.258	83.12
414.482	81.12
414.705	90.12
414.928	86.12
415.151	88.12
415.374	91.12
415.597	103.12
415.821	94.12
416.044	87.12
416.267	98.12
416.49	83.12
416.713	91.12
416.936	82.12
417.159	74.12
417.382	84.12
417.605	75.12
417.828	101.12
418.051	91.12
418.274	95.12
418.497	87.12
418.72	92.12
418.943	89.12
419.166	95.12
419.389	88.12
419.611	96.12
419.834	82.12
420.057	98.12
420.28	90.12
420.503	91.12
420.726	86.12
420.948	89.12
421.171	85.12
421.394	91.12
421.617	96.12
421.839	98.12
422.062	84.12
422.285	96.12
422.507	89.12
422.73	104.12
422.953	80.12
423.175	81.12
423.398	80.12
423.621	96.12
423.843	86.12
424.066	91.12
424.288	93.12
424.511	92.12
424.733	106.12
424.956	94.12
425.178	105.12
425.401	103.12
425.623	93.12
425.846	93.12
426.068	81.12
426.291	85.12
426.513	76.12
426.735	80.12
426.958	104.12
427.18	98.12
427.402	124.12
427.625	140.12
427.847	129.12
428.069	114.12
428.292	98.12
428.514	83.12
428.736	89.12
428.958	98.12
429.181	93.12
429.403	79.12
429.625	99.12
429.847	94.12
430.069	108.12
430.292	84.12
430.514	92.12
430.736	86.12
430.958	107.12
431.18	80.12
431.402	79.12
431.624	68.12
431.846	97.12
432.068	86.12
432.29	87.12
432.512	95.12
432.734	92.12
432.956	89.12
433.178	103.12
433.4	102.12
433.622	108.12
433.844	84.12
434.066	90.12
434.287	100.12
434.509	90.12
434.731	90.12
434.953	97.12
435.175	90.12
435.397	93.12
435.618	96.12
435.84	79.12
436.062	99.12
436.284	113.12
436.505	91.12
436.727	94.12
436.949	93.12
437.17	96.12
437.392	92.12
437.614	112.12
437.835	102.12
438.057	105.12
438.278	112.12
438.5	104.12
438.721	116.12
438.943	100.12
439.165	90.12
439.386	95.12
439.608	99.12
439.829	101.12
440.05	123.12
440.272	141.12
440.493	91.12
440.715	98.12
440.936	83.12
441.158	88.12
441.379	77.12
441.6	92.12
441.822	95.12
442.043	88.12
442.264	105.12
442.486	102.12
442.707	108.12
442.928	90.12
443.149	124.12
443.371	115.12
443.592	100.12
443.813	103.12
444.034	110.12
444.255	92.12
444.476	99.12
444.698	97.12
444.919	89.12
445.14	137.12
445.361	132.12
445.582	106.12
445.803	124.12
446.024	131.12
446.245	119.12
446.466	123.12
446.687	85.12
446.908	93.12
447.129	110.12
447.35	92.12
447.571	89.12
447.792	86.12
448.013	99.12
448.234	109.12
448.455	101.12
448.675	102.12
448.896	107.12
449.117	107.12
449.338	112.12
449.559	132.12
449.779	130.12
450	95.12
450.221	95.12
450.442	98.12
450.662	95.12
450.883	89.12
451.104	103.12
451.324	96.12
451.545	82.12
451.766	85.12
451.986	83.12
452.207	105.12
452.428	104.12
452.648	102.12
452.869	106.12
453.089	104.12
453.31	99.12
453.53	86.12
453.751	103.12
453.971	115.12
454.192	104.12
454.412	97.12
454.633	85.12
454.853	95.12
455.073	87.12
455.294	106.12
455.514	86.12
455.734	103.12
455.955	82.12
456.175	89.12
456.395	74.12
456.616	83.12
456.836	73.12
457.056	83.12
457.276	84.12
457.497	90.12
457.717	92.12
457.937	73.12
458.157	68.12
458.377	86.12
458.598	111.12
458.818	139.12
459.038	139.12
459.258	106.12
459.478	76.12
459.698	99.12
459.918	92.12
460.138	85.12
460.358	106.12
460.578	108.12
460.798	99.12
461.018	82.12
461.238	74.12
461.458	74.12
461.678	89.12
461.898	87.12
462.118	90.12
462.338	99.12
462.558	105.12
462.777	86.12
462.997	87.12
463.217	95.12
463.437	81.12
463.657	85.12
463.876	90.12
464.096	104.12
464.316	96.12
464.536	94.12
464.755	84.12
464.975	105.12
465.195	145.12
465.414	132.12
465.634	95.12
465.854	93.12
466.073	99.12
466.293	91.12
466.512	87.12
466.732	85.12
466.951	102.12
467.171	85.12
467.391	95.12
467.61	104.12
467.829	89.12
468.049	106.12
468.268	106.12
468.488	100.12
468.707	93.12
468.927	91.12
469.146	92.12
469.365	92.12
469.585	90.12
469.804	99.12
470.023	84.12
470.243	92.12
470.462	98.12
470.681	105.12
470.901	103.12
471.12	79.12
471.339	81.12
471.558	87.12
471.777	84.12
471.997	106.12
472.216	92.12
472.435	119.12
472.654	92.12
472.873	89.12
473.092	85.12
473.311	92.12
473.53	84.12
473.749	93.12
473.968	102.12
474.187	107.12
474.406	90.12
474.625	88.12
474.844	81.12
475.063	88.12
475.282	80.12
475.501	97.12
475.72	74.12
475.939	87.12
476.158	83.12
476.377	87.12
476.596	91.12
476.814	85.12
477.033	98.12
477.252	88.12
477.471	95.12
477.69	104.12
477.908	96.12
478.127	89.12
478.346	85.12
478.564	102.12
478.783	95.12
479.002	96.12
479.22	91.12
479.439	90.12
479.658	105.12
479.876	101.12
480.095	79.12
480.313	92.12
480.532	95.12
480.751	113.12
480.969	101.12
481.188	138.12
481.406	112.12
481.624	100.12
481.843	98.12
482.061	75.12
482.28	92.12
482.498	96.12
482.717	86.12
482.935	91.12
483.153	84.12
483.372	90.12
483.59	99.12
483.808	81.12
484.027	89.12
484.245	97.12
484.463	106.12
484.681	101.12
484.9	104.12
485.118	103.12
485.336	89.12
485.554	91.12
485.772	101.12
485.99	112.12
486.209	82.12
486.427	92.12
486.645	114.12
486.863	103.12
487.081	96.12
487.299	95.12
487.517	85.12
487.735	74.12
487.953	95.12
488.171	99.12
488.389	82.12
488.607	108.12
488.825	97.12
489.043	119.12
489.261	93.12
489.479	80.12
489.696	81.12
489.914	92.12
490.132	93.12
490.35	95.12
490.568	92.12
490.786	105.12
491.003	93.12
491.221	91.12
491.439	85.12
491.657	99.12
491.874	92.12
492.092	87.12
492.31	85.12
492.527	100.12
492.745	91.12
492.963	92.12
493.18	94.12
493.398	92.12
493.615	103.12
493.833	94.12
494.05	80.12
494.268	106.12
494.485	102.12
494.703	94.12
494.92	81.12
495.138	89.12
495.355	90.12
495.573	91.12
495.79	88.12
496.008	84.12
496.225	93.12
496.442	90.12
496.66	99.12
496.877	75.12
497.094	90.12
497.312	98.12
497.529	97.12
497.746	96.12
497.963	84.12
498.181	85.12
498.398	75.12
498.615	109.12
498.832	100.12
499.049	83.12
499.267	93.12
499.484	89.12
499.701	83.12
499.918	95.12
500.135	88.12
500.352	83.12
500.569	91.12
500.786	111.12
501.003	80.12
501.22	96.12
501.437	84.12
501.654	98.12
501.871	103.12
502.088	101.12
502.305	91.12
502.522	95.12
502.739	91.12
502.956	94.12
503.172	105.12
503.389	92.12
503.606	103.12
503.823	109.12
504.04	102.12
504.256	88.12
504.473	95.12
504.69	98.12
504.907	94.12
505.123	99.12
505.34	90.12
505.557	103.12
505.773	97.12
505.99	74.12
506.207	95.12
506.423	71.12
506.64	94.12
506.856	99.12
507.073	109.12
507.289	94.12
507.506	100.12
507.722	112.12
507.939	120.12
508.155	108.12
508.372	97.12
508.588	85.12
508.805	100.12
509.021	89.12
509.238	91.12
509.454	99.12
509.67	110.12
509.887	99.12
510.103	117.12
510.319	182.12
510.536	619.12
510.752	1921.12
510.968	545.12
511.184	123.12
511.401	98.12
511.617	103.12
511.833	88.12
512.049	111.12
512.265	87.12
512.481	100.12
512.698	90.12
512.914	90.12
513.13	100.12
513.346	75.12
513.562	85.12
513.778	106.12
513.994	96.12
514.21	109.12
514.426	122.12
514.642	139.12
514.858	120.12
515.074	139.12
515.29	378.12
