Data from Uncirc_1986_H10_HRD10591_00031.txt Node
Date: Wed Jan 03 12:14:32 EST 2024
User: Yrep
Spectrometer: HR+D1059
Trigger mode: 1
Integration Time (sec): 1.000000E-1
Scans to average: 1
Electric dark correction enabled: true
Nonlinearity correction enabled: false
Boxcar width: 0
XAxis mode: Wavelengths
Number of Pixels in Spectrum: 2048
>>>>>Begin Spectral Data<<<<<
223.165	-17.69
223.4	-17.69
223.635	-17.69
223.869	-9.69
224.104	-14.69
224.338	-14.69
224.573	-23.69
224.808	-20.69
225.042	-14.69
225.277	4.31
225.511	-2.69
225.746	5.31
225.98	3.31
226.215	18.31
226.449	18.31
226.683	23.31
226.918	28.31
227.152	17.31
227.387	47.31
227.621	37.31
227.856	37.31
228.09	37.31
228.324	39.31
228.559	59.31
228.793	43.31
229.027	79.31
229.262	65.31
229.496	81.31
229.73	81.31
229.964	71.31
230.199	66.31
230.433	77.31
230.667	92.31
230.901	85.31
231.136	74.31
231.37	56.31
231.604	72.31
231.838	85.31
232.072	73.31
232.306	89.31
232.541	81.31
232.775	85.31
233.009	73.31
233.243	82.31
233.477	85.31
233.711	91.31
233.945	88.31
234.179	79.31
234.413	61.31
234.647	73.31
234.881	87.31
235.115	80.31
235.349	80.31
235.583	69.31
235.817	72.31
236.051	73.31
236.285	87.31
236.519	86.31
236.753	88.31
236.987	78.31
237.221	90.31
237.455	75.31
237.689	77.31
237.922	79.31
238.156	82.31
238.39	79.31
238.624	78.31
238.858	80.31
239.091	77.31
239.325	73.31
239.559	87.31
239.793	72.31
240.027	77.31
240.26	70.31
240.494	77.31
240.728	67.31
240.961	76.31
241.195	74.31
241.429	66.31
241.662	69.31
241.896	72.31
242.13	79.31
242.363	77.31
242.597	70.31
242.83	77.31
243.064	88.31
243.298	67.31
243.531	74.31
243.765	86.31
243.998	80.31
244.232	86.31
244.465	84.31
244.699	71.31
244.932	84.31
245.166	78.31
245.399	80.31
245.633	66.31
245.866	83.31
246.099	65.31
246.333	78.31
246.566	73.31
246.8	74.31
247.033	73.31
247.266	79.31
247.5	93.31
247.733	71.31
247.966	70.31
248.2	69.31
248.433	78.31
248.666	74.31
248.899	89.31
249.133	71.31
249.366	91.31
249.599	91.31
249.832	79.31
250.066	71.31
250.299	82.31
250.532	81.31
250.765	77.31
250.998	82.31
251.231	87.31
251.465	86.31
251.698	77.31
251.931	86.31
252.164	71.31
252.397	78.31
252.63	87.31
252.863	69.31
253.096	86.31
253.329	73.31
253.562	93.31
253.795	79.31
254.028	83.31
254.261	78.31
254.494	86.31
254.727	80.31
254.96	78.31
255.193	80.31
255.426	77.31
255.659	81.31
255.892	81.31
256.124	72.31
256.357	89.31
256.59	83.31
256.823	66.31
257.056	85.31
257.289	83.31
257.521	83.31
257.754	81.31
257.987	74.31
258.22	86.31
258.452	70.31
258.685	87.31
258.918	88.31
259.151	91.31
259.383	77.31
259.616	86.31
259.849	78.31
260.081	82.31
260.314	88.31
260.547	85.31
260.779	78.31
261.012	70.31
261.244	75.31
261.477	94.31
261.71	94.31
261.942	109.31
262.175	110.31
262.407	82.31
262.64	73.31
262.872	90.31
263.105	79.31
263.337	81.31
263.57	85.31
263.802	92.31
264.035	84.31
264.267	104.31
264.499	69.31
264.732	83.31
264.964	79.31
265.197	77.31
265.429	77.31
265.661	90.31
265.894	66.31
266.126	90.31
266.358	88.31
266.591	84.31
266.823	88.31
267.055	85.31
267.287	86.31
267.52	89.31
267.752	73.31
267.984	87.31
268.216	77.31
268.448	104.31
268.681	82.31
268.913	90.31
269.145	80.31
269.377	85.31
269.609	93.31
269.841	84.31
270.073	93.31
270.306	66.31
270.538	90.31
270.77	86.31
271.002	81.31
271.234	87.31
271.466	87.31
271.698	85.31
271.93	99.31
272.162	78.31
272.394	79.31
272.626	80.31
272.858	84.31
273.09	73.31
273.322	89.31
273.553	80.31
273.785	85.31
274.017	99.31
274.249	73.31
274.481	85.31
274.713	97.31
274.945	91.31
275.176	82.31
275.408	85.31
275.64	77.31
275.872	98.31
276.104	89.31
276.335	94.31
276.567	79.31
276.799	89.31
277.031	92.31
277.262	87.31
277.494	89.31
277.726	98.31
277.957	89.31
278.189	91.31
278.421	83.31
278.652	88.31
278.884	83.31
279.115	83.31
279.347	83.31
279.579	75.31
279.81	96.31
280.042	74.31
280.273	80.31
280.505	82.31
280.736	96.31
280.968	90.31
281.199	90.31
281.431	77.31
281.662	83.31
281.894	87.31
282.125	96.31
282.356	112.31
282.588	127.31
282.819	97.31
283.051	99.31
283.282	82.31
283.513	94.31
283.745	94.31
283.976	89.31
284.207	81.31
284.439	94.31
284.67	102.31
284.901	71.31
285.132	87.31
285.364	100.31
285.595	82.31
285.826	91.31
286.057	94.31
286.288	91.31
286.52	85.31
286.751	80.31
286.982	102.31
287.213	86.31
287.444	78.31
287.675	71.31
287.906	70.31
288.138	85.31
288.369	91.31
288.6	83.31
288.831	89.31
289.062	77.31
289.293	88.31
289.524	88.31
289.755	90.31
289.986	95.31
290.217	91.31
290.448	91.31
290.679	80.31
290.91	93.31
291.141	91.31
291.371	83.31
291.602	85.31
291.833	89.31
292.064	93.31
292.295	81.31
292.526	101.31
292.757	81.31
292.987	73.31
293.218	89.31
293.449	72.31
293.68	87.31
293.91	87.31
294.141	100.31
294.372	81.31
294.603	86.31
294.833	79.31
295.064	87.31
295.295	90.31
295.525	96.31
295.756	104.31
295.987	103.31
296.217	132.31
296.448	112.31
296.679	92.31
296.909	91.31
297.14	90.31
297.37	94.31
297.601	88.31
297.831	81.31
298.062	88.31
298.292	78.31
298.523	88.31
298.753	86.31
298.984	100.31
299.214	87.31
299.445	87.31
299.675	93.31
299.905	100.31
300.136	97.31
300.366	93.31
300.597	87.31
300.827	88.31
301.057	107.31
301.288	98.31
301.518	97.31
301.748	94.31
301.979	87.31
302.209	100.31
302.439	95.31
302.669	73.31
302.9	97.31
303.13	82.31
303.36	88.31
303.59	97.31
303.82	109.31
304.051	97.31
304.281	86.31
304.511	95.31
304.741	100.31
304.971	103.31
305.201	75.31
305.431	89.31
305.661	101.31
305.891	87.31
306.121	81.31
306.352	81.31
306.582	98.31
306.812	95.31
307.042	99.31
307.272	102.31
307.502	107.31
307.731	91.31
307.961	108.31
308.191	106.31
308.421	90.31
308.651	85.31
308.881	86.31
309.111	104.31
309.341	93.31
309.571	85.31
309.8	87.31
310.03	87.31
310.26	78.31
310.49	109.31
310.72	93.31
310.949	106.31
311.179	104.31
311.409	85.31
311.639	90.31
311.868	106.31
312.098	95.31
312.328	91.31
312.557	104.31
312.787	94.31
313.017	111.31
313.246	97.31
313.476	85.31
313.706	94.31
313.935	101.31
314.165	108.31
314.394	85.31
314.624	79.31
314.853	86.31
315.083	93.31
315.312	85.31
315.542	95.31
315.771	97.31
316.001	94.31
316.23	104.31
316.46	93.31
316.689	91.31
316.919	86.31
317.148	87.31
317.377	88.31
317.607	103.31
317.836	104.31
318.065	96.31
318.295	87.31
318.524	84.31
318.753	94.31
318.983	87.31
319.212	107.31
319.441	114.31
319.67	87.31
319.9	86.31
320.129	93.31
320.358	104.31
320.587	85.31
320.816	91.31
321.046	88.31
321.275	92.31
321.504	103.31
321.733	84.31
321.962	112.31
322.191	89.31
322.42	113.31
322.649	100.31
322.878	114.31
323.108	113.31
323.337	119.31
323.566	126.31
323.795	139.31
324.024	185.31
324.253	351.31
324.482	739.31
324.71	1520.31
324.939	1977.31
325.168	736.31
325.397	230.31
325.626	128.31
325.855	107.31
326.084	129.31
326.313	129.31
326.542	135.31
326.77	230.31
326.999	402.31
327.228	853.31
327.457	1525.31
327.686	1203.31
327.914	320.31
328.143	184.31
328.372	141.31
328.6	128.31
328.829	124.31
329.058	118.31
329.287	118.31
329.515	107.31
329.744	101.31
329.972	100.31
330.201	93.31
330.43	102.31
330.658	115.31
330.887	128.31
331.115	118.31
331.344	110.31
331.572	106.31
331.801	90.31
332.03	110.31
332.258	87.31
332.486	97.31
332.715	107.31
332.943	102.31
333.172	95.31
333.4	93.31
333.629	109.31
333.857	100.31
334.085	105.31
334.314	104.31
334.542	94.31
334.771	97.31
334.999	83.31
335.227	90.31
335.455	99.31
335.684	98.31
335.912	93.31
336.14	100.31
336.369	111.31
336.597	89.31
336.825	98.31
337.053	106.31
337.281	79.31
337.51	105.31
337.738	99.31
337.966	96.31
338.194	89.31
338.422	90.31
338.65	86.31
338.878	100.31
339.106	98.31
339.334	92.31
339.562	89.31
339.79	89.31
340.018	89.31
340.246	93.31
340.474	94.31
340.702	92.31
340.93	94.31
341.158	107.31
341.386	102.31
341.614	88.31
341.842	91.31
342.07	92.31
342.298	86.31
342.526	85.31
342.754	96.31
342.981	88.31
343.209	93.31
343.437	86.31
343.665	97.31
343.893	85.31
344.12	99.31
344.348	93.31
344.576	97.31
344.804	71.31
345.031	98.31
345.259	99.31
345.487	93.31
345.714	94.31
345.942	97.31
346.17	86.31
346.397	95.31
346.625	81.31
346.853	68.31
347.08	90.31
347.308	102.31
347.535	79.31
347.763	94.31
347.99	102.31
348.218	94.31
348.445	101.31
348.673	95.31
348.9	78.31
349.128	101.31
349.355	86.31
349.583	96.31
349.81	91.31
350.037	100.31
350.265	101.31
350.492	89.31
350.72	92.31
350.947	94.31
351.174	100.31
351.402	100.31
351.629	94.31
351.856	96.31
352.083	112.31
352.311	100.31
352.538	120.31
352.765	102.31
352.992	106.31
353.22	108.31
353.447	94.31
353.674	106.31
353.901	109.31
354.128	112.31
354.355	91.31
354.583	98.31
354.81	93.31
355.037	95.31
355.264	90.31
355.491	101.31
355.718	86.31
355.945	88.31
356.172	111.31
356.399	98.31
356.626	85.31
356.853	91.31
357.08	89.31
357.307	88.31
357.534	90.31
357.761	87.31
357.988	87.31
358.215	95.31
358.441	93.31
358.668	84.31
358.895	80.31
359.122	85.31
359.349	81.31
359.576	86.31
359.802	81.31
360.029	111.31
360.256	104.31
360.483	106.31
360.709	93.31
360.936	104.31
361.163	85.31
361.39	102.31
361.616	95.31
361.843	79.31
362.07	79.31
362.296	96.31
362.523	97.31
362.749	77.31
362.976	87.31
363.203	89.31
363.429	85.31
363.656	105.31
363.882	94.31
364.109	79.31
364.335	93.31
364.562	99.31
364.788	86.31
365.015	74.31
365.241	91.31
365.468	105.31
365.694	102.31
365.92	101.31
366.147	113.31
366.373	97.31
366.599	96.31
366.826	93.31
367.052	72.31
367.278	97.31
367.505	87.31
367.731	95.31
367.957	97.31
368.184	93.31
368.41	85.31
368.636	108.31
368.862	105.31
369.089	93.31
369.315	100.31
369.541	91.31
369.767	79.31
369.993	94.31
370.219	94.31
370.445	83.31
370.672	93.31
370.898	78.31
371.124	89.31
371.35	92.31
371.576	89.31
371.802	97.31
372.028	89.31
372.254	90.31
372.48	72.31
372.706	78.31
372.932	97.31
373.158	99.31
373.384	87.31
373.61	94.31
373.835	100.31
374.061	101.31
374.287	94.31
374.513	94.31
374.739	97.31
374.965	82.31
375.191	84.31
375.416	90.31
375.642	81.31
375.868	95.31
376.094	108.31
376.319	97.31
376.545	91.31
376.771	86.31
376.997	78.31
377.222	87.31
377.448	95.31
377.674	87.31
377.899	84.31
378.125	91.31
378.35	99.31
378.576	93.31
378.802	75.31
379.027	97.31
379.253	82.31
379.478	81.31
379.704	89.31
379.929	93.31
380.155	92.31
380.38	90.31
380.606	97.31
380.831	94.31
381.057	105.31
381.282	90.31
381.507	96.31
381.733	100.31
381.958	87.31
382.184	90.31
382.409	87.31
382.634	112.31
382.86	95.31
383.085	109.31
383.31	94.31
383.535	91.31
383.761	97.31
383.986	96.31
384.211	95.31
384.436	107.31
384.662	91.31
384.887	101.31
385.112	92.31
385.337	114.31
385.562	98.31
385.787	99.31
386.013	114.31
386.238	106.31
386.463	122.31
386.688	110.31
386.913	87.31
387.138	99.31
387.363	94.31
387.588	100.31
387.813	101.31
388.038	113.31
388.263	115.31
388.488	107.31
388.713	96.31
388.938	74.31
389.163	101.31
389.387	101.31
389.612	98.31
389.837	105.31
390.062	105.31
390.287	83.31
390.512	92.31
390.736	93.31
390.961	86.31
391.186	87.31
391.411	82.31
391.636	99.31
391.86	85.31
392.085	97.31
392.31	82.31
392.534	92.31
392.759	91.31
392.984	100.31
393.208	94.31
393.433	89.31
393.658	104.31
393.882	85.31
394.107	88.31
394.331	87.31
394.556	89.31
394.78	91.31
395.005	96.31
395.229	97.31
395.454	79.31
395.678	81.31
395.903	80.31
396.127	93.31
396.352	99.31
396.576	84.31
396.801	86.31
397.025	82.31
397.249	84.31
397.474	88.31
397.698	86.31
397.922	88.31
398.147	91.31
398.371	77.31
398.595	88.31
398.82	89.31
399.044	95.31
399.268	86.31
399.492	92.31
399.717	92.31
399.941	95.31
400.165	96.31
400.389	99.31
400.613	85.31
400.837	85.31
401.062	82.31
401.286	89.31
401.51	94.31
401.734	96.31
401.958	105.31
402.182	115.31
402.406	135.31
402.63	104.31
402.854	75.31
403.078	77.31
403.302	89.31
403.526	86.31
403.75	114.31
403.974	93.31
404.198	77.31
404.422	90.31
404.645	88.31
404.869	81.31
405.093	97.31
405.317	94.31
405.541	92.31
405.765	99.31
405.988	98.31
406.212	161.31
406.436	205.31
406.66	145.31
406.883	110.31
407.107	91.31
407.331	94.31
407.555	99.31
407.778	97.31
408.002	85.31
408.226	92.31
408.449	81.31
408.673	87.31
408.896	89.31
409.12	95.31
409.344	93.31
409.567	103.31
409.791	93.31
410.014	107.31
410.238	86.31
410.461	90.31
410.685	106.31
410.908	111.31
411.132	109.31
411.355	116.31
411.578	96.31
411.802	85.31
412.025	84.31
412.249	79.31
412.472	96.31
412.695	88.31
412.919	77.31
413.142	89.31
413.365	80.31
413.589	95.31
413.812	85.31
414.035	93.31
414.258	88.31
414.482	87.31
414.705	92.31
414.928	90.31
415.151	93.31
415.374	93.31
415.597	85.31
415.821	91.31
416.044	86.31
416.267	88.31
416.49	92.31
416.713	100.31
416.936	95.31
417.159	83.31
417.382	83.31
417.605	95.31
417.828	90.31
418.051	101.31
418.274	98.31
418.497	96.31
418.72	77.31
418.943	89.31
419.166	86.31
419.389	91.31
419.611	94.31
419.834	91.31
420.057	73.31
420.28	85.31
420.503	81.31
420.726	94.31
420.948	93.31
421.171	94.31
421.394	89.31
421.617	72.31
421.839	91.31
422.062	81.31
422.285	87.31
422.507	96.31
422.73	91.31
422.953	82.31
423.175	90.31
423.398	79.31
423.621	102.31
423.843	81.31
424.066	95.31
424.288	90.31
424.511	91.31
424.733	98.31
424.956	104.31
425.178	109.31
425.401	91.31
425.623	99.31
425.846	91.31
426.068	104.31
426.291	82.31
426.513	89.31
426.735	103.31
426.958	87.31
427.18	99.31
427.402	129.31
427.625	151.31
427.847	127.31
428.069	102.31
428.292	93.31
428.514	86.31
428.736	86.31
428.958	88.31
429.181	93.31
429.403	77.31
429.625	85.31
429.847	89.31
430.069	106.31
430.292	86.31
430.514	88.31
430.736	86.31
430.958	86.31
431.18	80.31
431.402	77.31
431.624	82.31
431.846	101.31
432.068	97.31
432.29	80.31
432.512	83.31
432.734	83.31
432.956	89.31
433.178	97.31
433.4	107.31
433.622	86.31
433.844	85.31
434.066	82.31
434.287	83.31
434.509	99.31
434.731	90.31
434.953	82.31
435.175	98.31
435.397	106.31
435.618	79.31
435.84	89.31
436.062	118.31
436.284	111.31
436.505	99.31
436.727	102.31
436.949	97.31
437.17	101.31
437.392	81.31
437.614	97.31
437.835	116.31
438.057	106.31
438.278	92.31
438.5	102.31
438.721	112.31
438.943	99.31
439.165	94.31
439.386	86.31
439.608	73.31
439.829	112.31
440.05	117.31
440.272	128.31
440.493	95.31
440.715	88.31
440.936	97.31
441.158	88.31
441.379	93.31
441.6	89.31
441.822	91.31
442.043	86.31
442.264	97.31
442.486	101.31
442.707	90.31
442.928	99.31
443.149	120.31
443.371	121.31
443.592	103.31
443.813	115.31
444.034	109.31
444.255	94.31
444.476	82.31
444.698	85.31
444.919	89.31
445.14	121.31
445.361	115.31
445.582	101.31
445.803	131.31
446.024	131.31
446.245	132.31
446.466	101.31
446.687	87.31
446.908	79.31
447.129	92.31
447.35	95.31
447.571	83.31
447.792	88.31
448.013	94.31
448.234	106.31
448.455	99.31
448.675	111.31
448.896	118.31
449.117	106.31
449.338	104.31
449.559	121.31
449.779	120.31
450	85.31
450.221	73.31
450.442	81.31
450.662	92.31
450.883	93.31
451.104	89.31
451.324	93.31
451.545	93.31
451.766	81.31
451.986	79.31
452.207	84.31
452.428	84.31
452.648	103.31
452.869	123.31
453.089	99.31
453.31	116.31
453.53	95.31
453.751	91.31
453.971	97.31
454.192	105.31
454.412	95.31
454.633	88.31
454.853	86.31
455.073	84.31
455.294	97.31
455.514	109.31
455.734	89.31
455.955	80.31
456.175	90.31
456.395	94.31
456.616	68.31
456.836	84.31
457.056	105.31
457.276	101.31
457.497	84.31
457.717	74.31
457.937	99.31
458.157	81.31
458.377	82.31
458.598	98.31
458.818	133.31
459.038	153.31
459.258	102.31
459.478	95.31
459.698	87.31
459.918	80.31
460.138	89.31
460.358	92.31
460.578	81.31
460.798	99.31
461.018	70.31
461.238	85.31
461.458	84.31
461.678	98.31
461.898	98.31
462.118	87.31
462.338	81.31
462.558	86.31
462.777	79.31
462.997	85.31
463.217	88.31
463.437	80.31
463.657	81.31
463.876	77.31
464.096	89.31
464.316	98.31
464.536	95.31
464.755	97.31
464.975	104.31
465.195	131.31
465.414	149.31
465.634	96.31
465.854	89.31
466.073	81.31
466.293	80.31
466.512	78.31
466.732	79.31
466.951	81.31
467.171	88.31
467.391	105.31
467.61	111.31
467.829	107.31
468.049	74.31
468.268	80.31
468.488	85.31
468.707	77.31
468.927	90.31
469.146	84.31
469.365	78.31
469.585	81.31
469.804	104.31
470.023	98.31
470.243	79.31
470.462	88.31
470.681	106.31
470.901	98.31
471.12	86.31
471.339	88.31
471.558	81.31
471.777	86.31
471.997	80.31
472.216	84.31
472.435	99.31
472.654	102.31
472.873	85.31
473.092	87.31
473.311	91.31
473.53	91.31
473.749	93.31
473.968	94.31
474.187	106.31
474.406	86.31
474.625	78.31
474.844	103.31
475.063	89.31
475.282	91.31
475.501	90.31
475.72	89.31
475.939	93.31
476.158	75.31
476.377	84.31
476.596	95.31
476.814	87.31
477.033	89.31
477.252	87.31
477.471	72.31
477.69	79.31
477.908	89.31
478.127	98.31
478.346	84.31
478.564	79.31
478.783	91.31
479.002	79.31
479.22	82.31
479.439	110.31
479.658	96.31
479.876	93.31
480.095	80.31
480.313	93.31
480.532	85.31
480.751	94.31
480.969	93.31
481.188	93.31
481.406	85.31
481.624	99.31
481.843	88.31
482.061	80.31
482.28	93.31
482.498	100.31
482.717	90.31
482.935	85.31
483.153	97.31
483.372	84.31
483.59	74.31
483.808	94.31
484.027	70.31
484.245	85.31
484.463	96.31
484.681	86.31
484.9	82.31
485.118	84.31
485.336	93.31
485.554	101.31
485.772	93.31
485.99	112.31
486.209	85.31
486.427	94.31
486.645	107.31
486.863	106.31
487.081	109.31
487.299	103.31
487.517	80.31
487.735	95.31
487.953	102.31
488.171	90.31
488.389	80.31
488.607	90.31
488.825	96.31
489.043	93.31
489.261	91.31
489.479	95.31
489.696	93.31
489.914	85.31
490.132	84.31
490.35	78.31
490.568	81.31
490.786	95.31
491.003	80.31
491.221	93.31
491.439	96.31
491.657	85.31
491.874	89.31
492.092	87.31
492.31	79.31
492.527	92.31
492.745	73.31
492.963	91.31
493.18	98.31
493.398	100.31
493.615	106.31
493.833	91.31
494.05	78.31
494.268	86.31
494.485	74.31
494.703	95.31
494.92	99.31
495.138	89.31
495.355	94.31
495.573	85.31
495.79	91.31
496.008	82.31
496.225	78.31
496.442	91.31
496.66	93.31
496.877	105.31
497.094	96.31
497.312	95.31
497.529	87.31
497.746	84.31
497.963	95.31
498.181	84.31
498.398	89.31
498.615	118.31
498.832	87.31
499.049	91.31
499.267	96.31
499.484	86.31
499.701	86.31
499.918	97.31
500.135	97.31
500.352	92.31
500.569	94.31
500.786	93.31
501.003	87.31
501.22	90.31
501.437	82.31
501.654	93.31
501.871	107.31
502.088	89.31
502.305	86.31
502.522	88.31
502.739	89.31
502.956	99.31
503.172	99.31
503.389	105.31
503.606	106.31
503.823	95.31
504.04	95.31
504.256	86.31
504.473	96.31
504.69	85.31
504.907	94.31
505.123	88.31
505.34	94.31
505.557	97.31
505.773	84.31
505.99	83.31
506.207	81.31
506.423	86.31
506.64	90.31
506.856	91.31
507.073	99.31
507.289	96.31
507.506	102.31
507.722	112.31
507.939	104.31
508.155	95.31
508.372	94.31
508.588	90.31
508.805	87.31
509.021	101.31
509.238	89.31
509.454	95.31
509.67	99.31
509.887	116.31
510.103	123.31
510.319	196.31
510.536	656.31
510.752	2127.31
510.968	593.31
511.184	142.31
511.401	101.31
511.617	91.31
511.833	99.31
512.049	88.31
512.265	102.31
512.481	95.31
512.698	91.31
512.914	97.31
513.13	98.31
513.346	88.31
513.562	94.31
513.778	84.31
513.994	100.31
514.21	112.31
514.426	118.31
514.642	128.31
514.858	114.31
515.074	153.31
515.29	400.31
515.506	1267.31
515.721	490.31
515.937	139.31
516.153	107.31
