Data from Uncirc_1986_H10_HRD10591_00059.txt Node
Date: Wed Jan 03 12:14:38 EST 2024
User: Yrep
Spectrometer: HR+D1059
Trigger mode: 1
Integration Time (sec): 1.000000E-1
Scans to average: 1
Electric dark correction enabled: true
Nonlinearity correction enabled: false
Boxcar width: 0
XAxis mode: Wavelengths
Number of Pixels in Spectrum: 2048
>>>>>Begin Spectral Data<<<<<
223.165	-16.81
223.4	-16.81
223.635	-16.81
223.869	-9.81
224.104	-15.81
224.338	-13.81
224.573	-6.81
224.808	-15.81
225.042	-6.81
225.277	-2.81
225.511	-5.81
225.746	-4.81
225.98	13.19
226.215	13.19
226.449	6.19
226.683	3.19
226.918	34.19
227.152	29.19
227.387	42.19
227.621	48.19
227.856	54.19
228.09	57.19
228.324	53.19
228.559	55.19
228.793	60.19
229.027	54.19
229.262	62.19
229.496	71.19
229.73	84.19
229.964	86.19
230.199	74.19
230.433	79.19
230.667	79.19
230.901	79.19
231.136	77.19
231.37	77.19
231.604	78.19
231.838	89.19
232.072	77.19
232.306	89.19
232.541	86.19
232.775	83.19
233.009	84.19
233.243	81.19
233.477	86.19
233.711	83.19
233.945	86.19
234.179	84.19
234.413	89.19
234.647	81.19
234.881	88.19
235.115	75.19
235.349	77.19
235.583	63.19
235.817	88.19
236.051	74.19
236.285	83.19
236.519	75.19
236.753	85.19
236.987	76.19
237.221	88.19
237.455	90.19
237.689	78.19
237.922	83.19
238.156	93.19
238.39	72.19
238.624	75.19
238.858	71.19
239.091	90.19
239.325	94.19
239.559	84.19
239.793	83.19
240.027	92.19
240.26	75.19
240.494	82.19
240.728	71.19
240.961	86.19
241.195	79.19
241.429	89.19
241.662	93.19
241.896	88.19
242.13	84.19
242.363	72.19
242.597	72.19
242.83	82.19
243.064	70.19
243.298	82.19
243.531	88.19
243.765	96.19
243.998	75.19
244.232	84.19
244.465	89.19
244.699	85.19
244.932	74.19
245.166	87.19
245.399	79.19
245.633	80.19
245.866	85.19
246.099	97.19
246.333	66.19
246.566	88.19
246.8	79.19
247.033	76.19
247.266	84.19
247.5	79.19
247.733	76.19
247.966	73.19
248.2	95.19
248.433	83.19
248.666	82.19
248.899	73.19
249.133	92.19
249.366	90.19
249.599	89.19
249.832	86.19
250.066	80.19
250.299	73.19
250.532	76.19
250.765	76.19
250.998	77.19
251.231	66.19
251.465	87.19
251.698	77.19
251.931	78.19
252.164	91.19
252.397	71.19
252.63	87.19
252.863	72.19
253.096	97.19
253.329	86.19
253.562	88.19
253.795	84.19
254.028	94.19
254.261	87.19
254.494	84.19
254.727	93.19
254.96	82.19
255.193	102.19
255.426	81.19
255.659	71.19
255.892	91.19
256.124	88.19
256.357	82.19
256.59	87.19
256.823	69.19
257.056	85.19
257.289	83.19
257.521	92.19
257.754	93.19
257.987	81.19
258.22	91.19
258.452	90.19
258.685	66.19
258.918	79.19
259.151	70.19
259.383	82.19
259.616	68.19
259.849	94.19
260.081	95.19
260.314	86.19
260.547	90.19
260.779	86.19
261.012	83.19
261.244	94.19
261.477	102.19
261.71	100.19
261.942	112.19
262.175	114.19
262.407	82.19
262.64	75.19
262.872	82.19
263.105	82.19
263.337	87.19
263.57	94.19
263.802	80.19
264.035	74.19
264.267	93.19
264.499	90.19
264.732	90.19
264.964	89.19
265.197	88.19
265.429	84.19
265.661	76.19
265.894	90.19
266.126	88.19
266.358	86.19
266.591	84.19
266.823	90.19
267.055	92.19
267.287	83.19
267.52	99.19
267.752	87.19
267.984	90.19
268.216	89.19
268.448	96.19
268.681	83.19
268.913	93.19
269.145	73.19
269.377	84.19
269.609	94.19
269.841	77.19
270.073	88.19
270.306	83.19
270.538	90.19
270.77	87.19
271.002	78.19
271.234	82.19
271.466	86.19
271.698	88.19
271.93	92.19
272.162	88.19
272.394	92.19
272.626	101.19
272.858	75.19
273.09	101.19
273.322	84.19
273.553	96.19
273.785	104.19
274.017	83.19
274.249	87.19
274.481	89.19
274.713	94.19
274.945	88.19
275.176	85.19
275.408	92.19
275.64	79.19
275.872	92.19
276.104	103.19
276.335	87.19
276.567	90.19
276.799	110.19
277.031	94.19
277.262	92.19
277.494	85.19
277.726	76.19
277.957	86.19
278.189	94.19
278.421	99.19
278.652	91.19
278.884	85.19
279.115	83.19
279.347	92.19
279.579	90.19
279.81	99.19
280.042	92.19
280.273	91.19
280.505	89.19
280.736	94.19
280.968	84.19
281.199	92.19
281.431	95.19
281.662	79.19
281.894	87.19
282.125	93.19
282.356	114.19
282.588	141.19
282.819	110.19
283.051	102.19
283.282	88.19
283.513	81.19
283.745	91.19
283.976	83.19
284.207	94.19
284.439	103.19
284.67	102.19
284.901	83.19
285.132	74.19
285.364	80.19
285.595	98.19
285.826	100.19
286.057	98.19
286.288	89.19
286.52	94.19
286.751	104.19
286.982	99.19
287.213	97.19
287.444	98.19
287.675	96.19
287.906	96.19
288.138	96.19
288.369	90.19
288.6	90.19
288.831	106.19
289.062	89.19
289.293	92.19
289.524	96.19
289.755	90.19
289.986	91.19
290.217	93.19
290.448	106.19
290.679	91.19
290.91	96.19
291.141	100.19
291.371	95.19
291.602	103.19
291.833	84.19
292.064	87.19
292.295	99.19
292.526	89.19
292.757	90.19
292.987	89.19
293.218	99.19
293.449	100.19
293.68	98.19
293.91	93.19
294.141	100.19
294.372	102.19
294.603	105.19
294.833	99.19
295.064	96.19
295.295	63.19
295.525	97.19
295.756	96.19
295.987	120.19
296.217	133.19
296.448	125.19
296.679	82.19
296.909	98.19
297.14	94.19
297.37	97.19
297.601	94.19
297.831	80.19
298.062	103.19
298.292	98.19
298.523	99.19
298.753	87.19
298.984	92.19
299.214	98.19
299.445	93.19
299.675	101.19
299.905	91.19
300.136	87.19
300.366	102.19
300.597	94.19
300.827	110.19
301.057	108.19
301.288	127.19
301.518	108.19
301.748	90.19
301.979	104.19
302.209	99.19
302.439	100.19
302.669	97.19
302.9	103.19
303.13	91.19
303.36	104.19
303.59	103.19
303.82	112.19
304.051	106.19
304.281	86.19
304.511	84.19
304.741	96.19
304.971	97.19
305.201	81.19
305.431	89.19
305.661	100.19
305.891	92.19
306.121	111.19
306.352	116.19
306.582	108.19
306.812	86.19
307.042	84.19
307.272	78.19
307.502	94.19
307.731	87.19
307.961	99.19
308.191	89.19
308.421	92.19
308.651	92.19
308.881	95.19
309.111	102.19
309.341	98.19
309.571	115.19
309.8	95.19
310.03	95.19
310.26	88.19
310.49	101.19
310.72	108.19
310.949	90.19
311.179	109.19
311.409	92.19
311.639	93.19
311.868	78.19
312.098	110.19
312.328	110.19
312.557	98.19
312.787	110.19
313.017	101.19
313.246	102.19
313.476	82.19
313.706	90.19
313.935	103.19
314.165	112.19
314.394	103.19
314.624	96.19
314.853	94.19
315.083	97.19
315.312	98.19
315.542	90.19
315.771	92.19
316.001	88.19
316.23	101.19
316.46	85.19
316.689	107.19
316.919	101.19
317.148	105.19
317.377	101.19
317.607	95.19
317.836	96.19
318.065	102.19
318.295	89.19
318.524	98.19
318.753	94.19
318.983	84.19
319.212	97.19
319.441	93.19
319.67	120.19
319.9	91.19
320.129	96.19
320.358	106.19
320.587	102.19
320.816	101.19
321.046	101.19
321.275	95.19
321.504	104.19
321.733	95.19
321.962	97.19
322.191	111.19
322.42	114.19
322.649	124.19
322.878	109.19
323.108	98.19
323.337	120.19
323.566	124.19
323.795	139.19
324.024	193.19
324.253	352.19
324.482	756.19
324.71	1576.19
324.939	2090.19
325.168	747.19
325.397	243.19
325.626	150.19
325.855	132.19
326.084	120.19
326.313	135.19
326.542	142.19
326.77	217.19
326.999	413.19
327.228	871.19
327.457	1574.19
327.686	1250.19
327.914	345.19
328.143	203.19
328.372	171.19
328.6	130.19
328.829	118.19
329.058	128.19
329.287	127.19
329.515	99.19
329.744	117.19
329.972	98.19
330.201	103.19
330.43	114.19
330.658	124.19
330.887	147.19
331.115	118.19
331.344	100.19
331.572	98.19
331.801	107.19
332.03	96.19
332.258	107.19
332.486	96.19
332.715	106.19
332.943	99.19
333.172	98.19
333.4	98.19
333.629	108.19
333.857	109.19
334.085	108.19
334.314	113.19
334.542	102.19
334.771	116.19
334.999	84.19
335.227	99.19
335.455	91.19
335.684	108.19
335.912	98.19
336.14	106.19
336.369	109.19
336.597	104.19
336.825	99.19
337.053	100.19
337.281	93.19
337.51	94.19
337.738	104.19
337.966	98.19
338.194	93.19
338.422	101.19
338.65	104.19
338.878	100.19
339.106	99.19
339.334	103.19
339.562	95.19
339.79	107.19
340.018	100.19
340.246	85.19
340.474	88.19
340.702	99.19
340.93	86.19
341.158	107.19
341.386	107.19
341.614	107.19
341.842	92.19
342.07	101.19
342.298	100.19
342.526	106.19
342.754	100.19
342.981	94.19
343.209	88.19
343.437	103.19
343.665	95.19
343.893	93.19
344.12	96.19
344.348	99.19
344.576	93.19
344.804	90.19
345.031	99.19
345.259	105.19
345.487	94.19
345.714	102.19
345.942	103.19
346.17	94.19
346.397	92.19
346.625	94.19
346.853	86.19
347.08	103.19
347.308	96.19
347.535	107.19
347.763	99.19
347.99	119.19
348.218	93.19
348.445	104.19
348.673	107.19
348.9	108.19
349.128	105.19
349.355	109.19
349.583	94.19
349.81	89.19
350.037	100.19
350.265	107.19
350.492	111.19
350.72	116.19
350.947	102.19
351.174	115.19
351.402	112.19
351.629	102.19
351.856	118.19
352.083	107.19
352.311	110.19
352.538	104.19
352.765	109.19
352.992	120.19
353.22	100.19
353.447	103.19
353.674	115.19
353.901	108.19
354.128	99.19
354.355	102.19
354.583	89.19
354.81	101.19
355.037	104.19
355.264	101.19
355.491	106.19
355.718	92.19
355.945	97.19
356.172	104.19
356.399	114.19
356.626	96.19
356.853	101.19
357.08	101.19
357.307	97.19
357.534	83.19
357.761	82.19
357.988	96.19
358.215	98.19
358.441	105.19
358.668	108.19
358.895	98.19
359.122	104.19
359.349	108.19
359.576	100.19
359.802	92.19
360.029	101.19
360.256	107.19
360.483	105.19
360.709	93.19
360.936	94.19
361.163	103.19
361.39	88.19
361.616	110.19
361.843	86.19
362.07	92.19
362.296	93.19
362.523	96.19
362.749	100.19
362.976	93.19
363.203	104.19
363.429	94.19
363.656	104.19
363.882	94.19
364.109	102.19
364.335	84.19
364.562	89.19
364.788	95.19
365.015	93.19
365.241	78.19
365.468	97.19
365.694	111.19
365.92	96.19
366.147	83.19
366.373	88.19
366.599	93.19
366.826	92.19
367.052	101.19
367.278	92.19
367.505	105.19
367.731	97.19
367.957	90.19
368.184	100.19
368.41	90.19
368.636	110.19
368.862	118.19
369.089	98.19
369.315	85.19
369.541	98.19
369.767	94.19
369.993	98.19
370.219	94.19
370.445	102.19
370.672	87.19
370.898	93.19
371.124	111.19
371.35	94.19
371.576	91.19
371.802	97.19
372.028	105.19
372.254	91.19
372.48	101.19
372.706	75.19
372.932	88.19
373.158	99.19
373.384	95.19
373.61	87.19
373.835	82.19
374.061	100.19
374.287	86.19
374.513	87.19
374.739	92.19
374.965	103.19
375.191	98.19
375.416	100.19
375.642	95.19
375.868	98.19
376.094	101.19
376.319	99.19
376.545	80.19
376.771	91.19
376.997	94.19
377.222	83.19
377.448	92.19
377.674	106.19
377.899	84.19
378.125	88.19
378.35	91.19
378.576	96.19
378.802	95.19
379.027	109.19
379.253	102.19
379.478	90.19
379.704	71.19
379.929	98.19
380.155	102.19
380.38	107.19
380.606	95.19
380.831	92.19
381.057	93.19
381.282	107.19
381.507	98.19
381.733	109.19
381.958	100.19
382.184	101.19
382.409	97.19
382.634	100.19
382.86	107.19
383.085	106.19
383.31	88.19
383.535	110.19
383.761	102.19
383.986	108.19
384.211	102.19
384.436	86.19
384.662	91.19
384.887	99.19
385.112	120.19
385.337	98.19
385.562	108.19
385.787	99.19
386.013	103.19
386.238	99.19
386.463	110.19
386.688	106.19
386.913	101.19
387.138	103.19
387.363	100.19
387.588	95.19
387.813	97.19
388.038	106.19
388.263	112.19
388.488	104.19
388.713	98.19
388.938	104.19
389.163	104.19
389.387	112.19
389.612	113.19
389.837	116.19
390.062	91.19
390.287	101.19
390.512	96.19
390.736	90.19
390.961	96.19
391.186	99.19
391.411	83.19
391.636	90.19
391.86	91.19
392.085	95.19
392.31	93.19
392.534	71.19
392.759	82.19
392.984	99.19
393.208	99.19
393.433	104.19
393.658	92.19
393.882	95.19
394.107	84.19
394.331	105.19
394.556	85.19
394.78	90.19
395.005	78.19
395.229	84.19
395.454	106.19
395.678	99.19
395.903	89.19
396.127	102.19
396.352	108.19
396.576	96.19
396.801	95.19
397.025	97.19
397.249	94.19
397.474	79.19
397.698	90.19
397.922	100.19
398.147	87.19
398.371	79.19
398.595	100.19
398.82	95.19
399.044	102.19
399.268	96.19
399.492	98.19
399.717	87.19
399.941	86.19
400.165	96.19
400.389	103.19
400.613	91.19
400.837	93.19
401.062	97.19
401.286	93.19
401.51	98.19
401.734	87.19
401.958	96.19
402.182	137.19
402.406	148.19
402.63	111.19
402.854	98.19
403.078	90.19
403.302	96.19
403.526	95.19
403.75	78.19
403.974	93.19
404.198	88.19
404.422	86.19
404.645	99.19
404.869	93.19
405.093	104.19
405.317	100.19
405.541	92.19
405.765	107.19
405.988	132.19
406.212	166.19
406.436	214.19
406.66	125.19
406.883	102.19
407.107	89.19
407.331	100.19
407.555	106.19
407.778	109.19
408.002	79.19
408.226	88.19
408.449	91.19
408.673	106.19
408.896	100.19
409.12	84.19
409.344	94.19
409.567	104.19
409.791	100.19
410.014	100.19
410.238	99.19
410.461	96.19
410.685	108.19
410.908	93.19
411.132	126.19
411.355	117.19
411.578	102.19
411.802	86.19
412.025	86.19
412.249	98.19
412.472	92.19
412.695	98.19
412.919	95.19
413.142	100.19
413.365	96.19
413.589	90.19
413.812	95.19
414.035	99.19
414.258	103.19
414.482	94.19
414.705	94.19
414.928	97.19
415.151	93.19
415.374	106.19
415.597	100.19
415.821	89.19
416.044	85.19
416.267	92.19
416.49	94.19
416.713	81.19
416.936	87.19
417.159	96.19
417.382	89.19
417.605	106.19
417.828	104.19
418.051	95.19
418.274	105.19
418.497	86.19
418.72	82.19
418.943	98.19
419.166	83.19
419.389	96.19
419.611	91.19
419.834	77.19
420.057	93.19
420.28	88.19
420.503	88.19
420.726	104.19
420.948	93.19
421.171	91.19
421.394	83.19
421.617	109.19
421.839	116.19
422.062	102.19
422.285	95.19
422.507	108.19
422.73	106.19
422.953	103.19
423.175	86.19
423.398	71.19
423.621	100.19
423.843	100.19
424.066	95.19
424.288	91.19
424.511	96.19
424.733	119.19
424.956	97.19
425.178	104.19
425.401	100.19
425.623	111.19
425.846	95.19
426.068	101.19
426.291	107.19
426.513	85.19
426.735	95.19
426.958	106.19
427.18	106.19
427.402	131.19
427.625	156.19
427.847	126.19
428.069	112.19
428.292	95.19
428.514	90.19
428.736	92.19
428.958	99.19
429.181	95.19
429.403	86.19
429.625	76.19
429.847	91.19
430.069	107.19
430.292	99.19
430.514	92.19
430.736	94.19
430.958	85.19
431.18	85.19
431.402	96.19
431.624	102.19
431.846	97.19
432.068	92.19
432.29	88.19
432.512	102.19
432.734	100.19
432.956	115.19
433.178	102.19
433.4	104.19
433.622	106.19
433.844	104.19
434.066	93.19
434.287	84.19
434.509	94.19
434.731	91.19
434.953	74.19
435.175	86.19
435.397	95.19
435.618	104.19
435.84	111.19
436.062	112.19
436.284	105.19
436.505	102.19
436.727	100.19
436.949	103.19
437.17	90.19
437.392	101.19
437.614	94.19
437.835	96.19
438.057	130.19
438.278	110.19
438.5	107.19
438.721	121.19
438.943	107.19
439.165	76.19
439.386	93.19
439.608	99.19
439.829	92.19
440.05	111.19
440.272	154.19
440.493	115.19
440.715	82.19
440.936	89.19
441.158	93.19
441.379	100.19
441.6	101.19
441.822	100.19
442.043	94.19
442.264	115.19
442.486	102.19
442.707	106.19
442.928	108.19
443.149	133.19
443.371	132.19
443.592	116.19
443.813	115.19
444.034	107.19
444.255	90.19
444.476	92.19
444.698	91.19
444.919	88.19
445.14	117.19
445.361	118.19
445.582	110.19
445.803	139.19
446.024	136.19
446.245	122.19
446.466	111.19
446.687	109.19
446.908	95.19
447.129	98.19
447.35	92.19
447.571	100.19
447.792	96.19
448.013	106.19
448.234	92.19
448.455	95.19
448.675	115.19
448.896	116.19
449.117	103.19
449.338	113.19
449.559	118.19
449.779	136.19
450	94.19
450.221	75.19
450.442	99.19
450.662	100.19
450.883	100.19
451.104	102.19
451.324	106.19
451.545	89.19
451.766	98.19
451.986	89.19
452.207	94.19
452.428	83.19
452.648	98.19
452.869	103.19
453.089	112.19
453.31	117.19
453.53	86.19
453.751	94.19
453.971	109.19
454.192	114.19
454.412	108.19
454.633	92.19
454.853	98.19
455.073	95.19
455.294	91.19
455.514	117.19
455.734	103.19
455.955	101.19
456.175	88.19
456.395	95.19
456.616	98.19
456.836	92.19
457.056	91.19
457.276	77.19
457.497	91.19
457.717	91.19
457.937	78.19
458.157	98.19
458.377	101.19
458.598	106.19
458.818	145.19
459.038	168.19
459.258	106.19
459.478	79.19
459.698	84.19
459.918	75.19
460.138	97.19
460.358	98.19
460.578	110.19
460.798	107.19
461.018	104.19
461.238	97.19
461.458	86.19
461.678	88.19
461.898	102.19
462.118	94.19
462.338	85.19
462.558	104.19
462.777	95.19
462.997	93.19
463.217	94.19
463.437	98.19
463.657	93.19
463.876	92.19
464.096	93.19
464.316	95.19
464.536	103.19
464.755	94.19
464.975	120.19
465.195	173.19
465.414	140.19
465.634	101.19
465.854	81.19
466.073	94.19
466.293	70.19
466.512	95.19
466.732	80.19
466.951	100.19
467.171	104.19
467.391	115.19
467.61	101.19
467.829	112.19
468.049	104.19
468.268	93.19
468.488	88.19
468.707	107.19
468.927	82.19
469.146	84.19
469.365	99.19
469.585	86.19
469.804	92.19
470.023	102.19
470.243	91.19
470.462	90.19
470.681	101.19
470.901	85.19
471.12	90.19
471.339	81.19
471.558	73.19
471.777	92.19
471.997	90.19
472.216	108.19
472.435	102.19
472.654	83.19
472.873	102.19
473.092	89.19
473.311	100.19
473.53	73.19
473.749	94.19
473.968	90.19
474.187	125.19
474.406	90.19
474.625	89.19
474.844	91.19
475.063	81.19
475.282	88.19
475.501	84.19
475.72	77.19
475.939	84.19
476.158	100.19
476.377	93.19
476.596	88.19
476.814	100.19
477.033	101.19
477.252	92.19
477.471	86.19
477.69	98.19
477.908	88.19
478.127	106.19
478.346	98.19
478.564	98.19
478.783	102.19
479.002	86.19
479.22	91.19
479.439	103.19
479.658	87.19
479.876	96.19
480.095	89.19
480.313	92.19
480.532	101.19
480.751	90.19
480.969	100.19
481.188	121.19
481.406	104.19
481.624	88.19
481.843	98.19
482.061	107.19
482.28	86.19
482.498	93.19
482.717	107.19
482.935	85.19
483.153	95.19
483.372	95.19
483.59	94.19
483.808	93.19
484.027	96.19
484.245	90.19
484.463	109.19
484.681	95.19
484.9	110.19
485.118	106.19
485.336	99.19
485.554	105.19
485.772	111.19
485.99	116.19
486.209	110.19
486.427	111.19
486.645	123.19
486.863	110.19
487.081	116.19
487.299	96.19
487.517	111.19
487.735	113.19
487.953	109.19
488.171	107.19
488.389	91.19
488.607	104.19
488.825	94.19
489.043	87.19
489.261	105.19
489.479	84.19
489.696	91.19
489.914	102.19
490.132	88.19
490.35	83.19
490.568	91.19
490.786	94.19
491.003	103.19
491.221	94.19
491.439	98.19
491.657	89.19
491.874	106.19
492.092	99.19
492.31	88.19
492.527	90.19
492.745	96.19
492.963	94.19
493.18	95.19
493.398	96.19
493.615	105.19
493.833	100.19
494.05	103.19
494.268	91.19
494.485	96.19
494.703	98.19
494.92	94.19
495.138	90.19
495.355	99.19
495.573	102.19
495.79	94.19
496.008	87.19
496.225	87.19
496.442	95.19
496.66	90.19
496.877	87.19
497.094	91.19
497.312	101.19
497.529	101.19
497.746	105.19
497.963	86.19
498.181	95.19
498.398	92.19
498.615	108.19
498.832	108.19
499.049	106.19
499.267	94.19
499.484	105.19
499.701	101.19
499.918	82.19
500.135	90.19
500.352	97.19
500.569	78.19
500.786	84.19
501.003	92.19
501.22	108.19
501.437	77.19
501.654	92.19
501.871	96.19
502.088	92.19
502.305	79.19
502.522	91.19
502.739	94.19
502.956	102.19
503.172	100.19
503.389	101.19
503.606	103.19
503.823	99.19
504.04	88.19
504.256	79.19
504.473	106.19
504.69	95.19
504.907	88.19
505.123	95.19
505.34	85.19
505.557	98.19
505.773	106.19
505.99	94.19
506.207	77.19
506.423	108.19
506.64	106.19
506.856	107.19
507.073	85.19
507.289	95.19
507.506	106.19
507.722	128.19
507.939	106.19
508.155	90.19
508.372	90.19
508.588	84.19
508.805	97.19
509.021	101.19
509.238	99.19
509.454	96.19
509.67	100.19
509.887	118.19
510.103	127.19
510.319	210.19
510.536	725.19
510.752	2178.19
510.968	598.19
511.184	158.19
511.401	107.19
511.617	109.19
511.833	107.19
512.049	114.19
512.265	99.19
512.481	90.19
512.698	93.19
512.914	100.19
513.13	105.19
513.346	95.19
