Data from Uncirc_1986_H10_HRD10591_00013.txt Node
Date: Wed Jan 03 12:14:29 EST 2024
User: Yrep
Spectrometer: HR+D1059
Trigger mode: 1
Integration Time (sec): 1.000000E-1
Scans to average: 1
Electric dark correction enabled: true
Nonlinearity correction enabled: false
Boxcar width: 0
XAxis mode: Wavelengths
Number of Pixels in Spectrum: 2048
>>>>>Begin Spectral Data<<<<<
223.165	-9.75
223.4	-9.75
223.635	-9.75
223.869	-28.75
224.104	-16.75
224.338	-3.75
224.573	-11.75
224.808	-13.75
225.042	-2.75
225.277	-6.75
225.511	-2.75
225.746	2.25
225.98	-4.75
226.215	8.25
226.449	13.25
226.683	4.25
226.918	31.25
227.152	42.25
227.387	32.25
227.621	13.25
227.856	42.25
228.09	52.25
228.324	49.25
228.559	50.25
228.793	57.25
229.027	63.25
229.262	66.25
229.496	70.25
229.73	79.25
229.964	77.25
230.199	57.25
230.433	69.25
230.667	65.25
230.901	75.25
231.136	73.25
231.37	88.25
231.604	92.25
231.838	82.25
232.072	72.25
232.306	79.25
232.541	88.25
232.775	87.25
233.009	89.25
233.243	71.25
233.477	82.25
233.711	74.25
233.945	71.25
234.179	78.25
234.413	80.25
234.647	71.25
234.881	80.25
235.115	86.25
235.349	78.25
235.583	80.25
235.817	80.25
236.051	68.25
236.285	69.25
236.519	78.25
236.753	78.25
236.987	70.25
237.221	92.25
237.455	75.25
237.689	72.25
237.922	83.25
238.156	59.25
238.39	69.25
238.624	71.25
238.858	79.25
239.091	68.25
239.325	72.25
239.559	77.25
239.793	82.25
240.027	81.25
240.26	79.25
240.494	79.25
240.728	81.25
240.961	86.25
241.195	68.25
241.429	81.25
241.662	75.25
241.896	61.25
242.13	83.25
242.363	67.25
242.597	64.25
242.83	68.25
243.064	74.25
243.298	62.25
243.531	80.25
243.765	67.25
243.998	74.25
244.232	69.25
244.465	84.25
244.699	76.25
244.932	71.25
245.166	78.25
245.399	71.25
245.633	80.25
245.866	76.25
246.099	54.25
246.333	67.25
246.566	74.25
246.8	88.25
247.033	63.25
247.266	84.25
247.5	78.25
247.733	67.25
247.966	82.25
248.2	73.25
248.433	72.25
248.666	67.25
248.899	81.25
249.133	78.25
249.366	101.25
249.599	97.25
249.832	81.25
250.066	84.25
250.299	78.25
250.532	80.25
250.765	68.25
250.998	93.25
251.231	77.25
251.465	86.25
251.698	88.25
251.931	83.25
252.164	68.25
252.397	88.25
252.63	69.25
252.863	85.25
253.096	77.25
253.329	77.25
253.562	80.25
253.795	69.25
254.028	70.25
254.261	77.25
254.494	83.25
254.727	82.25
254.96	80.25
255.193	93.25
255.426	95.25
255.659	77.25
255.892	72.25
256.124	82.25
256.357	84.25
256.59	88.25
256.823	76.25
257.056	101.25
257.289	78.25
257.521	73.25
257.754	71.25
257.987	87.25
258.22	83.25
258.452	81.25
258.685	77.25
258.918	73.25
259.151	73.25
259.383	87.25
259.616	88.25
259.849	78.25
260.081	82.25
260.314	67.25
260.547	84.25
260.779	76.25
261.012	65.25
261.244	91.25
261.477	88.25
261.71	92.25
261.942	102.25
262.175	103.25
262.407	105.25
262.64	84.25
262.872	86.25
263.105	72.25
263.337	107.25
263.57	99.25
263.802	88.25
264.035	80.25
264.267	95.25
264.499	78.25
264.732	73.25
264.964	88.25
265.197	79.25
265.429	74.25
265.661	76.25
265.894	80.25
266.126	73.25
266.358	80.25
266.591	72.25
266.823	88.25
267.055	72.25
267.287	100.25
267.52	76.25
267.752	76.25
267.984	76.25
268.216	84.25
268.448	81.25
268.681	65.25
268.913	84.25
269.145	81.25
269.377	84.25
269.609	88.25
269.841	89.25
270.073	66.25
270.306	68.25
270.538	80.25
270.77	68.25
271.002	92.25
271.234	80.25
271.466	85.25
271.698	73.25
271.93	76.25
272.162	73.25
272.394	84.25
272.626	88.25
272.858	85.25
273.09	90.25
273.322	81.25
273.553	85.25
273.785	90.25
274.017	95.25
274.249	75.25
274.481	73.25
274.713	72.25
274.945	97.25
275.176	81.25
275.408	95.25
275.64	86.25
275.872	88.25
276.104	88.25
276.335	104.25
276.567	88.25
276.799	89.25
277.031	86.25
277.262	87.25
277.494	88.25
277.726	81.25
277.957	78.25
278.189	73.25
278.421	82.25
278.652	78.25
278.884	80.25
279.115	89.25
279.347	74.25
279.579	84.25
279.81	68.25
280.042	78.25
280.273	71.25
280.505	98.25
280.736	85.25
280.968	86.25
281.199	69.25
281.431	89.25
281.662	95.25
281.894	80.25
282.125	90.25
282.356	104.25
282.588	116.25
282.819	110.25
283.051	77.25
283.282	65.25
283.513	91.25
283.745	85.25
283.976	89.25
284.207	92.25
284.439	86.25
284.67	82.25
284.901	79.25
285.132	86.25
285.364	78.25
285.595	89.25
285.826	84.25
286.057	80.25
286.288	102.25
286.52	84.25
286.751	81.25
286.982	67.25
287.213	86.25
287.444	70.25
287.675	78.25
287.906	77.25
288.138	95.25
288.369	99.25
288.6	92.25
288.831	96.25
289.062	81.25
289.293	98.25
289.524	95.25
289.755	82.25
289.986	79.25
290.217	82.25
290.448	93.25
290.679	79.25
290.91	81.25
291.141	84.25
291.371	82.25
291.602	81.25
291.833	85.25
292.064	88.25
292.295	86.25
292.526	94.25
292.757	81.25
292.987	87.25
293.218	71.25
293.449	83.25
293.68	98.25
293.91	96.25
294.141	90.25
294.372	72.25
294.603	76.25
294.833	82.25
295.064	86.25
295.295	82.25
295.525	81.25
295.756	94.25
295.987	108.25
296.217	118.25
296.448	103.25
296.679	81.25
296.909	86.25
297.14	84.25
297.37	88.25
297.601	83.25
297.831	95.25
298.062	89.25
298.292	78.25
298.523	84.25
298.753	86.25
298.984	89.25
299.214	89.25
299.445	76.25
299.675	84.25
299.905	102.25
300.136	86.25
300.366	84.25
300.597	77.25
300.827	99.25
301.057	86.25
301.288	85.25
301.518	89.25
301.748	93.25
301.979	89.25
302.209	89.25
302.439	93.25
302.669	74.25
302.9	72.25
303.13	91.25
303.36	100.25
303.59	89.25
303.82	87.25
304.051	96.25
304.281	80.25
304.511	101.25
304.741	96.25
304.971	84.25
305.201	77.25
305.431	82.25
305.661	84.25
305.891	90.25
306.121	93.25
306.352	80.25
306.582	106.25
306.812	92.25
307.042	95.25
307.272	84.25
307.502	79.25
307.731	79.25
307.961	83.25
308.191	85.25
308.421	87.25
308.651	92.25
308.881	80.25
309.111	87.25
309.341	88.25
309.571	105.25
309.8	83.25
310.03	88.25
310.26	94.25
310.49	91.25
310.72	93.25
310.949	101.25
311.179	98.25
311.409	86.25
311.639	89.25
311.868	91.25
312.098	93.25
312.328	94.25
312.557	104.25
312.787	97.25
313.017	102.25
313.246	89.25
313.476	94.25
313.706	89.25
313.935	101.25
314.165	84.25
314.394	82.25
314.624	83.25
314.853	89.25
315.083	93.25
315.312	100.25
315.542	71.25
315.771	80.25
316.001	84.25
316.23	86.25
316.46	104.25
316.689	103.25
316.919	90.25
317.148	100.25
317.377	98.25
317.607	93.25
317.836	86.25
318.065	80.25
318.295	100.25
318.524	104.25
318.753	97.25
318.983	94.25
319.212	86.25
319.441	80.25
319.67	94.25
319.9	110.25
320.129	97.25
320.358	101.25
320.587	98.25
320.816	90.25
321.046	97.25
321.275	87.25
321.504	90.25
321.733	101.25
321.962	86.25
322.191	110.25
322.42	96.25
322.649	105.25
322.878	110.25
323.108	121.25
323.337	127.25
323.566	127.25
323.795	131.25
324.024	186.25
324.253	345.25
324.482	678.25
324.71	1373.25
324.939	1856.25
325.168	684.25
325.397	217.25
325.626	128.25
325.855	135.25
326.084	122.25
326.313	127.25
326.542	152.25
326.77	197.25
326.999	388.25
327.228	798.25
327.457	1453.25
327.686	1144.25
327.914	304.25
328.143	175.25
328.372	135.25
328.6	112.25
328.829	110.25
329.058	110.25
329.287	112.25
329.515	100.25
329.744	110.25
329.972	109.25
330.201	103.25
330.43	95.25
330.658	94.25
330.887	121.25
331.115	106.25
331.344	99.25
331.572	112.25
331.801	92.25
332.03	90.25
332.258	100.25
332.486	97.25
332.715	96.25
332.943	97.25
333.172	86.25
333.4	94.25
333.629	88.25
333.857	115.25
334.085	92.25
334.314	85.25
334.542	98.25
334.771	93.25
334.999	90.25
335.227	109.25
335.455	104.25
335.684	94.25
335.912	94.25
336.14	99.25
336.369	96.25
336.597	94.25
336.825	102.25
337.053	85.25
337.281	96.25
337.51	91.25
337.738	100.25
337.966	95.25
338.194	101.25
338.422	90.25
338.65	85.25
338.878	93.25
339.106	99.25
339.334	101.25
339.562	90.25
339.79	102.25
340.018	88.25
340.246	95.25
340.474	97.25
340.702	92.25
340.93	89.25
341.158	96.25
341.386	89.25
341.614	89.25
341.842	94.25
342.07	95.25
342.298	94.25
342.526	80.25
342.754	83.25
342.981	82.25
343.209	77.25
343.437	92.25
343.665	84.25
343.893	87.25
344.12	98.25
344.348	89.25
344.576	89.25
344.804	102.25
345.031	92.25
345.259	101.25
345.487	77.25
345.714	95.25
345.942	93.25
346.17	95.25
346.397	88.25
346.625	88.25
346.853	89.25
347.08	92.25
347.308	98.25
347.535	97.25
347.763	105.25
347.99	90.25
348.218	99.25
348.445	102.25
348.673	91.25
348.9	81.25
349.128	102.25
349.355	78.25
349.583	90.25
349.81	98.25
350.037	82.25
350.265	102.25
350.492	104.25
350.72	102.25
350.947	104.25
351.174	94.25
351.402	100.25
351.629	89.25
351.856	89.25
352.083	85.25
352.311	84.25
352.538	100.25
352.765	88.25
352.992	102.25
353.22	103.25
353.447	106.25
353.674	90.25
353.901	105.25
354.128	96.25
354.355	83.25
354.583	99.25
354.81	107.25
355.037	96.25
355.264	86.25
355.491	89.25
355.718	95.25
355.945	90.25
356.172	88.25
356.399	94.25
356.626	101.25
356.853	92.25
357.08	77.25
357.307	100.25
357.534	78.25
357.761	88.25
357.988	88.25
358.215	102.25
358.441	85.25
358.668	92.25
358.895	92.25
359.122	81.25
359.349	89.25
359.576	97.25
359.802	104.25
360.029	114.25
360.256	102.25
360.483	111.25
360.709	94.25
360.936	96.25
361.163	101.25
361.39	96.25
361.616	97.25
361.843	95.25
362.07	94.25
362.296	100.25
362.523	94.25
362.749	82.25
362.976	80.25
363.203	85.25
363.429	63.25
363.656	96.25
363.882	92.25
364.109	84.25
364.335	88.25
364.562	92.25
364.788	87.25
365.015	93.25
365.241	86.25
365.468	97.25
365.694	92.25
365.92	96.25
366.147	85.25
366.373	88.25
366.599	94.25
366.826	100.25
367.052	89.25
367.278	89.25
367.505	88.25
367.731	91.25
367.957	90.25
368.184	88.25
368.41	103.25
368.636	104.25
368.862	107.25
369.089	88.25
369.315	99.25
369.541	84.25
369.767	85.25
369.993	84.25
370.219	80.25
370.445	92.25
370.672	94.25
370.898	84.25
371.124	88.25
371.35	95.25
371.576	86.25
371.802	82.25
372.028	89.25
372.254	88.25
372.48	82.25
372.706	95.25
372.932	85.25
373.158	77.25
373.384	88.25
373.61	88.25
373.835	80.25
374.061	83.25
374.287	80.25
374.513	91.25
374.739	80.25
374.965	81.25
375.191	83.25
375.416	85.25
375.642	82.25
375.868	79.25
376.094	94.25
376.319	80.25
376.545	85.25
376.771	93.25
376.997	91.25
377.222	96.25
377.448	98.25
377.674	93.25
377.899	94.25
378.125	87.25
378.35	98.25
378.576	99.25
378.802	82.25
379.027	77.25
379.253	81.25
379.478	85.25
379.704	96.25
379.929	71.25
380.155	105.25
380.38	87.25
380.606	89.25
380.831	88.25
381.057	92.25
381.282	91.25
381.507	90.25
381.733	94.25
381.958	82.25
382.184	95.25
382.409	87.25
382.634	95.25
382.86	110.25
383.085	99.25
383.31	103.25
383.535	102.25
383.761	87.25
383.986	89.25
384.211	97.25
384.436	97.25
384.662	99.25
384.887	104.25
385.112	103.25
385.337	91.25
385.562	86.25
385.787	111.25
386.013	110.25
386.238	105.25
386.463	95.25
386.688	106.25
386.913	100.25
387.138	100.25
387.363	90.25
387.588	104.25
387.813	99.25
388.038	80.25
388.263	96.25
388.488	107.25
388.713	103.25
388.938	80.25
389.163	106.25
389.387	101.25
389.612	93.25
389.837	83.25
390.062	93.25
390.287	93.25
390.512	84.25
390.736	76.25
390.961	84.25
391.186	100.25
391.411	92.25
391.636	99.25
391.86	96.25
392.085	80.25
392.31	90.25
392.534	90.25
392.759	86.25
392.984	71.25
393.208	91.25
393.433	102.25
393.658	87.25
393.882	89.25
394.107	72.25
394.331	84.25
394.556	91.25
394.78	90.25
395.005	78.25
395.229	83.25
395.454	73.25
395.678	72.25
395.903	78.25
396.127	79.25
396.352	82.25
396.576	84.25
396.801	86.25
397.025	88.25
397.249	81.25
397.474	75.25
397.698	79.25
397.922	91.25
398.147	80.25
398.371	82.25
398.595	92.25
398.82	78.25
399.044	76.25
399.268	84.25
399.492	80.25
399.717	79.25
399.941	89.25
400.165	93.25
400.389	91.25
400.613	84.25
400.837	87.25
401.062	81.25
401.286	88.25
401.51	93.25
401.734	85.25
401.958	107.25
402.182	107.25
402.406	135.25
402.63	101.25
402.854	90.25
403.078	87.25
403.302	77.25
403.526	90.25
403.75	86.25
403.974	91.25
404.198	89.25
404.422	92.25
404.645	88.25
404.869	85.25
405.093	87.25
405.317	102.25
405.541	91.25
405.765	87.25
405.988	112.25
406.212	154.25
406.436	196.25
406.66	137.25
406.883	97.25
407.107	99.25
407.331	90.25
407.555	89.25
407.778	93.25
408.002	91.25
408.226	77.25
408.449	90.25
408.673	93.25
408.896	95.25
409.12	101.25
409.344	82.25
409.567	87.25
409.791	95.25
410.014	83.25
410.238	98.25
410.461	91.25
410.685	88.25
410.908	103.25
411.132	94.25
411.355	108.25
411.578	87.25
411.802	94.25
412.025	96.25
412.249	91.25
412.472	93.25
412.695	88.25
412.919	78.25
413.142	79.25
413.365	97.25
413.589	95.25
413.812	83.25
414.035	87.25
414.258	88.25
414.482	102.25
414.705	86.25
414.928	76.25
415.151	85.25
415.374	89.25
415.597	96.25
415.821	84.25
416.044	79.25
416.267	95.25
416.49	80.25
416.713	78.25
416.936	80.25
417.159	84.25
417.382	84.25
417.605	90.25
417.828	97.25
418.051	91.25
418.274	93.25
418.497	89.25
418.72	82.25
418.943	95.25
419.166	105.25
419.389	89.25
419.611	81.25
419.834	81.25
420.057	93.25
420.28	86.25
420.503	84.25
420.726	92.25
420.948	85.25
421.171	78.25
421.394	72.25
421.617	93.25
421.839	96.25
422.062	87.25
422.285	80.25
422.507	94.25
422.73	95.25
422.953	88.25
423.175	85.25
423.398	88.25
423.621	82.25
423.843	96.25
424.066	77.25
424.288	96.25
424.511	92.25
424.733	92.25
424.956	100.25
425.178	81.25
425.401	85.25
425.623	92.25
425.846	83.25
426.068	92.25
426.291	100.25
426.513	86.25
426.735	96.25
426.958	87.25
427.18	102.25
427.402	131.25
427.625	142.25
427.847	117.25
428.069	97.25
428.292	73.25
428.514	76.25
428.736	72.25
428.958	83.25
429.181	85.25
429.403	87.25
429.625	95.25
429.847	93.25
430.069	93.25
430.292	81.25
430.514	79.25
430.736	87.25
430.958	89.25
431.18	98.25
431.402	95.25
431.624	76.25
431.846	86.25
432.068	79.25
432.29	96.25
432.512	101.25
432.734	97.25
432.956	94.25
433.178	97.25
433.4	89.25
433.622	89.25
433.844	90.25
434.066	82.25
434.287	91.25
434.509	93.25
434.731	102.25
434.953	90.25
435.175	73.25
435.397	87.25
435.618	90.25
435.84	102.25
436.062	133.25
436.284	97.25
436.505	96.25
436.727	97.25
436.949	97.25
437.17	98.25
437.392	91.25
437.614	76.25
437.835	96.25
438.057	110.25
438.278	97.25
438.5	94.25
438.721	110.25
438.943	104.25
439.165	84.25
439.386	87.25
439.608	88.25
439.829	94.25
440.05	112.25
440.272	127.25
440.493	86.25
440.715	100.25
440.936	81.25
441.158	87.25
441.379	79.25
441.6	94.25
441.822	97.25
442.043	94.25
442.264	92.25
442.486	90.25
442.707	104.25
442.928	101.25
443.149	115.25
443.371	127.25
443.592	93.25
443.813	104.25
444.034	86.25
444.255	87.25
444.476	89.25
444.698	94.25
444.919	83.25
445.14	111.25
445.361	111.25
445.582	101.25
445.803	118.25
446.024	118.25
446.245	110.25
446.466	117.25
446.687	88.25
446.908	85.25
447.129	95.25
447.35	103.25
447.571	107.25
447.792	77.25
448.013	94.25
448.234	98.25
448.455	101.25
448.675	109.25
448.896	115.25
449.117	106.25
449.338	102.25
449.559	104.25
449.779	123.25
450	102.25
450.221	87.25
450.442	84.25
450.662	103.25
450.883	101.25
451.104	95.25
451.324	94.25
451.545	78.25
451.766	88.25
451.986	92.25
452.207	84.25
452.428	79.25
452.648	87.25
452.869	110.25
453.089	108.25
453.31	95.25
453.53	84.25
453.751	88.25
453.971	101.25
454.192	102.25
454.412	83.25
454.633	82.25
454.853	83.25
455.073	72.25
455.294	95.25
455.514	97.25
455.734	80.25
455.955	97.25
456.175	96.25
456.395	99.25
456.616	85.25
456.836	91.25
457.056	65.25
457.276	80.25
457.497	83.25
457.717	96.25
457.937	84.25
458.157	94.25
458.377	84.25
458.598	88.25
458.818	120.25
459.038	148.25
459.258	102.25
459.478	84.25
459.698	62.25
459.918	80.25
460.138	94.25
460.358	91.25
460.578	85.25
460.798	98.25
461.018	90.25
461.238	74.25
461.458	87.25
461.678	73.25
461.898	71.25
462.118	78.25
462.338	81.25
462.558	81.25
462.777	83.25
462.997	92.25
463.217	72.25
463.437	77.25
463.657	82.25
463.876	85.25
464.096	80.25
464.316	82.25
464.536	80.25
464.755	95.25
464.975	95.25
465.195	151.25
465.414	148.25
465.634	101.25
465.854	88.25
466.073	80.25
466.293	81.25
466.512	84.25
466.732	90.25
466.951	70.25
467.171	91.25
467.391	89.25
467.61	92.25
467.829	103.25
468.049	92.25
468.268	82.25
468.488	89.25
468.707	88.25
468.927	89.25
469.146	92.25
469.365	83.25
469.585	67.25
469.804	95.25
470.023	101.25
470.243	85.25
470.462	82.25
470.681	100.25
470.901	81.25
471.12	73.25
471.339	92.25
471.558	80.25
471.777	77.25
471.997	84.25
472.216	98.25
472.435	92.25
472.654	80.25
472.873	81.25
473.092	88.25
473.311	75.25
473.53	82.25
473.749	94.25
473.968	96.25
474.187	103.25
474.406	110.25
474.625	88.25
474.844	89.25
475.063	83.25
475.282	89.25
475.501	92.25
475.72	83.25
475.939	99.25
476.158	94.25
476.377	80.25
476.596	87.25
476.814	87.25
477.033	85.25
477.252	89.25
477.471	74.25
477.69	88.25
477.908	80.25
478.127	82.25
478.346	81.25
478.564	74.25
478.783	84.25
479.002	88.25
479.22	104.25
479.439	92.25
479.658	83.25
479.876	96.25
480.095	84.25
480.313	91.25
480.532	98.25
480.751	91.25
480.969	68.25
481.188	89.25
481.406	101.25
481.624	83.25
481.843	82.25
482.061	91.25
482.28	87.25
482.498	86.25
482.717	85.25
482.935	88.25
483.153	82.25
483.372	88.25
483.59	82.25
483.808	95.25
484.027	108.25
484.245	89.25
484.463	92.25
484.681	87.25
484.9	88.25
485.118	96.25
485.336	88.25
485.554	100.25
485.772	94.25
485.99	103.25
486.209	97.25
486.427	96.25
486.645	116.25
486.863	97.25
487.081	101.25
487.299	102.25
487.517	91.25
487.735	102.25
487.953	94.25
488.171	85.25
488.389	94.25
488.607	93.25
488.825	85.25
489.043	79.25
489.261	87.25
489.479	78.25
489.696	94.25
489.914	88.25
490.132	86.25
490.35	62.25
490.568	87.25
490.786	78.25
491.003	93.25
491.221	84.25
491.439	104.25
491.657	88.25
491.874	92.25
492.092	82.25
492.31	90.25
492.527	97.25
492.745	83.25
492.963	79.25
493.18	105.25
493.398	88.25
493.615	96.25
493.833	108.25
494.05	95.25
494.268	85.25
494.485	90.25
494.703	92.25
494.92	104.25
495.138	95.25
495.355	103.25
495.573	103.25
495.79	93.25
496.008	92.25
496.225	89.25
496.442	82.25
496.66	79.25
496.877	90.25
497.094	89.25
497.312	86.25
497.529	87.25
497.746	102.25
497.963	103.25
498.181	95.25
498.398	101.25
498.615	100.25
498.832	91.25
499.049	89.25
499.267	94.25
499.484	82.25
499.701	92.25
499.918	81.25
500.135	93.25
500.352	88.25
500.569	93.25
500.786	94.25
501.003	84.25
501.22	91.25
501.437	94.25
501.654	92.25
501.871	108.25
502.088	81.25
502.305	88.25
502.522	78.25
502.739	83.25
502.956	88.25
503.172	79.25
503.389	90.25
503.606	93.25
503.823	103.25
504.04	78.25
504.256	88.25
504.473	84.25
504.69	90.25
504.907	99.25
505.123	86.25
505.34	85.25
505.557	91.25
505.773	86.25
505.99	82.25
506.207	85.25
506.423	79.25
506.64	95.25
506.856	77.25
507.073	104.25
507.289	99.25
507.506	99.25
507.722	110.25
507.939	102.25
508.155	94.25
508.372	90.25
508.588	88.25
508.805	89.25
509.021	92.25
509.238	111.25
509.454	96.25
509.67	105.25
509.887	108.25
510.103	119.25
510.319	204.25
510.536	654.25
510.752	2007.25
510.968	572.25
511.184	140.25
511.401	102.25
511.617	104.25
511.833	88.25
512.049	88.25
512.265	88.25
512.481	90.25
512.698	90.25
512.914	88.25
513.13	90.25
513.346	95.25
513.562	80.25
513.778	106.25
513.994	90.25
514.21	103.25
514.426	126.25
514.642	128.25
514.858	120.25
515.074	175.25
515.29	371.25
515.506	1198.25
515.721	427.25
515.937	130.25
516.153	110.25
516.369	90.25
516.585	89.25
