Data from Uncirc_1986_H10_HRD10591_00076.txt Node
Date: Wed Jan 03 12:14:41 EST 2024
User: Yrep
Spectrometer: HR+D1059
Trigger mode: 1
Integration Time (sec): 1.000000E-1
Scans to average: 1
Electric dark correction enabled: true
Nonlinearity correction enabled: false
Boxcar width: 0
XAxis mode: Wavelengths
Number of Pixels in Spectrum: 2048
>>>>>Begin Spectral Data<<<<<
223.165	-26.44
223.4	-26.44
223.635	-26.44
223.869	-7.44
224.104	-24.44
224.338	-10.44
224.573	-28.44
224.808	-8.44
225.042	-18.44
225.277	-9.44
225.511	4.56
225.746	20.56
225.98	3.56
226.215	-8.44
226.449	16.56
226.683	29.56
226.918	31.56
227.152	35.56
227.387	24.56
227.621	34.56
227.856	37.56
228.09	39.56
228.324	45.56
228.559	56.56
228.793	52.56
229.027	76.56
229.262	68.56
229.496	69.56
229.73	75.56
229.964	74.56
230.199	65.56
230.433	65.56
230.667	78.56
230.901	84.56
231.136	69.56
231.37	68.56
231.604	72.56
231.838	81.56
232.072	68.56
232.306	84.56
232.541	78.56
232.775	81.56
233.009	73.56
233.243	85.56
233.477	77.56
233.711	80.56
233.945	79.56
234.179	79.56
234.413	80.56
234.647	81.56
234.881	55.56
235.115	95.56
235.349	79.56
235.583	65.56
235.817	70.56
236.051	77.56
236.285	71.56
236.519	75.56
236.753	78.56
236.987	83.56
237.221	85.56
237.455	72.56
237.689	66.56
237.922	80.56
238.156	63.56
238.39	100.56
238.624	78.56
238.858	73.56
239.091	76.56
239.325	71.56
239.559	81.56
239.793	79.56
240.027	68.56
240.26	80.56
240.494	78.56
240.728	67.56
240.961	78.56
241.195	79.56
241.429	62.56
241.662	74.56
241.896	79.56
242.13	71.56
242.363	68.56
242.597	93.56
242.83	82.56
243.064	63.56
243.298	68.56
243.531	65.56
243.765	76.56
243.998	80.56
244.232	84.56
244.465	65.56
244.699	86.56
244.932	74.56
245.166	79.56
245.399	78.56
245.633	77.56
245.866	82.56
246.099	68.56
246.333	79.56
246.566	82.56
246.8	77.56
247.033	74.56
247.266	77.56
247.5	80.56
247.733	69.56
247.966	56.56
248.2	77.56
248.433	72.56
248.666	75.56
248.899	82.56
249.133	78.56
249.366	85.56
249.599	110.56
249.832	84.56
250.066	77.56
250.299	75.56
250.532	70.56
250.765	75.56
250.998	74.56
251.231	60.56
251.465	77.56
251.698	84.56
251.931	75.56
252.164	79.56
252.397	93.56
252.63	74.56
252.863	81.56
253.096	82.56
253.329	67.56
253.562	62.56
253.795	66.56
254.028	70.56
254.261	77.56
254.494	94.56
254.727	69.56
254.96	90.56
255.193	82.56
255.426	82.56
255.659	80.56
255.892	82.56
256.124	74.56
256.357	72.56
256.59	88.56
256.823	72.56
257.056	82.56
257.289	82.56
257.521	86.56
257.754	58.56
257.987	94.56
258.22	69.56
258.452	84.56
258.685	87.56
258.918	72.56
259.151	67.56
259.383	79.56
259.616	83.56
259.849	68.56
260.081	90.56
260.314	78.56
260.547	64.56
260.779	69.56
261.012	82.56
261.244	86.56
261.477	91.56
261.71	87.56
261.942	107.56
262.175	104.56
262.407	84.56
262.64	82.56
262.872	90.56
263.105	96.56
263.337	79.56
263.57	88.56
263.802	81.56
264.035	84.56
264.267	93.56
264.499	78.56
264.732	94.56
264.964	89.56
265.197	90.56
265.429	82.56
265.661	79.56
265.894	83.56
266.126	76.56
266.358	79.56
266.591	75.56
266.823	80.56
267.055	76.56
267.287	75.56
267.52	77.56
267.752	70.56
267.984	85.56
268.216	70.56
268.448	91.56
268.681	74.56
268.913	83.56
269.145	87.56
269.377	87.56
269.609	81.56
269.841	64.56
270.073	74.56
270.306	78.56
270.538	86.56
270.77	75.56
271.002	79.56
271.234	75.56
271.466	98.56
271.698	91.56
271.93	75.56
272.162	90.56
272.394	82.56
272.626	87.56
272.858	79.56
273.09	76.56
273.322	84.56
273.553	86.56
273.785	87.56
274.017	88.56
274.249	87.56
274.481	73.56
274.713	76.56
274.945	80.56
275.176	90.56
275.408	104.56
275.64	86.56
275.872	80.56
276.104	81.56
276.335	86.56
276.567	95.56
276.799	98.56
277.031	92.56
277.262	91.56
277.494	76.56
277.726	83.56
277.957	76.56
278.189	79.56
278.421	90.56
278.652	86.56
278.884	87.56
279.115	69.56
279.347	84.56
279.579	80.56
279.81	85.56
280.042	84.56
280.273	93.56
280.505	84.56
280.736	82.56
280.968	86.56
281.199	89.56
281.431	92.56
281.662	87.56
281.894	80.56
282.125	87.56
282.356	105.56
282.588	120.56
282.819	96.56
283.051	94.56
283.282	85.56
283.513	91.56
283.745	86.56
283.976	92.56
284.207	76.56
284.439	86.56
284.67	99.56
284.901	76.56
285.132	88.56
285.364	90.56
285.595	97.56
285.826	88.56
286.057	93.56
286.288	74.56
286.52	78.56
286.751	74.56
286.982	90.56
287.213	86.56
287.444	70.56
287.675	89.56
287.906	92.56
288.138	87.56
288.369	81.56
288.6	79.56
288.831	87.56
289.062	93.56
289.293	85.56
289.524	78.56
289.755	81.56
289.986	83.56
290.217	78.56
290.448	70.56
290.679	81.56
290.91	90.56
291.141	89.56
291.371	94.56
291.602	70.56
291.833	82.56
292.064	79.56
292.295	74.56
292.526	87.56
292.757	94.56
292.987	87.56
293.218	87.56
293.449	90.56
293.68	84.56
293.91	75.56
294.141	85.56
294.372	75.56
294.603	94.56
294.833	80.56
295.064	94.56
295.295	86.56
295.525	92.56
295.756	80.56
295.987	109.56
296.217	132.56
296.448	118.56
296.679	98.56
296.909	109.56
297.14	86.56
297.37	84.56
297.601	87.56
297.831	70.56
298.062	79.56
298.292	83.56
298.523	90.56
298.753	88.56
298.984	79.56
299.214	87.56
299.445	100.56
299.675	95.56
299.905	82.56
300.136	88.56
300.366	83.56
300.597	86.56
300.827	77.56
301.057	103.56
301.288	98.56
301.518	97.56
301.748	80.56
301.979	94.56
302.209	80.56
302.439	85.56
302.669	72.56
302.9	74.56
303.13	98.56
303.36	83.56
303.59	101.56
303.82	101.56
304.051	83.56
304.281	81.56
304.511	68.56
304.741	82.56
304.971	92.56
305.201	77.56
305.431	98.56
305.661	83.56
305.891	90.56
306.121	98.56
306.352	86.56
306.582	99.56
306.812	98.56
307.042	102.56
307.272	94.56
307.502	81.56
307.731	72.56
307.961	78.56
308.191	83.56
308.421	84.56
308.651	91.56
308.881	84.56
309.111	85.56
309.341	83.56
309.571	94.56
309.8	93.56
310.03	91.56
310.26	98.56
310.49	94.56
310.72	96.56
310.949	96.56
311.179	95.56
311.409	81.56
311.639	101.56
311.868	94.56
312.098	108.56
312.328	90.56
312.557	96.56
312.787	92.56
313.017	78.56
313.246	91.56
313.476	84.56
313.706	113.56
313.935	100.56
314.165	94.56
314.394	91.56
314.624	85.56
314.853	93.56
315.083	93.56
315.312	92.56
315.542	90.56
315.771	82.56
316.001	94.56
316.23	95.56
316.46	81.56
316.689	93.56
316.919	96.56
317.148	101.56
317.377	95.56
317.607	89.56
317.836	95.56
318.065	87.56
318.295	99.56
318.524	89.56
318.753	89.56
318.983	93.56
319.212	91.56
319.441	100.56
319.67	100.56
319.9	99.56
320.129	90.56
320.358	94.56
320.587	106.56
320.816	84.56
321.046	98.56
321.275	96.56
321.504	102.56
321.733	79.56
321.962	100.56
322.191	84.56
322.42	101.56
322.649	110.56
322.878	95.56
323.108	93.56
323.337	115.56
323.566	126.56
323.795	154.56
324.024	204.56
324.253	374.56
324.482	778.56
324.71	1598.56
324.939	2214.56
325.168	794.56
325.397	251.56
325.626	131.56
325.855	112.56
326.084	132.56
326.313	131.56
326.542	145.56
326.77	205.56
326.999	437.56
327.228	912.56
327.457	1690.56
327.686	1364.56
327.914	364.56
328.143	182.56
328.372	146.56
328.6	129.56
328.829	114.56
329.058	109.56
329.287	115.56
329.515	98.56
329.744	98.56
329.972	101.56
330.201	103.56
330.43	109.56
330.658	111.56
330.887	139.56
331.115	126.56
331.344	94.56
331.572	93.56
331.801	93.56
332.03	87.56
332.258	82.56
332.486	95.56
332.715	85.56
332.943	93.56
333.172	99.56
333.4	91.56
333.629	109.56
333.857	96.56
334.085	103.56
334.314	89.56
334.542	123.56
334.771	110.56
334.999	97.56
335.227	92.56
335.455	93.56
335.684	106.56
335.912	87.56
336.14	96.56
336.369	93.56
336.597	88.56
336.825	112.56
337.053	90.56
337.281	93.56
337.51	95.56
337.738	90.56
337.966	80.56
338.194	101.56
338.422	96.56
338.65	102.56
338.878	79.56
339.106	90.56
339.334	86.56
339.562	92.56
339.79	91.56
340.018	97.56
340.246	83.56
340.474	76.56
340.702	87.56
340.93	90.56
341.158	90.56
341.386	84.56
341.614	78.56
341.842	77.56
342.07	104.56
342.298	88.56
342.526	87.56
342.754	95.56
342.981	83.56
343.209	78.56
343.437	85.56
343.665	89.56
343.893	102.56
344.12	104.56
344.348	100.56
344.576	98.56
344.804	87.56
345.031	76.56
345.259	93.56
345.487	92.56
345.714	88.56
345.942	86.56
346.17	96.56
346.397	100.56
346.625	81.56
346.853	83.56
347.08	76.56
347.308	99.56
347.535	103.56
347.763	86.56
347.99	83.56
348.218	101.56
348.445	93.56
348.673	91.56
348.9	88.56
349.128	96.56
349.355	85.56
349.583	82.56
349.81	90.56
350.037	80.56
350.265	90.56
350.492	93.56
350.72	92.56
350.947	79.56
351.174	92.56
351.402	109.56
351.629	98.56
351.856	102.56
352.083	90.56
352.311	115.56
352.538	104.56
352.765	99.56
352.992	105.56
353.22	112.56
353.447	112.56
353.674	98.56
353.901	93.56
354.128	93.56
354.355	98.56
354.583	89.56
354.81	83.56
355.037	86.56
355.264	93.56
355.491	88.56
355.718	90.56
355.945	90.56
356.172	98.56
356.399	105.56
356.626	101.56
356.853	88.56
357.08	71.56
357.307	90.56
357.534	102.56
357.761	102.56
357.988	85.56
358.215	91.56
358.441	74.56
358.668	79.56
358.895	83.56
359.122	82.56
359.349	105.56
359.576	84.56
359.802	83.56
360.029	94.56
360.256	104.56
360.483	98.56
360.709	71.56
360.936	75.56
361.163	92.56
361.39	93.56
361.616	92.56
361.843	102.56
362.07	100.56
362.296	90.56
362.523	91.56
362.749	84.56
362.976	79.56
363.203	96.56
363.429	83.56
363.656	87.56
363.882	77.56
364.109	87.56
364.335	95.56
364.562	86.56
364.788	92.56
365.015	84.56
365.241	82.56
365.468	92.56
365.694	87.56
365.92	88.56
366.147	94.56
366.373	93.56
366.599	80.56
366.826	94.56
367.052	71.56
367.278	85.56
367.505	98.56
367.731	92.56
367.957	81.56
368.184	100.56
368.41	93.56
368.636	100.56
368.862	101.56
369.089	102.56
369.315	83.56
369.541	86.56
369.767	76.56
369.993	87.56
370.219	104.56
370.445	91.56
370.672	84.56
370.898	72.56
371.124	81.56
371.35	82.56
371.576	84.56
371.802	102.56
372.028	87.56
372.254	86.56
372.48	72.56
372.706	75.56
372.932	72.56
373.158	90.56
373.384	77.56
373.61	91.56
373.835	95.56
374.061	87.56
374.287	79.56
374.513	86.56
374.739	72.56
374.965	83.56
375.191	84.56
375.416	82.56
375.642	98.56
375.868	84.56
376.094	78.56
376.319	87.56
376.545	77.56
376.771	85.56
376.997	84.56
377.222	78.56
377.448	84.56
377.674	97.56
377.899	87.56
378.125	92.56
378.35	90.56
378.576	87.56
378.802	83.56
379.027	92.56
379.253	90.56
379.478	92.56
379.704	89.56
379.929	84.56
380.155	90.56
380.38	93.56
380.606	92.56
380.831	76.56
381.057	98.56
381.282	97.56
381.507	96.56
381.733	90.56
381.958	92.56
382.184	78.56
382.409	85.56
382.634	85.56
382.86	90.56
383.085	93.56
383.31	86.56
383.535	91.56
383.761	81.56
383.986	110.56
384.211	85.56
384.436	95.56
384.662	93.56
384.887	92.56
385.112	97.56
385.337	81.56
385.562	100.56
385.787	90.56
386.013	98.56
386.238	113.56
386.463	103.56
386.688	114.56
386.913	97.56
387.138	102.56
387.363	100.56
387.588	107.56
387.813	103.56
388.038	106.56
388.263	103.56
388.488	104.56
388.713	98.56
388.938	87.56
389.163	104.56
389.387	96.56
389.612	97.56
389.837	86.56
390.062	88.56
390.287	91.56
390.512	87.56
390.736	80.56
390.961	80.56
391.186	85.56
391.411	83.56
391.636	83.56
391.86	93.56
392.085	70.56
392.31	79.56
392.534	84.56
392.759	88.56
392.984	84.56
393.208	74.56
393.433	85.56
393.658	90.56
393.882	75.56
394.107	80.56
394.331	84.56
394.556	83.56
394.78	74.56
395.005	79.56
395.229	98.56
395.454	85.56
395.678	99.56
395.903	93.56
396.127	93.56
396.352	84.56
396.576	76.56
396.801	90.56
397.025	96.56
397.249	88.56
397.474	93.56
397.698	80.56
397.922	94.56
398.147	69.56
398.371	78.56
398.595	90.56
398.82	90.56
399.044	90.56
399.268	72.56
399.492	75.56
399.717	92.56
399.941	86.56
400.165	96.56
400.389	83.56
400.613	69.56
400.837	78.56
401.062	94.56
401.286	68.56
401.51	76.56
401.734	87.56
401.958	80.56
402.182	118.56
402.406	152.56
402.63	106.56
402.854	82.56
403.078	75.56
403.302	82.56
403.526	83.56
403.75	88.56
403.974	86.56
404.198	76.56
404.422	94.56
404.645	98.56
404.869	90.56
405.093	89.56
405.317	100.56
405.541	91.56
405.765	102.56
405.988	122.56
406.212	165.56
406.436	199.56
406.66	124.56
406.883	86.56
407.107	80.56
407.331	90.56
407.555	99.56
407.778	98.56
408.002	83.56
408.226	81.56
408.449	86.56
408.673	93.56
408.896	71.56
409.12	78.56
409.344	99.56
409.567	87.56
409.791	92.56
410.014	87.56
410.238	89.56
410.461	100.56
410.685	91.56
410.908	97.56
411.132	103.56
411.355	86.56
411.578	98.56
411.802	81.56
412.025	83.56
412.249	96.56
412.472	86.56
412.695	84.56
412.919	72.56
413.142	98.56
413.365	92.56
413.589	96.56
413.812	84.56
414.035	78.56
414.258	79.56
414.482	92.56
414.705	75.56
414.928	86.56
415.151	72.56
415.374	88.56
415.597	79.56
415.821	80.56
416.044	83.56
416.267	97.56
416.49	82.56
416.713	78.56
416.936	66.56
417.159	82.56
417.382	91.56
417.605	92.56
417.828	99.56
418.051	91.56
418.274	69.56
418.497	89.56
418.72	78.56
418.943	82.56
419.166	89.56
419.389	73.56
419.611	84.56
419.834	84.56
420.057	99.56
420.28	83.56
420.503	78.56
420.726	83.56
420.948	90.56
421.171	99.56
421.394	80.56
421.617	94.56
421.839	96.56
422.062	91.56
422.285	88.56
422.507	92.56
422.73	103.56
422.953	86.56
423.175	88.56
423.398	94.56
423.621	68.56
423.843	80.56
424.066	86.56
424.288	72.56
424.511	81.56
424.733	88.56
424.956	107.56
425.178	93.56
425.401	99.56
425.623	99.56
425.846	93.56
426.068	88.56
426.291	82.56
426.513	92.56
426.735	94.56
426.958	92.56
427.18	111.56
427.402	142.56
427.625	167.56
427.847	121.56
428.069	110.56
428.292	83.56
428.514	63.56
428.736	78.56
428.958	77.56
429.181	85.56
429.403	82.56
429.625	88.56
429.847	96.56
430.069	105.56
430.292	102.56
430.514	85.56
430.736	99.56
430.958	79.56
431.18	78.56
431.402	80.56
431.624	95.56
431.846	61.56
432.068	86.56
432.29	78.56
432.512	88.56
432.734	82.56
432.956	81.56
433.178	94.56
433.4	98.56
433.622	80.56
433.844	84.56
434.066	88.56
434.287	93.56
434.509	87.56
434.731	91.56
434.953	83.56
435.175	95.56
435.397	100.56
435.618	81.56
435.84	94.56
436.062	114.56
436.284	100.56
436.505	98.56
436.727	98.56
436.949	87.56
437.17	96.56
437.392	93.56
437.614	95.56
437.835	98.56
438.057	105.56
438.278	101.56
438.5	108.56
438.721	121.56
438.943	108.56
439.165	87.56
439.386	75.56
439.608	78.56
439.829	83.56
440.05	131.56
440.272	127.56
440.493	94.56
440.715	77.56
440.936	91.56
441.158	71.56
441.379	97.56
441.6	77.56
441.822	85.56
442.043	103.56
442.264	99.56
442.486	90.56
442.707	85.56
442.928	99.56
443.149	126.56
443.371	112.56
443.592	103.56
443.813	80.56
444.034	102.56
444.255	70.56
444.476	69.56
444.698	90.56
444.919	87.56
445.14	133.56
445.361	112.56
445.582	102.56
445.803	139.56
446.024	125.56
446.245	127.56
446.466	109.56
446.687	70.56
446.908	85.56
447.129	95.56
447.35	93.56
447.571	96.56
447.792	89.56
448.013	72.56
448.234	101.56
448.455	110.56
448.675	112.56
448.896	125.56
449.117	102.56
449.338	96.56
449.559	141.56
449.779	131.56
450	85.56
450.221	86.56
450.442	82.56
450.662	89.56
450.883	104.56
451.104	100.56
451.324	89.56
451.545	86.56
451.766	85.56
451.986	81.56
452.207	78.56
452.428	87.56
452.648	101.56
452.869	102.56
453.089	114.56
453.31	119.56
453.53	95.56
453.751	62.56
453.971	88.56
454.192	101.56
454.412	95.56
454.633	79.56
454.853	92.56
455.073	101.56
455.294	85.56
455.514	104.56
455.734	99.56
455.955	91.56
456.175	87.56
456.395	84.56
456.616	91.56
456.836	85.56
457.056	66.56
457.276	80.56
457.497	60.56
457.717	80.56
457.937	83.56
458.157	90.56
458.377	90.56
458.598	106.56
458.818	146.56
459.038	134.56
459.258	117.56
459.478	82.56
459.698	92.56
459.918	90.56
460.138	83.56
460.358	88.56
460.578	102.56
460.798	80.56
461.018	90.56
461.238	90.56
461.458	73.56
461.678	92.56
461.898	87.56
462.118	103.56
462.338	87.56
462.558	90.56
462.777	77.56
462.997	67.56
463.217	69.56
463.437	88.56
463.657	84.56
463.876	68.56
464.096	83.56
464.316	70.56
464.536	80.56
464.755	95.56
464.975	96.56
465.195	132.56
465.414	155.56
465.634	77.56
465.854	82.56
466.073	84.56
466.293	94.56
466.512	86.56
466.732	87.56
466.951	89.56
467.171	98.56
467.391	86.56
467.61	92.56
467.829	86.56
468.049	80.56
468.268	75.56
468.488	77.56
468.707	84.56
468.927	74.56
469.146	91.56
469.365	75.56
469.585	80.56
469.804	83.56
470.023	95.56
470.243	80.56
470.462	105.56
470.681	95.56
470.901	91.56
471.12	71.56
471.339	84.56
471.558	91.56
471.777	86.56
471.997	87.56
472.216	95.56
472.435	95.56
472.654	100.56
472.873	90.56
473.092	80.56
473.311	103.56
473.53	75.56
473.749	92.56
473.968	104.56
474.187	101.56
474.406	88.56
474.625	83.56
474.844	89.56
475.063	80.56
475.282	67.56
475.501	65.56
475.72	88.56
475.939	85.56
476.158	77.56
476.377	70.56
476.596	72.56
476.814	83.56
477.033	80.56
477.252	74.56
477.471	99.56
477.69	98.56
477.908	101.56
478.127	80.56
478.346	80.56
478.564	86.56
478.783	85.56
479.002	85.56
479.22	97.56
479.439	89.56
479.658	99.56
479.876	82.56
480.095	66.56
480.313	91.56
480.532	88.56
480.751	85.56
480.969	87.56
481.188	126.56
481.406	112.56
481.624	82.56
481.843	82.56
482.061	93.56
482.28	85.56
482.498	74.56
482.717	87.56
482.935	85.56
483.153	86.56
483.372	108.56
483.59	102.56
483.808	98.56
484.027	92.56
484.245	84.56
484.463	100.56
484.681	101.56
484.9	99.56
485.118	82.56
485.336	84.56
485.554	93.56
485.772	91.56
485.99	91.56
486.209	91.56
486.427	95.56
486.645	98.56
486.863	100.56
487.081	108.56
487.299	81.56
487.517	88.56
487.735	92.56
487.953	76.56
488.171	99.56
488.389	88.56
488.607	93.56
488.825	99.56
489.043	65.56
489.261	73.56
489.479	78.56
489.696	81.56
489.914	79.56
490.132	95.56
490.35	80.56
490.568	83.56
490.786	86.56
491.003	78.56
491.221	88.56
491.439	105.56
491.657	93.56
491.874	99.56
492.092	91.56
492.31	84.56
492.527	81.56
492.745	75.56
492.963	90.56
493.18	79.56
493.398	98.56
493.615	96.56
493.833	95.56
494.05	98.56
494.268	94.56
494.485	90.56
494.703	105.56
494.92	79.56
495.138	75.56
495.355	102.56
495.573	78.56
495.79	80.56
496.008	97.56
496.225	81.56
496.442	78.56
496.66	85.56
496.877	96.56
497.094	86.56
497.312	85.56
497.529	69.56
497.746	91.56
497.963	82.56
498.181	87.56
498.398	93.56
498.615	113.56
498.832	113.56
499.049	92.56
499.267	91.56
499.484	86.56
499.701	74.56
499.918	81.56
500.135	90.56
500.352	96.56
500.569	90.56
500.786	81.56
501.003	83.56
501.22	95.56
501.437	90.56
501.654	91.56
501.871	101.56
502.088	92.56
502.305	80.56
502.522	87.56
502.739	82.56
502.956	92.56
503.172	82.56
503.389	91.56
503.606	86.56
503.823	94.56
504.04	85.56
504.256	86.56
504.473	94.56
504.69	94.56
504.907	99.56
505.123	80.56
505.34	86.56
505.557	97.56
505.773	86.56
505.99	92.56
506.207	74.56
506.423	87.56
506.64	87.56
506.856	86.56
507.073	76.56
507.289	99.56
507.506	91.56
507.722	110.56
507.939	106.56
508.155	87.56
508.372	79.56
508.588	83.56
508.805	94.56
509.021	95.56
509.238	101.56
509.454	95.56
509.67	90.56
509.887	101.56
510.103	125.56
510.319	208.56
510.536	669.56
510.752	2144.56
510.968	600.56
511.184	144.56
511.401	95.56
511.617	101.56
511.833	77.56
512.049	90.56
512.265	75.56
512.481	85.56
512.698	86.56
512.914	84.56
513.13	88.56
513.346	86.56
513.562	95.56
513.778	94.56
513.994	84.56
514.21	86.56
514.426	105.56
514.642	126.56
514.858	122.56
515.074	172.56
515.29	410.56
515.506	1309.56
515.721	480.56
515.937	134.56
516.153	99.56
516.369	101.56
516.585	88.56
516.801	82.56
517.016	90.56
