Data from Uncirc_1986_H10_HRD10591_00081.txt Node
Date: Wed Jan 03 12:14:42 EST 2024
User: Yrep
Spectrometer: HR+D1059
Trigger mode: 1
Integration Time (sec): 1.000000E-1
Scans to average: 1
Electric dark correction enabled: true
Nonlinearity correction enabled: false
Boxcar width: 0
XAxis mode: Wavelengths
Number of Pixels in Spectrum: 2048
>>>>>Begin Spectral Data<<<<<
223.165	-16.75
223.4	-16.75
223.635	-16.75
223.869	-11.75
224.104	-18.75
224.338	-14.75
224.573	-14.75
224.808	-7.75
225.042	-1.75
225.277	-11.75
225.511	-8.75
225.746	-0.75
225.98	-0.75
226.215	17.25
226.449	20.25
226.683	21.25
226.918	11.25
227.152	38.25
227.387	34.25
227.621	34.25
227.856	50.25
228.09	48.25
228.324	48.25
228.559	59.25
228.793	65.25
229.027	64.25
229.262	50.25
229.496	65.25
229.73	69.25
229.964	72.25
230.199	86.25
230.433	74.25
230.667	72.25
230.901	71.25
231.136	63.25
231.37	83.25
231.604	75.25
231.838	77.25
232.072	94.25
232.306	85.25
232.541	78.25
232.775	86.25
233.009	95.25
233.243	78.25
233.477	80.25
233.711	82.25
233.945	79.25
234.179	82.25
234.413	80.25
234.647	80.25
234.881	75.25
235.115	84.25
235.349	85.25
235.583	84.25
235.817	76.25
236.051	82.25
236.285	82.25
236.519	73.25
236.753	88.25
236.987	74.25
237.221	80.25
237.455	69.25
237.689	78.25
237.922	80.25
238.156	87.25
238.39	75.25
238.624	83.25
238.858	69.25
239.091	67.25
239.325	83.25
239.559	64.25
239.793	83.25
240.027	75.25
240.26	83.25
240.494	92.25
240.728	80.25
240.961	92.25
241.195	74.25
241.429	74.25
241.662	78.25
241.896	101.25
242.13	87.25
242.363	74.25
242.597	80.25
242.83	80.25
243.064	73.25
243.298	72.25
243.531	81.25
243.765	64.25
243.998	78.25
244.232	71.25
244.465	88.25
244.699	92.25
244.932	88.25
245.166	83.25
245.399	71.25
245.633	76.25
245.866	74.25
246.099	83.25
246.333	83.25
246.566	80.25
246.8	81.25
247.033	93.25
247.266	73.25
247.5	87.25
247.733	83.25
247.966	85.25
248.2	82.25
248.433	78.25
248.666	90.25
248.899	75.25
249.133	73.25
249.366	85.25
249.599	86.25
249.832	86.25
250.066	77.25
250.299	89.25
250.532	86.25
250.765	75.25
250.998	73.25
251.231	78.25
251.465	80.25
251.698	90.25
251.931	70.25
252.164	78.25
252.397	74.25
252.63	98.25
252.863	76.25
253.096	91.25
253.329	84.25
253.562	78.25
253.795	76.25
254.028	79.25
254.261	100.25
254.494	79.25
254.727	75.25
254.96	84.25
255.193	69.25
255.426	88.25
255.659	85.25
255.892	82.25
256.124	81.25
256.357	82.25
256.59	74.25
256.823	83.25
257.056	80.25
257.289	87.25
257.521	82.25
257.754	83.25
257.987	70.25
258.22	78.25
258.452	83.25
258.685	83.25
258.918	79.25
259.151	71.25
259.383	79.25
259.616	72.25
259.849	76.25
260.081	83.25
260.314	92.25
260.547	80.25
260.779	70.25
261.012	74.25
261.244	75.25
261.477	96.25
261.71	82.25
261.942	101.25
262.175	105.25
262.407	88.25
262.64	84.25
262.872	88.25
263.105	78.25
263.337	84.25
263.57	76.25
263.802	74.25
264.035	78.25
264.267	83.25
264.499	86.25
264.732	74.25
264.964	74.25
265.197	82.25
265.429	82.25
265.661	85.25
265.894	84.25
266.126	86.25
266.358	80.25
266.591	92.25
266.823	81.25
267.055	98.25
267.287	91.25
267.52	83.25
267.752	80.25
267.984	74.25
268.216	86.25
268.448	80.25
268.681	95.25
268.913	87.25
269.145	84.25
269.377	80.25
269.609	84.25
269.841	72.25
270.073	73.25
270.306	78.25
270.538	80.25
270.77	82.25
271.002	82.25
271.234	92.25
271.466	84.25
271.698	96.25
271.93	76.25
272.162	86.25
272.394	80.25
272.626	75.25
272.858	82.25
273.09	82.25
273.322	84.25
273.553	80.25
273.785	92.25
274.017	83.25
274.249	98.25
274.481	83.25
274.713	91.25
274.945	92.25
275.176	85.25
275.408	97.25
275.64	94.25
275.872	88.25
276.104	91.25
276.335	85.25
276.567	98.25
276.799	118.25
277.031	107.25
277.262	89.25
277.494	95.25
277.726	82.25
277.957	88.25
278.189	80.25
278.421	74.25
278.652	96.25
278.884	84.25
279.115	90.25
279.347	76.25
279.579	83.25
279.81	87.25
280.042	93.25
280.273	91.25
280.505	83.25
280.736	86.25
280.968	74.25
281.199	84.25
281.431	89.25
281.662	89.25
281.894	81.25
282.125	90.25
282.356	101.25
282.588	130.25
282.819	102.25
283.051	71.25
283.282	94.25
283.513	100.25
283.745	88.25
283.976	87.25
284.207	84.25
284.439	86.25
284.67	82.25
284.901	84.25
285.132	82.25
285.364	89.25
285.595	87.25
285.826	100.25
286.057	96.25
286.288	86.25
286.52	85.25
286.751	64.25
286.982	96.25
287.213	90.25
287.444	83.25
287.675	88.25
287.906	93.25
288.138	106.25
288.369	76.25
288.6	91.25
288.831	78.25
289.062	84.25
289.293	69.25
289.524	90.25
289.755	100.25
289.986	91.25
290.217	89.25
290.448	95.25
290.679	84.25
290.91	80.25
291.141	86.25
291.371	99.25
291.602	87.25
291.833	99.25
292.064	91.25
292.295	78.25
292.526	81.25
292.757	96.25
292.987	84.25
293.218	105.25
293.449	85.25
293.68	95.25
293.91	100.25
294.141	81.25
294.372	78.25
294.603	75.25
294.833	92.25
295.064	86.25
295.295	76.25
295.525	94.25
295.756	105.25
295.987	115.25
296.217	127.25
296.448	114.25
296.679	93.25
296.909	94.25
297.14	97.25
297.37	84.25
297.601	90.25
297.831	100.25
298.062	95.25
298.292	91.25
298.523	86.25
298.753	93.25
298.984	93.25
299.214	79.25
299.445	91.25
299.675	87.25
299.905	84.25
300.136	73.25
300.366	86.25
300.597	94.25
300.827	99.25
301.057	100.25
301.288	99.25
301.518	89.25
301.748	79.25
301.979	101.25
302.209	100.25
302.439	81.25
302.669	100.25
302.9	76.25
303.13	78.25
303.36	88.25
303.59	94.25
303.82	99.25
304.051	96.25
304.281	89.25
304.511	83.25
304.741	100.25
304.971	92.25
305.201	102.25
305.431	95.25
305.661	100.25
305.891	89.25
306.121	106.25
306.352	94.25
306.582	109.25
306.812	98.25
307.042	98.25
307.272	83.25
307.502	82.25
307.731	97.25
307.961	89.25
308.191	94.25
308.421	88.25
308.651	86.25
308.881	84.25
309.111	84.25
309.341	74.25
309.571	106.25
309.8	85.25
310.03	84.25
310.26	84.25
310.49	96.25
310.72	77.25
310.949	93.25
311.179	112.25
311.409	106.25
311.639	95.25
311.868	87.25
312.098	89.25
312.328	84.25
312.557	99.25
312.787	103.25
313.017	99.25
313.246	90.25
313.476	100.25
313.706	93.25
313.935	96.25
314.165	97.25
314.394	118.25
314.624	95.25
314.853	97.25
315.083	99.25
315.312	90.25
315.542	93.25
315.771	103.25
316.001	89.25
316.23	105.25
316.46	105.25
316.689	86.25
316.919	84.25
317.148	96.25
317.377	96.25
317.607	89.25
317.836	97.25
318.065	91.25
318.295	81.25
318.524	86.25
318.753	98.25
318.983	92.25
319.212	85.25
319.441	101.25
319.67	88.25
319.9	97.25
320.129	86.25
320.358	85.25
320.587	83.25
320.816	100.25
321.046	92.25
321.275	91.25
321.504	97.25
321.733	96.25
321.962	88.25
322.191	105.25
322.42	92.25
322.649	102.25
322.878	105.25
323.108	121.25
323.337	115.25
323.566	134.25
323.795	138.25
324.024	184.25
324.253	326.25
324.482	674.25
324.71	1389.25
324.939	1846.25
325.168	672.25
325.397	210.25
325.626	142.25
325.855	129.25
326.084	123.25
326.313	126.25
326.542	134.25
326.77	204.25
326.999	390.25
327.228	812.25
327.457	1462.25
327.686	1182.25
327.914	331.25
328.143	170.25
328.372	144.25
328.6	116.25
328.829	98.25
329.058	108.25
329.287	123.25
329.515	107.25
329.744	100.25
329.972	95.25
330.201	112.25
330.43	114.25
330.658	101.25
330.887	117.25
331.115	99.25
331.344	101.25
331.572	98.25
331.801	96.25
332.03	105.25
332.258	105.25
332.486	83.25
332.715	80.25
332.943	95.25
333.172	91.25
333.4	99.25
333.629	102.25
333.857	113.25
334.085	103.25
334.314	95.25
334.542	115.25
334.771	107.25
334.999	103.25
335.227	107.25
335.455	106.25
335.684	99.25
335.912	104.25
336.14	95.25
336.369	100.25
336.597	91.25
336.825	79.25
337.053	95.25
337.281	107.25
337.51	95.25
337.738	86.25
337.966	98.25
338.194	96.25
338.422	95.25
338.65	80.25
338.878	86.25
339.106	88.25
339.334	98.25
339.562	90.25
339.79	99.25
340.018	87.25
340.246	87.25
340.474	100.25
340.702	87.25
340.93	100.25
341.158	102.25
341.386	98.25
341.614	103.25
341.842	110.25
342.07	99.25
342.298	93.25
342.526	92.25
342.754	80.25
342.981	86.25
343.209	78.25
343.437	106.25
343.665	79.25
343.893	89.25
344.12	98.25
344.348	85.25
344.576	78.25
344.804	96.25
345.031	94.25
345.259	90.25
345.487	98.25
345.714	95.25
345.942	90.25
346.17	86.25
346.397	100.25
346.625	107.25
346.853	89.25
347.08	83.25
347.308	92.25
347.535	84.25
347.763	112.25
347.99	102.25
348.218	86.25
348.445	122.25
348.673	100.25
348.9	91.25
349.128	81.25
349.355	87.25
349.583	97.25
349.81	89.25
350.037	89.25
350.265	94.25
350.492	100.25
350.72	100.25
350.947	108.25
351.174	105.25
351.402	106.25
351.629	100.25
351.856	112.25
352.083	116.25
352.311	92.25
352.538	106.25
352.765	94.25
352.992	94.25
353.22	102.25
353.447	103.25
353.674	104.25
353.901	85.25
354.128	93.25
354.355	93.25
354.583	112.25
354.81	100.25
355.037	89.25
355.264	102.25
355.491	92.25
355.718	81.25
355.945	108.25
356.172	95.25
356.399	95.25
356.626	99.25
356.853	101.25
357.08	99.25
357.307	101.25
357.534	81.25
357.761	96.25
357.988	95.25
358.215	99.25
358.441	84.25
358.668	91.25
358.895	89.25
359.122	87.25
359.349	79.25
359.576	102.25
359.802	94.25
360.029	95.25
360.256	103.25
360.483	103.25
360.709	88.25
360.936	94.25
361.163	91.25
361.39	107.25
361.616	95.25
361.843	90.25
362.07	99.25
362.296	92.25
362.523	80.25
362.749	101.25
362.976	78.25
363.203	89.25
363.429	98.25
363.656	100.25
363.882	83.25
364.109	99.25
364.335	94.25
364.562	88.25
364.788	86.25
365.015	87.25
365.241	80.25
365.468	90.25
365.694	107.25
365.92	81.25
366.147	76.25
366.373	92.25
366.599	85.25
366.826	86.25
367.052	80.25
367.278	102.25
367.505	89.25
367.731	78.25
367.957	106.25
368.184	94.25
368.41	87.25
368.636	104.25
368.862	109.25
369.089	98.25
369.315	82.25
369.541	91.25
369.767	104.25
369.993	108.25
370.219	94.25
370.445	92.25
370.672	86.25
370.898	75.25
371.124	91.25
371.35	89.25
371.576	80.25
371.802	81.25
372.028	99.25
372.254	78.25
372.48	95.25
372.706	90.25
372.932	101.25
373.158	97.25
373.384	72.25
373.61	100.25
373.835	75.25
374.061	91.25
374.287	106.25
374.513	86.25
374.739	88.25
374.965	81.25
375.191	87.25
375.416	94.25
375.642	82.25
375.868	89.25
376.094	89.25
376.319	80.25
376.545	101.25
376.771	80.25
376.997	89.25
377.222	96.25
377.448	91.25
377.674	101.25
377.899	88.25
378.125	82.25
378.35	91.25
378.576	96.25
378.802	80.25
379.027	83.25
379.253	104.25
379.478	92.25
379.704	75.25
379.929	86.25
380.155	94.25
380.38	93.25
380.606	93.25
380.831	80.25
381.057	103.25
381.282	98.25
381.507	102.25
381.733	98.25
381.958	96.25
382.184	89.25
382.409	100.25
382.634	98.25
382.86	89.25
383.085	84.25
383.31	102.25
383.535	89.25
383.761	108.25
383.986	99.25
384.211	96.25
384.436	98.25
384.662	106.25
384.887	99.25
385.112	86.25
385.337	108.25
385.562	114.25
385.787	101.25
386.013	96.25
386.238	90.25
386.463	106.25
386.688	104.25
386.913	114.25
387.138	85.25
387.363	105.25
387.588	99.25
387.813	91.25
388.038	98.25
388.263	98.25
388.488	109.25
388.713	95.25
388.938	95.25
389.163	97.25
389.387	113.25
389.612	90.25
389.837	97.25
390.062	105.25
390.287	102.25
390.512	104.25
390.736	97.25
390.961	97.25
391.186	87.25
391.411	95.25
391.636	84.25
391.86	83.25
392.085	88.25
392.31	87.25
392.534	95.25
392.759	94.25
392.984	88.25
393.208	74.25
393.433	90.25
393.658	83.25
393.882	78.25
394.107	85.25
394.331	78.25
394.556	89.25
394.78	98.25
395.005	90.25
395.229	86.25
395.454	82.25
395.678	90.25
395.903	89.25
396.127	84.25
396.352	107.25
396.576	78.25
396.801	71.25
397.025	82.25
397.249	84.25
397.474	100.25
397.698	80.25
397.922	98.25
398.147	84.25
398.371	95.25
398.595	91.25
398.82	71.25
399.044	83.25
399.268	84.25
399.492	91.25
399.717	82.25
399.941	81.25
400.165	97.25
400.389	103.25
400.613	85.25
400.837	81.25
401.062	95.25
401.286	92.25
401.51	95.25
401.734	82.25
401.958	99.25
402.182	112.25
402.406	130.25
402.63	108.25
402.854	92.25
403.078	80.25
403.302	82.25
403.526	78.25
403.75	94.25
403.974	89.25
404.198	83.25
404.422	87.25
404.645	102.25
404.869	73.25
405.093	91.25
405.317	107.25
405.541	90.25
405.765	99.25
405.988	117.25
406.212	144.25
406.436	184.25
406.66	134.25
406.883	92.25
407.107	89.25
407.331	85.25
407.555	95.25
407.778	87.25
408.002	100.25
408.226	92.25
408.449	97.25
408.673	103.25
408.896	105.25
409.12	98.25
409.344	80.25
409.567	102.25
409.791	92.25
410.014	87.25
410.238	95.25
410.461	84.25
410.685	81.25
410.908	86.25
411.132	105.25
411.355	103.25
411.578	108.25
411.802	80.25
412.025	91.25
412.249	88.25
412.472	89.25
412.695	90.25
412.919	79.25
413.142	82.25
413.365	83.25
413.589	97.25
413.812	89.25
414.035	84.25
414.258	81.25
414.482	85.25
414.705	96.25
414.928	98.25
415.151	95.25
415.374	95.25
415.597	90.25
415.821	82.25
416.044	87.25
416.267	96.25
416.49	88.25
416.713	88.25
416.936	75.25
417.159	71.25
417.382	78.25
417.605	82.25
417.828	96.25
418.051	88.25
418.274	88.25
418.497	95.25
418.72	86.25
418.943	92.25
419.166	92.25
419.389	89.25
419.611	96.25
419.834	91.25
420.057	102.25
420.28	92.25
420.503	93.25
420.726	94.25
420.948	94.25
421.171	88.25
421.394	78.25
421.617	96.25
421.839	97.25
422.062	90.25
422.285	97.25
422.507	99.25
422.73	104.25
422.953	102.25
423.175	96.25
423.398	81.25
423.621	80.25
423.843	83.25
424.066	81.25
424.288	88.25
424.511	106.25
424.733	89.25
424.956	99.25
425.178	85.25
425.401	105.25
425.623	104.25
425.846	96.25
426.068	93.25
426.291	84.25
426.513	72.25
426.735	85.25
426.958	86.25
427.18	89.25
427.402	133.25
427.625	132.25
427.847	122.25
428.069	84.25
428.292	92.25
428.514	74.25
428.736	94.25
428.958	89.25
429.181	84.25
429.403	92.25
429.625	95.25
429.847	95.25
430.069	92.25
430.292	93.25
430.514	70.25
430.736	74.25
430.958	82.25
431.18	78.25
431.402	75.25
431.624	87.25
431.846	87.25
432.068	81.25
432.29	80.25
432.512	94.25
432.734	84.25
432.956	93.25
433.178	84.25
433.4	95.25
433.622	92.25
433.844	86.25
434.066	89.25
434.287	105.25
434.509	86.25
434.731	82.25
434.953	83.25
435.175	90.25
435.397	90.25
435.618	91.25
435.84	94.25
436.062	99.25
436.284	103.25
436.505	96.25
436.727	108.25
436.949	86.25
437.17	88.25
437.392	84.25
437.614	85.25
437.835	87.25
438.057	96.25
438.278	90.25
438.5	104.25
438.721	100.25
438.943	103.25
439.165	74.25
439.386	71.25
439.608	83.25
439.829	91.25
440.05	92.25
440.272	124.25
440.493	89.25
440.715	96.25
440.936	88.25
441.158	93.25
441.379	98.25
441.6	96.25
441.822	74.25
442.043	99.25
442.264	98.25
442.486	96.25
442.707	92.25
442.928	95.25
443.149	114.25
443.371	114.25
443.592	99.25
443.813	116.25
444.034	95.25
444.255	87.25
444.476	92.25
444.698	96.25
444.919	94.25
445.14	134.25
445.361	99.25
445.582	96.25
445.803	128.25
446.024	107.25
446.245	108.25
446.466	107.25
446.687	86.25
446.908	80.25
447.129	104.25
447.35	89.25
447.571	90.25
447.792	98.25
448.013	98.25
448.234	95.25
448.455	92.25
448.675	94.25
448.896	118.25
449.117	90.25
449.338	80.25
449.559	111.25
449.779	121.25
450	88.25
450.221	95.25
450.442	79.25
450.662	83.25
450.883	103.25
451.104	102.25
451.324	83.25
451.545	96.25
451.766	81.25
451.986	102.25
452.207	85.25
452.428	76.25
452.648	96.25
452.869	101.25
453.089	99.25
453.31	97.25
453.53	96.25
453.751	84.25
453.971	96.25
454.192	105.25
454.412	98.25
454.633	98.25
454.853	94.25
455.073	99.25
455.294	78.25
455.514	93.25
455.734	87.25
455.955	86.25
456.175	86.25
456.395	90.25
456.616	84.25
456.836	100.25
457.056	75.25
457.276	81.25
457.497	67.25
457.717	87.25
457.937	91.25
458.157	78.25
458.377	71.25
458.598	92.25
458.818	149.25
459.038	139.25
459.258	117.25
459.478	96.25
459.698	109.25
459.918	88.25
460.138	84.25
460.358	105.25
460.578	77.25
460.798	95.25
461.018	87.25
461.238	70.25
461.458	70.25
461.678	74.25
461.898	96.25
462.118	86.25
462.338	81.25
462.558	83.25
462.777	84.25
462.997	75.25
463.217	94.25
463.437	95.25
463.657	80.25
463.876	96.25
464.096	82.25
464.316	94.25
464.536	82.25
464.755	73.25
464.975	108.25
465.195	146.25
465.414	117.25
465.634	94.25
465.854	88.25
466.073	80.25
466.293	80.25
466.512	88.25
466.732	92.25
466.951	80.25
467.171	93.25
467.391	97.25
467.61	103.25
467.829	83.25
468.049	102.25
468.268	96.25
468.488	81.25
468.707	86.25
468.927	90.25
469.146	82.25
469.365	98.25
469.585	82.25
469.804	96.25
470.023	99.25
470.243	94.25
470.462	97.25
470.681	108.25
470.901	86.25
471.12	82.25
471.339	89.25
471.558	85.25
471.777	98.25
471.997	88.25
472.216	92.25
472.435	112.25
472.654	80.25
472.873	84.25
473.092	85.25
473.311	100.25
473.53	89.25
473.749	74.25
473.968	92.25
474.187	99.25
474.406	86.25
474.625	96.25
474.844	79.25
475.063	83.25
475.282	65.25
475.501	86.25
475.72	88.25
475.939	82.25
476.158	85.25
476.377	107.25
476.596	94.25
476.814	90.25
477.033	95.25
477.252	94.25
477.471	89.25
477.69	90.25
477.908	96.25
478.127	102.25
478.346	97.25
478.564	94.25
478.783	96.25
479.002	91.25
479.22	78.25
479.439	99.25
479.658	92.25
479.876	96.25
480.095	83.25
480.313	84.25
480.532	80.25
480.751	91.25
480.969	82.25
481.188	124.25
481.406	104.25
481.624	100.25
481.843	101.25
482.061	102.25
482.28	81.25
482.498	78.25
482.717	85.25
482.935	94.25
483.153	82.25
483.372	95.25
483.59	93.25
483.808	81.25
484.027	95.25
484.245	108.25
484.463	87.25
484.681	107.25
484.9	97.25
485.118	101.25
485.336	99.25
485.554	94.25
485.772	86.25
485.99	98.25
486.209	98.25
486.427	95.25
486.645	96.25
486.863	125.25
487.081	102.25
487.299	100.25
487.517	100.25
487.735	96.25
487.953	87.25
488.171	93.25
488.389	92.25
488.607	82.25
488.825	82.25
489.043	92.25
489.261	82.25
489.479	84.25
489.696	88.25
489.914	86.25
490.132	90.25
490.35	92.25
490.568	97.25
490.786	83.25
491.003	86.25
491.221	86.25
491.439	82.25
491.657	91.25
491.874	91.25
492.092	88.25
492.31	97.25
492.527	82.25
492.745	91.25
492.963	102.25
493.18	92.25
493.398	92.25
493.615	108.25
493.833	97.25
494.05	81.25
494.268	73.25
494.485	91.25
494.703	80.25
494.92	82.25
495.138	80.25
495.355	87.25
495.573	97.25
495.79	89.25
496.008	72.25
496.225	90.25
496.442	85.25
496.66	91.25
496.877	80.25
497.094	97.25
497.312	85.25
497.529	90.25
497.746	84.25
497.963	86.25
498.181	95.25
498.398	93.25
498.615	103.25
498.832	107.25
499.049	92.25
499.267	96.25
499.484	101.25
499.701	88.25
499.918	79.25
500.135	91.25
500.352	97.25
500.569	93.25
500.786	92.25
501.003	88.25
501.22	91.25
501.437	107.25
501.654	97.25
501.871	90.25
502.088	103.25
502.305	91.25
502.522	78.25
502.739	88.25
502.956	96.25
503.172	103.25
503.389	82.25
503.606	87.25
503.823	96.25
504.04	104.25
504.256	93.25
504.473	84.25
504.69	84.25
504.907	91.25
505.123	90.25
505.34	82.25
505.557	90.25
505.773	86.25
505.99	83.25
506.207	94.25
506.423	78.25
506.64	94.25
506.856	102.25
507.073	84.25
507.289	91.25
507.506	107.25
507.722	97.25
507.939	98.25
508.155	90.25
508.372	98.25
508.588	99.25
508.805	97.25
509.021	97.25
509.238	90.25
509.454	111.25
509.67	93.25
509.887	109.25
510.103	121.25
510.319	182.25
510.536	630.25
510.752	1899.25
510.968	549.25
511.184	146.25
511.401	108.25
511.617	104.25
511.833	101.25
512.049	94.25
512.265	99.25
512.481	89.25
512.698	104.25
512.914	93.25
513.13	86.25
513.346	88.25
513.562	83.25
513.778	96.25
513.994	82.25
514.21	111.25
514.426	110.25
514.642	128.25
514.858	124.25
515.074	142.25
515.29	378.25
515.506	1142.25
515.721	441.25
515.937	128.25
516.153	106.25
