Data from Uncirc_1986_H10_HRD10591_00045.txt Node
Date: Wed Jan 03 12:14:35 EST 2024
User: Yrep
Spectrometer: HR+D1059
Trigger mode: 1
Integration Time (sec): 1.000000E-1
Scans to average: 1
Electric dark correction enabled: true
Nonlinearity correction enabled: false
Boxcar width: 0
XAxis mode: Wavelengths
Number of Pixels in Spectrum: 2048
>>>>>Begin Spectral Data<<<<<
223.165	-14.38
223.4	-14.38
223.635	-14.38
223.869	-14.38
224.104	-18.38
224.338	-21.38
224.573	-14.38
224.808	-16.38
225.042	-6.38
225.277	-3.38
225.511	-0.38
225.746	-4.38
225.98	-1.38
226.215	18.62
226.449	14.62
226.683	23.62
226.918	27.62
227.152	30.62
227.387	38.62
227.621	50.62
227.856	48.62
228.09	41.62
228.324	46.62
228.559	62.62
228.793	169.62
229.027	471.62
229.262	533.62
229.496	624.62
229.73	806.62
229.964	810.62
230.199	556.62
230.433	491.62
230.667	478.62
230.901	459.62
231.136	456.62
231.37	464.62
231.604	483.62
231.838	453.62
232.072	472.62
232.306	473.62
232.541	483.62
232.775	496.62
233.009	478.62
233.243	484.62
233.477	507.62
233.711	485.62
233.945	505.62
234.179	514.62
234.413	533.62
234.647	525.62
234.881	520.62
235.115	520.62
235.349	550.62
235.583	552.62
235.817	606.62
236.051	648.62
236.285	618.62
236.519	629.62
236.753	720.62
236.987	926.62
237.221	1444.62
237.455	1552.62
237.689	908.62
237.922	758.62
238.156	739.62
238.39	702.62
238.624	644.62
238.858	651.62
239.091	658.62
239.325	670.62
239.559	698.62
239.793	703.62
240.027	774.62
240.26	908.62
240.494	1017.62
240.728	982.62
240.961	933.62
241.195	812.62
241.429	819.62
241.662	785.62
241.896	800.62
242.13	800.62
242.363	817.62
242.597	824.62
242.83	832.62
243.064	823.62
243.298	856.62
243.531	849.62
243.765	846.62
243.998	868.62
244.232	889.62
244.465	904.62
244.699	945.62
244.932	934.62
245.166	940.62
245.399	918.62
245.633	928.62
245.866	904.62
246.099	933.62
246.333	935.62
246.566	983.62
246.8	994.62
247.033	1033.62
247.266	1061.62
247.5	1145.62
247.733	1175.62
247.966	1173.62
248.2	1159.62
248.433	1169.62
248.666	1258.62
248.899	1396.62
249.133	1470.62
249.366	1428.62
249.599	1342.62
249.832	1268.62
250.066	1236.62
250.299	1290.62
250.532	1379.62
250.765	1520.62
250.998	1753.62
251.231	1701.62
251.465	1546.62
251.698	1466.62
251.931	1450.62
252.164	1408.62
252.397	1425.62
252.63	1482.62
252.863	1576.62
253.096	1721.62
253.329	1790.62
253.562	1700.62
253.795	1634.62
254.028	1581.62
254.261	1664.62
254.494	1872.62
254.727	2208.62
254.96	2283.62
255.193	2026.62
255.426	1810.62
255.659	1664.62
255.892	1627.62
256.124	1584.62
256.357	1563.62
256.59	1545.62
256.823	1550.62
257.056	1546.62
257.289	1566.62
257.521	1590.62
257.754	1580.62
257.987	1547.62
258.22	1574.62
258.452	1572.62
258.685	1542.62
258.918	1586.62
259.151	1662.62
259.383	1735.62
259.616	1744.62
259.849	1838.62
260.081	1940.62
260.314	2163.62
260.547	2096.62
260.779	1887.62
261.012	1799.62
261.244	1750.62
261.477	1706.62
261.71	1711.62
261.942	1802.62
262.175	1826.62
262.407	1748.62
262.64	1704.62
262.872	1699.62
263.105	1684.62
263.337	1690.62
263.57	1665.62
263.802	1675.62
264.035	1716.62
264.267	1705.62
264.499	1699.62
264.732	1743.62
264.964	1703.62
265.197	1716.62
265.429	1741.62
265.661	1752.62
265.894	1738.62
266.126	1738.62
266.358	1764.62
266.591	1824.62
266.823	1858.62
267.055	1927.62
267.287	1920.62
267.52	1884.62
267.752	1909.62
267.984	1889.62
268.216	1934.62
268.448	1995.62
268.681	2045.62
268.913	2150.62
269.145	2372.62
269.377	2417.62
269.609	2329.62
269.841	2283.62
270.073	2446.62
270.306	2666.62
270.538	2902.62
270.77	2703.62
271.002	2567.62
271.234	2480.62
271.466	2641.62
271.698	2800.62
271.93	2821.62
272.162	2814.62
272.394	2740.62
272.626	2614.62
272.858	2427.62
273.09	2309.62
273.322	2299.62
273.553	2271.62
273.785	2261.62
274.017	2296.62
274.249	2302.62
274.481	2288.62
274.713	2314.62
274.945	2278.62
275.176	2322.62
275.408	2277.62
275.64	2275.62
275.872	2344.62
276.104	2330.62
276.335	2300.62
276.567	2377.62
276.799	2552.62
277.031	2835.62
277.262	2931.62
277.494	2795.62
277.726	2688.62
277.957	2574.62
278.189	2492.62
278.421	2442.62
278.652	2423.62
278.884	2428.62
279.115	2370.62
279.347	2395.62
279.579	2383.62
279.81	2368.62
280.042	2404.62
280.273	2370.62
280.505	2411.62
280.736	2407.62
280.968	2474.62
281.199	2429.62
281.431	2474.62
281.662	2481.62
281.894	2460.62
282.125	2551.62
282.356	2683.62
282.588	2850.62
282.819	2658.62
283.051	2554.62
283.282	2538.62
283.513	2596.62
283.745	2623.62
283.976	2734.62
284.207	2679.62
284.439	2638.62
284.67	2663.62
284.901	2654.62
285.132	2655.62
285.364	2583.62
285.595	2616.62
285.826	2655.62
286.057	2706.62
286.288	2679.62
286.52	2654.62
286.751	2709.62
286.982	2659.62
287.213	2705.62
287.444	2771.62
287.675	2811.62
287.906	2881.62
288.138	2978.62
288.369	2849.62
288.6	2915.62
288.831	2851.62
289.062	2820.62
289.293	2880.62
289.524	2844.62
289.755	2830.62
289.986	2850.62
290.217	2794.62
290.448	2842.62
290.679	2859.62
290.91	2830.62
291.141	2880.62
291.371	2842.62
291.602	2785.62
291.833	2816.62
292.064	2856.62
292.295	2874.62
292.526	2882.62
292.757	2843.62
292.987	2807.62
293.218	2766.62
293.449	2880.62
293.68	2889.62
293.91	2880.62
294.141	2834.62
294.372	2806.62
294.603	2867.62
294.833	2896.62
295.064	2947.62
295.295	2883.62
295.525	3004.62
295.756	2985.62
295.987	3058.62
296.217	3213.62
296.448	3161.62
296.679	2971.62
296.909	2958.62
297.14	3003.62
297.37	3067.62
297.601	3088.62
297.831	3050.62
298.062	3056.62
298.292	3051.62
298.523	3122.62
298.753	3143.62
298.984	3095.62
299.214	3170.62
299.445	3099.62
299.675	3112.62
299.905	3190.62
300.136	3157.62
300.366	3135.62
300.597	3146.62
300.827	3244.62
301.057	3345.62
301.288	3374.62
301.518	3323.62
301.748	3378.62
301.979	3393.62
302.209	3390.62
302.439	3401.62
302.669	3344.62
302.9	3316.62
303.13	3307.62
303.36	3419.62
303.59	3400.62
303.82	3375.62
304.051	3337.62
304.281	3339.62
304.511	3319.62
304.741	3287.62
304.971	3305.62
305.201	3303.62
305.431	3315.62
305.661	3329.62
305.891	3318.62
306.121	3301.62
306.352	3348.62
306.582	3320.62
306.812	3273.62
307.042	3318.62
307.272	3264.62
307.502	3318.62
307.731	3308.62
307.961	3260.62
308.191	3227.62
308.421	3260.62
308.651	3324.62
308.881	3343.62
309.111	3408.62
309.341	3398.62
309.571	3456.62
309.8	3481.62
310.03	3568.62
310.26	3608.62
310.49	3554.62
310.72	3740.62
310.949	3827.62
311.179	3714.62
311.409	3680.62
311.639	3646.62
311.868	3673.62
312.098	3697.62
312.328	3845.62
312.557	3904.62
312.787	3994.62
313.017	3818.62
313.246	3800.62
313.476	3704.62
313.706	3782.62
313.935	3879.62
314.165	3934.62
314.394	4007.62
314.624	3849.62
314.853	3769.62
315.083	3747.62
315.312	3777.62
315.542	3691.62
315.771	3717.62
316.001	3669.62
316.23	3695.62
316.46	3661.62
316.689	3805.62
316.919	3801.62
317.148	3879.62
317.377	3802.62
317.607	3712.62
317.836	3702.62
318.065	3686.62
318.295	3673.62
318.524	3681.62
318.753	3653.62
318.983	3655.62
319.212	3664.62
319.441	3735.62
319.67	3799.62
319.9	3702.62
320.129	3713.62
320.358	3680.62
320.587	3727.62
320.816	3826.62
321.046	3871.62
321.275	3838.62
321.504	3898.62
321.733	3928.62
321.962	3988.62
322.191	3986.62
322.42	4104.62
322.649	4206.62
322.878	4281.62
323.108	4368.62
323.337	4512.62
323.566	4692.62
323.795	4995.62
324.024	5513.62
324.253	7246.62
324.482	10866.62
324.71	15147.62
324.939	15628.62
325.168	13122.62
325.397	6630.62
325.626	5306.62
325.855	4926.62
326.084	4825.62
326.313	4838.62
326.542	4952.62
326.77	5512.62
326.999	6982.62
327.228	10262.62
327.457	14316.62
327.686	13622.62
327.914	7338.62
328.143	5816.62
328.372	5410.62
328.6	5238.62
328.829	5188.62
329.058	5323.62
329.287	5292.62
329.515	4947.62
329.744	4793.62
329.972	4794.62
330.201	4792.62
330.43	5149.62
330.658	5381.62
330.887	5700.62
331.115	5311.62
331.344	4985.62
331.572	4886.62
331.801	4945.62
332.03	5007.62
332.258	4851.62
332.486	4920.62
332.715	5077.62
332.943	5187.62
333.172	5310.62
333.4	5382.62
333.629	5524.62
333.857	5567.62
334.085	5475.62
334.314	5389.62
334.542	5379.62
334.771	5370.62
334.999	5265.62
335.227	5139.62
335.455	5098.62
335.684	5023.62
335.912	4958.62
336.14	4941.62
336.369	4945.62
336.597	5013.62
336.825	4924.62
337.053	4843.62
337.281	4808.62
337.51	4750.62
337.738	4701.62
337.966	4681.62
338.194	4666.62
338.422	4589.62
338.65	4561.62
338.878	4541.62
339.106	4494.62
339.334	4478.62
339.562	4446.62
339.79	4435.62
340.018	4421.62
340.246	4453.62
340.474	4478.62
340.702	4376.62
340.93	4422.62
341.158	4426.62
341.386	4424.62
341.614	4457.62
341.842	4430.62
342.07	4345.62
342.298	4357.62
342.526	4333.62
342.754	4352.62
342.981	4356.62
343.209	4436.62
343.437	4668.62
343.665	4918.62
343.893	5111.62
344.12	5159.62
344.348	4987.62
344.576	4809.62
344.804	4694.62
345.031	4619.62
345.259	4619.62
345.487	4431.62
345.714	4363.62
345.942	4342.62
346.17	4213.62
346.397	4207.62
346.625	4226.62
346.853	4194.62
347.08	4223.62
347.308	4280.62
347.535	4289.62
347.763	4349.62
347.99	4244.62
348.218	4275.62
348.445	4306.62
348.673	4182.62
348.9	4203.62
349.128	4106.62
349.355	4032.62
349.583	4069.62
349.81	4066.62
350.037	4072.62
350.265	4069.62
350.492	4010.62
350.72	4059.62
350.947	4116.62
351.174	4181.62
351.402	4214.62
351.629	4106.62
351.856	4104.62
352.083	4288.62
352.311	4188.62
352.538	4263.62
352.765	4263.62
352.992	4166.62
353.22	4134.62
353.447	4087.62
353.674	4072.62
353.901	4005.62
354.128	3979.62
354.355	3944.62
354.583	3949.62
354.81	3929.62
355.037	3946.62
355.264	3913.62
355.491	3936.62
355.718	3960.62
355.945	3982.62
356.172	3948.62
356.399	3987.62
356.626	4001.62
356.853	4012.62
357.08	3889.62
357.307	4008.62
357.534	3955.62
357.761	3909.62
357.988	3928.62
358.215	3989.62
358.441	3971.62
358.668	3994.62
358.895	4028.62
359.122	4080.62
359.349	4141.62
359.576	4248.62
359.802	4427.62
360.029	4646.62
360.256	4554.62
360.483	4364.62
360.709	4209.62
360.936	4235.62
361.163	4219.62
361.39	4162.62
361.616	4208.62
361.843	4187.62
362.07	4191.62
362.296	4279.62
362.523	4220.62
362.749	4126.62
362.976	4118.62
363.203	4063.62
363.429	3980.62
363.656	4088.62
363.882	4041.62
364.109	4055.62
364.335	4008.62
364.562	4012.62
364.788	4048.62
365.015	4006.62
365.241	4132.62
365.468	4049.62
365.694	4160.62
365.92	4063.62
366.147	4039.62
366.373	4061.62
366.599	4069.62
366.826	4035.62
367.052	3976.62
367.278	4056.62
367.505	4119.62
367.731	4051.62
367.957	4079.62
368.184	4107.62
368.41	4175.62
368.636	4212.62
368.862	4255.62
369.089	4198.62
369.315	4152.62
369.541	4126.62
369.767	4139.62
369.993	4178.62
370.219	4227.62
370.445	4233.62
370.672	4188.62
370.898	4224.62
371.124	4202.62
371.35	4256.62
371.576	4273.62
371.802	4286.62
372.028	4286.62
372.254	4311.62
372.48	4376.62
372.706	4471.62
372.932	4506.62
373.158	4432.62
373.384	4334.62
373.61	4322.62
373.835	4347.62
374.061	4354.62
374.287	4438.62
374.513	4515.62
374.739	4643.62
374.965	4750.62
375.191	4697.62
375.416	4698.62
375.642	4513.62
375.868	4514.62
376.094	4410.62
376.319	4376.62
376.545	4363.62
376.771	4350.62
376.997	4359.62
377.222	4317.62
377.448	4245.62
377.674	4325.62
377.899	4308.62
378.125	4298.62
378.35	4289.62
378.576	4243.62
378.802	4213.62
379.027	4268.62
379.253	4295.62
379.478	4251.62
379.704	4331.62
379.929	4341.62
380.155	4355.62
380.38	4324.62
380.606	4295.62
380.831	4363.62
381.057	4336.62
381.282	4354.62
381.507	4347.62
381.733	4431.62
381.958	4454.62
382.184	4429.62
382.409	4506.62
382.634	4552.62
382.86	4576.62
383.085	4585.62
383.31	4652.62
383.535	4730.62
383.761	4746.62
383.986	4835.62
384.211	4920.62
384.436	4961.62
384.662	5033.62
384.887	5111.62
385.112	5096.62
385.337	5176.62
385.562	5240.62
385.787	5211.62
386.013	5302.62
386.238	5314.62
386.463	5203.62
386.688	5266.62
386.913	5114.62
387.138	5119.62
387.363	5151.62
387.588	5028.62
387.813	5124.62
388.038	5133.62
388.263	5132.62
388.488	5158.62
388.713	5131.62
388.938	5098.62
389.163	5090.62
389.387	5132.62
389.612	5055.62
389.837	5030.62
390.062	5043.62
390.287	5065.62
390.512	5046.62
390.736	5185.62
390.961	5231.62
391.186	5311.62
391.411	5460.62
391.636	5584.62
391.86	5767.62
392.085	5799.62
392.31	5623.62
392.534	5585.62
392.759	5484.62
392.984	5433.62
393.208	5338.62
393.433	5331.62
393.658	5316.62
393.882	5311.62
394.107	5410.62
394.331	5398.62
394.556	5406.62
394.78	5406.62
395.005	5499.62
395.229	5478.62
395.454	5688.62
395.678	5804.62
395.903	5796.62
396.127	5828.62
396.352	5692.62
396.576	5446.62
396.801	5447.62
397.025	5505.62
397.249	5662.62
397.474	5724.62
397.698	5764.62
397.922	5986.62
398.147	6018.62
398.371	6128.62
398.595	6274.62
398.82	6448.62
399.044	7101.62
399.268	7811.62
399.492	8935.62
399.717	9561.62
399.941	9290.62
400.165	8647.62
400.389	8019.62
400.613	7130.62
400.837	6760.62
401.062	6696.62
401.286	6548.62
401.51	6473.62
401.734	6468.62
401.958	6594.62
402.182	6757.62
402.406	6803.62
402.63	6838.62
402.854	6878.62
403.078	7007.62
403.302	7175.62
403.526	7272.62
403.75	7286.62
403.974	7368.62
404.198	7415.62
404.422	7403.62
404.645	7375.62
404.869	7217.62
405.093	7457.62
405.317	7464.62
405.541	7536.62
405.765	7312.62
405.988	7218.62
406.212	7401.62
406.436	7471.62
406.66	7673.62
406.883	7646.62
407.107	8263.62
407.331	8809.62
407.555	9335.62
407.778	8904.62
408.002	8217.62
408.226	7883.62
408.449	7814.62
408.673	7601.62
408.896	7758.62
409.12	7973.62
409.344	7553.62
409.567	7139.62
409.791	7127.62
410.014	6918.62
410.238	6912.62
410.461	6942.62
410.685	7013.62
410.908	7124.62
411.132	7355.62
411.355	7327.62
411.578	6982.62
411.802	6762.62
412.025	6690.62
412.249	6786.62
412.472	6759.62
412.695	6653.62
412.919	6414.62
413.142	6356.62
413.365	6379.62
413.589	6440.62
413.812	6349.62
414.035	6265.62
414.258	6339.62
414.482	6416.62
414.705	6439.62
414.928	6364.62
415.151	6416.62
415.374	6373.62
415.597	6347.62
415.821	6201.62
416.044	6322.62
416.267	6191.62
416.49	6220.62
416.713	6126.62
416.936	6200.62
417.159	6248.62
417.382	6338.62
417.605	6274.62
417.828	6430.62
418.051	6632.62
418.274	6508.62
418.497	6506.62
418.72	6593.62
418.943	6518.62
419.166	6869.62
419.389	7141.62
419.611	7124.62
419.834	6879.62
420.057	6721.62
420.28	6545.62
420.503	6370.62
420.726	6428.62
420.948	6696.62
421.171	7040.62
421.394	6946.62
421.617	6533.62
421.839	6456.62
422.062	6693.62
422.285	6758.62
422.507	7354.62
422.73	7986.62
422.953	7290.62
423.175	6941.62
423.398	7076.62
423.621	7002.62
423.843	7312.62
424.066	7258.62
424.288	7157.62
424.511	7282.62
424.733	7790.62
424.956	8205.62
425.178	7776.62
425.401	7918.62
425.623	7750.62
425.846	6894.62
426.068	6632.62
426.291	6512.62
426.513	6513.62
426.735	6691.62
426.958	7031.62
427.18	7908.62
427.402	9087.62
427.625	9106.62
427.847	7608.62
428.069	6776.62
428.292	6366.62
428.514	6178.62
428.736	6020.62
428.958	6055.62
429.181	5800.62
429.403	5783.62
429.625	5987.62
429.847	6315.62
430.069	6900.62
430.292	6438.62
430.514	5846.62
430.736	5867.62
430.958	5743.62
431.18	5703.62
431.402	5653.62
431.624	5653.62
431.846	5720.62
432.068	5787.62
432.29	5857.62
432.512	5728.62
432.734	5846.62
432.956	5765.62
433.178	5881.62
433.4	5858.62
433.622	5740.62
433.844	5809.62
434.066	5740.62
434.287	5885.62
434.509	6139.62
434.731	6321.62
434.953	6470.62
435.175	6651.62
435.397	6708.62
435.618	6606.62
435.84	7074.62
436.062	7856.62
436.284	7753.62
436.505	6601.62
436.727	6310.62
436.949	6078.62
437.17	5922.62
437.392	5806.62
437.614	6026.62
437.835	6392.62
438.057	7401.62
438.278	8075.62
438.5	7934.62
438.721	8834.62
438.943	7721.62
439.165	6471.62
439.386	6237.62
439.608	6248.62
439.829	6366.62
440.05	6704.62
440.272	7095.62
440.493	6526.62
440.715	6195.62
440.936	6147.62
441.158	6199.62
441.379	6269.62
441.6	6641.62
441.822	6852.62
442.043	7322.62
442.264	8111.62
442.486	7772.62
442.707	6874.62
442.928	6739.62
443.149	6999.62
443.371	7129.62
443.592	7699.62
443.813	8868.62
444.034	8665.62
444.255	7547.62
444.476	7323.62
444.698	7522.62
444.919	7594.62
445.14	7430.62
445.361	7290.62
445.582	7410.62
445.803	8038.62
446.024	8745.62
446.245	8370.62
446.466	7513.62
446.687	6566.62
446.908	6153.62
447.129	5834.62
447.35	5644.62
447.571	5676.62
447.792	5565.62
448.013	5742.62
448.234	5838.62
448.455	6616.62
448.675	7842.62
448.896	8230.62
449.117	6895.62
449.338	7086.62
449.559	8388.62
449.779	8662.62
450	6538.62
450.221	5836.62
450.442	5547.62
450.662	5532.62
450.883	5584.62
451.104	5715.62
451.324	5498.62
451.545	5366.62
451.766	5256.62
451.986	5089.62
452.207	5064.62
452.428	5027.62
452.648	5132.62
452.869	5117.62
453.089	5242.62
453.31	5315.62
453.53	5101.62
453.751	5013.62
453.971	5059.62
454.192	5172.62
454.412	5025.62
454.633	4946.62
454.853	4946.62
455.073	4955.62
455.294	5389.62
455.514	5850.62
455.734	5443.62
455.955	4884.62
456.175	4755.62
456.395	4679.62
456.616	4692.62
456.836	4675.62
457.056	4643.62
457.276	4601.62
457.497	4730.62
457.717	4753.62
457.937	4796.62
458.157	4897.62
458.377	4920.62
458.598	5281.62
458.818	5894.62
459.038	6742.62
459.258	6716.62
459.478	5958.62
459.698	5737.62
459.918	5829.62
460.138	5971.62
460.358	6235.62
460.578	6158.62
460.798	6363.62
461.018	6334.62
461.238	6235.62
461.458	6162.62
461.678	6103.62
461.898	6207.62
462.118	6323.62
462.338	6641.62
462.558	6844.62
462.777	7070.62
462.997	7696.62
463.217	8086.62
463.437	7781.62
463.657	7339.62
463.876	7119.62
464.096	7105.62
464.316	7146.62
464.536	7214.62
464.755	6912.62
464.975	6870.62
465.195	6983.62
465.414	7050.62
465.634	6194.62
465.854	5893.62
466.073	5602.62
466.293	5490.62
466.512	5381.62
466.732	5193.62
466.951	5214.62
467.171	5255.62
467.391	5260.62
467.61	5375.62
467.829	5295.62
468.049	5213.62
468.268	5054.62
468.488	5022.62
468.707	4959.62
468.927	4962.62
469.146	4953.62
469.365	5034.62
469.585	5021.62
469.804	5284.62
470.023	5432.62
470.243	5425.62
470.462	5397.62
470.681	5602.62
470.901	5509.62
471.12	5359.62
471.339	5311.62
471.558	5366.62
471.777	5112.62
471.997	5115.62
472.216	5036.62
472.435	5052.62
472.654	4973.62
472.873	4838.62
473.092	4964.62
473.311	4862.62
473.53	5005.62
473.749	5111.62
473.968	5623.62
474.187	6699.62
474.406	6246.62
474.625	5308.62
474.844	5080.62
475.063	5012.62
475.282	4999.62
475.501	5057.62
475.72	5118.62
475.939	5099.62
476.158	5225.62
476.377	5236.62
476.596	5247.62
476.814	5369.62
477.033	5378.62
477.252	5386.62
477.471	5483.62
477.69	5716.62
477.908	5779.62
478.127	5840.62
478.346	5931.62
478.564	6006.62
478.783	6133.62
479.002	6223.62
479.22	6307.62
479.439	6328.62
479.658	6434.62
479.876	6496.62
480.095	6753.62
480.313	7271.62
480.532	7111.62
480.751	6889.62
480.969	6792.62
481.188	6750.62
481.406	6505.62
481.624	6136.62
481.843	6028.62
482.061	5967.62
482.28	5918.62
482.498	5899.62
482.717	5877.62
482.935	5831.62
483.153	5782.62
483.372	5842.62
483.59	5878.62
483.808	5884.62
484.027	5840.62
484.245	5966.62
484.463	5952.62
484.681	6053.62
484.9	6013.62
485.118	6113.62
485.336	6168.62
485.554	6196.62
485.772	6321.62
485.99	6215.62
486.209	6302.62
486.427	6290.62
486.645	6382.62
486.863	6494.62
487.081	6403.62
487.299	6320.62
487.517	6358.62
487.735	6241.62
