Data from Uncirc_1986_H10_HRD10591_00016.txt Node
Date: Wed Jan 03 12:14:29 EST 2024
User: Yrep
Spectrometer: HR+D1059
Trigger mode: 1
Integration Time (sec): 1.000000E-1
Scans to average: 1
Electric dark correction enabled: true
Nonlinearity correction enabled: false
Boxcar width: 0
XAxis mode: Wavelengths
Number of Pixels in Spectrum: 2048
>>>>>Begin Spectral Data<<<<<
223.165	-16.88
223.4	-16.88
223.635	-16.88
223.869	-6.88
224.104	-20.88
224.338	-15.88
224.573	-8.88
224.808	-8.88
225.042	-4.88
225.277	-7.88
225.511	-2.88
225.746	-1.88
225.98	8.12
226.215	7.12
226.449	16.12
226.683	9.12
226.918	25.12
227.152	30.12
227.387	32.12
227.621	47.12
227.856	57.12
228.09	60.12
228.324	50.12
228.559	58.12
228.793	62.12
229.027	71.12
229.262	69.12
229.496	63.12
229.73	74.12
229.964	63.12
230.199	79.12
230.433	82.12
230.667	84.12
230.901	67.12
231.136	70.12
231.37	80.12
231.604	81.12
231.838	87.12
232.072	83.12
232.306	77.12
232.541	67.12
232.775	75.12
233.009	85.12
233.243	88.12
233.477	75.12
233.711	80.12
233.945	90.12
234.179	77.12
234.413	71.12
234.647	82.12
234.881	91.12
235.115	80.12
235.349	67.12
235.583	80.12
235.817	75.12
236.051	76.12
236.285	80.12
236.519	84.12
236.753	85.12
236.987	78.12
237.221	83.12
237.455	86.12
237.689	70.12
237.922	72.12
238.156	80.12
238.39	68.12
238.624	71.12
238.858	77.12
239.091	61.12
239.325	79.12
239.559	75.12
239.793	75.12
240.027	74.12
240.26	67.12
240.494	75.12
240.728	78.12
240.961	73.12
241.195	73.12
241.429	52.12
241.662	66.12
241.896	70.12
242.13	70.12
242.363	80.12
242.597	77.12
242.83	80.12
243.064	74.12
243.298	70.12
243.531	77.12
243.765	75.12
243.998	78.12
244.232	69.12
244.465	63.12
244.699	81.12
244.932	76.12
245.166	92.12
245.399	85.12
245.633	77.12
245.866	89.12
246.099	67.12
246.333	64.12
246.566	68.12
246.8	89.12
247.033	77.12
247.266	67.12
247.5	68.12
247.733	58.12
247.966	84.12
248.2	92.12
248.433	91.12
248.666	68.12
248.899	86.12
249.133	79.12
249.366	92.12
249.599	65.12
249.832	82.12
250.066	68.12
250.299	84.12
250.532	79.12
250.765	75.12
250.998	81.12
251.231	79.12
251.465	86.12
251.698	69.12
251.931	75.12
252.164	79.12
252.397	74.12
252.63	82.12
252.863	80.12
253.096	79.12
253.329	76.12
253.562	80.12
253.795	79.12
254.028	72.12
254.261	72.12
254.494	64.12
254.727	83.12
254.96	67.12
255.193	72.12
255.426	71.12
255.659	85.12
255.892	77.12
256.124	68.12
256.357	79.12
256.59	71.12
256.823	76.12
257.056	87.12
257.289	66.12
257.521	73.12
257.754	92.12
257.987	71.12
258.22	66.12
258.452	70.12
258.685	78.12
258.918	76.12
259.151	81.12
259.383	83.12
259.616	79.12
259.849	84.12
260.081	75.12
260.314	73.12
260.547	71.12
260.779	85.12
261.012	69.12
261.244	94.12
261.477	69.12
261.71	81.12
261.942	102.12
262.175	116.12
262.407	75.12
262.64	79.12
262.872	79.12
263.105	70.12
263.337	88.12
263.57	84.12
263.802	81.12
264.035	80.12
264.267	71.12
264.499	95.12
264.732	73.12
264.964	81.12
265.197	68.12
265.429	83.12
265.661	91.12
265.894	67.12
266.126	83.12
266.358	80.12
266.591	73.12
266.823	87.12
267.055	66.12
267.287	83.12
267.52	76.12
267.752	72.12
267.984	70.12
268.216	84.12
268.448	95.12
268.681	93.12
268.913	69.12
269.145	82.12
269.377	88.12
269.609	93.12
269.841	84.12
270.073	74.12
270.306	85.12
270.538	71.12
270.77	77.12
271.002	87.12
271.234	76.12
271.466	87.12
271.698	82.12
271.93	87.12
272.162	84.12
272.394	92.12
272.626	78.12
272.858	81.12
273.09	76.12
273.322	82.12
273.553	86.12
273.785	77.12
274.017	84.12
274.249	67.12
274.481	88.12
274.713	72.12
274.945	75.12
275.176	84.12
275.408	76.12
275.64	99.12
275.872	89.12
276.104	80.12
276.335	80.12
276.567	88.12
276.799	95.12
277.031	77.12
277.262	71.12
277.494	87.12
277.726	79.12
277.957	88.12
278.189	84.12
278.421	87.12
278.652	89.12
278.884	91.12
279.115	86.12
279.347	77.12
279.579	88.12
279.81	84.12
280.042	83.12
280.273	89.12
280.505	69.12
280.736	82.12
280.968	69.12
281.199	75.12
281.431	68.12
281.662	83.12
281.894	96.12
282.125	86.12
282.356	102.12
282.588	117.12
282.819	112.12
283.051	79.12
283.282	85.12
283.513	75.12
283.745	78.12
283.976	79.12
284.207	77.12
284.439	87.12
284.67	89.12
284.901	87.12
285.132	90.12
285.364	70.12
285.595	80.12
285.826	92.12
286.057	91.12
286.288	94.12
286.52	75.12
286.751	87.12
286.982	71.12
287.213	70.12
287.444	77.12
287.675	75.12
287.906	83.12
288.138	80.12
288.369	79.12
288.6	88.12
288.831	92.12
289.062	93.12
289.293	84.12
289.524	88.12
289.755	83.12
289.986	90.12
290.217	91.12
290.448	72.12
290.679	83.12
290.91	96.12
291.141	87.12
291.371	85.12
291.602	88.12
291.833	88.12
292.064	85.12
292.295	82.12
292.526	86.12
292.757	102.12
292.987	83.12
293.218	93.12
293.449	71.12
293.68	85.12
293.91	83.12
294.141	70.12
294.372	86.12
294.603	71.12
294.833	82.12
295.064	71.12
295.295	89.12
295.525	73.12
295.756	85.12
295.987	92.12
296.217	117.12
296.448	114.12
296.679	84.12
296.909	92.12
297.14	79.12
297.37	80.12
297.601	69.12
297.831	85.12
298.062	85.12
298.292	84.12
298.523	85.12
298.753	88.12
298.984	76.12
299.214	84.12
299.445	102.12
299.675	86.12
299.905	97.12
300.136	87.12
300.366	81.12
300.597	62.12
300.827	89.12
301.057	84.12
301.288	105.12
301.518	113.12
301.748	80.12
301.979	80.12
302.209	87.12
302.439	84.12
302.669	84.12
302.9	95.12
303.13	87.12
303.36	103.12
303.59	86.12
303.82	96.12
304.051	91.12
304.281	84.12
304.511	96.12
304.741	86.12
304.971	84.12
305.201	86.12
305.431	76.12
305.661	91.12
305.891	83.12
306.121	83.12
306.352	113.12
306.582	99.12
306.812	88.12
307.042	99.12
307.272	79.12
307.502	80.12
307.731	101.12
307.961	89.12
308.191	87.12
308.421	98.12
308.651	97.12
308.881	85.12
309.111	83.12
309.341	84.12
309.571	93.12
309.8	96.12
310.03	87.12
310.26	95.12
310.49	76.12
310.72	88.12
310.949	107.12
311.179	91.12
311.409	97.12
311.639	83.12
311.868	91.12
312.098	83.12
312.328	86.12
312.557	91.12
312.787	83.12
313.017	93.12
313.246	85.12
313.476	99.12
313.706	91.12
313.935	85.12
314.165	102.12
314.394	86.12
314.624	95.12
314.853	84.12
315.083	95.12
315.312	100.12
315.542	98.12
315.771	83.12
316.001	86.12
316.23	91.12
316.46	96.12
316.689	92.12
316.919	80.12
317.148	104.12
317.377	92.12
317.607	85.12
317.836	79.12
318.065	83.12
318.295	91.12
318.524	71.12
318.753	89.12
318.983	94.12
319.212	91.12
319.441	98.12
319.67	90.12
319.9	74.12
320.129	97.12
320.358	89.12
320.587	98.12
320.816	94.12
321.046	92.12
321.275	88.12
321.504	95.12
321.733	95.12
321.962	81.12
322.191	101.12
322.42	103.12
322.649	104.12
322.878	101.12
323.108	96.12
323.337	110.12
323.566	117.12
323.795	132.12
324.024	181.12
324.253	331.12
324.482	675.12
324.71	1400.12
324.939	1883.12
325.168	700.12
325.397	211.12
325.626	132.12
325.855	113.12
326.084	115.12
326.313	116.12
326.542	120.12
326.77	208.12
326.999	381.12
327.228	833.12
327.457	1475.12
327.686	1158.12
327.914	328.12
328.143	180.12
328.372	130.12
328.6	126.12
328.829	111.12
329.058	111.12
329.287	102.12
329.515	97.12
329.744	104.12
329.972	84.12
330.201	77.12
330.43	93.12
330.658	114.12
330.887	120.12
331.115	99.12
331.344	94.12
331.572	97.12
331.801	104.12
332.03	84.12
332.258	85.12
332.486	75.12
332.715	90.12
332.943	94.12
333.172	83.12
333.4	89.12
333.629	105.12
333.857	97.12
334.085	92.12
334.314	93.12
334.542	103.12
334.771	90.12
334.999	87.12
335.227	84.12
335.455	92.12
335.684	97.12
335.912	88.12
336.14	78.12
336.369	87.12
336.597	93.12
336.825	94.12
337.053	97.12
337.281	83.12
337.51	89.12
337.738	85.12
337.966	76.12
338.194	93.12
338.422	88.12
338.65	92.12
338.878	101.12
339.106	79.12
339.334	77.12
339.562	90.12
339.79	96.12
340.018	83.12
340.246	105.12
340.474	88.12
340.702	104.12
340.93	72.12
341.158	83.12
341.386	86.12
341.614	84.12
341.842	84.12
342.07	89.12
342.298	96.12
342.526	86.12
342.754	87.12
342.981	92.12
343.209	82.12
343.437	110.12
343.665	85.12
343.893	95.12
344.12	109.12
344.348	93.12
344.576	89.12
344.804	98.12
345.031	90.12
345.259	100.12
345.487	81.12
345.714	87.12
345.942	90.12
346.17	87.12
346.397	92.12
346.625	77.12
346.853	95.12
347.08	90.12
347.308	98.12
347.535	79.12
347.763	84.12
347.99	101.12
348.218	91.12
348.445	100.12
348.673	107.12
348.9	103.12
349.128	96.12
349.355	82.12
349.583	75.12
349.81	72.12
350.037	79.12
350.265	84.12
350.492	91.12
350.72	95.12
350.947	86.12
351.174	120.12
351.402	111.12
351.629	83.12
351.856	91.12
352.083	87.12
352.311	93.12
352.538	100.12
352.765	106.12
352.992	100.12
353.22	95.12
353.447	105.12
353.674	101.12
353.901	97.12
354.128	98.12
354.355	100.12
354.583	82.12
354.81	108.12
355.037	104.12
355.264	93.12
355.491	106.12
355.718	79.12
355.945	71.12
356.172	91.12
356.399	87.12
356.626	91.12
356.853	90.12
357.08	95.12
357.307	102.12
357.534	85.12
357.761	78.12
357.988	92.12
358.215	93.12
358.441	89.12
358.668	95.12
358.895	96.12
359.122	82.12
359.349	83.12
359.576	95.12
359.802	78.12
360.029	80.12
360.256	93.12
360.483	91.12
360.709	91.12
360.936	91.12
361.163	87.12
361.39	98.12
361.616	94.12
361.843	94.12
362.07	84.12
362.296	90.12
362.523	97.12
362.749	75.12
362.976	84.12
363.203	87.12
363.429	79.12
363.656	82.12
363.882	100.12
364.109	80.12
364.335	87.12
364.562	94.12
364.788	83.12
365.015	86.12
365.241	88.12
365.468	88.12
365.694	80.12
365.92	91.12
366.147	82.12
366.373	79.12
366.599	67.12
366.826	89.12
367.052	69.12
367.278	100.12
367.505	86.12
367.731	84.12
367.957	76.12
368.184	86.12
368.41	97.12
368.636	96.12
368.862	106.12
369.089	99.12
369.315	89.12
369.541	84.12
369.767	86.12
369.993	91.12
370.219	76.12
370.445	84.12
370.672	100.12
370.898	83.12
371.124	76.12
371.35	85.12
371.576	85.12
371.802	72.12
372.028	96.12
372.254	87.12
372.48	88.12
372.706	80.12
372.932	77.12
373.158	90.12
373.384	88.12
373.61	87.12
373.835	87.12
374.061	76.12
374.287	88.12
374.513	82.12
374.739	93.12
374.965	88.12
375.191	92.12
375.416	87.12
375.642	78.12
375.868	77.12
376.094	99.12
376.319	88.12
376.545	84.12
376.771	87.12
376.997	98.12
377.222	84.12
377.448	69.12
377.674	97.12
377.899	107.12
378.125	83.12
378.35	81.12
378.576	91.12
378.802	100.12
379.027	70.12
379.253	85.12
379.478	93.12
379.704	91.12
379.929	91.12
380.155	94.12
380.38	92.12
380.606	88.12
380.831	94.12
381.057	69.12
381.282	97.12
381.507	93.12
381.733	108.12
381.958	86.12
382.184	93.12
382.409	90.12
382.634	109.12
382.86	92.12
383.085	107.12
383.31	89.12
383.535	81.12
383.761	93.12
383.986	84.12
384.211	88.12
384.436	86.12
384.662	100.12
384.887	92.12
385.112	83.12
385.337	92.12
385.562	95.12
385.787	117.12
386.013	87.12
386.238	104.12
386.463	87.12
386.688	109.12
386.913	101.12
387.138	94.12
387.363	114.12
387.588	106.12
387.813	96.12
388.038	76.12
388.263	94.12
388.488	103.12
388.713	89.12
388.938	86.12
389.163	87.12
389.387	96.12
389.612	81.12
389.837	80.12
390.062	78.12
390.287	100.12
390.512	91.12
390.736	96.12
390.961	93.12
391.186	77.12
391.411	84.12
391.636	89.12
391.86	74.12
392.085	87.12
392.31	84.12
392.534	73.12
392.759	75.12
392.984	89.12
393.208	94.12
393.433	86.12
393.658	88.12
393.882	84.12
394.107	88.12
394.331	92.12
394.556	86.12
394.78	100.12
395.005	78.12
395.229	77.12
395.454	88.12
395.678	76.12
395.903	89.12
396.127	83.12
396.352	69.12
396.576	75.12
396.801	88.12
397.025	78.12
397.249	90.12
397.474	94.12
397.698	96.12
397.922	94.12
398.147	78.12
398.371	84.12
398.595	85.12
398.82	78.12
399.044	77.12
399.268	83.12
399.492	99.12
399.717	62.12
399.941	82.12
400.165	102.12
400.389	71.12
400.613	87.12
400.837	76.12
401.062	88.12
401.286	84.12
401.51	90.12
401.734	90.12
401.958	99.12
402.182	119.12
402.406	130.12
402.63	104.12
402.854	99.12
403.078	81.12
403.302	83.12
403.526	80.12
403.75	65.12
403.974	82.12
404.198	83.12
404.422	80.12
404.645	78.12
404.869	92.12
405.093	85.12
405.317	97.12
405.541	83.12
405.765	95.12
405.988	101.12
406.212	149.12
406.436	172.12
406.66	117.12
406.883	100.12
407.107	88.12
407.331	92.12
407.555	91.12
407.778	79.12
408.002	69.12
408.226	82.12
408.449	91.12
408.673	86.12
408.896	93.12
409.12	86.12
409.344	82.12
409.567	82.12
409.791	97.12
410.014	87.12
410.238	96.12
410.461	91.12
410.685	90.12
410.908	85.12
411.132	88.12
411.355	93.12
411.578	95.12
411.802	75.12
412.025	78.12
412.249	83.12
412.472	84.12
412.695	84.12
412.919	85.12
413.142	88.12
413.365	99.12
413.589	79.12
413.812	82.12
414.035	97.12
414.258	91.12
414.482	84.12
414.705	87.12
414.928	97.12
415.151	81.12
415.374	82.12
415.597	84.12
415.821	72.12
416.044	84.12
416.267	98.12
416.49	89.12
416.713	80.12
416.936	86.12
417.159	66.12
417.382	78.12
417.605	81.12
417.828	84.12
418.051	88.12
418.274	79.12
418.497	94.12
418.72	78.12
418.943	86.12
419.166	84.12
419.389	82.12
419.611	84.12
419.834	90.12
420.057	80.12
420.28	83.12
420.503	87.12
420.726	92.12
420.948	78.12
421.171	93.12
421.394	73.12
421.617	80.12
421.839	88.12
422.062	84.12
422.285	81.12
422.507	81.12
422.73	86.12
422.953	76.12
423.175	84.12
423.398	83.12
423.621	95.12
423.843	80.12
424.066	91.12
424.288	94.12
424.511	81.12
424.733	92.12
424.956	93.12
425.178	87.12
425.401	78.12
425.623	80.12
425.846	76.12
426.068	74.12
426.291	98.12
426.513	86.12
426.735	87.12
426.958	99.12
427.18	109.12
427.402	124.12
427.625	131.12
427.847	108.12
428.069	87.12
428.292	69.12
428.514	84.12
428.736	87.12
428.958	80.12
429.181	75.12
429.403	76.12
429.625	78.12
429.847	105.12
430.069	116.12
430.292	89.12
430.514	92.12
430.736	83.12
430.958	87.12
431.18	70.12
431.402	85.12
431.624	75.12
431.846	85.12
432.068	80.12
432.29	71.12
432.512	93.12
432.734	92.12
432.956	84.12
433.178	95.12
433.4	80.12
433.622	81.12
433.844	77.12
434.066	83.12
434.287	86.12
434.509	88.12
434.731	96.12
434.953	86.12
435.175	100.12
435.397	89.12
435.618	93.12
435.84	100.12
436.062	105.12
436.284	120.12
436.505	88.12
436.727	96.12
436.949	103.12
437.17	79.12
437.392	83.12
437.614	71.12
437.835	94.12
438.057	107.12
438.278	108.12
438.5	96.12
438.721	115.12
438.943	89.12
439.165	92.12
439.386	88.12
439.608	84.12
439.829	87.12
440.05	110.12
440.272	121.12
440.493	111.12
440.715	80.12
440.936	71.12
441.158	79.12
441.379	95.12
441.6	84.12
441.822	83.12
442.043	87.12
442.264	102.12
442.486	83.12
442.707	87.12
442.928	92.12
443.149	112.12
443.371	106.12
443.592	100.12
443.813	94.12
444.034	105.12
444.255	69.12
444.476	82.12
444.698	94.12
444.919	95.12
445.14	117.12
445.361	115.12
445.582	94.12
445.803	132.12
446.024	121.12
446.245	129.12
446.466	98.12
446.687	74.12
446.908	75.12
447.129	79.12
447.35	98.12
447.571	86.12
447.792	85.12
448.013	94.12
448.234	97.12
448.455	95.12
448.675	104.12
448.896	119.12
449.117	107.12
449.338	108.12
449.559	116.12
449.779	121.12
450	88.12
450.221	77.12
450.442	85.12
450.662	79.12
450.883	80.12
451.104	95.12
451.324	88.12
451.545	99.12
451.766	88.12
451.986	95.12
452.207	91.12
452.428	83.12
452.648	98.12
452.869	102.12
453.089	96.12
453.31	113.12
453.53	83.12
453.751	87.12
453.971	91.12
454.192	104.12
454.412	80.12
454.633	74.12
454.853	86.12
455.073	86.12
455.294	82.12
455.514	76.12
455.734	73.12
455.955	78.12
456.175	81.12
456.395	96.12
456.616	79.12
456.836	87.12
457.056	75.12
457.276	82.12
457.497	85.12
457.717	85.12
457.937	80.12
458.157	82.12
458.377	84.12
458.598	91.12
458.818	142.12
459.038	138.12
459.258	101.12
459.478	88.12
459.698	79.12
459.918	83.12
460.138	77.12
460.358	57.12
460.578	76.12
460.798	77.12
461.018	86.12
461.238	90.12
461.458	91.12
461.678	88.12
461.898	82.12
462.118	95.12
462.338	87.12
462.558	80.12
462.777	80.12
462.997	78.12
463.217	96.12
463.437	88.12
463.657	90.12
463.876	94.12
464.096	90.12
464.316	72.12
464.536	94.12
464.755	86.12
464.975	97.12
465.195	147.12
465.414	135.12
465.634	85.12
465.854	75.12
466.073	80.12
466.293	81.12
466.512	97.12
466.732	93.12
466.951	86.12
467.171	87.12
467.391	93.12
467.61	97.12
467.829	102.12
468.049	92.12
468.268	77.12
468.488	84.12
468.707	74.12
468.927	82.12
469.146	81.12
469.365	87.12
469.585	85.12
469.804	90.12
470.023	79.12
470.243	83.12
470.462	89.12
470.681	109.12
470.901	98.12
471.12	93.12
471.339	78.12
471.558	93.12
471.777	97.12
471.997	77.12
472.216	87.12
472.435	88.12
472.654	76.12
472.873	94.12
473.092	84.12
473.311	88.12
473.53	81.12
473.749	79.12
473.968	86.12
474.187	92.12
474.406	87.12
474.625	74.12
474.844	77.12
475.063	87.12
475.282	81.12
475.501	79.12
475.72	92.12
475.939	81.12
476.158	75.12
476.377	77.12
476.596	78.12
476.814	83.12
477.033	109.12
477.252	91.12
477.471	80.12
477.69	87.12
477.908	82.12
478.127	79.12
478.346	79.12
478.564	92.12
478.783	86.12
479.002	83.12
479.22	86.12
479.439	96.12
479.658	88.12
479.876	99.12
480.095	77.12
480.313	85.12
480.532	109.12
480.751	85.12
480.969	92.12
481.188	95.12
481.406	105.12
481.624	75.12
481.843	84.12
482.061	87.12
482.28	88.12
482.498	71.12
482.717	80.12
482.935	85.12
483.153	81.12
483.372	81.12
483.59	84.12
483.808	83.12
484.027	77.12
484.245	92.12
484.463	91.12
484.681	91.12
484.9	87.12
485.118	98.12
485.336	95.12
485.554	79.12
485.772	117.12
485.99	103.12
486.209	103.12
486.427	109.12
486.645	115.12
486.863	114.12
487.081	79.12
487.299	88.12
487.517	94.12
487.735	83.12
487.953	86.12
488.171	102.12
488.389	93.12
488.607	101.12
488.825	93.12
489.043	82.12
489.261	82.12
489.479	88.12
489.696	79.12
489.914	84.12
490.132	94.12
490.35	88.12
490.568	80.12
490.786	99.12
491.003	82.12
491.221	91.12
491.439	74.12
491.657	101.12
491.874	101.12
492.092	83.12
492.31	97.12
492.527	99.12
492.745	97.12
492.963	76.12
493.18	91.12
493.398	87.12
493.615	80.12
493.833	92.12
494.05	87.12
494.268	91.12
494.485	98.12
494.703	87.12
494.92	92.12
495.138	80.12
495.355	91.12
495.573	79.12
495.79	86.12
496.008	81.12
496.225	91.12
496.442	81.12
496.66	103.12
496.877	91.12
497.094	83.12
497.312	83.12
497.529	89.12
497.746	94.12
497.963	85.12
498.181	85.12
498.398	84.12
498.615	103.12
498.832	88.12
499.049	97.12
499.267	87.12
499.484	85.12
499.701	96.12
499.918	97.12
500.135	88.12
500.352	91.12
500.569	87.12
500.786	93.12
501.003	86.12
501.22	98.12
501.437	80.12
501.654	98.12
501.871	84.12
502.088	82.12
502.305	95.12
502.522	81.12
502.739	76.12
502.956	88.12
503.172	99.12
503.389	102.12
503.606	88.12
503.823	95.12
504.04	88.12
504.256	84.12
504.473	91.12
504.69	77.12
504.907	92.12
505.123	94.12
505.34	78.12
505.557	82.12
505.773	92.12
505.99	90.12
506.207	91.12
506.423	77.12
506.64	73.12
506.856	93.12
507.073	94.12
507.289	95.12
507.506	93.12
507.722	113.12
507.939	109.12
508.155	88.12
508.372	88.12
508.588	77.12
508.805	96.12
509.021	103.12
509.238	96.12
509.454	109.12
509.67	77.12
509.887	106.12
510.103	132.12
510.319	183.12
510.536	615.12
510.752	1884.12
510.968	526.12
511.184	116.12
511.401	95.12
511.617	90.12
511.833	97.12
512.049	91.12
512.265	91.12
512.481	68.12
512.698	74.12
512.914	80.12
513.13	80.12
513.346	85.12
513.562	82.12
513.778	99.12
513.994	84.12
514.21	86.12
514.426	103.12
514.642	110.12
514.858	111.12
515.074	134.12
515.29	367.12
515.506	1135.12
515.721	417.12
515.937	124.12
516.153	104.12
516.369	88.12
516.585	78.12
516.801	84.12
517.016	98.12
517.232	83.12
517.448	84.12
