Data from Uncirc_1986_H10_HRD10591_00002.txt Node
Date: Wed Jan 03 12:14:26 EST 2024
User: Yrep
Spectrometer: HR+D1059
Trigger mode: 1
Integration Time (sec): 1.000000E-1
Scans to average: 1
Electric dark correction enabled: true
Nonlinearity correction enabled: false
Boxcar width: 0
XAxis mode: Wavelengths
Number of Pixels in Spectrum: 2048
>>>>>Begin Spectral Data<<<<<
223.165	-9.62
223.4	-9.62
223.635	-9.62
223.869	-20.62
224.104	-20.62
224.338	-21.62
224.573	-9.62
224.808	-2.62
225.042	2.38
225.277	-16.62
225.511	4.38
225.746	8.38
225.98	-2.62
226.215	11.38
226.449	15.38
226.683	16.38
226.918	18.38
227.152	27.38
227.387	53.38
227.621	51.38
227.856	70.38
228.09	45.38
228.324	48.38
228.559	69.38
228.793	63.38
229.027	62.38
229.262	61.38
229.496	74.38
229.73	82.38
229.964	80.38
230.199	79.38
230.433	81.38
230.667	79.38
230.901	70.38
231.136	76.38
231.37	74.38
231.604	89.38
231.838	94.38
232.072	90.38
232.306	82.38
232.541	91.38
232.775	73.38
233.009	92.38
233.243	86.38
233.477	75.38
233.711	84.38
233.945	79.38
234.179	91.38
234.413	90.38
234.647	84.38
234.881	90.38
235.115	74.38
235.349	92.38
235.583	67.38
235.817	87.38
236.051	77.38
236.285	77.38
236.519	88.38
236.753	84.38
236.987	95.38
237.221	92.38
237.455	101.38
237.689	84.38
237.922	77.38
238.156	71.38
238.39	87.38
238.624	81.38
238.858	92.38
239.091	76.38
239.325	90.38
239.559	79.38
239.793	91.38
240.027	76.38
240.26	79.38
240.494	91.38
240.728	85.38
240.961	79.38
241.195	75.38
241.429	64.38
241.662	71.38
241.896	79.38
242.13	87.38
242.363	66.38
242.597	68.38
242.83	85.38
243.064	88.38
243.298	92.38
243.531	77.38
243.765	75.38
243.998	77.38
244.232	92.38
244.465	96.38
244.699	79.38
244.932	78.38
245.166	96.38
245.399	78.38
245.633	74.38
245.866	72.38
246.099	75.38
246.333	77.38
246.566	71.38
246.8	82.38
247.033	72.38
247.266	82.38
247.5	72.38
247.733	84.38
247.966	82.38
248.2	84.38
248.433	86.38
248.666	84.38
248.899	76.38
249.133	80.38
249.366	99.38
249.599	97.38
249.832	90.38
250.066	84.38
250.299	91.38
250.532	88.38
250.765	82.38
250.998	79.38
251.231	94.38
251.465	104.38
251.698	79.38
251.931	92.38
252.164	82.38
252.397	86.38
252.63	97.38
252.863	79.38
253.096	79.38
253.329	93.38
253.562	76.38
253.795	87.38
254.028	68.38
254.261	97.38
254.494	85.38
254.727	78.38
254.96	89.38
255.193	79.38
255.426	76.38
255.659	85.38
255.892	102.38
256.124	88.38
256.357	91.38
256.59	88.38
256.823	80.38
257.056	80.38
257.289	88.38
257.521	91.38
257.754	76.38
257.987	82.38
258.22	86.38
258.452	77.38
258.685	87.38
258.918	75.38
259.151	78.38
259.383	88.38
259.616	93.38
259.849	85.38
260.081	78.38
260.314	93.38
260.547	86.38
260.779	71.38
261.012	102.38
261.244	88.38
261.477	95.38
261.71	90.38
261.942	114.38
262.175	103.38
262.407	92.38
262.64	78.38
262.872	84.38
263.105	79.38
263.337	79.38
263.57	97.38
263.802	89.38
264.035	73.38
264.267	79.38
264.499	95.38
264.732	86.38
264.964	78.38
265.197	101.38
265.429	70.38
265.661	75.38
265.894	81.38
266.126	82.38
266.358	100.38
266.591	82.38
266.823	87.38
267.055	89.38
267.287	82.38
267.52	79.38
267.752	92.38
267.984	98.38
268.216	89.38
268.448	92.38
268.681	109.38
268.913	98.38
269.145	87.38
269.377	96.38
269.609	96.38
269.841	77.38
270.073	93.38
270.306	91.38
270.538	92.38
270.77	94.38
271.002	89.38
271.234	87.38
271.466	83.38
271.698	83.38
271.93	93.38
272.162	75.38
272.394	78.38
272.626	86.38
272.858	85.38
273.09	99.38
273.322	66.38
273.553	88.38
273.785	90.38
274.017	84.38
274.249	96.38
274.481	85.38
274.713	91.38
274.945	96.38
275.176	88.38
275.408	95.38
275.64	88.38
275.872	90.38
276.104	68.38
276.335	90.38
276.567	86.38
276.799	84.38
277.031	99.38
277.262	96.38
277.494	93.38
277.726	104.38
277.957	82.38
278.189	96.38
278.421	96.38
278.652	97.38
278.884	86.38
279.115	98.38
279.347	85.38
279.579	92.38
279.81	100.38
280.042	87.38
280.273	89.38
280.505	89.38
280.736	95.38
280.968	87.38
281.199	92.38
281.431	94.38
281.662	85.38
281.894	107.38
282.125	100.38
282.356	103.38
282.588	127.38
282.819	124.38
283.051	91.38
283.282	96.38
283.513	93.38
283.745	101.38
283.976	96.38
284.207	96.38
284.439	89.38
284.67	84.38
284.901	86.38
285.132	95.38
285.364	107.38
285.595	101.38
285.826	92.38
286.057	73.38
286.288	92.38
286.52	93.38
286.751	85.38
286.982	97.38
287.213	103.38
287.444	86.38
287.675	78.38
287.906	95.38
288.138	79.38
288.369	88.38
288.6	92.38
288.831	87.38
289.062	98.38
289.293	77.38
289.524	92.38
289.755	94.38
289.986	83.38
290.217	105.38
290.448	90.38
290.679	105.38
290.91	98.38
291.141	88.38
291.371	83.38
291.602	84.38
291.833	92.38
292.064	91.38
292.295	95.38
292.526	88.38
292.757	86.38
292.987	79.38
293.218	85.38
293.449	85.38
293.68	93.38
293.91	82.38
294.141	93.38
294.372	85.38
294.603	99.38
294.833	101.38
295.064	95.38
295.295	88.38
295.525	96.38
295.756	96.38
295.987	113.38
296.217	121.38
296.448	101.38
296.679	106.38
296.909	97.38
297.14	92.38
297.37	101.38
297.601	91.38
297.831	94.38
298.062	91.38
298.292	104.38
298.523	100.38
298.753	90.38
298.984	91.38
299.214	106.38
299.445	94.38
299.675	95.38
299.905	92.38
300.136	77.38
300.366	99.38
300.597	102.38
300.827	89.38
301.057	101.38
301.288	101.38
301.518	98.38
301.748	105.38
301.979	103.38
302.209	79.38
302.439	92.38
302.669	87.38
302.9	86.38
303.13	91.38
303.36	100.38
303.59	95.38
303.82	91.38
304.051	90.38
304.281	84.38
304.511	93.38
304.741	84.38
304.971	86.38
305.201	77.38
305.431	95.38
305.661	86.38
305.891	79.38
306.121	99.38
306.352	108.38
306.582	108.38
306.812	97.38
307.042	83.38
307.272	110.38
307.502	114.38
307.731	104.38
307.961	100.38
308.191	94.38
308.421	83.38
308.651	78.38
308.881	90.38
309.111	100.38
309.341	102.38
309.571	89.38
309.8	109.38
310.03	109.38
310.26	94.38
310.49	107.38
310.72	103.38
310.949	94.38
311.179	104.38
311.409	103.38
311.639	93.38
311.868	101.38
312.098	112.38
312.328	97.38
312.557	89.38
312.787	108.38
313.017	100.38
313.246	103.38
313.476	108.38
313.706	104.38
313.935	90.38
314.165	107.38
314.394	102.38
314.624	91.38
314.853	102.38
315.083	98.38
315.312	102.38
315.542	99.38
315.771	91.38
316.001	95.38
316.23	105.38
316.46	87.38
316.689	91.38
316.919	107.38
317.148	106.38
317.377	92.38
317.607	104.38
317.836	102.38
318.065	86.38
318.295	94.38
318.524	103.38
318.753	101.38
318.983	96.38
319.212	95.38
319.441	117.38
319.67	92.38
319.9	97.38
320.129	93.38
320.358	93.38
320.587	90.38
320.816	102.38
321.046	109.38
321.275	103.38
321.504	99.38
321.733	84.38
321.962	98.38
322.191	110.38
322.42	111.38
322.649	103.38
322.878	121.38
323.108	118.38
323.337	124.38
323.566	135.38
323.795	143.38
324.024	187.38
324.253	343.38
324.482	705.38
324.71	1483.38
324.939	1911.38
325.168	727.38
325.397	236.38
325.626	149.38
325.855	141.38
326.084	125.38
326.313	136.38
326.542	163.38
326.77	202.38
326.999	383.38
327.228	810.38
327.457	1514.38
327.686	1193.38
327.914	339.38
328.143	192.38
328.372	157.38
328.6	110.38
328.829	114.38
329.058	124.38
329.287	126.38
329.515	105.38
329.744	101.38
329.972	112.38
330.201	103.38
330.43	106.38
330.658	117.38
330.887	121.38
331.115	108.38
331.344	94.38
331.572	108.38
331.801	103.38
332.03	101.38
332.258	103.38
332.486	107.38
332.715	99.38
332.943	99.38
333.172	102.38
333.4	99.38
333.629	101.38
333.857	125.38
334.085	106.38
334.314	105.38
334.542	109.38
334.771	99.38
334.999	98.38
335.227	82.38
335.455	100.38
335.684	91.38
335.912	111.38
336.14	109.38
336.369	108.38
336.597	104.38
336.825	101.38
337.053	98.38
337.281	110.38
337.51	87.38
337.738	98.38
337.966	89.38
338.194	99.38
338.422	102.38
338.65	97.38
338.878	88.38
339.106	92.38
339.334	95.38
339.562	81.38
339.79	82.38
340.018	99.38
340.246	79.38
340.474	87.38
340.702	93.38
340.93	103.38
341.158	94.38
341.386	109.38
341.614	93.38
341.842	86.38
342.07	91.38
342.298	93.38
342.526	107.38
342.754	88.38
342.981	93.38
343.209	87.38
343.437	104.38
343.665	93.38
343.893	91.38
344.12	94.38
344.348	83.38
344.576	101.38
344.804	107.38
345.031	98.38
345.259	102.38
345.487	110.38
345.714	103.38
345.942	115.38
346.17	96.38
346.397	96.38
346.625	86.38
346.853	104.38
347.08	92.38
347.308	98.38
347.535	107.38
347.763	109.38
347.99	111.38
348.218	108.38
348.445	98.38
348.673	104.38
348.9	117.38
349.128	100.38
349.355	97.38
349.583	99.38
349.81	104.38
350.037	93.38
350.265	105.38
350.492	90.38
350.72	107.38
350.947	110.38
351.174	103.38
351.402	115.38
351.629	115.38
351.856	94.38
352.083	117.38
352.311	105.38
352.538	99.38
352.765	104.38
352.992	122.38
353.22	105.38
353.447	102.38
353.674	109.38
353.901	96.38
354.128	100.38
354.355	107.38
354.583	106.38
354.81	78.38
355.037	117.38
355.264	108.38
355.491	94.38
355.718	102.38
355.945	106.38
356.172	94.38
356.399	97.38
356.626	97.38
356.853	88.38
357.08	82.38
357.307	101.38
357.534	84.38
357.761	92.38
357.988	94.38
358.215	99.38
358.441	86.38
358.668	98.38
358.895	89.38
359.122	101.38
359.349	94.38
359.576	94.38
359.802	95.38
360.029	117.38
360.256	119.38
360.483	101.38
360.709	95.38
360.936	86.38
361.163	110.38
361.39	88.38
361.616	107.38
361.843	88.38
362.07	98.38
362.296	104.38
362.523	97.38
362.749	89.38
362.976	91.38
363.203	85.38
363.429	96.38
363.656	108.38
363.882	86.38
364.109	86.38
364.335	95.38
364.562	89.38
364.788	110.38
365.015	92.38
365.241	107.38
365.468	109.38
365.694	103.38
365.92	90.38
366.147	99.38
366.373	82.38
366.599	75.38
366.826	90.38
367.052	95.38
367.278	88.38
367.505	84.38
367.731	84.38
367.957	80.38
368.184	117.38
368.41	102.38
368.636	107.38
368.862	119.38
369.089	111.38
369.315	104.38
369.541	103.38
369.767	95.38
369.993	99.38
370.219	84.38
370.445	103.38
370.672	100.38
370.898	94.38
371.124	79.38
371.35	76.38
371.576	102.38
371.802	97.38
372.028	84.38
372.254	84.38
372.48	93.38
372.706	103.38
372.932	93.38
373.158	84.38
373.384	105.38
373.61	113.38
373.835	104.38
374.061	93.38
374.287	86.38
374.513	96.38
374.739	74.38
374.965	96.38
375.191	88.38
375.416	90.38
375.642	100.38
375.868	111.38
376.094	87.38
376.319	98.38
376.545	90.38
376.771	93.38
376.997	86.38
377.222	84.38
377.448	109.38
377.674	92.38
377.899	93.38
378.125	94.38
378.35	88.38
378.576	90.38
378.802	89.38
379.027	102.38
379.253	112.38
379.478	99.38
379.704	105.38
379.929	96.38
380.155	92.38
380.38	103.38
380.606	99.38
380.831	100.38
381.057	107.38
381.282	111.38
381.507	92.38
381.733	94.38
381.958	97.38
382.184	104.38
382.409	98.38
382.634	99.38
382.86	102.38
383.085	97.38
383.31	107.38
383.535	105.38
383.761	93.38
383.986	108.38
384.211	96.38
384.436	93.38
384.662	108.38
384.887	94.38
385.112	101.38
385.337	108.38
385.562	108.38
385.787	118.38
386.013	110.38
386.238	95.38
386.463	105.38
386.688	119.38
386.913	101.38
387.138	102.38
387.363	113.38
387.588	108.38
387.813	103.38
388.038	100.38
388.263	124.38
388.488	113.38
388.713	109.38
388.938	108.38
389.163	106.38
389.387	99.38
389.612	93.38
389.837	92.38
390.062	100.38
390.287	95.38
390.512	90.38
390.736	100.38
390.961	106.38
391.186	103.38
391.411	93.38
391.636	88.38
391.86	100.38
392.085	99.38
392.31	82.38
392.534	86.38
392.759	90.38
392.984	79.38
393.208	89.38
393.433	99.38
393.658	81.38
393.882	87.38
394.107	91.38
394.331	106.38
394.556	84.38
394.78	93.38
395.005	92.38
395.229	96.38
395.454	93.38
395.678	93.38
395.903	91.38
396.127	93.38
396.352	87.38
396.576	70.38
396.801	90.38
397.025	87.38
397.249	86.38
397.474	96.38
397.698	76.38
397.922	85.38
398.147	94.38
398.371	90.38
398.595	78.38
398.82	91.38
399.044	104.38
399.268	101.38
399.492	107.38
399.717	91.38
399.941	99.38
400.165	96.38
400.389	97.38
400.613	100.38
400.837	94.38
401.062	79.38
401.286	102.38
401.51	105.38
401.734	87.38
401.958	99.38
402.182	115.38
402.406	158.38
402.63	120.38
402.854	86.38
403.078	107.38
403.302	75.38
403.526	85.38
403.75	90.38
403.974	96.38
404.198	78.38
404.422	90.38
404.645	95.38
404.869	90.38
405.093	95.38
405.317	96.38
405.541	105.38
405.765	112.38
405.988	123.38
406.212	161.38
406.436	201.38
406.66	115.38
406.883	98.38
407.107	98.38
407.331	96.38
407.555	102.38
407.778	94.38
408.002	98.38
408.226	91.38
408.449	90.38
408.673	87.38
408.896	95.38
409.12	91.38
409.344	81.38
409.567	90.38
409.791	110.38
410.014	89.38
410.238	95.38
410.461	88.38
410.685	98.38
410.908	98.38
411.132	110.38
411.355	113.38
411.578	99.38
411.802	102.38
412.025	90.38
412.249	102.38
412.472	101.38
412.695	107.38
412.919	94.38
413.142	95.38
413.365	82.38
413.589	94.38
413.812	97.38
414.035	103.38
414.258	91.38
414.482	101.38
414.705	92.38
414.928	100.38
415.151	91.38
415.374	102.38
415.597	98.38
415.821	100.38
416.044	95.38
416.267	97.38
416.49	95.38
416.713	97.38
416.936	101.38
417.159	91.38
417.382	96.38
417.605	84.38
417.828	88.38
418.051	86.38
418.274	97.38
418.497	88.38
418.72	90.38
418.943	93.38
419.166	84.38
419.389	92.38
419.611	88.38
419.834	101.38
420.057	99.38
420.28	85.38
420.503	95.38
420.726	88.38
420.948	87.38
421.171	105.38
421.394	95.38
421.617	98.38
421.839	82.38
422.062	104.38
422.285	101.38
422.507	116.38
422.73	112.38
422.953	106.38
423.175	101.38
423.398	98.38
423.621	89.38
423.843	78.38
424.066	92.38
424.288	99.38
424.511	97.38
424.733	113.38
424.956	101.38
425.178	102.38
425.401	102.38
425.623	105.38
425.846	88.38
426.068	94.38
426.291	94.38
426.513	90.38
426.735	97.38
426.958	84.38
427.18	94.38
427.402	130.38
427.625	142.38
427.847	125.38
428.069	123.38
428.292	97.38
428.514	99.38
428.736	103.38
428.958	68.38
429.181	84.38
429.403	87.38
429.625	83.38
429.847	95.38
430.069	93.38
430.292	83.38
430.514	87.38
430.736	96.38
430.958	109.38
431.18	82.38
431.402	78.38
431.624	90.38
431.846	89.38
432.068	101.38
432.29	90.38
432.512	95.38
432.734	96.38
432.956	107.38
433.178	120.38
433.4	100.38
433.622	95.38
433.844	101.38
434.066	79.38
434.287	83.38
434.509	93.38
434.731	95.38
434.953	84.38
435.175	106.38
435.397	86.38
435.618	104.38
435.84	92.38
436.062	112.38
436.284	118.38
436.505	98.38
436.727	102.38
436.949	97.38
437.17	103.38
437.392	93.38
437.614	100.38
437.835	83.38
438.057	106.38
438.278	118.38
438.5	111.38
438.721	122.38
438.943	107.38
439.165	91.38
439.386	75.38
439.608	90.38
439.829	94.38
440.05	112.38
440.272	128.38
440.493	105.38
440.715	95.38
440.936	102.38
441.158	95.38
441.379	75.38
441.6	110.38
441.822	102.38
442.043	97.38
442.264	103.38
442.486	108.38
442.707	100.38
442.928	111.38
443.149	122.38
443.371	116.38
443.592	104.38
443.813	114.38
444.034	116.38
444.255	87.38
444.476	103.38
444.698	96.38
444.919	93.38
445.14	127.38
445.361	115.38
445.582	122.38
445.803	136.38
446.024	143.38
446.245	126.38
446.466	105.38
446.687	75.38
446.908	92.38
447.129	92.38
447.35	85.38
447.571	101.38
447.792	89.38
448.013	87.38
448.234	117.38
448.455	99.38
448.675	110.38
448.896	117.38
449.117	90.38
449.338	99.38
449.559	136.38
449.779	124.38
450	107.38
450.221	88.38
450.442	95.38
450.662	98.38
450.883	109.38
451.104	90.38
451.324	99.38
451.545	91.38
451.766	94.38
451.986	86.38
452.207	107.38
452.428	93.38
452.648	96.38
452.869	111.38
453.089	108.38
453.31	91.38
453.53	86.38
453.751	95.38
453.971	106.38
454.192	112.38
454.412	88.38
454.633	69.38
454.853	92.38
455.073	88.38
455.294	104.38
455.514	107.38
455.734	86.38
455.955	89.38
456.175	90.38
456.395	101.38
456.616	88.38
456.836	84.38
457.056	95.38
457.276	85.38
457.497	89.38
457.717	87.38
457.937	82.38
458.157	87.38
458.377	80.38
458.598	92.38
458.818	135.38
459.038	141.38
459.258	115.38
459.478	101.38
459.698	103.38
459.918	100.38
460.138	86.38
460.358	92.38
460.578	96.38
460.798	92.38
461.018	87.38
461.238	105.38
461.458	99.38
461.678	90.38
461.898	96.38
462.118	99.38
462.338	94.38
462.558	86.38
462.777	86.38
462.997	91.38
463.217	89.38
463.437	99.38
463.657	81.38
463.876	106.38
464.096	107.38
464.316	96.38
464.536	82.38
464.755	102.38
464.975	113.38
465.195	134.38
465.414	152.38
465.634	81.38
465.854	98.38
466.073	88.38
466.293	96.38
466.512	84.38
466.732	87.38
466.951	104.38
467.171	98.38
467.391	107.38
467.61	105.38
467.829	106.38
468.049	94.38
468.268	92.38
468.488	80.38
468.707	91.38
468.927	108.38
469.146	77.38
469.365	82.38
469.585	104.38
469.804	95.38
470.023	98.38
470.243	103.38
470.462	102.38
470.681	99.38
470.901	106.38
471.12	84.38
471.339	90.38
471.558	95.38
471.777	86.38
471.997	74.38
472.216	85.38
472.435	88.38
472.654	96.38
472.873	103.38
473.092	94.38
473.311	97.38
473.53	91.38
473.749	101.38
473.968	82.38
474.187	84.38
474.406	84.38
474.625	90.38
474.844	93.38
475.063	97.38
475.282	82.38
475.501	98.38
475.72	90.38
475.939	84.38
476.158	98.38
476.377	105.38
476.596	95.38
476.814	91.38
477.033	93.38
477.252	99.38
477.471	95.38
477.69	86.38
477.908	91.38
478.127	105.38
478.346	101.38
478.564	107.38
478.783	106.38
479.002	101.38
479.22	101.38
479.439	128.38
479.658	104.38
479.876	80.38
480.095	101.38
480.313	93.38
480.532	107.38
480.751	95.38
480.969	88.38
481.188	109.38
481.406	100.38
481.624	92.38
481.843	98.38
482.061	105.38
482.28	86.38
482.498	102.38
482.717	91.38
482.935	84.38
483.153	96.38
483.372	100.38
483.59	94.38
483.808	105.38
484.027	93.38
484.245	105.38
484.463	97.38
484.681	107.38
484.9	94.38
485.118	90.38
485.336	96.38
485.554	101.38
485.772	104.38
485.99	99.38
486.209	110.38
486.427	92.38
486.645	106.38
486.863	100.38
487.081	103.38
487.299	85.38
487.517	101.38
487.735	101.38
487.953	102.38
488.171	97.38
488.389	112.38
488.607	94.38
488.825	94.38
489.043	98.38
489.261	90.38
489.479	105.38
489.696	98.38
489.914	99.38
490.132	87.38
490.35	94.38
490.568	97.38
490.786	91.38
491.003	100.38
491.221	101.38
491.439	91.38
491.657	94.38
491.874	100.38
492.092	79.38
492.31	102.38
492.527	99.38
492.745	92.38
492.963	71.38
493.18	101.38
493.398	108.38
493.615	104.38
493.833	102.38
494.05	92.38
494.268	98.38
494.485	91.38
494.703	99.38
494.92	93.38
495.138	100.38
495.355	87.38
495.573	88.38
495.79	79.38
496.008	98.38
496.225	104.38
496.442	90.38
496.66	99.38
496.877	104.38
497.094	96.38
497.312	100.38
497.529	104.38
497.746	91.38
497.963	83.38
498.181	102.38
498.398	108.38
498.615	112.38
498.832	102.38
499.049	82.38
499.267	88.38
499.484	88.38
499.701	99.38
499.918	104.38
500.135	91.38
500.352	111.38
500.569	76.38
500.786	107.38
501.003	95.38
501.22	82.38
501.437	80.38
501.654	86.38
501.871	106.38
502.088	95.38
502.305	100.38
502.522	116.38
502.739	98.38
502.956	101.38
503.172	94.38
503.389	103.38
503.606	94.38
503.823	88.38
504.04	104.38
504.256	94.38
504.473	94.38
504.69	90.38
504.907	90.38
505.123	99.38
505.34	112.38
505.557	84.38
505.773	99.38
505.99	98.38
506.207	86.38
506.423	97.38
506.64	93.38
506.856	92.38
507.073	99.38
507.289	102.38
507.506	88.38
507.722	116.38
507.939	109.38
508.155	106.38
508.372	88.38
508.588	90.38
508.805	105.38
509.021	101.38
509.238	100.38
509.454	93.38
509.67	102.38
509.887	116.38
510.103	131.38
510.319	193.38
510.536	633.38
510.752	1968.38
510.968	582.38
511.184	154.38
511.401	109.38
511.617	101.38
511.833	87.38
512.049	107.38
512.265	100.38
512.481	91.38
512.698	98.38
512.914	97.38
513.13	110.38
513.346	100.38
513.562	94.38
513.778	100.38
