Data from Uncirc_1986_H10_HRD10591_00073.txt Node
Date: Wed Jan 03 12:14:41 EST 2024
User: Yrep
Spectrometer: HR+D1059
Trigger mode: 1
Integration Time (sec): 1.000000E-1
Scans to average: 1
Electric dark correction enabled: true
Nonlinearity correction enabled: false
Boxcar width: 0
XAxis mode: Wavelengths
Number of Pixels in Spectrum: 2048
>>>>>Begin Spectral Data<<<<<
223.165	-18.44
223.4	-18.44
223.635	-18.44
223.869	-21.44
224.104	-11.44
224.338	-32.44
224.573	-14.44
224.808	-7.44
225.042	-13.44
225.277	-0.44
225.511	-14.44
225.746	7.56
225.98	3.56
226.215	15.56
226.449	18.56
226.683	20.56
226.918	33.56
227.152	34.56
227.387	32.56
227.621	50.56
227.856	32.56
228.09	54.56
228.324	59.56
228.559	47.56
228.793	55.56
229.027	67.56
229.262	68.56
229.496	74.56
229.73	68.56
229.964	74.56
230.199	71.56
230.433	75.56
230.667	82.56
230.901	83.56
231.136	77.56
231.37	91.56
231.604	89.56
231.838	80.56
232.072	67.56
232.306	84.56
232.541	82.56
232.775	85.56
233.009	75.56
233.243	68.56
233.477	79.56
233.711	89.56
233.945	78.56
234.179	87.56
234.413	82.56
234.647	78.56
234.881	86.56
235.115	78.56
235.349	74.56
235.583	70.56
235.817	85.56
236.051	73.56
236.285	70.56
236.519	81.56
236.753	84.56
236.987	87.56
237.221	92.56
237.455	98.56
237.689	75.56
237.922	88.56
238.156	74.56
238.39	88.56
238.624	71.56
238.858	72.56
239.091	58.56
239.325	73.56
239.559	82.56
239.793	76.56
240.027	86.56
240.26	82.56
240.494	79.56
240.728	88.56
240.961	74.56
241.195	89.56
241.429	70.56
241.662	79.56
241.896	78.56
242.13	97.56
242.363	89.56
242.597	83.56
242.83	79.56
243.064	78.56
243.298	74.56
243.531	71.56
243.765	73.56
243.998	80.56
244.232	85.56
244.465	65.56
244.699	85.56
244.932	87.56
245.166	84.56
245.399	76.56
245.633	78.56
245.866	71.56
246.099	84.56
246.333	84.56
246.566	69.56
246.8	82.56
247.033	73.56
247.266	80.56
247.5	75.56
247.733	84.56
247.966	79.56
248.2	74.56
248.433	78.56
248.666	81.56
248.899	82.56
249.133	88.56
249.366	86.56
249.599	102.56
249.832	69.56
250.066	93.56
250.299	78.56
250.532	89.56
250.765	64.56
250.998	79.56
251.231	76.56
251.465	75.56
251.698	79.56
251.931	88.56
252.164	90.56
252.397	83.56
252.63	76.56
252.863	75.56
253.096	84.56
253.329	82.56
253.562	78.56
253.795	87.56
254.028	57.56
254.261	61.56
254.494	69.56
254.727	89.56
254.96	84.56
255.193	89.56
255.426	82.56
255.659	86.56
255.892	76.56
256.124	86.56
256.357	81.56
256.59	79.56
256.823	100.56
257.056	83.56
257.289	76.56
257.521	86.56
257.754	92.56
257.987	81.56
258.22	76.56
258.452	70.56
258.685	86.56
258.918	80.56
259.151	86.56
259.383	100.56
259.616	94.56
259.849	85.56
260.081	74.56
260.314	88.56
260.547	78.56
260.779	74.56
261.012	79.56
261.244	80.56
261.477	83.56
261.71	88.56
261.942	102.56
262.175	111.56
262.407	90.56
262.64	89.56
262.872	79.56
263.105	70.56
263.337	87.56
263.57	74.56
263.802	80.56
264.035	82.56
264.267	76.56
264.499	76.56
264.732	79.56
264.964	85.56
265.197	80.56
265.429	65.56
265.661	84.56
265.894	83.56
266.126	66.56
266.358	75.56
266.591	85.56
266.823	74.56
267.055	87.56
267.287	86.56
267.52	79.56
267.752	84.56
267.984	82.56
268.216	86.56
268.448	86.56
268.681	73.56
268.913	102.56
269.145	76.56
269.377	88.56
269.609	85.56
269.841	81.56
270.073	96.56
270.306	74.56
270.538	82.56
270.77	76.56
271.002	90.56
271.234	82.56
271.466	95.56
271.698	100.56
271.93	81.56
272.162	92.56
272.394	89.56
272.626	82.56
272.858	82.56
273.09	87.56
273.322	97.56
273.553	96.56
273.785	95.56
274.017	85.56
274.249	80.56
274.481	86.56
274.713	102.56
274.945	85.56
275.176	79.56
275.408	98.56
275.64	85.56
275.872	69.56
276.104	99.56
276.335	87.56
276.567	95.56
276.799	103.56
277.031	91.56
277.262	94.56
277.494	94.56
277.726	89.56
277.957	88.56
278.189	88.56
278.421	101.56
278.652	81.56
278.884	87.56
279.115	83.56
279.347	84.56
279.579	69.56
279.81	95.56
280.042	91.56
280.273	92.56
280.505	92.56
280.736	78.56
280.968	87.56
281.199	92.56
281.431	82.56
281.662	80.56
281.894	80.56
282.125	95.56
282.356	103.56
282.588	144.56
282.819	117.56
283.051	96.56
283.282	79.56
283.513	94.56
283.745	81.56
283.976	92.56
284.207	88.56
284.439	95.56
284.67	100.56
284.901	111.56
285.132	83.56
285.364	88.56
285.595	87.56
285.826	81.56
286.057	89.56
286.288	94.56
286.52	94.56
286.751	84.56
286.982	91.56
287.213	90.56
287.444	89.56
287.675	93.56
287.906	98.56
288.138	79.56
288.369	93.56
288.6	94.56
288.831	103.56
289.062	82.56
289.293	97.56
289.524	91.56
289.755	95.56
289.986	89.56
290.217	78.56
290.448	94.56
290.679	89.56
290.91	85.56
291.141	91.56
291.371	87.56
291.602	90.56
291.833	91.56
292.064	89.56
292.295	91.56
292.526	101.56
292.757	89.56
292.987	78.56
293.218	99.56
293.449	94.56
293.68	90.56
293.91	78.56
294.141	98.56
294.372	87.56
294.603	86.56
294.833	82.56
295.064	87.56
295.295	85.56
295.525	89.56
295.756	105.56
295.987	113.56
296.217	121.56
296.448	117.56
296.679	96.56
296.909	97.56
297.14	96.56
297.37	87.56
297.601	84.56
297.831	86.56
298.062	98.56
298.292	84.56
298.523	90.56
298.753	99.56
298.984	88.56
299.214	88.56
299.445	90.56
299.675	88.56
299.905	91.56
300.136	86.56
300.366	89.56
300.597	102.56
300.827	80.56
301.057	103.56
301.288	119.56
301.518	94.56
301.748	106.56
301.979	100.56
302.209	100.56
302.439	91.56
302.669	99.56
302.9	104.56
303.13	95.56
303.36	89.56
303.59	87.56
303.82	104.56
304.051	91.56
304.281	88.56
304.511	98.56
304.741	82.56
304.971	90.56
305.201	90.56
305.431	70.56
305.661	82.56
305.891	90.56
306.121	95.56
306.352	99.56
306.582	107.56
306.812	91.56
307.042	96.56
307.272	86.56
307.502	89.56
307.731	80.56
307.961	97.56
308.191	90.56
308.421	98.56
308.651	98.56
308.881	97.56
309.111	82.56
309.341	99.56
309.571	112.56
309.8	97.56
310.03	92.56
310.26	99.56
310.49	101.56
310.72	86.56
310.949	108.56
311.179	91.56
311.409	89.56
311.639	107.56
311.868	87.56
312.098	91.56
312.328	102.56
312.557	102.56
312.787	113.56
313.017	106.56
313.246	91.56
313.476	87.56
313.706	84.56
313.935	82.56
314.165	98.56
314.394	100.56
314.624	84.56
314.853	104.56
315.083	102.56
315.312	92.56
315.542	80.56
315.771	96.56
316.001	97.56
316.23	87.56
316.46	98.56
316.689	105.56
316.919	109.56
317.148	102.56
317.377	101.56
317.607	95.56
317.836	94.56
318.065	99.56
318.295	96.56
318.524	100.56
318.753	90.56
318.983	96.56
319.212	103.56
319.441	105.56
319.67	115.56
319.9	99.56
320.129	91.56
320.358	96.56
320.587	98.56
320.816	99.56
321.046	99.56
321.275	99.56
321.504	90.56
321.733	94.56
321.962	98.56
322.191	102.56
322.42	106.56
322.649	110.56
322.878	111.56
323.108	125.56
323.337	123.56
323.566	130.56
323.795	150.56
324.024	196.56
324.253	389.56
324.482	822.56
324.71	1702.56
324.939	2244.56
325.168	817.56
325.397	272.56
325.626	148.56
325.855	123.56
326.084	141.56
326.313	141.56
326.542	143.56
326.77	235.56
326.999	477.56
327.228	931.56
327.457	1785.56
327.686	1366.56
327.914	359.56
328.143	190.56
328.372	145.56
328.6	114.56
328.829	127.56
329.058	126.56
329.287	127.56
329.515	127.56
329.744	96.56
329.972	93.56
330.201	114.56
330.43	107.56
330.658	122.56
330.887	134.56
331.115	126.56
331.344	94.56
331.572	90.56
331.801	106.56
332.03	94.56
332.258	101.56
332.486	102.56
332.715	88.56
332.943	94.56
333.172	107.56
333.4	102.56
333.629	107.56
333.857	108.56
334.085	105.56
334.314	108.56
334.542	119.56
334.771	113.56
334.999	111.56
335.227	82.56
335.455	94.56
335.684	111.56
335.912	103.56
336.14	94.56
336.369	94.56
336.597	111.56
336.825	107.56
337.053	88.56
337.281	94.56
337.51	88.56
337.738	99.56
337.966	103.56
338.194	90.56
338.422	93.56
338.65	95.56
338.878	105.56
339.106	108.56
339.334	88.56
339.562	87.56
339.79	92.56
340.018	96.56
340.246	100.56
340.474	89.56
340.702	83.56
340.93	92.56
341.158	80.56
341.386	85.56
341.614	91.56
341.842	112.56
342.07	94.56
342.298	90.56
342.526	102.56
342.754	96.56
342.981	88.56
343.209	95.56
343.437	93.56
343.665	96.56
343.893	91.56
344.12	95.56
344.348	69.56
344.576	102.56
344.804	98.56
345.031	97.56
345.259	88.56
345.487	105.56
345.714	89.56
345.942	111.56
346.17	89.56
346.397	89.56
346.625	103.56
346.853	113.56
347.08	82.56
347.308	87.56
347.535	87.56
347.763	109.56
347.99	91.56
348.218	97.56
348.445	105.56
348.673	88.56
348.9	95.56
349.128	100.56
349.355	95.56
349.583	101.56
349.81	103.56
350.037	89.56
350.265	99.56
350.492	92.56
350.72	89.56
350.947	101.56
351.174	109.56
351.402	110.56
351.629	106.56
351.856	100.56
352.083	84.56
352.311	103.56
352.538	88.56
352.765	106.56
352.992	116.56
353.22	135.56
353.447	114.56
353.674	97.56
353.901	96.56
354.128	108.56
354.355	92.56
354.583	97.56
354.81	97.56
355.037	106.56
355.264	96.56
355.491	95.56
355.718	88.56
355.945	95.56
356.172	91.56
356.399	104.56
356.626	97.56
356.853	89.56
357.08	102.56
357.307	102.56
357.534	84.56
357.761	89.56
357.988	108.56
358.215	102.56
358.441	92.56
358.668	96.56
358.895	87.56
359.122	87.56
359.349	98.56
359.576	83.56
359.802	92.56
360.029	113.56
360.256	94.56
360.483	95.56
360.709	93.56
360.936	94.56
361.163	75.56
361.39	103.56
361.616	105.56
361.843	94.56
362.07	84.56
362.296	95.56
362.523	96.56
362.749	89.56
362.976	84.56
363.203	94.56
363.429	90.56
363.656	84.56
363.882	91.56
364.109	101.56
364.335	94.56
364.562	101.56
364.788	94.56
365.015	90.56
365.241	100.56
365.468	118.56
365.694	106.56
365.92	94.56
366.147	93.56
366.373	98.56
366.599	104.56
366.826	89.56
367.052	77.56
367.278	84.56
367.505	106.56
367.731	91.56
367.957	80.56
368.184	78.56
368.41	104.56
368.636	108.56
368.862	122.56
369.089	103.56
369.315	96.56
369.541	98.56
369.767	87.56
369.993	82.56
370.219	102.56
370.445	97.56
370.672	75.56
370.898	85.56
371.124	92.56
371.35	102.56
371.576	88.56
371.802	92.56
372.028	79.56
372.254	98.56
372.48	98.56
372.706	86.56
372.932	86.56
373.158	113.56
373.384	105.56
373.61	82.56
373.835	92.56
374.061	92.56
374.287	94.56
374.513	85.56
374.739	94.56
374.965	98.56
375.191	102.56
375.416	102.56
375.642	98.56
375.868	99.56
376.094	91.56
376.319	86.56
376.545	104.56
376.771	99.56
376.997	88.56
377.222	97.56
377.448	92.56
377.674	96.56
377.899	94.56
378.125	91.56
378.35	96.56
378.576	94.56
378.802	101.56
379.027	106.56
379.253	109.56
379.478	82.56
379.704	99.56
379.929	90.56
380.155	97.56
380.38	79.56
380.606	92.56
380.831	102.56
381.057	98.56
381.282	91.56
381.507	102.56
381.733	103.56
381.958	88.56
382.184	100.56
382.409	91.56
382.634	104.56
382.86	86.56
383.085	111.56
383.31	101.56
383.535	103.56
383.761	94.56
383.986	91.56
384.211	108.56
384.436	84.56
384.662	102.56
384.887	111.56
385.112	96.56
385.337	105.56
385.562	88.56
385.787	105.56
386.013	115.56
386.238	102.56
386.463	108.56
386.688	121.56
386.913	96.56
387.138	95.56
387.363	94.56
387.588	112.56
387.813	100.56
388.038	103.56
388.263	111.56
388.488	105.56
388.713	101.56
388.938	100.56
389.163	105.56
389.387	110.56
389.612	89.56
389.837	71.56
390.062	97.56
390.287	85.56
390.512	94.56
390.736	94.56
390.961	86.56
391.186	90.56
391.411	94.56
391.636	93.56
391.86	80.56
392.085	99.56
392.31	92.56
392.534	81.56
392.759	86.56
392.984	88.56
393.208	72.56
393.433	90.56
393.658	91.56
393.882	80.56
394.107	93.56
394.331	86.56
394.556	82.56
394.78	80.56
395.005	99.56
395.229	89.56
395.454	94.56
395.678	90.56
395.903	88.56
396.127	75.56
396.352	102.56
396.576	89.56
396.801	89.56
397.025	94.56
397.249	80.56
397.474	89.56
397.698	88.56
397.922	85.56
398.147	79.56
398.371	81.56
398.595	92.56
398.82	87.56
399.044	89.56
399.268	85.56
399.492	84.56
399.717	99.56
399.941	100.56
400.165	88.56
400.389	104.56
400.613	84.56
400.837	75.56
401.062	97.56
401.286	93.56
401.51	95.56
401.734	92.56
401.958	98.56
402.182	146.56
402.406	158.56
402.63	111.56
402.854	90.56
403.078	90.56
403.302	90.56
403.526	91.56
403.75	78.56
403.974	76.56
404.198	92.56
404.422	99.56
404.645	87.56
404.869	88.56
405.093	113.56
405.317	89.56
405.541	101.56
405.765	91.56
405.988	119.56
406.212	164.56
406.436	232.56
406.66	145.56
406.883	93.56
407.107	104.56
407.331	97.56
407.555	103.56
407.778	104.56
408.002	94.56
408.226	91.56
408.449	96.56
408.673	88.56
408.896	104.56
409.12	93.56
409.344	102.56
409.567	79.56
409.791	84.56
410.014	95.56
410.238	101.56
410.461	100.56
410.685	99.56
410.908	101.56
411.132	104.56
411.355	93.56
411.578	91.56
411.802	111.56
412.025	87.56
412.249	101.56
412.472	94.56
412.695	97.56
412.919	101.56
413.142	84.56
413.365	102.56
413.589	83.56
413.812	92.56
414.035	100.56
414.258	85.56
414.482	94.56
414.705	96.56
414.928	92.56
415.151	81.56
415.374	89.56
415.597	87.56
415.821	80.56
416.044	92.56
416.267	80.56
416.49	89.56
416.713	79.56
416.936	83.56
417.159	96.56
417.382	93.56
417.605	95.56
417.828	90.56
418.051	91.56
418.274	90.56
418.497	85.56
418.72	91.56
418.943	87.56
419.166	83.56
419.389	96.56
419.611	94.56
419.834	98.56
420.057	87.56
420.28	96.56
420.503	93.56
420.726	98.56
420.948	78.56
421.171	91.56
421.394	96.56
421.617	89.56
421.839	101.56
422.062	81.56
422.285	94.56
422.507	94.56
422.73	104.56
422.953	92.56
423.175	98.56
423.398	87.56
423.621	86.56
423.843	84.56
424.066	67.56
424.288	84.56
424.511	98.56
424.733	99.56
424.956	106.56
425.178	96.56
425.401	102.56
425.623	101.56
425.846	93.56
426.068	104.56
426.291	86.56
426.513	87.56
426.735	97.56
426.958	90.56
427.18	94.56
427.402	138.56
427.625	169.56
427.847	128.56
428.069	108.56
428.292	100.56
428.514	82.56
428.736	94.56
428.958	86.56
429.181	91.56
429.403	87.56
429.625	75.56
429.847	96.56
430.069	113.56
430.292	87.56
430.514	87.56
430.736	86.56
430.958	70.56
431.18	70.56
431.402	80.56
431.624	98.56
431.846	94.56
432.068	93.56
432.29	93.56
432.512	83.56
432.734	96.56
432.956	99.56
433.178	91.56
433.4	97.56
433.622	91.56
433.844	89.56
434.066	94.56
434.287	101.56
434.509	88.56
434.731	103.56
434.953	89.56
435.175	97.56
435.397	90.56
435.618	96.56
435.84	102.56
436.062	119.56
436.284	117.56
436.505	86.56
436.727	91.56
436.949	91.56
437.17	72.56
437.392	84.56
437.614	95.56
437.835	108.56
438.057	121.56
438.278	116.56
438.5	112.56
438.721	131.56
438.943	99.56
439.165	90.56
439.386	88.56
439.608	107.56
439.829	102.56
440.05	116.56
440.272	144.56
440.493	106.56
440.715	78.56
440.936	99.56
441.158	85.56
441.379	88.56
441.6	96.56
441.822	90.56
442.043	95.56
442.264	95.56
442.486	104.56
442.707	90.56
442.928	108.56
443.149	115.56
443.371	126.56
443.592	117.56
443.813	110.56
444.034	120.56
444.255	103.56
444.476	90.56
444.698	95.56
444.919	89.56
445.14	123.56
445.361	116.56
445.582	103.56
445.803	128.56
446.024	137.56
446.245	137.56
446.466	112.56
446.687	106.56
446.908	103.56
447.129	93.56
447.35	86.56
447.571	93.56
447.792	88.56
448.013	92.56
448.234	109.56
448.455	98.56
448.675	103.56
448.896	127.56
449.117	107.56
449.338	105.56
449.559	131.56
449.779	136.56
450	94.56
450.221	82.56
450.442	95.56
450.662	102.56
450.883	99.56
451.104	108.56
451.324	102.56
451.545	76.56
451.766	80.56
451.986	88.56
452.207	98.56
452.428	87.56
452.648	98.56
452.869	101.56
453.089	120.56
453.31	90.56
453.53	90.56
453.751	108.56
453.971	98.56
454.192	106.56
454.412	97.56
454.633	94.56
454.853	86.56
455.073	83.56
455.294	96.56
455.514	111.56
455.734	104.56
455.955	96.56
456.175	92.56
456.395	91.56
456.616	93.56
456.836	101.56
457.056	94.56
457.276	85.56
457.497	85.56
457.717	86.56
457.937	79.56
458.157	72.56
458.377	98.56
458.598	105.56
458.818	166.56
459.038	158.56
459.258	107.56
459.478	81.56
459.698	90.56
459.918	83.56
460.138	84.56
460.358	93.56
460.578	95.56
460.798	91.56
461.018	101.56
461.238	89.56
461.458	101.56
461.678	93.56
461.898	96.56
462.118	98.56
462.338	94.56
462.558	98.56
462.777	64.56
462.997	76.56
463.217	96.56
463.437	75.56
463.657	86.56
463.876	89.56
464.096	88.56
464.316	79.56
464.536	94.56
464.755	87.56
464.975	121.56
465.195	165.56
465.414	152.56
465.634	100.56
465.854	86.56
466.073	81.56
466.293	91.56
466.512	88.56
466.732	82.56
466.951	89.56
467.171	82.56
467.391	100.56
467.61	107.56
467.829	98.56
468.049	86.56
468.268	96.56
468.488	73.56
468.707	81.56
468.927	91.56
469.146	92.56
469.365	89.56
469.585	91.56
469.804	105.56
470.023	73.56
470.243	99.56
470.462	102.56
470.681	126.56
470.901	87.56
471.12	90.56
471.339	100.56
471.558	81.56
471.777	70.56
471.997	88.56
472.216	98.56
472.435	108.56
472.654	96.56
472.873	87.56
473.092	80.56
473.311	90.56
473.53	99.56
473.749	84.56
473.968	99.56
474.187	94.56
474.406	105.56
474.625	91.56
474.844	82.56
475.063	79.56
475.282	102.56
475.501	98.56
475.72	83.56
475.939	82.56
476.158	87.56
476.377	97.56
476.596	92.56
476.814	92.56
477.033	85.56
477.252	98.56
477.471	88.56
477.69	94.56
477.908	86.56
478.127	98.56
478.346	84.56
478.564	102.56
478.783	90.56
479.002	95.56
479.22	85.56
479.439	106.56
479.658	107.56
479.876	88.56
480.095	91.56
480.313	94.56
480.532	90.56
480.751	90.56
480.969	100.56
481.188	119.56
481.406	96.56
481.624	96.56
481.843	85.56
482.061	94.56
482.28	96.56
482.498	104.56
482.717	112.56
482.935	81.56
483.153	91.56
483.372	85.56
483.59	76.56
483.808	79.56
484.027	90.56
484.245	92.56
484.463	96.56
484.681	93.56
484.9	101.56
485.118	101.56
485.336	83.56
485.554	96.56
485.772	91.56
485.99	101.56
486.209	106.56
486.427	94.56
486.645	108.56
486.863	128.56
487.081	105.56
487.299	82.56
487.517	101.56
487.735	89.56
487.953	97.56
488.171	105.56
488.389	98.56
488.607	117.56
488.825	105.56
489.043	88.56
489.261	86.56
489.479	85.56
489.696	99.56
489.914	92.56
490.132	99.56
490.35	86.56
490.568	72.56
490.786	88.56
491.003	102.56
491.221	86.56
491.439	96.56
491.657	103.56
491.874	100.56
492.092	95.56
492.31	99.56
492.527	82.56
492.745	87.56
492.963	86.56
493.18	91.56
493.398	99.56
493.615	98.56
493.833	91.56
494.05	103.56
494.268	81.56
494.485	86.56
494.703	71.56
494.92	88.56
495.138	95.56
495.355	100.56
495.573	89.56
495.79	106.56
496.008	100.56
496.225	93.56
496.442	97.56
496.66	95.56
496.877	91.56
497.094	97.56
497.312	85.56
497.529	91.56
497.746	108.56
497.963	95.56
498.181	90.56
498.398	103.56
498.615	116.56
498.832	104.56
499.049	88.56
499.267	86.56
499.484	72.56
499.701	89.56
499.918	102.56
500.135	98.56
500.352	84.56
500.569	103.56
500.786	80.56
501.003	95.56
501.22	95.56
501.437	97.56
501.654	99.56
501.871	103.56
502.088	78.56
502.305	97.56
502.522	91.56
502.739	89.56
502.956	109.56
503.172	83.56
503.389	98.56
503.606	106.56
503.823	94.56
504.04	104.56
504.256	79.56
504.473	98.56
504.69	84.56
504.907	94.56
505.123	90.56
505.34	86.56
505.557	100.56
505.773	91.56
505.99	103.56
506.207	90.56
506.423	97.56
506.64	80.56
506.856	94.56
507.073	95.56
507.289	97.56
507.506	91.56
507.722	123.56
507.939	121.56
508.155	91.56
508.372	73.56
508.588	100.56
508.805	98.56
509.021	96.56
509.238	106.56
509.454	111.56
509.67	104.56
509.887	118.56
510.103	119.56
510.319	211.56
510.536	767.56
510.752	2334.56
510.968	623.56
511.184	148.56
511.401	101.56
511.617	98.56
511.833	104.56
512.049	94.56
512.265	78.56
512.481	91.56
512.698	74.56
512.914	87.56
513.13	89.56
513.346	91.56
513.562	74.56
513.778	106.56
513.994	110.56
514.21	105.56
514.426	126.56
514.642	129.56
514.858	131.56
515.074	160.56
