Data from Uncirc_1986_H10_HRD10591_00008.txt Node
Date: Wed Jan 03 12:14:28 EST 2024
User: Yrep
Spectrometer: HR+D1059
Trigger mode: 1
Integration Time (sec): 1.000000E-1
Scans to average: 1
Electric dark correction enabled: true
Nonlinearity correction enabled: false
Boxcar width: 0
XAxis mode: Wavelengths
Number of Pixels in Spectrum: 2048
>>>>>Begin Spectral Data<<<<<
223.165	-19.06
223.4	-19.06
223.635	-19.06
223.869	-17.06
224.104	-17.06
224.338	-12.06
224.573	-18.06
224.808	-5.06
225.042	-0.06
225.277	-7.06
225.511	1.94
225.746	-6.06
225.98	14.94
226.215	15.94
226.449	2.94
226.683	14.94
226.918	33.94
227.152	16.94
227.387	30.94
227.621	43.94
227.856	40.94
228.09	53.94
228.324	45.94
228.559	52.94
228.793	50.94
229.027	64.94
229.262	61.94
229.496	84.94
229.73	84.94
229.964	76.94
230.199	61.94
230.433	70.94
230.667	87.94
230.901	74.94
231.136	61.94
231.37	80.94
231.604	84.94
231.838	82.94
232.072	78.94
232.306	85.94
232.541	82.94
232.775	87.94
233.009	86.94
233.243	84.94
233.477	84.94
233.711	75.94
233.945	86.94
234.179	75.94
234.413	86.94
234.647	80.94
234.881	73.94
235.115	77.94
235.349	76.94
235.583	66.94
235.817	86.94
236.051	80.94
236.285	95.94
236.519	74.94
236.753	77.94
236.987	84.94
237.221	92.94
237.455	96.94
237.689	74.94
237.922	76.94
238.156	80.94
238.39	84.94
238.624	73.94
238.858	80.94
239.091	77.94
239.325	83.94
239.559	86.94
239.793	73.94
240.027	94.94
240.26	84.94
240.494	76.94
240.728	82.94
240.961	84.94
241.195	80.94
241.429	69.94
241.662	78.94
241.896	84.94
242.13	83.94
242.363	82.94
242.597	82.94
242.83	70.94
243.064	70.94
243.298	90.94
243.531	70.94
243.765	77.94
243.998	76.94
244.232	92.94
244.465	80.94
244.699	75.94
244.932	88.94
245.166	83.94
245.399	81.94
245.633	77.94
245.866	72.94
246.099	73.94
246.333	86.94
246.566	82.94
246.8	88.94
247.033	71.94
247.266	80.94
247.5	86.94
247.733	74.94
247.966	86.94
248.2	97.94
248.433	88.94
248.666	84.94
248.899	84.94
249.133	82.94
249.366	90.94
249.599	102.94
249.832	75.94
250.066	85.94
250.299	82.94
250.532	81.94
250.765	83.94
250.998	89.94
251.231	86.94
251.465	77.94
251.698	73.94
251.931	81.94
252.164	78.94
252.397	80.94
252.63	90.94
252.863	85.94
253.096	90.94
253.329	87.94
253.562	75.94
253.795	94.94
254.028	85.94
254.261	98.94
254.494	86.94
254.727	99.94
254.96	78.94
255.193	74.94
255.426	87.94
255.659	75.94
255.892	74.94
256.124	76.94
256.357	97.94
256.59	86.94
256.823	96.94
257.056	86.94
257.289	101.94
257.521	99.94
257.754	90.94
257.987	92.94
258.22	84.94
258.452	80.94
258.685	90.94
258.918	74.94
259.151	80.94
259.383	69.94
259.616	82.94
259.849	105.94
260.081	81.94
260.314	82.94
260.547	89.94
260.779	78.94
261.012	82.94
261.244	94.94
261.477	100.94
261.71	98.94
261.942	111.94
262.175	110.94
262.407	88.94
262.64	87.94
262.872	76.94
263.105	101.94
263.337	78.94
263.57	71.94
263.802	87.94
264.035	78.94
264.267	70.94
264.499	93.94
264.732	105.94
264.964	76.94
265.197	71.94
265.429	81.94
265.661	78.94
265.894	94.94
266.126	87.94
266.358	80.94
266.591	94.94
266.823	94.94
267.055	83.94
267.287	72.94
267.52	84.94
267.752	92.94
267.984	92.94
268.216	91.94
268.448	82.94
268.681	86.94
268.913	77.94
269.145	82.94
269.377	99.94
269.609	78.94
269.841	93.94
270.073	83.94
270.306	78.94
270.538	100.94
270.77	70.94
271.002	85.94
271.234	96.94
271.466	97.94
271.698	85.94
271.93	69.94
272.162	77.94
272.394	83.94
272.626	82.94
272.858	91.94
273.09	89.94
273.322	60.94
273.553	72.94
273.785	91.94
274.017	94.94
274.249	92.94
274.481	85.94
274.713	98.94
274.945	89.94
275.176	94.94
275.408	84.94
275.64	80.94
275.872	88.94
276.104	85.94
276.335	80.94
276.567	96.94
276.799	105.94
277.031	100.94
277.262	100.94
277.494	83.94
277.726	86.94
277.957	80.94
278.189	67.94
278.421	90.94
278.652	96.94
278.884	89.94
279.115	90.94
279.347	97.94
279.579	86.94
279.81	72.94
280.042	77.94
280.273	97.94
280.505	82.94
280.736	83.94
280.968	84.94
281.199	87.94
281.431	86.94
281.662	96.94
281.894	86.94
282.125	104.94
282.356	105.94
282.588	134.94
282.819	114.94
283.051	90.94
283.282	90.94
283.513	81.94
283.745	76.94
283.976	88.94
284.207	88.94
284.439	76.94
284.67	90.94
284.901	92.94
285.132	87.94
285.364	89.94
285.595	95.94
285.826	92.94
286.057	92.94
286.288	89.94
286.52	75.94
286.751	92.94
286.982	84.94
287.213	86.94
287.444	73.94
287.675	97.94
287.906	83.94
288.138	102.94
288.369	84.94
288.6	86.94
288.831	77.94
289.062	101.94
289.293	98.94
289.524	85.94
289.755	93.94
289.986	90.94
290.217	69.94
290.448	85.94
290.679	94.94
290.91	98.94
291.141	84.94
291.371	96.94
291.602	94.94
291.833	95.94
292.064	99.94
292.295	89.94
292.526	90.94
292.757	91.94
292.987	89.94
293.218	89.94
293.449	95.94
293.68	98.94
293.91	88.94
294.141	77.94
294.372	76.94
294.603	97.94
294.833	96.94
295.064	102.94
295.295	83.94
295.525	98.94
295.756	96.94
295.987	116.94
296.217	118.94
296.448	104.94
296.679	87.94
296.909	86.94
297.14	109.94
297.37	90.94
297.601	93.94
297.831	91.94
298.062	89.94
298.292	84.94
298.523	88.94
298.753	85.94
298.984	90.94
299.214	92.94
299.445	86.94
299.675	101.94
299.905	97.94
300.136	87.94
300.366	90.94
300.597	93.94
300.827	89.94
301.057	94.94
301.288	92.94
301.518	96.94
301.748	91.94
301.979	111.94
302.209	93.94
302.439	84.94
302.669	103.94
302.9	88.94
303.13	80.94
303.36	94.94
303.59	97.94
303.82	110.94
304.051	93.94
304.281	99.94
304.511	100.94
304.741	78.94
304.971	82.94
305.201	92.94
305.431	92.94
305.661	86.94
305.891	96.94
306.121	84.94
306.352	99.94
306.582	99.94
306.812	85.94
307.042	90.94
307.272	80.94
307.502	71.94
307.731	98.94
307.961	97.94
308.191	93.94
308.421	94.94
308.651	87.94
308.881	77.94
309.111	85.94
309.341	99.94
309.571	96.94
309.8	104.94
310.03	97.94
310.26	100.94
310.49	85.94
310.72	101.94
310.949	100.94
311.179	96.94
311.409	97.94
311.639	88.94
311.868	92.94
312.098	101.94
312.328	98.94
312.557	85.94
312.787	104.94
313.017	100.94
313.246	92.94
313.476	108.94
313.706	84.94
313.935	89.94
314.165	82.94
314.394	95.94
314.624	85.94
314.853	112.94
315.083	105.94
315.312	99.94
315.542	88.94
315.771	99.94
316.001	99.94
316.23	94.94
316.46	89.94
316.689	70.94
316.919	94.94
317.148	88.94
317.377	108.94
317.607	97.94
317.836	84.94
318.065	93.94
318.295	84.94
318.524	97.94
318.753	96.94
318.983	90.94
319.212	113.94
319.441	110.94
319.67	95.94
319.9	116.94
320.129	92.94
320.358	107.94
320.587	103.94
320.816	88.94
321.046	94.94
321.275	105.94
321.504	97.94
321.733	91.94
321.962	91.94
322.191	106.94
322.42	106.94
322.649	105.94
322.878	114.94
323.108	107.94
323.337	110.94
323.566	117.94
323.795	144.94
324.024	176.94
324.253	339.94
324.482	704.94
324.71	1436.94
324.939	1914.94
325.168	713.94
325.397	216.94
325.626	156.94
325.855	109.94
326.084	122.94
326.313	129.94
326.542	135.94
326.77	216.94
326.999	425.94
327.228	852.94
327.457	1518.94
327.686	1201.94
327.914	324.94
328.143	185.94
328.372	139.94
328.6	119.94
328.829	106.94
329.058	107.94
329.287	116.94
329.515	109.94
329.744	103.94
329.972	94.94
330.201	97.94
330.43	107.94
330.658	106.94
330.887	128.94
331.115	114.94
331.344	105.94
331.572	94.94
331.801	102.94
332.03	105.94
332.258	94.94
332.486	88.94
332.715	93.94
332.943	96.94
333.172	80.94
333.4	89.94
333.629	102.94
333.857	119.94
334.085	102.94
334.314	114.94
334.542	85.94
334.771	107.94
334.999	101.94
335.227	99.94
335.455	103.94
335.684	112.94
335.912	102.94
336.14	85.94
336.369	101.94
336.597	94.94
336.825	103.94
337.053	89.94
337.281	103.94
337.51	93.94
337.738	96.94
337.966	97.94
338.194	104.94
338.422	104.94
338.65	86.94
338.878	91.94
339.106	92.94
339.334	104.94
339.562	96.94
339.79	98.94
340.018	100.94
340.246	98.94
340.474	90.94
340.702	107.94
340.93	99.94
341.158	97.94
341.386	108.94
341.614	96.94
341.842	98.94
342.07	94.94
342.298	80.94
342.526	84.94
342.754	99.94
342.981	96.94
343.209	89.94
343.437	96.94
343.665	92.94
343.893	95.94
344.12	99.94
344.348	104.94
344.576	93.94
344.804	104.94
345.031	100.94
345.259	110.94
345.487	92.94
345.714	96.94
345.942	109.94
346.17	103.94
346.397	97.94
346.625	92.94
346.853	89.94
347.08	102.94
347.308	91.94
347.535	91.94
347.763	109.94
347.99	99.94
348.218	100.94
348.445	97.94
348.673	89.94
348.9	108.94
349.128	94.94
349.355	98.94
349.583	100.94
349.81	98.94
350.037	99.94
350.265	106.94
350.492	96.94
350.72	102.94
350.947	94.94
351.174	108.94
351.402	110.94
351.629	104.94
351.856	114.94
352.083	116.94
352.311	109.94
352.538	110.94
352.765	112.94
352.992	107.94
353.22	110.94
353.447	114.94
353.674	109.94
353.901	110.94
354.128	100.94
354.355	103.94
354.583	110.94
354.81	118.94
355.037	90.94
355.264	95.94
355.491	101.94
355.718	116.94
355.945	93.94
356.172	106.94
356.399	93.94
356.626	99.94
356.853	96.94
357.08	99.94
357.307	92.94
357.534	89.94
357.761	100.94
357.988	94.94
358.215	90.94
358.441	85.94
358.668	92.94
358.895	84.94
359.122	92.94
359.349	104.94
359.576	104.94
359.802	95.94
360.029	101.94
360.256	109.94
360.483	93.94
360.709	92.94
360.936	102.94
361.163	74.94
361.39	100.94
361.616	91.94
361.843	96.94
362.07	104.94
362.296	102.94
362.523	82.94
362.749	94.94
362.976	103.94
363.203	98.94
363.429	84.94
363.656	84.94
363.882	101.94
364.109	86.94
364.335	94.94
364.562	82.94
364.788	90.94
365.015	109.94
365.241	97.94
365.468	102.94
365.694	111.94
365.92	91.94
366.147	82.94
366.373	92.94
366.599	86.94
366.826	85.94
367.052	83.94
367.278	99.94
367.505	93.94
367.731	105.94
367.957	96.94
368.184	97.94
368.41	92.94
368.636	109.94
368.862	108.94
369.089	84.94
369.315	85.94
369.541	101.94
369.767	91.94
369.993	98.94
370.219	87.94
370.445	99.94
370.672	87.94
370.898	90.94
371.124	93.94
371.35	96.94
371.576	75.94
371.802	103.94
372.028	85.94
372.254	87.94
372.48	97.94
372.706	89.94
372.932	81.94
373.158	69.94
373.384	105.94
373.61	88.94
373.835	95.94
374.061	95.94
374.287	84.94
374.513	86.94
374.739	84.94
374.965	90.94
375.191	87.94
375.416	95.94
375.642	99.94
375.868	101.94
376.094	100.94
376.319	82.94
376.545	89.94
376.771	95.94
376.997	100.94
377.222	93.94
377.448	102.94
377.674	80.94
377.899	99.94
378.125	102.94
378.35	106.94
378.576	89.94
378.802	78.94
379.027	94.94
379.253	89.94
379.478	93.94
379.704	97.94
379.929	100.94
380.155	93.94
380.38	97.94
380.606	101.94
380.831	95.94
381.057	101.94
381.282	106.94
381.507	86.94
381.733	89.94
381.958	83.94
382.184	95.94
382.409	98.94
382.634	105.94
382.86	87.94
383.085	111.94
383.31	95.94
383.535	92.94
383.761	102.94
383.986	91.94
384.211	91.94
384.436	99.94
384.662	110.94
384.887	105.94
385.112	109.94
385.337	108.94
385.562	106.94
385.787	89.94
386.013	110.94
386.238	101.94
386.463	102.94
386.688	124.94
386.913	96.94
387.138	99.94
387.363	115.94
387.588	104.94
387.813	104.94
388.038	101.94
388.263	107.94
388.488	114.94
388.713	116.94
388.938	102.94
389.163	98.94
389.387	89.94
389.612	97.94
389.837	98.94
390.062	77.94
390.287	100.94
390.512	98.94
390.736	85.94
390.961	107.94
391.186	93.94
391.411	101.94
391.636	85.94
391.86	83.94
392.085	102.94
392.31	91.94
392.534	105.94
392.759	92.94
392.984	90.94
393.208	102.94
393.433	121.94
393.658	106.94
393.882	93.94
394.107	89.94
394.331	92.94
394.556	96.94
394.78	95.94
395.005	91.94
395.229	96.94
395.454	100.94
395.678	92.94
395.903	76.94
396.127	103.94
396.352	100.94
396.576	97.94
396.801	90.94
397.025	105.94
397.249	93.94
397.474	94.94
397.698	99.94
397.922	99.94
398.147	93.94
398.371	92.94
398.595	97.94
398.82	87.94
399.044	85.94
399.268	90.94
399.492	77.94
399.717	96.94
399.941	100.94
400.165	113.94
400.389	98.94
400.613	89.94
400.837	98.94
401.062	104.94
401.286	94.94
401.51	108.94
401.734	87.94
401.958	87.94
402.182	118.94
402.406	150.94
402.63	115.94
402.854	95.94
403.078	80.94
403.302	94.94
403.526	88.94
403.75	100.94
403.974	89.94
404.198	92.94
404.422	88.94
404.645	102.94
404.869	84.94
405.093	97.94
405.317	94.94
405.541	104.94
405.765	82.94
405.988	109.94
406.212	154.94
406.436	205.94
406.66	117.94
406.883	99.94
407.107	94.94
407.331	98.94
407.555	100.94
407.778	89.94
408.002	95.94
408.226	76.94
408.449	88.94
408.673	82.94
408.896	97.94
409.12	106.94
409.344	93.94
409.567	80.94
409.791	108.94
410.014	86.94
410.238	90.94
410.461	99.94
410.685	87.94
410.908	90.94
411.132	102.94
411.355	100.94
411.578	101.94
411.802	93.94
412.025	85.94
412.249	84.94
412.472	89.94
412.695	107.94
412.919	92.94
413.142	101.94
413.365	73.94
413.589	97.94
413.812	92.94
414.035	93.94
414.258	84.94
414.482	89.94
414.705	96.94
414.928	84.94
415.151	88.94
415.374	96.94
415.597	87.94
415.821	87.94
416.044	94.94
416.267	91.94
416.49	86.94
416.713	100.94
416.936	97.94
417.159	89.94
417.382	93.94
417.605	100.94
417.828	84.94
418.051	93.94
418.274	85.94
418.497	95.94
418.72	88.94
418.943	102.94
419.166	96.94
419.389	99.94
419.611	94.94
419.834	90.94
420.057	95.94
420.28	90.94
420.503	91.94
420.726	69.94
420.948	84.94
421.171	100.94
421.394	92.94
421.617	100.94
421.839	96.94
422.062	105.94
422.285	89.94
422.507	105.94
422.73	105.94
422.953	101.94
423.175	92.94
423.398	83.94
423.621	100.94
423.843	101.94
424.066	102.94
424.288	93.94
424.511	80.94
424.733	98.94
424.956	94.94
425.178	95.94
425.401	93.94
425.623	90.94
425.846	93.94
426.068	104.94
426.291	82.94
426.513	93.94
426.735	78.94
426.958	92.94
427.18	101.94
427.402	124.94
427.625	133.94
427.847	106.94
428.069	95.94
428.292	99.94
428.514	85.94
428.736	88.94
428.958	96.94
429.181	78.94
429.403	101.94
429.625	85.94
429.847	105.94
430.069	104.94
430.292	87.94
430.514	91.94
430.736	84.94
430.958	100.94
431.18	90.94
431.402	96.94
431.624	83.94
431.846	82.94
432.068	98.94
432.29	98.94
432.512	87.94
432.734	97.94
432.956	100.94
433.178	100.94
433.4	101.94
433.622	94.94
433.844	86.94
434.066	89.94
434.287	85.94
434.509	86.94
434.731	95.94
434.953	97.94
435.175	91.94
435.397	87.94
435.618	95.94
435.84	94.94
436.062	122.94
436.284	118.94
436.505	97.94
436.727	95.94
436.949	101.94
437.17	89.94
437.392	92.94
437.614	106.94
437.835	94.94
438.057	114.94
438.278	108.94
438.5	91.94
438.721	118.94
438.943	99.94
439.165	103.94
439.386	96.94
439.608	97.94
439.829	103.94
440.05	112.94
440.272	149.94
440.493	104.94
440.715	80.94
440.936	92.94
441.158	93.94
441.379	93.94
441.6	100.94
441.822	86.94
442.043	87.94
442.264	105.94
442.486	91.94
442.707	95.94
442.928	117.94
443.149	116.94
443.371	122.94
443.592	106.94
443.813	120.94
444.034	104.94
444.255	90.94
444.476	88.94
444.698	103.94
444.919	99.94
445.14	120.94
445.361	116.94
445.582	106.94
445.803	123.94
446.024	136.94
446.245	116.94
446.466	101.94
446.687	71.94
446.908	93.94
447.129	113.94
447.35	117.94
447.571	91.94
447.792	111.94
448.013	89.94
448.234	107.94
448.455	103.94
448.675	110.94
448.896	110.94
449.117	114.94
449.338	94.94
449.559	130.94
449.779	126.94
450	97.94
450.221	90.94
450.442	98.94
450.662	91.94
450.883	92.94
451.104	94.94
451.324	91.94
451.545	84.94
451.766	87.94
451.986	88.94
452.207	84.94
452.428	105.94
452.648	101.94
452.869	99.94
453.089	96.94
453.31	93.94
453.53	100.94
453.751	99.94
453.971	96.94
454.192	107.94
454.412	83.94
454.633	81.94
454.853	85.94
455.073	83.94
455.294	82.94
455.514	104.94
455.734	96.94
455.955	66.94
456.175	98.94
456.395	88.94
456.616	88.94
456.836	93.94
457.056	75.94
457.276	82.94
457.497	74.94
457.717	76.94
457.937	97.94
458.157	96.94
458.377	108.94
458.598	94.94
458.818	135.94
459.038	130.94
459.258	100.94
459.478	86.94
459.698	82.94
459.918	91.94
460.138	98.94
460.358	101.94
460.578	99.94
460.798	114.94
461.018	97.94
461.238	83.94
461.458	87.94
461.678	92.94
461.898	79.94
462.118	92.94
462.338	94.94
462.558	98.94
462.777	87.94
462.997	112.94
463.217	88.94
463.437	91.94
463.657	95.94
463.876	102.94
464.096	74.94
464.316	96.94
464.536	91.94
464.755	93.94
464.975	108.94
465.195	141.94
465.414	140.94
465.634	100.94
465.854	101.94
466.073	94.94
466.293	90.94
466.512	88.94
466.732	91.94
466.951	97.94
467.171	102.94
467.391	93.94
467.61	108.94
467.829	94.94
468.049	81.94
468.268	97.94
468.488	94.94
468.707	92.94
468.927	100.94
469.146	101.94
469.365	94.94
469.585	86.94
469.804	92.94
470.023	98.94
470.243	102.94
470.462	84.94
470.681	99.94
470.901	98.94
471.12	93.94
471.339	90.94
471.558	80.94
471.777	82.94
471.997	77.94
472.216	102.94
472.435	107.94
472.654	104.94
472.873	89.94
473.092	84.94
473.311	86.94
473.53	91.94
473.749	82.94
473.968	94.94
474.187	94.94
474.406	77.94
474.625	91.94
474.844	103.94
475.063	75.94
475.282	73.94
475.501	99.94
475.72	104.94
475.939	106.94
476.158	105.94
476.377	86.94
476.596	82.94
476.814	105.94
477.033	82.94
477.252	88.94
477.471	87.94
477.69	83.94
477.908	99.94
478.127	89.94
478.346	83.94
478.564	89.94
478.783	84.94
479.002	95.94
479.22	91.94
479.439	104.94
479.658	97.94
479.876	97.94
480.095	91.94
480.313	110.94
480.532	86.94
480.751	95.94
480.969	89.94
481.188	107.94
481.406	110.94
481.624	89.94
481.843	99.94
482.061	100.94
482.28	88.94
482.498	82.94
482.717	83.94
482.935	92.94
483.153	100.94
483.372	103.94
483.59	88.94
483.808	88.94
484.027	84.94
484.245	101.94
484.463	88.94
484.681	105.94
484.9	97.94
485.118	114.94
485.336	109.94
485.554	100.94
485.772	113.94
485.99	105.94
486.209	107.94
486.427	109.94
486.645	108.94
486.863	109.94
487.081	103.94
487.299	96.94
487.517	98.94
487.735	97.94
487.953	99.94
488.171	109.94
488.389	96.94
488.607	101.94
488.825	90.94
489.043	94.94
489.261	90.94
489.479	93.94
489.696	82.94
489.914	99.94
490.132	89.94
490.35	93.94
490.568	92.94
490.786	93.94
491.003	104.94
491.221	88.94
491.439	93.94
491.657	104.94
491.874	111.94
492.092	101.94
492.31	96.94
492.527	100.94
492.745	103.94
492.963	99.94
493.18	76.94
493.398	88.94
493.615	103.94
493.833	96.94
494.05	96.94
494.268	91.94
494.485	80.94
494.703	96.94
494.92	87.94
495.138	75.94
495.355	93.94
495.573	105.94
495.79	90.94
496.008	93.94
496.225	89.94
496.442	86.94
496.66	102.94
496.877	85.94
497.094	88.94
497.312	91.94
497.529	87.94
497.746	93.94
497.963	106.94
498.181	104.94
498.398	98.94
498.615	101.94
498.832	104.94
499.049	99.94
499.267	88.94
499.484	99.94
499.701	93.94
499.918	90.94
500.135	93.94
500.352	92.94
500.569	93.94
500.786	98.94
501.003	94.94
501.22	91.94
501.437	92.94
501.654	99.94
501.871	101.94
502.088	92.94
502.305	96.94
502.522	88.94
502.739	91.94
502.956	77.94
503.172	92.94
503.389	105.94
503.606	109.94
503.823	98.94
504.04	80.94
504.256	97.94
504.473	85.94
504.69	89.94
504.907	90.94
505.123	99.94
505.34	100.94
505.557	93.94
505.773	112.94
505.99	78.94
506.207	86.94
506.423	94.94
506.64	99.94
506.856	82.94
507.073	84.94
507.289	110.94
507.506	78.94
507.722	102.94
507.939	99.94
508.155	100.94
508.372	93.94
508.588	108.94
508.805	106.94
509.021	102.94
509.238	91.94
509.454	102.94
509.67	111.94
509.887	105.94
510.103	116.94
510.319	194.94
510.536	660.94
510.752	1996.94
510.968	566.94
511.184	149.94
511.401	104.94
511.617	93.94
511.833	93.94
512.049	94.94
512.265	106.94
512.481	93.94
512.698	77.94
512.914	101.94
513.13	93.94
513.346	90.94
513.562	92.94
513.778	86.94
513.994	99.94
514.21	108.94
514.426	118.94
514.642	137.94
