Data from Uncirc_1986_H10_HRD10591_00026.txt Node
Date: Wed Jan 03 12:14:31 EST 2024
User: Yrep
Spectrometer: HR+D1059
Trigger mode: 1
Integration Time (sec): 1.000000E-1
Scans to average: 1
Electric dark correction enabled: true
Nonlinearity correction enabled: false
Boxcar width: 0
XAxis mode: Wavelengths
Number of Pixels in Spectrum: 2048
>>>>>Begin Spectral Data<<<<<
223.165	-18.44
223.4	-18.44
223.635	-18.44
223.869	-2.44
224.104	-16.44
224.338	-14.44
224.573	-7.44
224.808	-6.44
225.042	-13.44
225.277	-11.44
225.511	1.56
225.746	-2.44
225.98	7.56
226.215	1.56
226.449	26.56
226.683	8.56
226.918	27.56
227.152	19.56
227.387	20.56
227.621	39.56
227.856	46.56
228.09	39.56
228.324	49.56
228.559	53.56
228.793	69.56
229.027	68.56
229.262	59.56
229.496	65.56
229.73	84.56
229.964	82.56
230.199	75.56
230.433	72.56
230.667	75.56
230.901	85.56
231.136	81.56
231.37	77.56
231.604	78.56
231.838	83.56
232.072	80.56
232.306	91.56
232.541	79.56
232.775	92.56
233.009	66.56
233.243	83.56
233.477	60.56
233.711	77.56
233.945	85.56
234.179	81.56
234.413	72.56
234.647	70.56
234.881	81.56
235.115	73.56
235.349	74.56
235.583	81.56
235.817	63.56
236.051	84.56
236.285	79.56
236.519	83.56
236.753	79.56
236.987	84.56
237.221	84.56
237.455	70.56
237.689	78.56
237.922	55.56
238.156	79.56
238.39	87.56
238.624	73.56
238.858	69.56
239.091	77.56
239.325	67.56
239.559	71.56
239.793	67.56
240.027	72.56
240.26	72.56
240.494	83.56
240.728	57.56
240.961	63.56
241.195	71.56
241.429	72.56
241.662	71.56
241.896	85.56
242.13	75.56
242.363	65.56
242.597	77.56
242.83	78.56
243.064	75.56
243.298	72.56
243.531	85.56
243.765	59.56
243.998	73.56
244.232	75.56
244.465	83.56
244.699	71.56
244.932	70.56
245.166	54.56
245.399	75.56
245.633	79.56
245.866	79.56
246.099	77.56
246.333	71.56
246.566	71.56
246.8	92.56
247.033	88.56
247.266	55.56
247.5	75.56
247.733	72.56
247.966	87.56
248.2	90.56
248.433	91.56
248.666	77.56
248.899	72.56
249.133	77.56
249.366	88.56
249.599	85.56
249.832	85.56
250.066	72.56
250.299	82.56
250.532	86.56
250.765	83.56
250.998	81.56
251.231	81.56
251.465	64.56
251.698	88.56
251.931	79.56
252.164	82.56
252.397	77.56
252.63	65.56
252.863	75.56
253.096	85.56
253.329	87.56
253.562	76.56
253.795	84.56
254.028	75.56
254.261	70.56
254.494	78.56
254.727	63.56
254.96	78.56
255.193	88.56
255.426	87.56
255.659	82.56
255.892	85.56
256.124	81.56
256.357	61.56
256.59	76.56
256.823	72.56
257.056	69.56
257.289	74.56
257.521	93.56
257.754	69.56
257.987	81.56
258.22	81.56
258.452	73.56
258.685	79.56
258.918	85.56
259.151	62.56
259.383	76.56
259.616	83.56
259.849	78.56
260.081	82.56
260.314	97.56
260.547	69.56
260.779	87.56
261.012	80.56
261.244	79.56
261.477	103.56
261.71	92.56
261.942	102.56
262.175	100.56
262.407	85.56
262.64	89.56
262.872	86.56
263.105	91.56
263.337	88.56
263.57	80.56
263.802	64.56
264.035	81.56
264.267	79.56
264.499	62.56
264.732	92.56
264.964	87.56
265.197	110.56
265.429	80.56
265.661	83.56
265.894	72.56
266.126	78.56
266.358	88.56
266.591	81.56
266.823	88.56
267.055	66.56
267.287	95.56
267.52	91.56
267.752	88.56
267.984	83.56
268.216	97.56
268.448	91.56
268.681	84.56
268.913	87.56
269.145	71.56
269.377	80.56
269.609	84.56
269.841	92.56
270.073	94.56
270.306	78.56
270.538	98.56
270.77	75.56
271.002	83.56
271.234	87.56
271.466	89.56
271.698	83.56
271.93	80.56
272.162	78.56
272.394	94.56
272.626	85.56
272.858	78.56
273.09	71.56
273.322	79.56
273.553	76.56
273.785	71.56
274.017	84.56
274.249	77.56
274.481	89.56
274.713	72.56
274.945	93.56
275.176	72.56
275.408	80.56
275.64	79.56
275.872	84.56
276.104	79.56
276.335	104.56
276.567	80.56
276.799	105.56
277.031	97.56
277.262	88.56
277.494	95.56
277.726	87.56
277.957	81.56
278.189	95.56
278.421	88.56
278.652	93.56
278.884	87.56
279.115	72.56
279.347	89.56
279.579	83.56
279.81	104.56
280.042	77.56
280.273	80.56
280.505	79.56
280.736	76.56
280.968	80.56
281.199	75.56
281.431	93.56
281.662	83.56
281.894	83.56
282.125	92.56
282.356	102.56
282.588	127.56
282.819	102.56
283.051	95.56
283.282	80.56
283.513	88.56
283.745	85.56
283.976	87.56
284.207	86.56
284.439	81.56
284.67	94.56
284.901	95.56
285.132	83.56
285.364	84.56
285.595	81.56
285.826	89.56
286.057	84.56
286.288	92.56
286.52	89.56
286.751	94.56
286.982	78.56
287.213	86.56
287.444	83.56
287.675	88.56
287.906	76.56
288.138	81.56
288.369	89.56
288.6	84.56
288.831	81.56
289.062	89.56
289.293	83.56
289.524	68.56
289.755	77.56
289.986	93.56
290.217	70.56
290.448	86.56
290.679	93.56
290.91	96.56
291.141	97.56
291.371	76.56
291.602	84.56
291.833	86.56
292.064	79.56
292.295	89.56
292.526	105.56
292.757	95.56
292.987	79.56
293.218	84.56
293.449	80.56
293.68	76.56
293.91	95.56
294.141	103.56
294.372	89.56
294.603	81.56
294.833	104.56
295.064	112.56
295.295	85.56
295.525	79.56
295.756	105.56
295.987	113.56
296.217	112.56
296.448	104.56
296.679	99.56
296.909	97.56
297.14	86.56
297.37	77.56
297.601	75.56
297.831	81.56
298.062	84.56
298.292	107.56
298.523	85.56
298.753	81.56
298.984	87.56
299.214	79.56
299.445	91.56
299.675	88.56
299.905	87.56
300.136	72.56
300.366	87.56
300.597	81.56
300.827	87.56
301.057	97.56
301.288	85.56
301.518	78.56
301.748	84.56
301.979	105.56
302.209	100.56
302.439	91.56
302.669	76.56
302.9	91.56
303.13	73.56
303.36	95.56
303.59	99.56
303.82	91.56
304.051	104.56
304.281	82.56
304.511	85.56
304.741	99.56
304.971	80.56
305.201	88.56
305.431	77.56
305.661	95.56
305.891	86.56
306.121	100.56
306.352	92.56
306.582	94.56
306.812	91.56
307.042	69.56
307.272	91.56
307.502	88.56
307.731	77.56
307.961	69.56
308.191	96.56
308.421	92.56
308.651	91.56
308.881	84.56
309.111	101.56
309.341	83.56
309.571	90.56
309.8	79.56
310.03	104.56
310.26	94.56
310.49	102.56
310.72	90.56
310.949	100.56
311.179	85.56
311.409	87.56
311.639	86.56
311.868	100.56
312.098	93.56
312.328	94.56
312.557	117.56
312.787	97.56
313.017	101.56
313.246	84.56
313.476	83.56
313.706	96.56
313.935	89.56
314.165	104.56
314.394	102.56
314.624	91.56
314.853	105.56
315.083	110.56
315.312	95.56
315.542	90.56
315.771	89.56
316.001	75.56
316.23	87.56
316.46	97.56
316.689	91.56
316.919	90.56
317.148	84.56
317.377	76.56
317.607	89.56
317.836	72.56
318.065	83.56
318.295	84.56
318.524	88.56
318.753	95.56
318.983	90.56
319.212	99.56
319.441	85.56
319.67	95.56
319.9	84.56
320.129	91.56
320.358	96.56
320.587	96.56
320.816	99.56
321.046	104.56
321.275	107.56
321.504	92.56
321.733	80.56
321.962	85.56
322.191	113.56
322.42	100.56
322.649	120.56
322.878	114.56
323.108	83.56
323.337	105.56
323.566	129.56
323.795	133.56
324.024	196.56
324.253	339.56
324.482	672.56
324.71	1413.56
324.939	1891.56
325.168	679.56
325.397	210.56
325.626	131.56
325.855	118.56
326.084	111.56
326.313	116.56
326.542	131.56
326.77	213.56
326.999	391.56
327.228	789.56
327.457	1448.56
327.686	1148.56
327.914	326.56
328.143	165.56
328.372	124.56
328.6	102.56
328.829	115.56
329.058	110.56
329.287	104.56
329.515	93.56
329.744	96.56
329.972	87.56
330.201	88.56
330.43	107.56
330.658	109.56
330.887	126.56
331.115	124.56
331.344	98.56
331.572	95.56
331.801	97.56
332.03	98.56
332.258	90.56
332.486	100.56
332.715	94.56
332.943	87.56
333.172	94.56
333.4	90.56
333.629	93.56
333.857	104.56
334.085	93.56
334.314	88.56
334.542	92.56
334.771	100.56
334.999	95.56
335.227	92.56
335.455	83.56
335.684	101.56
335.912	102.56
336.14	82.56
336.369	97.56
336.597	109.56
336.825	94.56
337.053	88.56
337.281	98.56
337.51	74.56
337.738	91.56
337.966	89.56
338.194	99.56
338.422	86.56
338.65	94.56
338.878	91.56
339.106	90.56
339.334	92.56
339.562	75.56
339.79	93.56
340.018	97.56
340.246	83.56
340.474	85.56
340.702	103.56
340.93	89.56
341.158	83.56
341.386	92.56
341.614	91.56
341.842	94.56
342.07	76.56
342.298	77.56
342.526	89.56
342.754	102.56
342.981	70.56
343.209	78.56
343.437	104.56
343.665	93.56
343.893	73.56
344.12	96.56
344.348	80.56
344.576	90.56
344.804	89.56
345.031	91.56
345.259	85.56
345.487	88.56
345.714	98.56
345.942	86.56
346.17	78.56
346.397	86.56
346.625	95.56
346.853	93.56
347.08	93.56
347.308	104.56
347.535	98.56
347.763	96.56
347.99	78.56
348.218	96.56
348.445	89.56
348.673	91.56
348.9	96.56
349.128	107.56
349.355	83.56
349.583	95.56
349.81	99.56
350.037	93.56
350.265	96.56
350.492	88.56
350.72	83.56
350.947	91.56
351.174	100.56
351.402	99.56
351.629	100.56
351.856	100.56
352.083	91.56
352.311	100.56
352.538	102.56
352.765	116.56
352.992	126.56
353.22	111.56
353.447	95.56
353.674	89.56
353.901	101.56
354.128	101.56
354.355	104.56
354.583	96.56
354.81	81.56
355.037	97.56
355.264	100.56
355.491	90.56
355.718	75.56
355.945	70.56
356.172	95.56
356.399	100.56
356.626	100.56
356.853	90.56
357.08	94.56
357.307	88.56
357.534	98.56
357.761	88.56
357.988	96.56
358.215	93.56
358.441	91.56
358.668	97.56
358.895	89.56
359.122	97.56
359.349	84.56
359.576	90.56
359.802	102.56
360.029	99.56
360.256	106.56
360.483	90.56
360.709	97.56
360.936	91.56
361.163	107.56
361.39	96.56
361.616	86.56
361.843	90.56
362.07	100.56
362.296	94.56
362.523	93.56
362.749	77.56
362.976	101.56
363.203	78.56
363.429	90.56
363.656	88.56
363.882	77.56
364.109	89.56
364.335	88.56
364.562	89.56
364.788	82.56
365.015	101.56
365.241	102.56
365.468	98.56
365.694	87.56
365.92	98.56
366.147	83.56
366.373	80.56
366.599	97.56
366.826	94.56
367.052	71.56
367.278	101.56
367.505	77.56
367.731	89.56
367.957	86.56
368.184	67.56
368.41	102.56
368.636	114.56
368.862	120.56
369.089	84.56
369.315	86.56
369.541	92.56
369.767	76.56
369.993	87.56
370.219	74.56
370.445	91.56
370.672	88.56
370.898	80.56
371.124	85.56
371.35	84.56
371.576	95.56
371.802	79.56
372.028	83.56
372.254	79.56
372.48	92.56
372.706	88.56
372.932	75.56
373.158	88.56
373.384	85.56
373.61	96.56
373.835	89.56
374.061	95.56
374.287	87.56
374.513	83.56
374.739	71.56
374.965	92.56
375.191	95.56
375.416	82.56
375.642	91.56
375.868	90.56
376.094	96.56
376.319	86.56
376.545	99.56
376.771	107.56
376.997	84.56
377.222	83.56
377.448	92.56
377.674	79.56
377.899	89.56
378.125	97.56
378.35	95.56
378.576	80.56
378.802	82.56
379.027	89.56
379.253	70.56
379.478	89.56
379.704	96.56
379.929	92.56
380.155	81.56
380.38	104.56
380.606	100.56
380.831	91.56
381.057	104.56
381.282	103.56
381.507	79.56
381.733	89.56
381.958	63.56
382.184	95.56
382.409	79.56
382.634	102.56
382.86	102.56
383.085	78.56
383.31	96.56
383.535	78.56
383.761	89.56
383.986	108.56
384.211	98.56
384.436	98.56
384.662	92.56
384.887	111.56
385.112	114.56
385.337	98.56
385.562	102.56
385.787	105.56
386.013	109.56
386.238	112.56
386.463	100.56
386.688	97.56
386.913	82.56
387.138	87.56
387.363	100.56
387.588	98.56
387.813	71.56
388.038	78.56
388.263	108.56
388.488	86.56
388.713	90.56
388.938	107.56
389.163	86.56
389.387	99.56
389.612	87.56
389.837	98.56
390.062	83.56
390.287	79.56
390.512	93.56
390.736	89.56
390.961	87.56
391.186	89.56
391.411	85.56
391.636	103.56
391.86	80.56
392.085	79.56
392.31	83.56
392.534	81.56
392.759	78.56
392.984	87.56
393.208	88.56
393.433	86.56
393.658	82.56
393.882	87.56
394.107	95.56
394.331	91.56
394.556	96.56
394.78	94.56
395.005	96.56
395.229	86.56
395.454	96.56
395.678	75.56
395.903	86.56
396.127	87.56
396.352	84.56
396.576	79.56
396.801	96.56
397.025	87.56
397.249	83.56
397.474	88.56
397.698	88.56
397.922	96.56
398.147	87.56
398.371	75.56
398.595	89.56
398.82	80.56
399.044	94.56
399.268	88.56
399.492	88.56
399.717	81.56
399.941	87.56
400.165	75.56
400.389	91.56
400.613	81.56
400.837	73.56
401.062	91.56
401.286	90.56
401.51	80.56
401.734	93.56
401.958	105.56
402.182	119.56
402.406	142.56
402.63	108.56
402.854	107.56
403.078	87.56
403.302	94.56
403.526	86.56
403.75	77.56
403.974	99.56
404.198	95.56
404.422	89.56
404.645	80.56
404.869	89.56
405.093	92.56
405.317	86.56
405.541	90.56
405.765	87.56
405.988	107.56
406.212	151.56
406.436	213.56
406.66	127.56
406.883	113.56
407.107	98.56
407.331	88.56
407.555	89.56
407.778	89.56
408.002	77.56
408.226	99.56
408.449	87.56
408.673	87.56
408.896	80.56
409.12	93.56
409.344	93.56
409.567	91.56
409.791	82.56
410.014	97.56
410.238	81.56
410.461	100.56
410.685	91.56
410.908	87.56
411.132	114.56
411.355	92.56
411.578	91.56
411.802	70.56
412.025	81.56
412.249	93.56
412.472	95.56
412.695	94.56
412.919	92.56
413.142	86.56
413.365	91.56
413.589	83.56
413.812	94.56
414.035	86.56
414.258	90.56
414.482	84.56
414.705	97.56
414.928	90.56
415.151	93.56
415.374	92.56
415.597	83.56
415.821	87.56
416.044	82.56
416.267	82.56
416.49	76.56
416.713	84.56
416.936	74.56
417.159	91.56
417.382	82.56
417.605	88.56
417.828	85.56
418.051	85.56
418.274	71.56
418.497	82.56
418.72	85.56
418.943	94.56
419.166	89.56
419.389	91.56
419.611	79.56
419.834	83.56
420.057	97.56
420.28	85.56
420.503	82.56
420.726	91.56
420.948	93.56
421.171	98.56
421.394	88.56
421.617	97.56
421.839	84.56
422.062	92.56
422.285	84.56
422.507	95.56
422.73	90.56
422.953	86.56
423.175	97.56
423.398	83.56
423.621	87.56
423.843	99.56
424.066	79.56
424.288	85.56
424.511	86.56
424.733	109.56
424.956	102.56
425.178	94.56
425.401	94.56
425.623	102.56
425.846	97.56
426.068	92.56
426.291	83.56
426.513	86.56
426.735	82.56
426.958	93.56
427.18	93.56
427.402	127.56
427.625	150.56
427.847	112.56
428.069	106.56
428.292	82.56
428.514	110.56
428.736	88.56
428.958	85.56
429.181	100.56
429.403	80.56
429.625	87.56
429.847	78.56
430.069	101.56
430.292	92.56
430.514	77.56
430.736	70.56
430.958	85.56
431.18	84.56
431.402	84.56
431.624	76.56
431.846	75.56
432.068	81.56
432.29	64.56
432.512	81.56
432.734	94.56
432.956	95.56
433.178	102.56
433.4	92.56
433.622	99.56
433.844	94.56
434.066	92.56
434.287	79.56
434.509	92.56
434.731	79.56
434.953	81.56
435.175	80.56
435.397	75.56
435.618	86.56
435.84	100.56
436.062	98.56
436.284	113.56
436.505	83.56
436.727	100.56
436.949	83.56
437.17	92.56
437.392	83.56
437.614	85.56
437.835	108.56
438.057	115.56
438.278	105.56
438.5	103.56
438.721	111.56
438.943	97.56
439.165	79.56
439.386	89.56
439.608	94.56
439.829	88.56
440.05	115.56
440.272	120.56
440.493	98.56
440.715	85.56
440.936	78.56
441.158	76.56
441.379	73.56
441.6	96.56
441.822	95.56
442.043	94.56
442.264	97.56
442.486	84.56
442.707	82.56
442.928	101.56
443.149	103.56
443.371	114.56
443.592	107.56
443.813	92.56
444.034	109.56
444.255	101.56
444.476	88.56
444.698	77.56
444.919	73.56
445.14	120.56
445.361	111.56
445.582	117.56
445.803	125.56
446.024	133.56
446.245	117.56
446.466	96.56
446.687	75.56
446.908	85.56
447.129	76.56
447.35	99.56
447.571	99.56
447.792	91.56
448.013	91.56
448.234	92.56
448.455	94.56
448.675	112.56
448.896	120.56
449.117	98.56
449.338	96.56
449.559	112.56
449.779	121.56
450	90.56
450.221	89.56
450.442	83.56
450.662	84.56
450.883	102.56
451.104	102.56
451.324	86.56
451.545	78.56
451.766	91.56
451.986	76.56
452.207	91.56
452.428	97.56
452.648	95.56
452.869	100.56
453.089	94.56
453.31	104.56
453.53	94.56
453.751	90.56
453.971	102.56
454.192	100.56
454.412	78.56
454.633	91.56
454.853	77.56
455.073	84.56
455.294	79.56
455.514	101.56
455.734	86.56
455.955	92.56
456.175	87.56
456.395	79.56
456.616	86.56
456.836	79.56
457.056	80.56
457.276	84.56
457.497	89.56
457.717	79.56
457.937	83.56
458.157	93.56
458.377	93.56
458.598	104.56
458.818	135.56
459.038	149.56
459.258	106.56
459.478	87.56
459.698	69.56
459.918	80.56
460.138	96.56
460.358	69.56
460.578	96.56
460.798	84.56
461.018	90.56
461.238	75.56
461.458	98.56
461.678	77.56
461.898	87.56
462.118	92.56
462.338	86.56
462.558	88.56
462.777	73.56
462.997	80.56
463.217	76.56
463.437	104.56
463.657	83.56
463.876	62.56
464.096	92.56
464.316	89.56
464.536	95.56
464.755	107.56
464.975	111.56
465.195	135.56
465.414	125.56
465.634	95.56
465.854	88.56
466.073	89.56
466.293	88.56
466.512	83.56
466.732	68.56
466.951	81.56
467.171	84.56
467.391	98.56
467.61	82.56
467.829	83.56
468.049	88.56
468.268	89.56
468.488	81.56
468.707	80.56
468.927	92.56
469.146	76.56
469.365	71.56
469.585	84.56
469.804	90.56
470.023	96.56
470.243	91.56
470.462	89.56
470.681	93.56
470.901	81.56
471.12	81.56
471.339	88.56
471.558	91.56
471.777	86.56
471.997	71.56
472.216	92.56
472.435	85.56
472.654	79.56
472.873	89.56
473.092	97.56
473.311	78.56
473.53	81.56
473.749	84.56
473.968	77.56
474.187	92.56
474.406	96.56
474.625	87.56
474.844	82.56
475.063	86.56
475.282	86.56
475.501	83.56
475.72	89.56
475.939	94.56
476.158	91.56
476.377	81.56
476.596	93.56
476.814	94.56
477.033	95.56
477.252	86.56
477.471	94.56
477.69	86.56
477.908	77.56
478.127	89.56
478.346	84.56
478.564	81.56
478.783	100.56
479.002	91.56
479.22	85.56
479.439	93.56
479.658	104.56
479.876	96.56
480.095	79.56
480.313	104.56
480.532	98.56
480.751	84.56
480.969	80.56
481.188	95.56
481.406	89.56
481.624	91.56
481.843	90.56
482.061	82.56
482.28	92.56
482.498	70.56
482.717	91.56
482.935	83.56
483.153	75.56
483.372	73.56
483.59	95.56
483.808	97.56
484.027	100.56
484.245	94.56
484.463	90.56
484.681	99.56
484.9	90.56
485.118	96.56
485.336	86.56
485.554	102.56
485.772	93.56
485.99	108.56
486.209	95.56
486.427	101.56
486.645	102.56
486.863	103.56
487.081	99.56
487.299	92.56
487.517	94.56
487.735	75.56
487.953	84.56
488.171	71.56
488.389	91.56
488.607	95.56
488.825	72.56
489.043	91.56
489.261	84.56
489.479	85.56
489.696	78.56
489.914	87.56
490.132	93.56
490.35	78.56
490.568	79.56
490.786	84.56
491.003	103.56
491.221	85.56
491.439	89.56
491.657	92.56
491.874	87.56
492.092	73.56
492.31	72.56
492.527	83.56
492.745	97.56
492.963	81.56
493.18	88.56
493.398	101.56
493.615	103.56
493.833	85.56
494.05	77.56
494.268	84.56
494.485	71.56
494.703	85.56
494.92	81.56
495.138	101.56
495.355	92.56
495.573	97.56
495.79	93.56
496.008	97.56
496.225	87.56
496.442	79.56
496.66	83.56
496.877	94.56
497.094	88.56
497.312	84.56
497.529	82.56
497.746	89.56
497.963	102.56
498.181	81.56
498.398	83.56
498.615	96.56
498.832	97.56
499.049	89.56
499.267	91.56
499.484	76.56
499.701	84.56
499.918	89.56
500.135	100.56
500.352	98.56
500.569	92.56
500.786	82.56
501.003	87.56
501.22	93.56
501.437	78.56
501.654	95.56
501.871	102.56
502.088	97.56
502.305	90.56
502.522	96.56
502.739	85.56
502.956	95.56
503.172	84.56
503.389	93.56
503.606	86.56
503.823	103.56
504.04	105.56
504.256	84.56
504.473	90.56
504.69	99.56
504.907	96.56
505.123	98.56
505.34	81.56
505.557	81.56
505.773	81.56
505.99	79.56
506.207	90.56
506.423	89.56
506.64	87.56
506.856	99.56
507.073	99.56
507.289	85.56
507.506	94.56
507.722	82.56
507.939	93.56
508.155	95.56
508.372	84.56
508.588	86.56
508.805	112.56
509.021	75.56
509.238	100.56
509.454	89.56
509.67	101.56
509.887	103.56
510.103	122.56
510.319	191.56
510.536	649.56
510.752	2015.56
510.968	583.56
511.184	144.56
511.401	104.56
511.617	87.56
511.833	99.56
512.049	82.56
512.265	93.56
512.481	93.56
512.698	87.56
512.914	98.56
513.13	94.56
513.346	91.56
513.562	79.56
513.778	93.56
513.994	93.56
514.21	101.56
514.426	124.56
514.642	125.56
514.858	111.56
515.074	136.56
515.29	383.56
515.506	1223.56
515.721	464.56
515.937	143.56
516.153	99.56
516.369	98.56
516.585	83.56
516.801	82.56
