Data from Uncirc_1986_H10_HRD10591_00004.txt Node
Date: Wed Jan 03 12:14:27 EST 2024
User: Yrep
Spectrometer: HR+D1059
Trigger mode: 1
Integration Time (sec): 1.000000E-1
Scans to average: 1
Electric dark correction enabled: true
Nonlinearity correction enabled: false
Boxcar width: 0
XAxis mode: Wavelengths
Number of Pixels in Spectrum: 2048
>>>>>Begin Spectral Data<<<<<
223.165	-8.5
223.4	-8.5
223.635	-8.5
223.869	-6.5
224.104	-24.5
224.338	-13.5
224.573	-31.5
224.808	-17.5
225.042	-14.5
225.277	-1.5
225.511	-2.5
225.746	-0.5
225.98	2.5
226.215	16.5
226.449	14.5
226.683	18.5
226.918	25.5
227.152	43.5
227.387	31.5
227.621	34.5
227.856	50.5
228.09	51.5
228.324	50.5
228.559	64.5
228.793	51.5
229.027	69.5
229.262	62.5
229.496	68.5
229.73	80.5
229.964	73.5
230.199	85.5
230.433	89.5
230.667	78.5
230.901	70.5
231.136	67.5
231.37	77.5
231.604	89.5
231.838	74.5
232.072	69.5
232.306	78.5
232.541	82.5
232.775	74.5
233.009	81.5
233.243	62.5
233.477	72.5
233.711	83.5
233.945	88.5
234.179	82.5
234.413	93.5
234.647	81.5
234.881	70.5
235.115	84.5
235.349	80.5
235.583	74.5
235.817	73.5
236.051	61.5
236.285	85.5
236.519	88.5
236.753	74.5
236.987	86.5
237.221	85.5
237.455	72.5
237.689	80.5
237.922	88.5
238.156	88.5
238.39	72.5
238.624	80.5
238.858	62.5
239.091	62.5
239.325	68.5
239.559	65.5
239.793	74.5
240.027	77.5
240.26	77.5
240.494	83.5
240.728	77.5
240.961	83.5
241.195	72.5
241.429	84.5
241.662	93.5
241.896	100.5
242.13	91.5
242.363	91.5
242.597	65.5
242.83	81.5
243.064	73.5
243.298	72.5
243.531	77.5
243.765	72.5
243.998	78.5
244.232	80.5
244.465	83.5
244.699	73.5
244.932	88.5
245.166	73.5
245.399	83.5
245.633	92.5
245.866	73.5
246.099	71.5
246.333	66.5
246.566	77.5
246.8	73.5
247.033	75.5
247.266	81.5
247.5	78.5
247.733	81.5
247.966	71.5
248.2	80.5
248.433	67.5
248.666	72.5
248.899	88.5
249.133	84.5
249.366	82.5
249.599	88.5
249.832	78.5
250.066	84.5
250.299	81.5
250.532	84.5
250.765	72.5
250.998	70.5
251.231	90.5
251.465	74.5
251.698	71.5
251.931	67.5
252.164	80.5
252.397	82.5
252.63	88.5
252.863	78.5
253.096	67.5
253.329	74.5
253.562	77.5
253.795	85.5
254.028	69.5
254.261	88.5
254.494	70.5
254.727	76.5
254.96	83.5
255.193	81.5
255.426	90.5
255.659	83.5
255.892	88.5
256.124	82.5
256.357	79.5
256.59	90.5
256.823	80.5
257.056	86.5
257.289	84.5
257.521	71.5
257.754	91.5
257.987	71.5
258.22	79.5
258.452	88.5
258.685	86.5
258.918	80.5
259.151	81.5
259.383	82.5
259.616	79.5
259.849	86.5
260.081	82.5
260.314	78.5
260.547	64.5
260.779	83.5
261.012	79.5
261.244	77.5
261.477	79.5
261.71	89.5
261.942	107.5
262.175	109.5
262.407	82.5
262.64	75.5
262.872	87.5
263.105	79.5
263.337	99.5
263.57	89.5
263.802	74.5
264.035	78.5
264.267	81.5
264.499	87.5
264.732	70.5
264.964	81.5
265.197	79.5
265.429	95.5
265.661	79.5
265.894	70.5
266.126	88.5
266.358	75.5
266.591	88.5
266.823	90.5
267.055	88.5
267.287	72.5
267.52	77.5
267.752	65.5
267.984	81.5
268.216	84.5
268.448	74.5
268.681	83.5
268.913	100.5
269.145	85.5
269.377	88.5
269.609	73.5
269.841	66.5
270.073	85.5
270.306	87.5
270.538	82.5
270.77	77.5
271.002	77.5
271.234	94.5
271.466	89.5
271.698	79.5
271.93	80.5
272.162	82.5
272.394	105.5
272.626	84.5
272.858	85.5
273.09	74.5
273.322	88.5
273.553	67.5
273.785	75.5
274.017	77.5
274.249	84.5
274.481	88.5
274.713	94.5
274.945	89.5
275.176	70.5
275.408	93.5
275.64	81.5
275.872	89.5
276.104	88.5
276.335	87.5
276.567	97.5
276.799	95.5
277.031	82.5
277.262	94.5
277.494	95.5
277.726	90.5
277.957	78.5
278.189	84.5
278.421	81.5
278.652	85.5
278.884	75.5
279.115	81.5
279.347	89.5
279.579	89.5
279.81	71.5
280.042	83.5
280.273	94.5
280.505	69.5
280.736	85.5
280.968	81.5
281.199	83.5
281.431	80.5
281.662	89.5
281.894	91.5
282.125	100.5
282.356	121.5
282.588	121.5
282.819	109.5
283.051	96.5
283.282	97.5
283.513	98.5
283.745	90.5
283.976	86.5
284.207	85.5
284.439	86.5
284.67	89.5
284.901	74.5
285.132	81.5
285.364	83.5
285.595	85.5
285.826	94.5
286.057	79.5
286.288	85.5
286.52	96.5
286.751	89.5
286.982	87.5
287.213	80.5
287.444	72.5
287.675	77.5
287.906	97.5
288.138	87.5
288.369	101.5
288.6	100.5
288.831	85.5
289.062	79.5
289.293	84.5
289.524	81.5
289.755	84.5
289.986	98.5
290.217	79.5
290.448	77.5
290.679	82.5
290.91	84.5
291.141	81.5
291.371	94.5
291.602	98.5
291.833	80.5
292.064	86.5
292.295	87.5
292.526	81.5
292.757	79.5
292.987	87.5
293.218	79.5
293.449	88.5
293.68	96.5
293.91	89.5
294.141	83.5
294.372	84.5
294.603	90.5
294.833	101.5
295.064	88.5
295.295	79.5
295.525	91.5
295.756	86.5
295.987	118.5
296.217	128.5
296.448	120.5
296.679	76.5
296.909	87.5
297.14	86.5
297.37	89.5
297.601	77.5
297.831	92.5
298.062	82.5
298.292	89.5
298.523	83.5
298.753	81.5
298.984	88.5
299.214	82.5
299.445	97.5
299.675	88.5
299.905	84.5
300.136	99.5
300.366	84.5
300.597	85.5
300.827	85.5
301.057	105.5
301.288	102.5
301.518	94.5
301.748	76.5
301.979	113.5
302.209	94.5
302.439	89.5
302.669	85.5
302.9	89.5
303.13	85.5
303.36	89.5
303.59	84.5
303.82	90.5
304.051	87.5
304.281	95.5
304.511	95.5
304.741	91.5
304.971	85.5
305.201	101.5
305.431	75.5
305.661	74.5
305.891	100.5
306.121	104.5
306.352	112.5
306.582	96.5
306.812	69.5
307.042	96.5
307.272	90.5
307.502	99.5
307.731	103.5
307.961	86.5
308.191	88.5
308.421	86.5
308.651	90.5
308.881	99.5
309.111	93.5
309.341	100.5
309.571	99.5
309.8	84.5
310.03	102.5
310.26	102.5
310.49	100.5
310.72	86.5
310.949	102.5
311.179	93.5
311.409	89.5
311.639	90.5
311.868	83.5
312.098	79.5
312.328	106.5
312.557	106.5
312.787	89.5
313.017	93.5
313.246	99.5
313.476	91.5
313.706	83.5
313.935	90.5
314.165	89.5
314.394	103.5
314.624	83.5
314.853	74.5
315.083	99.5
315.312	75.5
315.542	97.5
315.771	94.5
316.001	91.5
316.23	73.5
316.46	97.5
316.689	91.5
316.919	89.5
317.148	102.5
317.377	103.5
317.607	97.5
317.836	85.5
318.065	98.5
318.295	94.5
318.524	98.5
318.753	93.5
318.983	80.5
319.212	99.5
319.441	112.5
319.67	97.5
319.9	105.5
320.129	102.5
320.358	88.5
320.587	101.5
320.816	98.5
321.046	100.5
321.275	95.5
321.504	90.5
321.733	101.5
321.962	117.5
322.191	102.5
322.42	112.5
322.649	99.5
322.878	97.5
323.108	105.5
323.337	109.5
323.566	125.5
323.795	139.5
324.024	184.5
324.253	342.5
324.482	688.5
324.71	1477.5
324.939	1964.5
325.168	730.5
325.397	214.5
325.626	141.5
325.855	124.5
326.084	119.5
326.313	127.5
326.542	145.5
326.77	213.5
326.999	425.5
327.228	855.5
327.457	1528.5
327.686	1221.5
327.914	341.5
328.143	179.5
328.372	141.5
328.6	126.5
328.829	104.5
329.058	136.5
329.287	125.5
329.515	111.5
329.744	96.5
329.972	100.5
330.201	88.5
330.43	109.5
330.658	109.5
330.887	120.5
331.115	121.5
331.344	92.5
331.572	107.5
331.801	104.5
332.03	95.5
332.258	94.5
332.486	91.5
332.715	95.5
332.943	95.5
333.172	85.5
333.4	90.5
333.629	101.5
333.857	104.5
334.085	99.5
334.314	91.5
334.542	96.5
334.771	89.5
334.999	94.5
335.227	97.5
335.455	99.5
335.684	87.5
335.912	92.5
336.14	94.5
336.369	86.5
336.597	93.5
336.825	86.5
337.053	83.5
337.281	80.5
337.51	84.5
337.738	79.5
337.966	79.5
338.194	90.5
338.422	88.5
338.65	78.5
338.878	84.5
339.106	96.5
339.334	92.5
339.562	85.5
339.79	93.5
340.018	90.5
340.246	102.5
340.474	85.5
340.702	82.5
340.93	85.5
341.158	87.5
341.386	84.5
341.614	93.5
341.842	97.5
342.07	96.5
342.298	96.5
342.526	84.5
342.754	86.5
342.981	85.5
343.209	85.5
343.437	85.5
343.665	90.5
343.893	82.5
344.12	86.5
344.348	98.5
344.576	88.5
344.804	86.5
345.031	95.5
345.259	97.5
345.487	82.5
345.714	90.5
345.942	78.5
346.17	100.5
346.397	99.5
346.625	85.5
346.853	100.5
347.08	86.5
347.308	77.5
347.535	103.5
347.763	105.5
347.99	97.5
348.218	100.5
348.445	106.5
348.673	90.5
348.9	93.5
349.128	94.5
349.355	88.5
349.583	97.5
349.81	94.5
350.037	93.5
350.265	94.5
350.492	106.5
350.72	99.5
350.947	94.5
351.174	99.5
351.402	118.5
351.629	101.5
351.856	99.5
352.083	105.5
352.311	94.5
352.538	100.5
352.765	102.5
352.992	96.5
353.22	104.5
353.447	100.5
353.674	92.5
353.901	91.5
354.128	93.5
354.355	96.5
354.583	115.5
354.81	99.5
355.037	94.5
355.264	97.5
355.491	89.5
355.718	104.5
355.945	100.5
356.172	91.5
356.399	96.5
356.626	93.5
356.853	96.5
357.08	90.5
357.307	88.5
357.534	98.5
357.761	108.5
357.988	89.5
358.215	98.5
358.441	85.5
358.668	93.5
358.895	95.5
359.122	92.5
359.349	96.5
359.576	82.5
359.802	84.5
360.029	110.5
360.256	114.5
360.483	89.5
360.709	80.5
360.936	84.5
361.163	91.5
361.39	98.5
361.616	95.5
361.843	90.5
362.07	91.5
362.296	86.5
362.523	97.5
362.749	94.5
362.976	99.5
363.203	78.5
363.429	81.5
363.656	86.5
363.882	98.5
364.109	90.5
364.335	105.5
364.562	90.5
364.788	104.5
365.015	89.5
365.241	94.5
365.468	102.5
365.694	102.5
365.92	98.5
366.147	73.5
366.373	88.5
366.599	89.5
366.826	88.5
367.052	96.5
367.278	93.5
367.505	97.5
367.731	83.5
367.957	84.5
368.184	87.5
368.41	89.5
368.636	92.5
368.862	112.5
369.089	94.5
369.315	99.5
369.541	96.5
369.767	94.5
369.993	73.5
370.219	88.5
370.445	95.5
370.672	82.5
370.898	91.5
371.124	93.5
371.35	84.5
371.576	97.5
371.802	87.5
372.028	87.5
372.254	81.5
372.48	83.5
372.706	90.5
372.932	94.5
373.158	85.5
373.384	102.5
373.61	100.5
373.835	89.5
374.061	80.5
374.287	89.5
374.513	92.5
374.739	92.5
374.965	100.5
375.191	87.5
375.416	90.5
375.642	98.5
375.868	89.5
376.094	91.5
376.319	86.5
376.545	91.5
376.771	74.5
376.997	87.5
377.222	82.5
377.448	89.5
377.674	100.5
377.899	88.5
378.125	86.5
378.35	91.5
378.576	107.5
378.802	105.5
379.027	92.5
379.253	84.5
379.478	96.5
379.704	82.5
379.929	100.5
380.155	109.5
380.38	83.5
380.606	94.5
380.831	94.5
381.057	90.5
381.282	89.5
381.507	83.5
381.733	91.5
381.958	105.5
382.184	104.5
382.409	101.5
382.634	108.5
382.86	85.5
383.085	103.5
383.31	91.5
383.535	112.5
383.761	99.5
383.986	99.5
384.211	89.5
384.436	98.5
384.662	84.5
384.887	96.5
385.112	93.5
385.337	101.5
385.562	102.5
385.787	97.5
386.013	102.5
386.238	101.5
386.463	104.5
386.688	115.5
386.913	106.5
387.138	107.5
387.363	97.5
387.588	96.5
387.813	91.5
388.038	100.5
388.263	106.5
388.488	107.5
388.713	101.5
388.938	97.5
389.163	91.5
389.387	99.5
389.612	95.5
389.837	89.5
390.062	98.5
390.287	98.5
390.512	82.5
390.736	90.5
390.961	91.5
391.186	95.5
391.411	89.5
391.636	85.5
391.86	95.5
392.085	80.5
392.31	86.5
392.534	85.5
392.759	84.5
392.984	75.5
393.208	96.5
393.433	86.5
393.658	98.5
393.882	72.5
394.107	87.5
394.331	87.5
394.556	70.5
394.78	95.5
395.005	90.5
395.229	88.5
395.454	93.5
395.678	91.5
395.903	102.5
396.127	105.5
396.352	78.5
396.576	106.5
396.801	87.5
397.025	98.5
397.249	101.5
397.474	97.5
397.698	98.5
397.922	101.5
398.147	88.5
398.371	95.5
398.595	99.5
398.82	87.5
399.044	81.5
399.268	93.5
399.492	90.5
399.717	92.5
399.941	93.5
400.165	93.5
400.389	100.5
400.613	90.5
400.837	90.5
401.062	87.5
401.286	89.5
401.51	78.5
401.734	91.5
401.958	89.5
402.182	114.5
402.406	129.5
402.63	118.5
402.854	95.5
403.078	83.5
403.302	88.5
403.526	87.5
403.75	93.5
403.974	87.5
404.198	86.5
404.422	77.5
404.645	81.5
404.869	88.5
405.093	75.5
405.317	68.5
405.541	85.5
405.765	97.5
405.988	101.5
406.212	144.5
406.436	197.5
406.66	129.5
406.883	99.5
407.107	86.5
407.331	87.5
407.555	94.5
407.778	94.5
408.002	85.5
408.226	81.5
408.449	88.5
408.673	97.5
408.896	86.5
409.12	89.5
409.344	77.5
409.567	83.5
409.791	98.5
410.014	96.5
410.238	94.5
410.461	108.5
410.685	92.5
410.908	107.5
411.132	110.5
411.355	103.5
411.578	106.5
411.802	85.5
412.025	75.5
412.249	71.5
412.472	75.5
412.695	95.5
412.919	87.5
413.142	83.5
413.365	93.5
413.589	72.5
413.812	89.5
414.035	87.5
414.258	96.5
414.482	103.5
414.705	87.5
414.928	96.5
415.151	99.5
415.374	96.5
415.597	87.5
415.821	69.5
416.044	86.5
416.267	93.5
416.49	81.5
416.713	77.5
416.936	88.5
417.159	86.5
417.382	78.5
417.605	98.5
417.828	109.5
418.051	81.5
418.274	94.5
418.497	81.5
418.72	71.5
418.943	101.5
419.166	74.5
419.389	84.5
419.611	80.5
419.834	78.5
420.057	83.5
420.28	94.5
420.503	89.5
420.726	72.5
420.948	95.5
421.171	97.5
421.394	91.5
421.617	99.5
421.839	83.5
422.062	100.5
422.285	86.5
422.507	111.5
422.73	95.5
422.953	100.5
423.175	94.5
423.398	93.5
423.621	86.5
423.843	87.5
424.066	80.5
424.288	80.5
424.511	75.5
424.733	101.5
424.956	91.5
425.178	103.5
425.401	95.5
425.623	93.5
425.846	85.5
426.068	82.5
426.291	95.5
426.513	86.5
426.735	74.5
426.958	98.5
427.18	97.5
427.402	128.5
427.625	157.5
427.847	117.5
428.069	87.5
428.292	91.5
428.514	81.5
428.736	84.5
428.958	84.5
429.181	98.5
429.403	79.5
429.625	86.5
429.847	91.5
430.069	94.5
430.292	95.5
430.514	81.5
430.736	85.5
430.958	94.5
431.18	83.5
431.402	72.5
431.624	96.5
431.846	84.5
432.068	92.5
432.29	110.5
432.512	95.5
432.734	87.5
432.956	90.5
433.178	93.5
433.4	94.5
433.622	88.5
433.844	102.5
434.066	83.5
434.287	79.5
434.509	102.5
434.731	88.5
434.953	84.5
435.175	83.5
435.397	88.5
435.618	100.5
435.84	95.5
436.062	108.5
436.284	114.5
436.505	97.5
436.727	116.5
436.949	94.5
437.17	85.5
437.392	89.5
437.614	83.5
437.835	107.5
438.057	103.5
438.278	96.5
438.5	115.5
438.721	117.5
438.943	100.5
439.165	100.5
439.386	91.5
439.608	90.5
439.829	93.5
440.05	107.5
440.272	133.5
440.493	87.5
440.715	89.5
440.936	93.5
441.158	89.5
441.379	78.5
441.6	93.5
441.822	97.5
442.043	90.5
442.264	111.5
442.486	95.5
442.707	94.5
442.928	94.5
443.149	118.5
443.371	114.5
443.592	87.5
443.813	91.5
444.034	111.5
444.255	90.5
444.476	93.5
444.698	93.5
444.919	78.5
445.14	123.5
445.361	121.5
445.582	98.5
445.803	138.5
446.024	119.5
446.245	115.5
446.466	111.5
446.687	86.5
446.908	89.5
447.129	87.5
447.35	83.5
447.571	85.5
447.792	83.5
448.013	87.5
448.234	97.5
448.455	113.5
448.675	106.5
448.896	109.5
449.117	118.5
449.338	87.5
449.559	128.5
449.779	127.5
450	102.5
450.221	85.5
450.442	101.5
450.662	87.5
450.883	104.5
451.104	108.5
451.324	89.5
451.545	89.5
451.766	84.5
451.986	97.5
452.207	91.5
452.428	96.5
452.648	95.5
452.869	110.5
453.089	98.5
453.31	97.5
453.53	95.5
453.751	103.5
453.971	93.5
454.192	96.5
454.412	101.5
454.633	90.5
454.853	78.5
455.073	67.5
455.294	95.5
455.514	81.5
455.734	83.5
455.955	79.5
456.175	80.5
456.395	81.5
456.616	90.5
456.836	85.5
457.056	78.5
457.276	80.5
457.497	68.5
457.717	79.5
457.937	109.5
458.157	84.5
458.377	95.5
458.598	97.5
458.818	130.5
459.038	139.5
459.258	111.5
459.478	79.5
459.698	80.5
459.918	90.5
460.138	88.5
460.358	83.5
460.578	77.5
460.798	97.5
461.018	91.5
461.238	87.5
461.458	88.5
461.678	82.5
461.898	86.5
462.118	95.5
462.338	73.5
462.558	81.5
462.777	81.5
462.997	79.5
463.217	75.5
463.437	82.5
463.657	87.5
463.876	80.5
464.096	68.5
464.316	88.5
464.536	77.5
464.755	91.5
464.975	105.5
465.195	150.5
465.414	130.5
465.634	100.5
465.854	91.5
466.073	98.5
466.293	93.5
466.512	92.5
466.732	77.5
466.951	86.5
467.171	87.5
467.391	91.5
467.61	96.5
467.829	94.5
468.049	88.5
468.268	109.5
468.488	94.5
468.707	72.5
468.927	71.5
469.146	94.5
469.365	79.5
469.585	105.5
469.804	110.5
470.023	96.5
470.243	94.5
470.462	99.5
470.681	110.5
470.901	78.5
471.12	90.5
471.339	78.5
471.558	80.5
471.777	82.5
471.997	71.5
472.216	97.5
472.435	96.5
472.654	93.5
472.873	92.5
473.092	86.5
473.311	87.5
473.53	96.5
473.749	85.5
473.968	96.5
474.187	103.5
474.406	93.5
474.625	80.5
474.844	85.5
475.063	86.5
475.282	96.5
475.501	83.5
475.72	86.5
475.939	80.5
476.158	97.5
476.377	82.5
476.596	89.5
476.814	71.5
477.033	85.5
477.252	92.5
477.471	83.5
477.69	92.5
477.908	84.5
478.127	98.5
478.346	95.5
478.564	86.5
478.783	89.5
479.002	90.5
479.22	94.5
479.439	95.5
479.658	112.5
479.876	92.5
480.095	102.5
480.313	110.5
480.532	89.5
480.751	96.5
480.969	83.5
481.188	90.5
481.406	100.5
481.624	97.5
481.843	90.5
482.061	95.5
482.28	83.5
482.498	64.5
482.717	93.5
482.935	91.5
483.153	88.5
483.372	87.5
483.59	88.5
483.808	86.5
484.027	93.5
484.245	93.5
484.463	91.5
484.681	87.5
484.9	90.5
485.118	96.5
485.336	87.5
485.554	113.5
485.772	92.5
485.99	93.5
486.209	85.5
486.427	102.5
486.645	97.5
486.863	109.5
487.081	106.5
487.299	101.5
487.517	98.5
487.735	83.5
487.953	98.5
488.171	98.5
488.389	91.5
488.607	98.5
488.825	89.5
489.043	99.5
489.261	93.5
489.479	85.5
489.696	88.5
489.914	90.5
490.132	77.5
490.35	105.5
490.568	91.5
490.786	88.5
491.003	85.5
491.221	91.5
491.439	87.5
491.657	88.5
491.874	93.5
492.092	88.5
492.31	88.5
492.527	106.5
492.745	88.5
492.963	90.5
493.18	96.5
493.398	74.5
493.615	89.5
493.833	93.5
494.05	80.5
494.268	95.5
494.485	96.5
494.703	82.5
494.92	87.5
495.138	93.5
495.355	90.5
495.573	87.5
495.79	91.5
496.008	88.5
496.225	94.5
496.442	98.5
496.66	91.5
496.877	95.5
497.094	93.5
497.312	101.5
497.529	87.5
497.746	93.5
497.963	94.5
498.181	96.5
498.398	95.5
498.615	109.5
498.832	89.5
499.049	101.5
499.267	91.5
499.484	86.5
499.701	80.5
499.918	83.5
500.135	101.5
500.352	90.5
500.569	77.5
500.786	86.5
501.003	84.5
501.22	84.5
501.437	89.5
501.654	95.5
501.871	98.5
502.088	99.5
502.305	81.5
502.522	75.5
502.739	84.5
502.956	95.5
503.172	93.5
503.389	96.5
503.606	94.5
503.823	79.5
504.04	91.5
504.256	93.5
504.473	83.5
504.69	99.5
504.907	110.5
505.123	89.5
505.34	87.5
505.557	85.5
505.773	95.5
505.99	85.5
506.207	99.5
506.423	91.5
506.64	92.5
506.856	87.5
507.073	73.5
507.289	78.5
507.506	105.5
507.722	108.5
507.939	108.5
508.155	105.5
508.372	77.5
508.588	87.5
508.805	91.5
509.021	98.5
509.238	99.5
509.454	103.5
509.67	103.5
509.887	97.5
510.103	118.5
510.319	190.5
510.536	655.5
510.752	1961.5
510.968	541.5
511.184	157.5
511.401	107.5
511.617	87.5
511.833	88.5
512.049	97.5
512.265	86.5
512.481	83.5
512.698	99.5
512.914	85.5
513.13	88.5
513.346	102.5
513.562	85.5
513.778	89.5
513.994	104.5
514.21	89.5
514.426	112.5
514.642	116.5
514.858	102.5
515.074	139.5
515.29	381.5
515.506	1234.5
515.721	443.5
515.937	141.5
516.153	109.5
516.369	73.5
516.585	90.5
516.801	75.5
517.016	102.5
517.232	97.5
517.448	106.5
517.664	100.5
517.879	97.5
518.095	82.5
518.311	88.5
518.527	87.5
518.742	81.5
518.958	101.5
519.173	102.5
519.389	91.5
519.605	105.5
519.82	94.5
520.036	89.5
520.251	106.5
520.467	120.5
520.682	95.5
520.898	86.5
521.113	112.5
521.329	122.5
521.544	195.5
521.76	489.5
521.975	2040.5
522.19	1195.5
522.406	267.5
522.621	121.5
522.836	97.5
523.052	101.5
523.267	110.5
523.482	106.5
523.698	100.5
523.913	106.5
524.128	97.5
524.343	87.5
524.559	105.5
524.774	98.5
524.989	95.5
525.204	101.5
525.419	104.5
525.634	96.5
525.849	91.5
526.064	83.5
526.28	94.5
526.495	97.5
526.71	98.5
526.925	86.5
527.14	89.5
527.355	103.5
527.57	98.5
527.785	73.5
527.999	95.5
528.214	97.5
528.429	95.5
528.644	90.5
528.859	94.5
529.074	93.5
529.289	120.5
529.503	156.5
529.718	88.5
529.933	94.5
530.148	85.5
530.363	92.5
530.577	93.5
530.792	110.5
531.007	100.5
531.221	95.5
531.436	90.5
531.651	96.5
531.865	98.5
532.08	92.5
532.295	101.5
532.509	82.5
532.724	79.5
532.938	84.5
533.153	105.5
533.367	85.5
533.582	109.5
533.796	88.5
534.011	96.5
534.225	89.5
534.44	97.5
534.654	77.5
534.868	81.5
535.083	87.5
535.297	95.5
535.511	102.5
535.726	99.5
535.94	95.5
536.154	90.5
