Data from Uncirc_1986_H10_HRD10591_00036.txt Node
Date: Wed Jan 03 12:14:33 EST 2024
User: Yrep
Spectrometer: HR+D1059
Trigger mode: 1
Integration Time (sec): 1.000000E-1
Scans to average: 1
Electric dark correction enabled: true
Nonlinearity correction enabled: false
Boxcar width: 0
XAxis mode: Wavelengths
Number of Pixels in Spectrum: 2048
>>>>>Begin Spectral Data<<<<<
223.165	-21.5
223.4	-21.5
223.635	-21.5
223.869	-9.5
224.104	-18.5
224.338	-25.5
224.573	-21.5
224.808	-9.5
225.042	2.5
225.277	-9.5
225.511	-2.5
225.746	5.5
225.98	16.5
226.215	5.5
226.449	14.5
226.683	14.5
226.918	28.5
227.152	30.5
227.387	36.5
227.621	26.5
227.856	37.5
228.09	44.5
228.324	46.5
228.559	53.5
228.793	47.5
229.027	60.5
229.262	48.5
229.496	54.5
229.73	75.5
229.964	74.5
230.199	49.5
230.433	73.5
230.667	62.5
230.901	66.5
231.136	75.5
231.37	90.5
231.604	80.5
231.838	81.5
232.072	65.5
232.306	78.5
232.541	95.5
232.775	67.5
233.009	74.5
233.243	76.5
233.477	76.5
233.711	91.5
233.945	91.5
234.179	86.5
234.413	76.5
234.647	82.5
234.881	71.5
235.115	78.5
235.349	82.5
235.583	90.5
235.817	72.5
236.051	80.5
236.285	82.5
236.519	78.5
236.753	82.5
236.987	64.5
237.221	76.5
237.455	65.5
237.689	74.5
237.922	78.5
238.156	62.5
238.39	85.5
238.624	67.5
238.858	67.5
239.091	70.5
239.325	71.5
239.559	72.5
239.793	83.5
240.027	62.5
240.26	69.5
240.494	84.5
240.728	80.5
240.961	62.5
241.195	75.5
241.429	60.5
241.662	58.5
241.896	55.5
242.13	63.5
242.363	64.5
242.597	71.5
242.83	74.5
243.064	82.5
243.298	69.5
243.531	78.5
243.765	76.5
243.998	75.5
244.232	80.5
244.465	79.5
244.699	76.5
244.932	70.5
245.166	78.5
245.399	92.5
245.633	86.5
245.866	81.5
246.099	71.5
246.333	78.5
246.566	71.5
246.8	61.5
247.033	73.5
247.266	71.5
247.5	70.5
247.733	75.5
247.966	86.5
248.2	75.5
248.433	61.5
248.666	68.5
248.899	87.5
249.133	72.5
249.366	79.5
249.599	90.5
249.832	80.5
250.066	80.5
250.299	75.5
250.532	82.5
250.765	72.5
250.998	69.5
251.231	79.5
251.465	73.5
251.698	74.5
251.931	86.5
252.164	77.5
252.397	81.5
252.63	67.5
252.863	69.5
253.096	65.5
253.329	83.5
253.562	81.5
253.795	83.5
254.028	82.5
254.261	81.5
254.494	83.5
254.727	90.5
254.96	76.5
255.193	75.5
255.426	71.5
255.659	80.5
255.892	81.5
256.124	78.5
256.357	79.5
256.59	81.5
256.823	77.5
257.056	76.5
257.289	68.5
257.521	77.5
257.754	88.5
257.987	79.5
258.22	60.5
258.452	76.5
258.685	64.5
258.918	78.5
259.151	82.5
259.383	81.5
259.616	86.5
259.849	77.5
260.081	58.5
260.314	93.5
260.547	82.5
260.779	79.5
261.012	82.5
261.244	74.5
261.477	91.5
261.71	92.5
261.942	100.5
262.175	105.5
262.407	81.5
262.64	78.5
262.872	76.5
263.105	77.5
263.337	83.5
263.57	77.5
263.802	84.5
264.035	85.5
264.267	74.5
264.499	84.5
264.732	92.5
264.964	74.5
265.197	79.5
265.429	98.5
265.661	72.5
265.894	94.5
266.126	69.5
266.358	63.5
266.591	87.5
266.823	82.5
267.055	94.5
267.287	93.5
267.52	70.5
267.752	82.5
267.984	81.5
268.216	80.5
268.448	83.5
268.681	87.5
268.913	84.5
269.145	90.5
269.377	92.5
269.609	79.5
269.841	91.5
270.073	85.5
270.306	81.5
270.538	75.5
270.77	94.5
271.002	85.5
271.234	71.5
271.466	88.5
271.698	76.5
271.93	85.5
272.162	90.5
272.394	90.5
272.626	78.5
272.858	92.5
273.09	93.5
273.322	85.5
273.553	99.5
273.785	77.5
274.017	74.5
274.249	85.5
274.481	76.5
274.713	76.5
274.945	75.5
275.176	82.5
275.408	70.5
275.64	86.5
275.872	71.5
276.104	91.5
276.335	91.5
276.567	94.5
276.799	111.5
277.031	80.5
277.262	87.5
277.494	90.5
277.726	78.5
277.957	72.5
278.189	82.5
278.421	79.5
278.652	74.5
278.884	68.5
279.115	88.5
279.347	84.5
279.579	83.5
279.81	87.5
280.042	89.5
280.273	79.5
280.505	78.5
280.736	84.5
280.968	80.5
281.199	95.5
281.431	80.5
281.662	96.5
281.894	104.5
282.125	104.5
282.356	102.5
282.588	135.5
282.819	129.5
283.051	88.5
283.282	82.5
283.513	86.5
283.745	79.5
283.976	83.5
284.207	84.5
284.439	90.5
284.67	88.5
284.901	93.5
285.132	87.5
285.364	84.5
285.595	94.5
285.826	80.5
286.057	70.5
286.288	87.5
286.52	90.5
286.751	88.5
286.982	86.5
287.213	87.5
287.444	73.5
287.675	96.5
287.906	86.5
288.138	95.5
288.369	98.5
288.6	106.5
288.831	92.5
289.062	87.5
289.293	88.5
289.524	85.5
289.755	77.5
289.986	85.5
290.217	82.5
290.448	74.5
290.679	85.5
290.91	85.5
291.141	86.5
291.371	81.5
291.602	69.5
291.833	88.5
292.064	78.5
292.295	78.5
292.526	70.5
292.757	69.5
292.987	82.5
293.218	87.5
293.449	79.5
293.68	80.5
293.91	78.5
294.141	88.5
294.372	82.5
294.603	97.5
294.833	94.5
295.064	91.5
295.295	78.5
295.525	82.5
295.756	88.5
295.987	96.5
296.217	126.5
296.448	120.5
296.679	81.5
296.909	97.5
297.14	78.5
297.37	79.5
297.601	86.5
297.831	87.5
298.062	79.5
298.292	88.5
298.523	85.5
298.753	89.5
298.984	87.5
299.214	80.5
299.445	74.5
299.675	85.5
299.905	94.5
300.136	80.5
300.366	94.5
300.597	86.5
300.827	81.5
301.057	91.5
301.288	112.5
301.518	87.5
301.748	94.5
301.979	93.5
302.209	75.5
302.439	79.5
302.669	88.5
302.9	82.5
303.13	87.5
303.36	82.5
303.59	79.5
303.82	88.5
304.051	83.5
304.281	84.5
304.511	93.5
304.741	91.5
304.971	89.5
305.201	95.5
305.431	83.5
305.661	68.5
305.891	95.5
306.121	96.5
306.352	91.5
306.582	106.5
306.812	95.5
307.042	76.5
307.272	84.5
307.502	82.5
307.731	67.5
307.961	75.5
308.191	86.5
308.421	82.5
308.651	75.5
308.881	80.5
309.111	86.5
309.341	88.5
309.571	99.5
309.8	98.5
310.03	98.5
310.26	86.5
310.49	83.5
310.72	84.5
310.949	92.5
311.179	101.5
311.409	89.5
311.639	91.5
311.868	76.5
312.098	86.5
312.328	90.5
312.557	92.5
312.787	94.5
313.017	113.5
313.246	87.5
313.476	93.5
313.706	97.5
313.935	97.5
314.165	83.5
314.394	70.5
314.624	92.5
314.853	86.5
315.083	91.5
315.312	82.5
315.542	100.5
315.771	84.5
316.001	82.5
316.23	85.5
316.46	87.5
316.689	85.5
316.919	74.5
317.148	100.5
317.377	100.5
317.607	92.5
317.836	87.5
318.065	72.5
318.295	76.5
318.524	86.5
318.753	94.5
318.983	88.5
319.212	90.5
319.441	102.5
319.67	101.5
319.9	93.5
320.129	86.5
320.358	90.5
320.587	79.5
320.816	78.5
321.046	95.5
321.275	87.5
321.504	99.5
321.733	89.5
321.962	95.5
322.191	93.5
322.42	99.5
322.649	98.5
322.878	105.5
323.108	106.5
323.337	102.5
323.566	147.5
323.795	144.5
324.024	202.5
324.253	355.5
324.482	745.5
324.71	1519.5
324.939	2074.5
325.168	752.5
325.397	231.5
325.626	136.5
325.855	139.5
326.084	107.5
326.313	132.5
326.542	157.5
326.77	207.5
326.999	420.5
327.228	823.5
327.457	1601.5
327.686	1264.5
327.914	346.5
328.143	182.5
328.372	126.5
328.6	108.5
328.829	118.5
329.058	129.5
329.287	108.5
329.515	116.5
329.744	106.5
329.972	84.5
330.201	102.5
330.43	99.5
330.658	115.5
330.887	113.5
331.115	120.5
331.344	88.5
331.572	80.5
331.801	97.5
332.03	102.5
332.258	95.5
332.486	91.5
332.715	75.5
332.943	93.5
333.172	90.5
333.4	99.5
333.629	88.5
333.857	98.5
334.085	91.5
334.314	107.5
334.542	86.5
334.771	87.5
334.999	90.5
335.227	86.5
335.455	90.5
335.684	91.5
335.912	87.5
336.14	95.5
336.369	96.5
336.597	86.5
336.825	87.5
337.053	91.5
337.281	93.5
337.51	91.5
337.738	93.5
337.966	95.5
338.194	93.5
338.422	95.5
338.65	93.5
338.878	82.5
339.106	83.5
339.334	101.5
339.562	87.5
339.79	83.5
340.018	86.5
340.246	84.5
340.474	82.5
340.702	106.5
340.93	93.5
341.158	95.5
341.386	85.5
341.614	91.5
341.842	98.5
342.07	91.5
342.298	78.5
342.526	82.5
342.754	86.5
342.981	95.5
343.209	96.5
343.437	94.5
343.665	84.5
343.893	93.5
344.12	92.5
344.348	81.5
344.576	90.5
344.804	90.5
345.031	99.5
345.259	84.5
345.487	101.5
345.714	96.5
345.942	96.5
346.17	96.5
346.397	94.5
346.625	78.5
346.853	93.5
347.08	71.5
347.308	90.5
347.535	100.5
347.763	107.5
347.99	107.5
348.218	87.5
348.445	89.5
348.673	92.5
348.9	93.5
349.128	95.5
349.355	98.5
349.583	83.5
349.81	94.5
350.037	103.5
350.265	92.5
350.492	87.5
350.72	94.5
350.947	117.5
351.174	113.5
351.402	113.5
351.629	106.5
351.856	102.5
352.083	109.5
352.311	108.5
352.538	92.5
352.765	100.5
352.992	118.5
353.22	105.5
353.447	122.5
353.674	101.5
353.901	86.5
354.128	99.5
354.355	93.5
354.583	95.5
354.81	98.5
355.037	86.5
355.264	98.5
355.491	90.5
355.718	84.5
355.945	99.5
356.172	67.5
356.399	92.5
356.626	82.5
356.853	80.5
357.08	85.5
357.307	76.5
357.534	94.5
357.761	89.5
357.988	101.5
358.215	85.5
358.441	81.5
358.668	93.5
358.895	74.5
359.122	84.5
359.349	83.5
359.576	72.5
359.802	87.5
360.029	112.5
360.256	105.5
360.483	92.5
360.709	98.5
360.936	90.5
361.163	86.5
361.39	96.5
361.616	85.5
361.843	86.5
362.07	96.5
362.296	80.5
362.523	90.5
362.749	83.5
362.976	82.5
363.203	82.5
363.429	91.5
363.656	92.5
363.882	82.5
364.109	87.5
364.335	91.5
364.562	85.5
364.788	93.5
365.015	90.5
365.241	90.5
365.468	104.5
365.694	111.5
365.92	93.5
366.147	68.5
366.373	84.5
366.599	82.5
366.826	82.5
367.052	96.5
367.278	80.5
367.505	75.5
367.731	92.5
367.957	74.5
368.184	98.5
368.41	92.5
368.636	99.5
368.862	114.5
369.089	82.5
369.315	98.5
369.541	86.5
369.767	101.5
369.993	85.5
370.219	90.5
370.445	82.5
370.672	92.5
370.898	80.5
371.124	76.5
371.35	78.5
371.576	83.5
371.802	75.5
372.028	85.5
372.254	88.5
372.48	94.5
372.706	76.5
372.932	93.5
373.158	88.5
373.384	101.5
373.61	99.5
373.835	86.5
374.061	76.5
374.287	87.5
374.513	80.5
374.739	92.5
374.965	82.5
375.191	100.5
375.416	82.5
375.642	78.5
375.868	85.5
376.094	79.5
376.319	82.5
376.545	86.5
376.771	91.5
376.997	86.5
377.222	80.5
377.448	86.5
377.674	79.5
377.899	94.5
378.125	88.5
378.35	97.5
378.576	92.5
378.802	83.5
379.027	91.5
379.253	92.5
379.478	76.5
379.704	77.5
379.929	78.5
380.155	81.5
380.38	86.5
380.606	114.5
380.831	94.5
381.057	82.5
381.282	90.5
381.507	86.5
381.733	93.5
381.958	104.5
382.184	107.5
382.409	105.5
382.634	99.5
382.86	99.5
383.085	87.5
383.31	96.5
383.535	113.5
383.761	82.5
383.986	87.5
384.211	92.5
384.436	82.5
384.662	93.5
384.887	91.5
385.112	95.5
385.337	87.5
385.562	87.5
385.787	93.5
386.013	109.5
386.238	113.5
386.463	103.5
386.688	114.5
386.913	95.5
387.138	83.5
387.363	95.5
387.588	76.5
387.813	94.5
388.038	87.5
388.263	100.5
388.488	106.5
388.713	103.5
388.938	94.5
389.163	94.5
389.387	83.5
389.612	86.5
389.837	96.5
390.062	92.5
390.287	80.5
390.512	87.5
390.736	92.5
390.961	76.5
391.186	85.5
391.411	97.5
391.636	98.5
391.86	86.5
392.085	81.5
392.31	84.5
392.534	79.5
392.759	88.5
392.984	74.5
393.208	79.5
393.433	92.5
393.658	86.5
393.882	82.5
394.107	82.5
394.331	90.5
394.556	68.5
394.78	98.5
395.005	80.5
395.229	90.5
395.454	86.5
395.678	86.5
395.903	66.5
396.127	76.5
396.352	90.5
396.576	83.5
396.801	83.5
397.025	100.5
397.249	99.5
397.474	87.5
397.698	84.5
397.922	70.5
398.147	89.5
398.371	73.5
398.595	96.5
398.82	74.5
399.044	79.5
399.268	86.5
399.492	86.5
399.717	88.5
399.941	86.5
400.165	85.5
400.389	101.5
400.613	79.5
400.837	76.5
401.062	101.5
401.286	91.5
401.51	76.5
401.734	87.5
401.958	95.5
402.182	109.5
402.406	130.5
402.63	109.5
402.854	84.5
403.078	81.5
403.302	67.5
403.526	67.5
403.75	90.5
403.974	72.5
404.198	86.5
404.422	89.5
404.645	104.5
404.869	96.5
405.093	107.5
405.317	97.5
405.541	85.5
405.765	95.5
405.988	105.5
406.212	170.5
406.436	216.5
406.66	127.5
406.883	96.5
407.107	78.5
407.331	84.5
407.555	105.5
407.778	86.5
408.002	74.5
408.226	94.5
408.449	92.5
408.673	87.5
408.896	85.5
409.12	99.5
409.344	86.5
409.567	99.5
409.791	95.5
410.014	90.5
410.238	90.5
410.461	84.5
410.685	87.5
410.908	92.5
411.132	102.5
411.355	94.5
411.578	89.5
411.802	91.5
412.025	85.5
412.249	87.5
412.472	98.5
412.695	70.5
412.919	83.5
413.142	80.5
413.365	75.5
413.589	86.5
413.812	71.5
414.035	90.5
414.258	93.5
414.482	97.5
414.705	92.5
414.928	68.5
415.151	103.5
415.374	93.5
415.597	71.5
415.821	82.5
416.044	74.5
416.267	85.5
416.49	87.5
416.713	86.5
416.936	78.5
417.159	69.5
417.382	95.5
417.605	80.5
417.828	75.5
418.051	87.5
418.274	79.5
418.497	87.5
418.72	94.5
418.943	72.5
419.166	86.5
419.389	87.5
419.611	81.5
419.834	93.5
420.057	80.5
420.28	82.5
420.503	92.5
420.726	91.5
420.948	86.5
421.171	95.5
421.394	88.5
421.617	94.5
421.839	93.5
422.062	96.5
422.285	70.5
422.507	99.5
422.73	97.5
422.953	88.5
423.175	82.5
423.398	92.5
423.621	80.5
423.843	83.5
424.066	76.5
424.288	83.5
424.511	87.5
424.733	87.5
424.956	123.5
425.178	100.5
425.401	101.5
425.623	99.5
425.846	85.5
426.068	81.5
426.291	85.5
426.513	89.5
426.735	85.5
426.958	95.5
427.18	76.5
427.402	141.5
427.625	141.5
427.847	110.5
428.069	104.5
428.292	81.5
428.514	84.5
428.736	96.5
428.958	80.5
429.181	79.5
429.403	86.5
429.625	82.5
429.847	76.5
430.069	100.5
430.292	94.5
430.514	91.5
430.736	90.5
430.958	75.5
431.18	68.5
431.402	66.5
431.624	85.5
431.846	80.5
432.068	67.5
432.29	81.5
432.512	87.5
432.734	94.5
432.956	81.5
433.178	100.5
433.4	80.5
433.622	85.5
433.844	88.5
434.066	102.5
434.287	80.5
434.509	82.5
434.731	85.5
434.953	71.5
435.175	82.5
435.397	91.5
435.618	90.5
435.84	108.5
436.062	114.5
436.284	113.5
436.505	96.5
436.727	90.5
436.949	103.5
437.17	96.5
437.392	87.5
437.614	85.5
437.835	109.5
438.057	117.5
438.278	94.5
438.5	95.5
438.721	110.5
438.943	86.5
439.165	75.5
439.386	85.5
439.608	96.5
439.829	113.5
440.05	112.5
440.272	132.5
440.493	97.5
440.715	87.5
440.936	95.5
441.158	78.5
441.379	88.5
441.6	80.5
441.822	88.5
442.043	94.5
442.264	98.5
442.486	93.5
442.707	83.5
442.928	101.5
443.149	119.5
443.371	107.5
443.592	80.5
443.813	117.5
444.034	91.5
444.255	90.5
444.476	78.5
444.698	84.5
444.919	79.5
445.14	113.5
445.361	114.5
445.582	128.5
445.803	138.5
446.024	122.5
446.245	131.5
446.466	108.5
446.687	92.5
446.908	80.5
447.129	72.5
447.35	74.5
447.571	91.5
447.792	102.5
448.013	88.5
448.234	98.5
448.455	83.5
448.675	106.5
448.896	119.5
449.117	86.5
449.338	86.5
449.559	117.5
449.779	118.5
450	81.5
450.221	79.5
450.442	80.5
450.662	89.5
450.883	110.5
451.104	99.5
451.324	94.5
451.545	76.5
451.766	75.5
451.986	79.5
452.207	83.5
452.428	85.5
452.648	89.5
452.869	105.5
453.089	97.5
453.31	111.5
453.53	85.5
453.751	86.5
453.971	95.5
454.192	103.5
454.412	91.5
454.633	98.5
454.853	84.5
455.073	88.5
455.294	75.5
455.514	99.5
455.734	84.5
455.955	84.5
456.175	79.5
456.395	67.5
456.616	66.5
456.836	84.5
457.056	77.5
457.276	75.5
457.497	90.5
457.717	70.5
457.937	90.5
458.157	92.5
458.377	99.5
458.598	100.5
458.818	122.5
459.038	134.5
459.258	94.5
459.478	88.5
459.698	93.5
459.918	86.5
460.138	76.5
460.358	81.5
460.578	92.5
460.798	91.5
461.018	83.5
461.238	80.5
461.458	92.5
461.678	78.5
461.898	74.5
462.118	71.5
462.338	81.5
462.558	77.5
462.777	96.5
462.997	95.5
463.217	92.5
463.437	92.5
463.657	71.5
463.876	86.5
464.096	89.5
464.316	80.5
464.536	102.5
464.755	99.5
464.975	94.5
465.195	140.5
465.414	138.5
465.634	102.5
465.854	79.5
466.073	81.5
466.293	78.5
466.512	79.5
466.732	83.5
466.951	78.5
467.171	90.5
467.391	86.5
467.61	94.5
467.829	78.5
468.049	83.5
468.268	74.5
468.488	90.5
468.707	75.5
468.927	90.5
469.146	90.5
469.365	96.5
469.585	87.5
469.804	78.5
470.023	92.5
470.243	86.5
470.462	94.5
470.681	111.5
470.901	89.5
471.12	85.5
471.339	81.5
471.558	75.5
471.777	87.5
471.997	75.5
472.216	92.5
472.435	82.5
472.654	75.5
472.873	94.5
473.092	88.5
473.311	76.5
473.53	77.5
473.749	88.5
473.968	80.5
474.187	104.5
474.406	81.5
474.625	82.5
474.844	93.5
475.063	95.5
475.282	69.5
475.501	77.5
475.72	95.5
475.939	74.5
476.158	78.5
476.377	81.5
476.596	82.5
476.814	97.5
477.033	96.5
477.252	91.5
477.471	84.5
477.69	86.5
477.908	92.5
478.127	100.5
478.346	87.5
478.564	90.5
478.783	86.5
479.002	89.5
479.22	83.5
479.439	94.5
479.658	109.5
479.876	79.5
480.095	87.5
480.313	78.5
480.532	85.5
480.751	86.5
480.969	94.5
481.188	113.5
481.406	91.5
481.624	84.5
481.843	82.5
482.061	77.5
482.28	84.5
482.498	77.5
482.717	99.5
482.935	84.5
483.153	86.5
483.372	85.5
483.59	87.5
483.808	79.5
484.027	96.5
484.245	92.5
484.463	86.5
484.681	79.5
484.9	97.5
485.118	90.5
485.336	94.5
485.554	91.5
485.772	87.5
485.99	96.5
486.209	100.5
486.427	114.5
486.645	97.5
486.863	96.5
487.081	103.5
487.299	90.5
487.517	81.5
487.735	93.5
487.953	87.5
488.171	98.5
488.389	96.5
488.607	94.5
488.825	91.5
489.043	92.5
489.261	85.5
489.479	76.5
489.696	68.5
489.914	80.5
490.132	92.5
490.35	78.5
490.568	87.5
490.786	98.5
491.003	73.5
491.221	75.5
491.439	80.5
491.657	78.5
491.874	84.5
492.092	95.5
492.31	88.5
492.527	80.5
492.745	78.5
492.963	86.5
493.18	106.5
493.398	80.5
493.615	92.5
493.833	98.5
494.05	76.5
494.268	81.5
494.485	94.5
494.703	86.5
494.92	74.5
495.138	74.5
495.355	98.5
495.573	78.5
495.79	88.5
496.008	91.5
496.225	84.5
496.442	75.5
496.66	77.5
496.877	85.5
497.094	90.5
497.312	92.5
497.529	91.5
497.746	90.5
497.963	86.5
498.181	97.5
498.398	78.5
498.615	99.5
498.832	101.5
499.049	81.5
499.267	84.5
499.484	80.5
499.701	84.5
499.918	90.5
500.135	85.5
500.352	74.5
500.569	85.5
500.786	94.5
501.003	99.5
501.22	84.5
501.437	88.5
501.654	87.5
501.871	102.5
502.088	87.5
502.305	90.5
502.522	90.5
502.739	88.5
502.956	87.5
503.172	88.5
503.389	96.5
503.606	92.5
503.823	103.5
504.04	79.5
504.256	88.5
504.473	80.5
504.69	86.5
504.907	76.5
505.123	74.5
505.34	88.5
505.557	83.5
505.773	95.5
505.99	96.5
506.207	78.5
506.423	83.5
506.64	100.5
506.856	84.5
507.073	79.5
507.289	92.5
507.506	95.5
507.722	120.5
507.939	96.5
508.155	81.5
508.372	87.5
508.588	88.5
508.805	88.5
509.021	74.5
509.238	83.5
509.454	112.5
509.67	112.5
509.887	106.5
510.103	119.5
510.319	203.5
510.536	702.5
510.752	2160.5
510.968	604.5
511.184	156.5
511.401	119.5
511.617	101.5
511.833	82.5
512.049	88.5
512.265	90.5
512.481	79.5
512.698	92.5
512.914	100.5
513.13	82.5
513.346	79.5
513.562	88.5
513.778	93.5
513.994	106.5
514.21	88.5
514.426	113.5
514.642	118.5
514.858	127.5
515.074	148.5
515.29	422.5
515.506	1283.5
515.721	478.5
515.937	148.5
516.153	95.5
516.369	86.5
516.585	86.5
516.801	84.5
517.016	94.5
517.232	102.5
517.448	96.5
517.664	80.5
517.879	102.5
518.095	82.5
518.311	96.5
518.527	88.5
518.742	90.5
518.958	87.5
519.173	94.5
519.389	108.5
519.605	87.5
519.82	78.5
520.036	90.5
520.251	113.5
520.467	109.5
520.682	86.5
520.898	95.5
521.113	112.5
521.329	127.5
521.544	183.5
521.76	497.5
521.975	2134.5
522.19	1304.5
522.406	282.5
522.621	110.5
522.836	101.5
523.052	98.5
523.267	83.5
523.482	76.5
523.698	97.5
523.913	111.5
524.128	98.5
524.343	85.5
524.559	91.5
524.774	86.5
524.989	80.5
525.204	105.5
525.419	87.5
525.634	86.5
525.849	80.5
526.064	87.5
526.28	75.5
526.495	92.5
526.71	85.5
526.925	95.5
527.14	93.5
527.355	69.5
527.57	82.5
527.785	93.5
527.999	80.5
528.214	82.5
528.429	92.5
528.644	88.5
528.859	89.5
529.074	78.5
529.289	107.5
529.503	155.5
529.718	96.5
529.933	88.5
530.148	95.5
530.363	98.5
530.577	98.5
530.792	99.5
531.007	78.5
531.221	90.5
531.436	94.5
531.651	72.5
531.865	96.5
532.08	105.5
532.295	97.5
532.509	97.5
532.724	99.5
532.938	90.5
533.153	75.5
533.367	101.5
533.582	83.5
533.796	93.5
534.011	90.5
534.225	79.5
534.44	89.5
534.654	86.5
534.868	103.5
535.083	98.5
535.297	91.5
535.511	95.5
535.726	91.5
535.94	105.5
536.154	89.5
536.369	95.5
536.583	100.5
536.797	86.5
537.011	87.5
537.225	92.5
