Data from Uncirc_1986_H10_HRD10591_00014.txt Node
Date: Wed Jan 03 12:14:29 EST 2024
User: Yrep
Spectrometer: HR+D1059
Trigger mode: 1
Integration Time (sec): 1.000000E-1
Scans to average: 1
Electric dark correction enabled: true
Nonlinearity correction enabled: false
Boxcar width: 0
XAxis mode: Wavelengths
Number of Pixels in Spectrum: 2048
>>>>>Begin Spectral Data<<<<<
223.165	-16.19
223.4	-16.19
223.635	-16.19
223.869	-28.19
224.104	-17.19
224.338	-22.19
224.573	-8.19
224.808	-11.19
225.042	-8.19
225.277	-3.19
225.511	7.81
225.746	7.81
225.98	8.81
226.215	0.81
226.449	17.81
226.683	16.81
226.918	24.81
227.152	29.81
227.387	29.81
227.621	26.81
227.856	40.81
228.09	57.81
228.324	45.81
228.559	58.81
228.793	75.81
229.027	52.81
229.262	61.81
229.496	63.81
229.73	76.81
229.964	79.81
230.199	65.81
230.433	70.81
230.667	66.81
230.901	72.81
231.136	75.81
231.37	74.81
231.604	73.81
231.838	77.81
232.072	83.81
232.306	64.81
232.541	93.81
232.775	78.81
233.009	68.81
233.243	69.81
233.477	96.81
233.711	74.81
233.945	74.81
234.179	77.81
234.413	74.81
234.647	76.81
234.881	62.81
235.115	85.81
235.349	72.81
235.583	81.81
235.817	64.81
236.051	72.81
236.285	60.81
236.519	70.81
236.753	78.81
236.987	90.81
237.221	74.81
237.455	77.81
237.689	78.81
237.922	68.81
238.156	76.81
238.39	71.81
238.624	69.81
238.858	67.81
239.091	67.81
239.325	78.81
239.559	70.81
239.793	64.81
240.027	67.81
240.26	90.81
240.494	71.81
240.728	79.81
240.961	69.81
241.195	76.81
241.429	67.81
241.662	78.81
241.896	74.81
242.13	69.81
242.363	77.81
242.597	70.81
242.83	74.81
243.064	76.81
243.298	55.81
243.531	72.81
243.765	82.81
243.998	75.81
244.232	69.81
244.465	74.81
244.699	66.81
244.932	74.81
245.166	71.81
245.399	95.81
245.633	92.81
245.866	82.81
246.099	80.81
246.333	78.81
246.566	72.81
246.8	80.81
247.033	74.81
247.266	71.81
247.5	78.81
247.733	87.81
247.966	76.81
248.2	78.81
248.433	72.81
248.666	78.81
248.899	78.81
249.133	90.81
249.366	83.81
249.599	79.81
249.832	86.81
250.066	84.81
250.299	79.81
250.532	86.81
250.765	63.81
250.998	78.81
251.231	71.81
251.465	65.81
251.698	78.81
251.931	82.81
252.164	86.81
252.397	84.81
252.63	80.81
252.863	80.81
253.096	77.81
253.329	65.81
253.562	60.81
253.795	88.81
254.028	74.81
254.261	69.81
254.494	71.81
254.727	78.81
254.96	69.81
255.193	86.81
255.426	79.81
255.659	75.81
255.892	94.81
256.124	77.81
256.357	67.81
256.59	70.81
256.823	78.81
257.056	79.81
257.289	72.81
257.521	77.81
257.754	71.81
257.987	76.81
258.22	93.81
258.452	76.81
258.685	93.81
258.918	72.81
259.151	82.81
259.383	79.81
259.616	82.81
259.849	85.81
260.081	80.81
260.314	70.81
260.547	68.81
260.779	86.81
261.012	86.81
261.244	88.81
261.477	82.81
261.71	89.81
261.942	97.81
262.175	100.81
262.407	81.81
262.64	78.81
262.872	86.81
263.105	82.81
263.337	79.81
263.57	82.81
263.802	92.81
264.035	94.81
264.267	76.81
264.499	83.81
264.732	85.81
264.964	81.81
265.197	80.81
265.429	70.81
265.661	80.81
265.894	74.81
266.126	84.81
266.358	71.81
266.591	91.81
266.823	99.81
267.055	79.81
267.287	77.81
267.52	85.81
267.752	76.81
267.984	79.81
268.216	77.81
268.448	90.81
268.681	66.81
268.913	85.81
269.145	76.81
269.377	77.81
269.609	82.81
269.841	67.81
270.073	85.81
270.306	84.81
270.538	90.81
270.77	82.81
271.002	81.81
271.234	91.81
271.466	84.81
271.698	84.81
271.93	77.81
272.162	81.81
272.394	72.81
272.626	88.81
272.858	66.81
273.09	84.81
273.322	66.81
273.553	75.81
273.785	90.81
274.017	71.81
274.249	90.81
274.481	78.81
274.713	87.81
274.945	83.81
275.176	84.81
275.408	94.81
275.64	98.81
275.872	78.81
276.104	85.81
276.335	94.81
276.567	76.81
276.799	94.81
277.031	86.81
277.262	79.81
277.494	88.81
277.726	86.81
277.957	72.81
278.189	86.81
278.421	80.81
278.652	88.81
278.884	79.81
279.115	80.81
279.347	81.81
279.579	90.81
279.81	68.81
280.042	79.81
280.273	79.81
280.505	89.81
280.736	93.81
280.968	76.81
281.199	88.81
281.431	84.81
281.662	74.81
281.894	71.81
282.125	94.81
282.356	115.81
282.588	119.81
282.819	94.81
283.051	76.81
283.282	90.81
283.513	80.81
283.745	94.81
283.976	84.81
284.207	87.81
284.439	69.81
284.67	64.81
284.901	96.81
285.132	93.81
285.364	90.81
285.595	87.81
285.826	86.81
286.057	93.81
286.288	79.81
286.52	69.81
286.751	82.81
286.982	80.81
287.213	83.81
287.444	82.81
287.675	84.81
287.906	92.81
288.138	76.81
288.369	94.81
288.6	70.81
288.831	74.81
289.062	78.81
289.293	91.81
289.524	86.81
289.755	82.81
289.986	95.81
290.217	88.81
290.448	83.81
290.679	88.81
290.91	80.81
291.141	70.81
291.371	77.81
291.602	81.81
291.833	90.81
292.064	93.81
292.295	95.81
292.526	85.81
292.757	87.81
292.987	79.81
293.218	84.81
293.449	72.81
293.68	78.81
293.91	80.81
294.141	76.81
294.372	80.81
294.603	82.81
294.833	83.81
295.064	82.81
295.295	87.81
295.525	82.81
295.756	85.81
295.987	96.81
296.217	126.81
296.448	116.81
296.679	90.81
296.909	78.81
297.14	88.81
297.37	78.81
297.601	69.81
297.831	84.81
298.062	89.81
298.292	93.81
298.523	83.81
298.753	85.81
298.984	83.81
299.214	92.81
299.445	88.81
299.675	85.81
299.905	91.81
300.136	102.81
300.366	99.81
300.597	92.81
300.827	87.81
301.057	115.81
301.288	110.81
301.518	93.81
301.748	94.81
301.979	99.81
302.209	94.81
302.439	96.81
302.669	94.81
302.9	88.81
303.13	83.81
303.36	71.81
303.59	95.81
303.82	99.81
304.051	81.81
304.281	98.81
304.511	99.81
304.741	84.81
304.971	81.81
305.201	85.81
305.431	84.81
305.661	85.81
305.891	90.81
306.121	80.81
306.352	88.81
306.582	105.81
306.812	90.81
307.042	78.81
307.272	89.81
307.502	96.81
307.731	84.81
307.961	82.81
308.191	84.81
308.421	104.81
308.651	99.81
308.881	85.81
309.111	95.81
309.341	92.81
309.571	90.81
309.8	81.81
310.03	105.81
310.26	85.81
310.49	86.81
310.72	84.81
310.949	100.81
311.179	96.81
311.409	83.81
311.639	94.81
311.868	76.81
312.098	93.81
312.328	94.81
312.557	101.81
312.787	102.81
313.017	89.81
313.246	97.81
313.476	81.81
313.706	96.81
313.935	94.81
314.165	85.81
314.394	96.81
314.624	89.81
314.853	99.81
315.083	79.81
315.312	95.81
315.542	78.81
315.771	93.81
316.001	82.81
316.23	103.81
316.46	87.81
316.689	93.81
316.919	89.81
317.148	87.81
317.377	95.81
317.607	84.81
317.836	82.81
318.065	103.81
318.295	103.81
318.524	87.81
318.753	77.81
318.983	75.81
319.212	83.81
319.441	98.81
319.67	84.81
319.9	87.81
320.129	94.81
320.358	79.81
320.587	95.81
320.816	96.81
321.046	95.81
321.275	98.81
321.504	105.81
321.733	98.81
321.962	95.81
322.191	83.81
322.42	82.81
322.649	103.81
322.878	114.81
323.108	99.81
323.337	109.81
323.566	112.81
323.795	113.81
324.024	179.81
324.253	308.81
324.482	684.81
324.71	1390.81
324.939	1816.81
325.168	670.81
325.397	206.81
325.626	137.81
325.855	114.81
326.084	114.81
326.313	125.81
326.542	146.81
326.77	209.81
326.999	366.81
327.228	801.81
327.457	1414.81
327.686	1126.81
327.914	302.81
328.143	162.81
328.372	124.81
328.6	116.81
328.829	98.81
329.058	119.81
329.287	114.81
329.515	114.81
329.744	102.81
329.972	96.81
330.201	87.81
330.43	123.81
330.658	115.81
330.887	122.81
331.115	121.81
331.344	100.81
331.572	79.81
331.801	101.81
332.03	97.81
332.258	108.81
332.486	85.81
332.715	98.81
332.943	76.81
333.172	84.81
333.4	98.81
333.629	113.81
333.857	108.81
334.085	85.81
334.314	91.81
334.542	94.81
334.771	80.81
334.999	88.81
335.227	82.81
335.455	89.81
335.684	80.81
335.912	93.81
336.14	87.81
336.369	93.81
336.597	83.81
336.825	91.81
337.053	85.81
337.281	83.81
337.51	79.81
337.738	83.81
337.966	104.81
338.194	94.81
338.422	94.81
338.65	94.81
338.878	83.81
339.106	80.81
339.334	95.81
339.562	86.81
339.79	86.81
340.018	86.81
340.246	84.81
340.474	102.81
340.702	94.81
340.93	88.81
341.158	80.81
341.386	100.81
341.614	85.81
341.842	82.81
342.07	90.81
342.298	94.81
342.526	80.81
342.754	87.81
342.981	102.81
343.209	88.81
343.437	87.81
343.665	95.81
343.893	82.81
344.12	88.81
344.348	99.81
344.576	88.81
344.804	85.81
345.031	93.81
345.259	91.81
345.487	79.81
345.714	87.81
345.942	81.81
346.17	94.81
346.397	92.81
346.625	86.81
346.853	82.81
347.08	90.81
347.308	95.81
347.535	84.81
347.763	93.81
347.99	87.81
348.218	90.81
348.445	90.81
348.673	96.81
348.9	86.81
349.128	99.81
349.355	97.81
349.583	96.81
349.81	87.81
350.037	87.81
350.265	92.81
350.492	100.81
350.72	88.81
350.947	99.81
351.174	96.81
351.402	91.81
351.629	97.81
351.856	85.81
352.083	117.81
352.311	102.81
352.538	109.81
352.765	103.81
352.992	116.81
353.22	108.81
353.447	95.81
353.674	102.81
353.901	90.81
354.128	82.81
354.355	100.81
354.583	109.81
354.81	84.81
355.037	98.81
355.264	103.81
355.491	91.81
355.718	90.81
355.945	91.81
356.172	102.81
356.399	94.81
356.626	100.81
356.853	92.81
357.08	79.81
357.307	83.81
357.534	90.81
357.761	67.81
357.988	87.81
358.215	86.81
358.441	93.81
358.668	87.81
358.895	90.81
359.122	85.81
359.349	86.81
359.576	75.81
359.802	88.81
360.029	97.81
360.256	107.81
360.483	84.81
360.709	86.81
360.936	88.81
361.163	99.81
361.39	104.81
361.616	99.81
361.843	89.81
362.07	79.81
362.296	87.81
362.523	83.81
362.749	84.81
362.976	93.81
363.203	90.81
363.429	91.81
363.656	79.81
363.882	92.81
364.109	88.81
364.335	94.81
364.562	82.81
364.788	81.81
365.015	77.81
365.241	92.81
365.468	94.81
365.694	94.81
365.92	92.81
366.147	91.81
366.373	97.81
366.599	95.81
366.826	78.81
367.052	89.81
367.278	82.81
367.505	83.81
367.731	90.81
367.957	79.81
368.184	96.81
368.41	92.81
368.636	108.81
368.862	115.81
369.089	102.81
369.315	94.81
369.541	94.81
369.767	82.81
369.993	86.81
370.219	83.81
370.445	80.81
370.672	87.81
370.898	77.81
371.124	80.81
371.35	93.81
371.576	82.81
371.802	93.81
372.028	95.81
372.254	93.81
372.48	81.81
372.706	86.81
372.932	104.81
373.158	91.81
373.384	92.81
373.61	92.81
373.835	76.81
374.061	88.81
374.287	75.81
374.513	81.81
374.739	91.81
374.965	78.81
375.191	80.81
375.416	75.81
375.642	84.81
375.868	89.81
376.094	86.81
376.319	76.81
376.545	100.81
376.771	79.81
376.997	80.81
377.222	77.81
377.448	82.81
377.674	94.81
377.899	82.81
378.125	90.81
378.35	91.81
378.576	86.81
378.802	100.81
379.027	80.81
379.253	84.81
379.478	92.81
379.704	82.81
379.929	78.81
380.155	70.81
380.38	80.81
380.606	85.81
380.831	94.81
381.057	84.81
381.282	102.81
381.507	81.81
381.733	96.81
381.958	101.81
382.184	83.81
382.409	90.81
382.634	81.81
382.86	100.81
383.085	94.81
383.31	82.81
383.535	90.81
383.761	86.81
383.986	90.81
384.211	98.81
384.436	85.81
384.662	86.81
384.887	104.81
385.112	101.81
385.337	95.81
385.562	81.81
385.787	95.81
386.013	110.81
386.238	110.81
386.463	101.81
386.688	92.81
386.913	88.81
387.138	94.81
387.363	82.81
387.588	104.81
387.813	107.81
388.038	110.81
388.263	97.81
388.488	105.81
388.713	88.81
388.938	91.81
389.163	84.81
389.387	86.81
389.612	88.81
389.837	80.81
390.062	80.81
390.287	86.81
390.512	90.81
390.736	94.81
390.961	82.81
391.186	80.81
391.411	94.81
391.636	80.81
391.86	93.81
392.085	81.81
392.31	77.81
392.534	87.81
392.759	78.81
392.984	89.81
393.208	101.81
393.433	82.81
393.658	96.81
393.882	78.81
394.107	95.81
394.331	90.81
394.556	89.81
394.78	96.81
395.005	81.81
395.229	87.81
395.454	91.81
395.678	83.81
395.903	86.81
396.127	88.81
396.352	90.81
396.576	83.81
396.801	96.81
397.025	80.81
397.249	84.81
397.474	95.81
397.698	66.81
397.922	86.81
398.147	80.81
398.371	83.81
398.595	82.81
398.82	85.81
399.044	76.81
399.268	82.81
399.492	86.81
399.717	92.81
399.941	85.81
400.165	81.81
400.389	79.81
400.613	84.81
400.837	98.81
401.062	80.81
401.286	97.81
401.51	78.81
401.734	74.81
401.958	80.81
402.182	109.81
402.406	142.81
402.63	102.81
402.854	84.81
403.078	82.81
403.302	93.81
403.526	81.81
403.75	86.81
403.974	76.81
404.198	80.81
404.422	74.81
404.645	80.81
404.869	78.81
405.093	87.81
405.317	81.81
405.541	93.81
405.765	102.81
405.988	101.81
406.212	145.81
406.436	195.81
406.66	127.81
406.883	97.81
407.107	81.81
407.331	86.81
407.555	85.81
407.778	83.81
408.002	82.81
408.226	87.81
408.449	88.81
408.673	94.81
408.896	94.81
409.12	95.81
409.344	92.81
409.567	98.81
409.791	84.81
410.014	97.81
410.238	97.81
410.461	96.81
410.685	97.81
410.908	100.81
411.132	83.81
411.355	90.81
411.578	87.81
411.802	79.81
412.025	80.81
412.249	74.81
412.472	82.81
412.695	76.81
412.919	82.81
413.142	75.81
413.365	82.81
413.589	79.81
413.812	80.81
414.035	90.81
414.258	87.81
414.482	88.81
414.705	82.81
414.928	98.81
415.151	83.81
415.374	99.81
415.597	77.81
415.821	70.81
416.044	80.81
416.267	76.81
416.49	78.81
416.713	90.81
416.936	80.81
417.159	76.81
417.382	77.81
417.605	99.81
417.828	81.81
418.051	103.81
418.274	80.81
418.497	74.81
418.72	85.81
418.943	82.81
419.166	68.81
419.389	81.81
419.611	86.81
419.834	76.81
420.057	84.81
420.28	96.81
420.503	67.81
420.726	84.81
420.948	86.81
421.171	88.81
421.394	88.81
421.617	89.81
421.839	96.81
422.062	90.81
422.285	86.81
422.507	101.81
422.73	98.81
422.953	92.81
423.175	76.81
423.398	68.81
423.621	86.81
423.843	85.81
424.066	86.81
424.288	88.81
424.511	74.81
424.733	96.81
424.956	103.81
425.178	78.81
425.401	88.81
425.623	95.81
425.846	83.81
426.068	98.81
426.291	88.81
426.513	86.81
426.735	102.81
426.958	82.81
427.18	104.81
427.402	122.81
427.625	144.81
427.847	103.81
428.069	101.81
428.292	86.81
428.514	80.81
428.736	82.81
428.958	86.81
429.181	79.81
429.403	93.81
429.625	85.81
429.847	86.81
430.069	86.81
430.292	88.81
430.514	80.81
430.736	82.81
430.958	75.81
431.18	85.81
431.402	71.81
431.624	86.81
431.846	98.81
432.068	85.81
432.29	76.81
432.512	91.81
432.734	91.81
432.956	94.81
433.178	95.81
433.4	94.81
433.622	88.81
433.844	78.81
434.066	79.81
434.287	96.81
434.509	78.81
434.731	89.81
434.953	88.81
435.175	74.81
435.397	79.81
435.618	81.81
435.84	107.81
436.062	102.81
436.284	111.81
436.505	91.81
436.727	81.81
436.949	84.81
437.17	74.81
437.392	86.81
437.614	85.81
437.835	84.81
438.057	86.81
438.278	88.81
438.5	94.81
438.721	91.81
438.943	98.81
439.165	82.81
439.386	83.81
439.608	85.81
439.829	98.81
440.05	122.81
440.272	100.81
440.493	76.81
440.715	81.81
440.936	83.81
441.158	89.81
441.379	80.81
441.6	80.81
441.822	97.81
442.043	96.81
442.264	103.81
442.486	95.81
442.707	75.81
442.928	81.81
443.149	104.81
443.371	108.81
443.592	92.81
443.813	99.81
444.034	99.81
444.255	91.81
444.476	81.81
444.698	78.81
444.919	70.81
445.14	109.81
445.361	100.81
445.582	99.81
445.803	101.81
446.024	110.81
446.245	110.81
446.466	105.81
446.687	84.81
446.908	82.81
447.129	78.81
447.35	78.81
447.571	86.81
447.792	91.81
448.013	78.81
448.234	90.81
448.455	94.81
448.675	100.81
448.896	99.81
449.117	93.81
449.338	100.81
449.559	126.81
449.779	124.81
450	104.81
450.221	78.81
450.442	74.81
450.662	78.81
450.883	117.81
451.104	108.81
451.324	92.81
451.545	82.81
451.766	76.81
451.986	86.81
452.207	102.81
452.428	82.81
452.648	83.81
452.869	98.81
453.089	100.81
453.31	101.81
453.53	86.81
453.751	92.81
453.971	106.81
454.192	87.81
454.412	75.81
454.633	91.81
454.853	73.81
455.073	79.81
455.294	100.81
455.514	97.81
455.734	78.81
455.955	84.81
456.175	90.81
456.395	68.81
456.616	71.81
456.836	68.81
457.056	72.81
457.276	83.81
457.497	78.81
457.717	79.81
457.937	81.81
458.157	76.81
458.377	87.81
458.598	109.81
458.818	119.81
459.038	129.81
459.258	104.81
459.478	76.81
459.698	91.81
459.918	84.81
460.138	88.81
460.358	81.81
460.578	83.81
460.798	90.81
461.018	78.81
461.238	80.81
461.458	83.81
461.678	88.81
461.898	86.81
462.118	76.81
462.338	95.81
462.558	84.81
462.777	79.81
462.997	74.81
463.217	78.81
463.437	79.81
463.657	75.81
463.876	77.81
464.096	82.81
464.316	89.81
464.536	80.81
464.755	64.81
464.975	87.81
465.195	121.81
465.414	124.81
465.634	83.81
465.854	86.81
466.073	74.81
466.293	89.81
466.512	72.81
466.732	82.81
466.951	91.81
467.171	78.81
467.391	83.81
467.61	97.81
467.829	67.81
468.049	74.81
468.268	86.81
468.488	88.81
468.707	76.81
468.927	78.81
469.146	68.81
469.365	77.81
469.585	84.81
469.804	82.81
470.023	86.81
470.243	93.81
470.462	100.81
470.681	90.81
470.901	76.81
471.12	73.81
471.339	69.81
471.558	68.81
471.777	90.81
471.997	76.81
472.216	75.81
472.435	85.81
472.654	88.81
472.873	92.81
473.092	74.81
473.311	80.81
473.53	84.81
473.749	83.81
473.968	93.81
474.187	76.81
474.406	106.81
474.625	98.81
474.844	88.81
475.063	101.81
475.282	72.81
475.501	79.81
475.72	94.81
475.939	80.81
476.158	91.81
476.377	90.81
476.596	76.81
476.814	66.81
477.033	97.81
477.252	91.81
477.471	83.81
477.69	81.81
477.908	75.81
478.127	75.81
478.346	83.81
478.564	83.81
478.783	88.81
479.002	80.81
479.22	86.81
479.439	84.81
479.658	93.81
479.876	95.81
480.095	83.81
480.313	84.81
480.532	80.81
480.751	81.81
480.969	98.81
481.188	96.81
481.406	83.81
481.624	94.81
481.843	87.81
482.061	91.81
482.28	79.81
482.498	83.81
482.717	90.81
482.935	83.81
483.153	78.81
483.372	83.81
483.59	86.81
483.808	89.81
484.027	90.81
484.245	86.81
484.463	97.81
484.681	80.81
484.9	101.81
485.118	78.81
485.336	86.81
485.554	101.81
485.772	101.81
485.99	96.81
486.209	94.81
486.427	95.81
486.645	95.81
486.863	93.81
487.081	98.81
487.299	92.81
487.517	76.81
487.735	87.81
487.953	70.81
488.171	101.81
488.389	94.81
488.607	93.81
488.825	83.81
489.043	78.81
489.261	86.81
489.479	84.81
489.696	84.81
489.914	92.81
490.132	85.81
490.35	91.81
490.568	88.81
490.786	86.81
491.003	88.81
491.221	86.81
491.439	87.81
491.657	90.81
491.874	78.81
492.092	86.81
492.31	101.81
492.527	80.81
492.745	85.81
492.963	80.81
493.18	69.81
493.398	68.81
493.615	99.81
493.833	97.81
494.05	79.81
494.268	99.81
494.485	79.81
494.703	78.81
494.92	102.81
495.138	103.81
495.355	97.81
495.573	97.81
495.79	102.81
496.008	97.81
496.225	97.81
496.442	88.81
496.66	93.81
496.877	92.81
497.094	96.81
497.312	84.81
497.529	88.81
497.746	78.81
497.963	90.81
498.181	85.81
498.398	96.81
498.615	106.81
498.832	90.81
499.049	101.81
499.267	74.81
499.484	83.81
499.701	84.81
499.918	92.81
500.135	82.81
500.352	90.81
500.569	66.81
500.786	88.81
501.003	95.81
501.22	98.81
501.437	94.81
501.654	86.81
501.871	102.81
502.088	84.81
502.305	83.81
502.522	85.81
502.739	69.81
502.956	78.81
503.172	89.81
503.389	82.81
503.606	102.81
503.823	77.81
504.04	94.81
504.256	89.81
504.473	74.81
504.69	94.81
504.907	94.81
505.123	89.81
505.34	92.81
505.557	72.81
505.773	87.81
505.99	78.81
506.207	86.81
506.423	65.81
506.64	75.81
506.856	80.81
507.073	108.81
507.289	100.81
507.506	97.81
507.722	96.81
507.939	97.81
508.155	86.81
508.372	76.81
508.588	91.81
508.805	100.81
509.021	92.81
509.238	90.81
509.454	101.81
509.67	91.81
509.887	113.81
510.103	122.81
510.319	198.81
510.536	628.81
510.752	1916.81
510.968	530.81
511.184	130.81
511.401	112.81
511.617	99.81
511.833	92.81
512.049	95.81
512.265	96.81
512.481	92.81
512.698	88.81
512.914	90.81
513.13	74.81
513.346	84.81
513.562	96.81
513.778	92.81
513.994	95.81
514.21	92.81
514.426	113.81
514.642	117.81
514.858	112.81
515.074	127.81
515.29	363.81
515.506	1152.81
515.721	429.81
515.937	145.81
516.153	98.81
516.369	88.81
516.585	104.81
516.801	76.81
517.016	78.81
517.232	77.81
517.448	80.81
