Data from Uncirc_1986_H10_HRD10591_00053.txt Node
Date: Wed Jan 03 12:14:37 EST 2024
User: Yrep
Spectrometer: HR+D1059
Trigger mode: 1
Integration Time (sec): 1.000000E-1
Scans to average: 1
Electric dark correction enabled: true
Nonlinearity correction enabled: false
Boxcar width: 0
XAxis mode: Wavelengths
Number of Pixels in Spectrum: 2048
>>>>>Begin Spectral Data<<<<<
223.165	-8
223.4	-8
223.635	-8
223.869	-14
224.104	-27
224.338	-18
224.573	-17
224.808	-17
225.042	1
225.277	-9
225.511	-10
225.746	12
225.98	1
226.215	7
226.449	12
226.683	23
226.918	35
227.152	29
227.387	20
227.621	29
227.856	51
228.09	35
228.324	39
228.559	55
228.793	59
229.027	55
229.262	61
229.496	56
229.73	70
229.964	85
230.199	84
230.433	75
230.667	84
230.901	86
231.136	69
231.37	83
231.604	69
231.838	74
232.072	64
232.306	74
232.541	63
232.775	71
233.009	79
233.243	83
233.477	86
233.711	83
233.945	91
234.179	76
234.413	78
234.647	69
234.881	80
235.115	66
235.349	65
235.583	77
235.817	85
236.051	70
236.285	77
236.519	82
236.753	78
236.987	79
237.221	82
237.455	83
237.689	82
237.922	79
238.156	79
238.39	69
238.624	78
238.858	96
239.091	73
239.325	90
239.559	68
239.793	71
240.027	74
240.26	67
240.494	83
240.728	77
240.961	62
241.195	84
241.429	77
241.662	74
241.896	80
242.13	60
242.363	69
242.597	69
242.83	64
243.064	66
243.298	83
243.531	73
243.765	80
243.998	69
244.232	78
244.465	82
244.699	77
244.932	80
245.166	79
245.399	73
245.633	79
245.866	73
246.099	81
246.333	79
246.566	98
246.8	85
247.033	68
247.266	69
247.5	69
247.733	93
247.966	65
248.2	93
248.433	78
248.666	95
248.899	80
249.133	95
249.366	95
249.599	84
249.832	77
250.066	99
250.299	105
250.532	77
250.765	101
250.998	83
251.231	83
251.465	78
251.698	83
251.931	88
252.164	79
252.397	85
252.63	69
252.863	86
253.096	64
253.329	95
253.562	73
253.795	91
254.028	89
254.261	70
254.494	101
254.727	94
254.96	84
255.193	84
255.426	73
255.659	94
255.892	64
256.124	82
256.357	75
256.59	85
256.823	75
257.056	81
257.289	71
257.521	79
257.754	87
257.987	68
258.22	84
258.452	68
258.685	77
258.918	82
259.151	84
259.383	79
259.616	80
259.849	83
260.081	66
260.314	70
260.547	84
260.779	88
261.012	77
261.244	78
261.477	101
261.71	93
261.942	101
262.175	110
262.407	105
262.64	69
262.872	81
263.105	81
263.337	79
263.57	97
263.802	73
264.035	81
264.267	80
264.499	73
264.732	71
264.964	89
265.197	82
265.429	83
265.661	70
265.894	95
266.126	92
266.358	85
266.591	81
266.823	81
267.055	78
267.287	94
267.52	94
267.752	74
267.984	93
268.216	79
268.448	79
268.681	86
268.913	77
269.145	79
269.377	79
269.609	98
269.841	85
270.073	89
270.306	89
270.538	61
270.77	92
271.002	79
271.234	91
271.466	85
271.698	81
271.93	80
272.162	84
272.394	84
272.626	86
272.858	106
273.09	91
273.322	88
273.553	85
273.785	63
274.017	92
274.249	82
274.481	65
274.713	77
274.945	79
275.176	73
275.408	80
275.64	91
275.872	90
276.104	80
276.335	111
276.567	108
276.799	94
277.031	89
277.262	85
277.494	92
277.726	93
277.957	94
278.189	74
278.421	74
278.652	83
278.884	81
279.115	89
279.347	70
279.579	89
279.81	86
280.042	93
280.273	83
280.505	86
280.736	85
280.968	85
281.199	70
281.431	80
281.662	83
281.894	85
282.125	95
282.356	110
282.588	110
282.819	104
283.051	86
283.282	80
283.513	89
283.745	85
283.976	84
284.207	102
284.439	85
284.67	90
284.901	80
285.132	80
285.364	78
285.595	83
285.826	86
286.057	83
286.288	86
286.52	86
286.751	87
286.982	71
287.213	83
287.444	93
287.675	104
287.906	87
288.138	101
288.369	97
288.6	86
288.831	69
289.062	84
289.293	93
289.524	83
289.755	83
289.986	83
290.217	88
290.448	87
290.679	78
290.91	85
291.141	88
291.371	91
291.602	89
291.833	98
292.064	81
292.295	95
292.526	100
292.757	87
292.987	94
293.218	86
293.449	82
293.68	87
293.91	90
294.141	91
294.372	101
294.603	89
294.833	87
295.064	93
295.295	107
295.525	84
295.756	113
295.987	114
296.217	132
296.448	112
296.679	95
296.909	91
297.14	90
297.37	78
297.601	84
297.831	102
298.062	93
298.292	84
298.523	97
298.753	94
298.984	89
299.214	88
299.445	93
299.675	84
299.905	96
300.136	83
300.366	84
300.597	84
300.827	86
301.057	96
301.288	96
301.518	103
301.748	92
301.979	99
302.209	88
302.439	99
302.669	89
302.9	86
303.13	95
303.36	101
303.59	110
303.82	106
304.051	88
304.281	86
304.511	95
304.741	85
304.971	85
305.201	98
305.431	86
305.661	86
305.891	97
306.121	95
306.352	111
306.582	105
306.812	99
307.042	79
307.272	101
307.502	88
307.731	102
307.961	109
308.191	99
308.421	90
308.651	96
308.881	89
309.111	101
309.341	87
309.571	104
309.8	102
310.03	96
310.26	113
310.49	98
310.72	95
310.949	80
311.179	72
311.409	88
311.639	97
311.868	89
312.098	80
312.328	105
312.557	92
312.787	95
313.017	111
313.246	94
313.476	103
313.706	86
313.935	90
314.165	94
314.394	110
314.624	90
314.853	100
315.083	97
315.312	85
315.542	95
315.771	101
316.001	81
316.23	95
316.46	100
316.689	81
316.919	90
317.148	104
317.377	105
317.607	90
317.836	87
318.065	99
318.295	97
318.524	94
318.753	96
318.983	97
319.212	98
319.441	97
319.67	99
319.9	95
320.129	96
320.358	95
320.587	94
320.816	95
321.046	89
321.275	81
321.504	94
321.733	97
321.962	94
322.191	80
322.42	101
322.649	112
322.878	116
323.108	105
323.337	124
323.566	133
323.795	151
324.024	177
324.253	367
324.482	755
324.71	1552
324.939	2022
325.168	758
325.397	231
325.626	142
325.855	117
326.084	125
326.313	125
326.542	150
326.77	234
326.999	434
327.228	853
327.457	1610
327.686	1214
327.914	347
328.143	181
328.372	137
328.6	114
328.829	116
329.058	119
329.287	116
329.515	110
329.744	90
329.972	82
330.201	98
330.43	118
330.658	122
330.887	111
331.115	125
331.344	106
331.572	104
331.801	93
332.03	108
332.258	115
332.486	87
332.715	84
332.943	107
333.172	102
333.4	81
333.629	105
333.857	111
334.085	112
334.314	111
334.542	109
334.771	91
334.999	103
335.227	96
335.455	87
335.684	95
335.912	95
336.14	102
336.369	96
336.597	101
336.825	101
337.053	83
337.281	93
337.51	82
337.738	85
337.966	87
338.194	102
338.422	97
338.65	111
338.878	93
339.106	95
339.334	98
339.562	99
339.79	87
340.018	81
340.246	80
340.474	89
340.702	89
340.93	86
341.158	91
341.386	92
341.614	82
341.842	95
342.07	90
342.298	94
342.526	87
342.754	117
342.981	82
343.209	77
343.437	103
343.665	87
343.893	80
344.12	104
344.348	98
344.576	89
344.804	99
345.031	100
345.259	99
345.487	94
345.714	71
345.942	94
346.17	79
346.397	99
346.625	96
346.853	79
347.08	92
347.308	94
347.535	107
347.763	95
347.99	109
348.218	109
348.445	92
348.673	99
348.9	102
349.128	92
349.355	86
349.583	81
349.81	83
350.037	91
350.265	110
350.492	91
350.72	95
350.947	103
351.174	107
351.402	108
351.629	103
351.856	92
352.083	91
352.311	93
352.538	99
352.765	101
352.992	108
353.22	104
353.447	102
353.674	101
353.901	102
354.128	84
354.355	97
354.583	95
354.81	88
355.037	89
355.264	93
355.491	81
355.718	86
355.945	102
356.172	99
356.399	101
356.626	95
356.853	86
357.08	92
357.307	94
357.534	89
357.761	103
357.988	104
358.215	99
358.441	87
358.668	90
358.895	73
359.122	90
359.349	85
359.576	74
359.802	118
360.029	107
360.256	117
360.483	97
360.709	81
360.936	94
361.163	99
361.39	90
361.616	94
361.843	90
362.07	81
362.296	92
362.523	97
362.749	104
362.976	98
363.203	93
363.429	86
363.656	97
363.882	72
364.109	74
364.335	98
364.562	107
364.788	93
365.015	97
365.241	117
365.468	117
365.694	98
365.92	81
366.147	97
366.373	94
366.599	99
366.826	82
367.052	84
367.278	84
367.505	80
367.731	87
367.957	74
368.184	96
368.41	90
368.636	98
368.862	108
369.089	112
369.315	96
369.541	82
369.767	102
369.993	96
370.219	91
370.445	77
370.672	92
370.898	99
371.124	79
371.35	83
371.576	89
371.802	103
372.028	67
372.254	86
372.48	77
372.706	83
372.932	81
373.158	84
373.384	85
373.61	89
373.835	96
374.061	98
374.287	100
374.513	87
374.739	85
374.965	99
375.191	93
375.416	96
375.642	85
375.868	97
376.094	88
376.319	87
376.545	92
376.771	94
376.997	95
377.222	93
377.448	96
377.674	91
377.899	81
378.125	90
378.35	91
378.576	88
378.802	93
379.027	80
379.253	82
379.478	84
379.704	94
379.929	83
380.155	94
380.38	104
380.606	99
380.831	96
381.057	87
381.282	82
381.507	81
381.733	91
381.958	81
382.184	96
382.409	96
382.634	85
382.86	97
383.085	97
383.31	99
383.535	93
383.761	107
383.986	92
384.211	81
384.436	107
384.662	102
384.887	88
385.112	92
385.337	110
385.562	112
385.787	108
386.013	112
386.238	116
386.463	102
386.688	119
386.913	105
387.138	85
387.363	88
387.588	81
387.813	103
388.038	92
388.263	111
388.488	90
388.713	113
388.938	103
389.163	93
389.387	94
389.612	93
389.837	87
390.062	88
390.287	101
390.512	84
390.736	87
390.961	81
391.186	93
391.411	85
391.636	79
391.86	82
392.085	84
392.31	94
392.534	94
392.759	86
392.984	99
393.208	93
393.433	76
393.658	79
393.882	79
394.107	95
394.331	109
394.556	87
394.78	96
395.005	99
395.229	87
395.454	81
395.678	89
395.903	94
396.127	90
396.352	83
396.576	90
396.801	92
397.025	91
397.249	86
397.474	90
397.698	87
397.922	84
398.147	87
398.371	97
398.595	86
398.82	87
399.044	88
399.268	71
399.492	75
399.717	86
399.941	85
400.165	90
400.389	101
400.613	77
400.837	85
401.062	94
401.286	85
401.51	93
401.734	85
401.958	98
402.182	131
402.406	151
402.63	119
402.854	82
403.078	92
403.302	90
403.526	90
403.75	82
403.974	79
404.198	83
404.422	86
404.645	66
404.869	80
405.093	103
405.317	89
405.541	100
405.765	90
405.988	123
406.212	155
406.436	203
406.66	139
406.883	89
407.107	97
407.331	90
407.555	101
407.778	96
408.002	87
408.226	91
408.449	79
408.673	78
408.896	99
409.12	110
409.344	95
409.567	89
409.791	88
410.014	108
410.238	90
410.461	82
410.685	84
410.908	97
411.132	112
411.355	83
411.578	100
411.802	103
412.025	96
412.249	88
412.472	83
412.695	88
412.919	69
413.142	72
413.365	87
413.589	85
413.812	82
414.035	88
414.258	88
414.482	84
414.705	89
414.928	85
415.151	93
415.374	95
415.597	87
415.821	92
416.044	96
416.267	97
416.49	81
416.713	86
416.936	93
417.159	81
417.382	86
417.605	93
417.828	90
418.051	97
418.274	72
418.497	85
418.72	101
418.943	94
419.166	68
419.389	75
419.611	91
419.834	74
420.057	84
420.28	97
420.503	97
420.726	94
420.948	88
421.171	90
421.394	90
421.617	106
421.839	96
422.062	93
422.285	90
422.507	94
422.73	94
422.953	88
423.175	85
423.398	89
423.621	83
423.843	78
424.066	90
424.288	96
424.511	86
424.733	94
424.956	101
425.178	85
425.401	97
425.623	104
425.846	86
426.068	90
426.291	97
426.513	106
426.735	86
426.958	87
427.18	104
427.402	139
427.625	155
427.847	107
428.069	104
428.292	90
428.514	85
428.736	70
428.958	92
429.181	86
429.403	81
429.625	91
429.847	81
430.069	99
430.292	85
430.514	85
430.736	89
430.958	85
431.18	96
431.402	93
431.624	92
431.846	91
432.068	86
432.29	88
432.512	100
432.734	87
432.956	84
433.178	93
433.4	100
433.622	102
433.844	89
434.066	100
434.287	90
434.509	77
434.731	81
434.953	73
435.175	87
435.397	75
435.618	88
435.84	98
436.062	118
436.284	105
436.505	89
436.727	93
436.949	102
437.17	89
437.392	98
437.614	94
437.835	99
438.057	96
438.278	91
438.5	83
438.721	121
438.943	85
439.165	88
439.386	81
439.608	91
439.829	94
440.05	125
440.272	128
440.493	94
440.715	71
440.936	70
441.158	86
441.379	90
441.6	87
441.822	102
442.043	72
442.264	103
442.486	91
442.707	106
442.928	113
443.149	119
443.371	130
443.592	107
443.813	104
444.034	106
444.255	102
444.476	89
444.698	87
444.919	89
445.14	128
445.361	111
445.582	114
445.803	131
446.024	109
446.245	118
446.466	105
446.687	109
446.908	89
447.129	75
447.35	91
447.571	79
447.792	94
448.013	101
448.234	97
448.455	94
448.675	110
448.896	113
449.117	97
449.338	97
449.559	130
449.779	133
450	87
450.221	68
450.442	101
450.662	82
450.883	87
451.104	106
451.324	93
451.545	90
451.766	91
451.986	86
452.207	84
452.428	94
452.648	117
452.869	135
453.089	114
453.31	114
453.53	89
453.751	92
453.971	105
454.192	114
454.412	102
454.633	99
454.853	87
455.073	96
455.294	83
455.514	96
455.734	98
455.955	96
456.175	89
456.395	80
456.616	87
456.836	91
457.056	99
457.276	80
457.497	89
457.717	86
457.937	81
458.157	87
458.377	66
458.598	115
458.818	149
459.038	159
459.258	105
459.478	89
459.698	84
459.918	88
460.138	86
460.358	95
460.578	83
460.798	83
461.018	79
461.238	93
461.458	93
461.678	94
461.898	94
462.118	91
462.338	88
462.558	80
462.777	77
462.997	101
463.217	96
463.437	87
463.657	94
463.876	91
464.096	93
464.316	73
464.536	98
464.755	97
464.975	113
465.195	148
465.414	136
465.634	92
465.854	97
466.073	90
466.293	82
466.512	83
466.732	86
466.951	83
467.171	90
467.391	91
467.61	98
467.829	89
468.049	86
468.268	107
468.488	97
468.707	83
468.927	95
469.146	91
469.365	87
469.585	90
469.804	103
470.023	97
470.243	105
470.462	98
470.681	95
470.901	106
471.12	99
471.339	90
471.558	97
471.777	91
471.997	88
472.216	107
472.435	88
472.654	97
472.873	87
473.092	79
473.311	74
473.53	81
473.749	89
473.968	85
474.187	112
474.406	99
474.625	85
474.844	86
475.063	91
475.282	82
475.501	88
475.72	93
475.939	90
476.158	94
476.377	85
476.596	92
476.814	103
477.033	89
477.252	97
477.471	72
477.69	90
477.908	89
478.127	94
478.346	99
478.564	87
478.783	98
479.002	87
479.22	75
479.439	93
479.658	97
479.876	105
480.095	79
480.313	86
480.532	89
480.751	104
480.969	100
481.188	104
481.406	109
481.624	85
481.843	90
482.061	86
482.28	90
482.498	95
482.717	87
482.935	99
483.153	74
483.372	93
483.59	94
483.808	85
484.027	93
484.245	86
484.463	93
484.681	97
484.9	77
485.118	90
485.336	100
485.554	96
485.772	97
485.99	95
486.209	103
486.427	98
486.645	113
486.863	116
487.081	105
487.299	94
487.517	95
487.735	88
487.953	96
488.171	99
488.389	91
488.607	115
488.825	97
489.043	100
489.261	95
489.479	88
489.696	94
489.914	89
490.132	102
490.35	76
490.568	83
490.786	100
491.003	96
491.221	101
491.439	102
491.657	91
491.874	88
492.092	94
492.31	77
492.527	90
492.745	88
492.963	98
493.18	94
493.398	100
493.615	113
493.833	103
494.05	89
494.268	104
494.485	100
494.703	86
494.92	90
495.138	91
495.355	83
495.573	89
495.79	76
496.008	93
496.225	90
496.442	91
496.66	90
496.877	87
497.094	88
497.312	78
497.529	88
497.746	90
497.963	87
498.181	105
498.398	86
498.615	95
498.832	110
499.049	90
499.267	103
499.484	95
499.701	87
499.918	109
500.135	83
500.352	96
500.569	86
500.786	93
501.003	85
501.22	95
501.437	88
501.654	89
501.871	101
502.088	86
502.305	93
502.522	74
502.739	85
502.956	98
503.172	91
503.389	98
503.606	91
503.823	87
504.04	91
504.256	102
504.473	95
504.69	88
504.907	89
505.123	95
505.34	89
505.557	90
505.773	82
505.99	94
506.207	85
506.423	91
506.64	93
506.856	81
507.073	89
507.289	94
507.506	90
507.722	102
507.939	110
508.155	79
508.372	92
508.588	84
508.805	81
509.021	103
509.238	92
509.454	90
509.67	100
509.887	90
510.103	124
510.319	208
510.536	740
510.752	2276
510.968	627
511.184	143
511.401	114
511.617	95
511.833	88
512.049	96
512.265	101
512.481	90
512.698	90
512.914	86
513.13	109
513.346	96
513.562	97
513.778	81
513.994	82
514.21	99
514.426	111
514.642	131
514.858	119
515.074	161
515.29	429
515.506	1354
515.721	499
515.937	155
516.153	107
516.369	89
516.585	95
516.801	98
517.016	103
517.232	92
517.448	82
517.664	91
517.879	98
518.095	100
518.311	79
518.527	87
518.742	93
518.958	80
519.173	99
519.389	88
519.605	85
519.82	96
520.036	107
520.251	109
520.467	107
520.682	91
520.898	106
521.113	113
521.329	148
521.544	188
521.76	523
521.975	2249
522.19	1323
522.406	278
522.621	123
522.836	89
523.052	96
523.267	97
523.482	84
523.698	92
523.913	117
524.128	110
524.343	92
524.559	98
524.774	102
524.989	107
525.204	98
525.419	103
525.634	80
525.849	87
526.064	83
526.28	93
526.495	94
526.71	90
526.925	93
527.14	95
527.355	103
527.57	91
527.785	93
527.999	93
528.214	93
528.429	87
528.644	86
528.859	85
529.074	99
529.289	117
529.503	163
529.718	100
529.933	89
530.148	84
530.363	107
530.577	81
530.792	81
531.007	82
531.221	100
531.436	91
531.651	104
531.865	95
532.08	93
532.295	92
532.509	86
532.724	85
532.938	87
533.153	86
533.367	107
533.582	96
533.796	88
534.011	104
534.225	98
534.44	104
534.654	99
534.868	71
535.083	97
535.297	93
535.511	96
535.726	104
535.94	97
536.154	100
536.369	78
536.583	75
536.797	82
537.011	86
537.225	104
537.44	83
537.654	83
537.868	88
538.082	107
538.296	83
538.51	86
538.724	91
538.938	94
539.153	115
539.367	129
539.581	107
539.795	102
540.009	81
540.222	83
540.436	97
540.65	93
540.864	85
541.078	95
541.292	88
541.506	93
541.72	82
541.934	89
542.147	86
542.361	97
542.575	92
542.789	95
543.002	84
543.216	89
543.43	83
543.644	85
543.857	89
544.071	94
544.285	86
544.498	97
544.712	91
544.925	97
545.139	99
545.352	72
545.566	79
545.779	88
545.993	83
546.206	93
546.42	77
546.633	88
546.847	83
547.06	94
547.274	91
547.487	74
547.7	79
547.914	93
548.127	81
548.34	94
548.554	91
548.767	98
548.98	89
549.193	88
549.407	84
549.62	99
549.833	94
550.046	87
550.259	87
550.473	82
550.686	98
550.899	97
551.112	93
551.325	81
551.538	97
551.751	102
551.964	94
552.177	96
552.39	93
552.603	86
552.816	81
553.029	94
553.242	95
553.455	84
553.667	88
553.88	101
554.093	83
554.306	87
554.519	103
554.732	85
554.944	104
555.157	94
555.37	83
555.583	83
555.795	99
556.008	87
556.221	92
556.433	96
556.646	99
556.859	95
557.071	86
557.284	102
557.496	98
557.709	83
557.921	73
558.134	89
558.346	79
558.559	87
558.771	95
558.984	88
559.196	77
559.409	97
559.621	94
559.833	82
560.046	88
560.258	102
560.47	91
560.683	95
560.895	81
561.107	81
561.32	100
561.532	94
561.744	96
561.956	80
562.168	87
562.381	87
562.593	79
562.805	89
563.017	92
563.229	96
563.441	95
563.653	75
563.865	86
564.077	89
564.289	81
564.501	86
564.713	95
564.925	97
565.137	113
565.349	90
565.561	88
565.773	95
565.985	86
566.197	90
566.408	100
566.62	74
566.832	77
567.044	88
567.255	89
567.467	96
567.679	83
567.891	78
568.102	87
568.314	87
568.526	75
568.737	77
568.949	81
569.161	98
569.372	99
569.584	98
569.795	88
570.007	102
570.218	256
570.43	122
570.641	83
570.853	81
571.064	77
571.276	87
571.487	78
571.698	88
571.91	86
572.121	73
572.333	89
572.544	92
572.755	99
572.966	94
573.178	84
573.389	101
573.6	81
573.811	88
574.023	70
574.234	89
574.445	77
574.656	96
574.867	99
575.078	90
575.289	91
575.501	84
575.712	80
575.923	92
576.134	94
576.345	94
576.556	77
576.767	90
576.978	87
577.188	62
577.399	87
577.61	105
577.821	101
578.032	115
578.243	257
578.454	747
578.665	229
578.875	115
579.086	94
579.297	89
579.508	86
579.718	91
579.929	85
580.14	79
580.35	77
580.561	87
580.772	93
580.982	87
581.193	92
581.403	83
581.614	85
581.825	85
582.035	90
582.246	82
582.456	95
582.667	89
582.877	93
583.087	88
583.298	93
583.508	86
583.719	86
583.929	96
584.139	78
584.35	101
584.56	89
584.77	91
