Data from Uncirc_1986_H10_HRD10591_00019.txt Node
Date: Wed Jan 03 12:14:30 EST 2024
User: Yrep
Spectrometer: HR+D1059
Trigger mode: 1
Integration Time (sec): 1.000000E-1
Scans to average: 1
Electric dark correction enabled: true
Nonlinearity correction enabled: false
Boxcar width: 0
XAxis mode: Wavelengths
Number of Pixels in Spectrum: 2048
>>>>>Begin Spectral Data<<<<<
223.165	-15.06
223.4	-15.06
223.635	-15.06
223.869	-15.06
224.104	-1.06
224.338	-20.06
224.573	-27.06
224.808	-16.06
225.042	-5.06
225.277	-11.06
225.511	-0.06
225.746	-7.06
225.98	22.94
226.215	7.94
226.449	1.94
226.683	20.94
226.918	20.94
227.152	42.94
227.387	34.94
227.621	51.94
227.856	55.94
228.09	45.94
228.324	37.94
228.559	46.94
228.793	64.94
229.027	57.94
229.262	81.94
229.496	72.94
229.73	73.94
229.964	70.94
230.199	65.94
230.433	75.94
230.667	68.94
230.901	83.94
231.136	90.94
231.37	65.94
231.604	91.94
231.838	76.94
232.072	80.94
232.306	83.94
232.541	83.94
232.775	81.94
233.009	79.94
233.243	87.94
233.477	89.94
233.711	89.94
233.945	83.94
234.179	73.94
234.413	74.94
234.647	81.94
234.881	80.94
235.115	90.94
235.349	98.94
235.583	82.94
235.817	82.94
236.051	81.94
236.285	85.94
236.519	82.94
236.753	81.94
236.987	71.94
237.221	80.94
237.455	89.94
237.689	60.94
237.922	75.94
238.156	71.94
238.39	84.94
238.624	81.94
238.858	82.94
239.091	80.94
239.325	71.94
239.559	74.94
239.793	83.94
240.027	93.94
240.26	84.94
240.494	78.94
240.728	72.94
240.961	65.94
241.195	75.94
241.429	80.94
241.662	82.94
241.896	72.94
242.13	73.94
242.363	72.94
242.597	83.94
242.83	80.94
243.064	71.94
243.298	78.94
243.531	78.94
243.765	74.94
243.998	66.94
244.232	68.94
244.465	87.94
244.699	89.94
244.932	93.94
245.166	78.94
245.399	72.94
245.633	67.94
245.866	70.94
246.099	81.94
246.333	80.94
246.566	82.94
246.8	59.94
247.033	84.94
247.266	87.94
247.5	82.94
247.733	71.94
247.966	78.94
248.2	87.94
248.433	63.94
248.666	81.94
248.899	72.94
249.133	81.94
249.366	85.94
249.599	92.94
249.832	74.94
250.066	84.94
250.299	74.94
250.532	81.94
250.765	64.94
250.998	90.94
251.231	85.94
251.465	70.94
251.698	84.94
251.931	67.94
252.164	99.94
252.397	98.94
252.63	87.94
252.863	84.94
253.096	74.94
253.329	86.94
253.562	70.94
253.795	84.94
254.028	80.94
254.261	81.94
254.494	75.94
254.727	82.94
254.96	101.94
255.193	80.94
255.426	82.94
255.659	74.94
255.892	86.94
256.124	72.94
256.357	70.94
256.59	71.94
256.823	82.94
257.056	78.94
257.289	68.94
257.521	82.94
257.754	90.94
257.987	74.94
258.22	86.94
258.452	84.94
258.685	79.94
258.918	85.94
259.151	75.94
259.383	75.94
259.616	94.94
259.849	87.94
260.081	86.94
260.314	95.94
260.547	82.94
260.779	67.94
261.012	82.94
261.244	86.94
261.477	82.94
261.71	87.94
261.942	106.94
262.175	112.94
262.407	94.94
262.64	90.94
262.872	83.94
263.105	90.94
263.337	96.94
263.57	92.94
263.802	95.94
264.035	82.94
264.267	78.94
264.499	72.94
264.732	98.94
264.964	82.94
265.197	80.94
265.429	82.94
265.661	92.94
265.894	74.94
266.126	96.94
266.358	91.94
266.591	91.94
266.823	74.94
267.055	64.94
267.287	83.94
267.52	84.94
267.752	83.94
267.984	76.94
268.216	78.94
268.448	80.94
268.681	87.94
268.913	91.94
269.145	85.94
269.377	81.94
269.609	89.94
269.841	80.94
270.073	82.94
270.306	92.94
270.538	92.94
270.77	91.94
271.002	82.94
271.234	95.94
271.466	76.94
271.698	92.94
271.93	89.94
272.162	87.94
272.394	67.94
272.626	73.94
272.858	83.94
273.09	98.94
273.322	88.94
273.553	85.94
273.785	90.94
274.017	84.94
274.249	89.94
274.481	88.94
274.713	79.94
274.945	89.94
275.176	73.94
275.408	85.94
275.64	81.94
275.872	96.94
276.104	95.94
276.335	92.94
276.567	84.94
276.799	111.94
277.031	86.94
277.262	93.94
277.494	93.94
277.726	76.94
277.957	88.94
278.189	91.94
278.421	83.94
278.652	85.94
278.884	88.94
279.115	96.94
279.347	95.94
279.579	86.94
279.81	85.94
280.042	79.94
280.273	87.94
280.505	86.94
280.736	89.94
280.968	106.94
281.199	86.94
281.431	82.94
281.662	109.94
281.894	87.94
282.125	85.94
282.356	116.94
282.588	121.94
282.819	99.94
283.051	89.94
283.282	73.94
283.513	63.94
283.745	75.94
283.976	96.94
284.207	94.94
284.439	90.94
284.67	72.94
284.901	78.94
285.132	86.94
285.364	67.94
285.595	82.94
285.826	82.94
286.057	89.94
286.288	68.94
286.52	70.94
286.751	78.94
286.982	85.94
287.213	76.94
287.444	86.94
287.675	86.94
287.906	86.94
288.138	87.94
288.369	74.94
288.6	79.94
288.831	83.94
289.062	71.94
289.293	85.94
289.524	76.94
289.755	94.94
289.986	86.94
290.217	94.94
290.448	90.94
290.679	91.94
290.91	83.94
291.141	81.94
291.371	87.94
291.602	92.94
291.833	73.94
292.064	77.94
292.295	85.94
292.526	86.94
292.757	75.94
292.987	86.94
293.218	71.94
293.449	82.94
293.68	86.94
293.91	87.94
294.141	94.94
294.372	86.94
294.603	90.94
294.833	98.94
295.064	82.94
295.295	82.94
295.525	97.94
295.756	101.94
295.987	106.94
296.217	124.94
296.448	110.94
296.679	89.94
296.909	84.94
297.14	99.94
297.37	93.94
297.601	91.94
297.831	86.94
298.062	81.94
298.292	92.94
298.523	91.94
298.753	90.94
298.984	104.94
299.214	90.94
299.445	86.94
299.675	90.94
299.905	99.94
300.136	98.94
300.366	90.94
300.597	88.94
300.827	90.94
301.057	85.94
301.288	110.94
301.518	92.94
301.748	88.94
301.979	86.94
302.209	87.94
302.439	90.94
302.669	89.94
302.9	91.94
303.13	97.94
303.36	104.94
303.59	89.94
303.82	98.94
304.051	88.94
304.281	100.94
304.511	96.94
304.741	82.94
304.971	90.94
305.201	96.94
305.431	85.94
305.661	85.94
305.891	87.94
306.121	86.94
306.352	100.94
306.582	99.94
306.812	94.94
307.042	87.94
307.272	105.94
307.502	103.94
307.731	98.94
307.961	100.94
308.191	87.94
308.421	104.94
308.651	86.94
308.881	97.94
309.111	87.94
309.341	102.94
309.571	100.94
309.8	82.94
310.03	89.94
310.26	103.94
310.49	73.94
310.72	104.94
310.949	98.94
311.179	102.94
311.409	84.94
311.639	100.94
311.868	95.94
312.098	99.94
312.328	99.94
312.557	100.94
312.787	101.94
313.017	97.94
313.246	91.94
313.476	87.94
313.706	96.94
313.935	96.94
314.165	91.94
314.394	90.94
314.624	94.94
314.853	99.94
315.083	97.94
315.312	92.94
315.542	81.94
315.771	89.94
316.001	100.94
316.23	87.94
316.46	90.94
316.689	94.94
316.919	95.94
317.148	88.94
317.377	89.94
317.607	107.94
317.836	95.94
318.065	93.94
318.295	79.94
318.524	83.94
318.753	81.94
318.983	95.94
319.212	91.94
319.441	84.94
319.67	96.94
319.9	110.94
320.129	103.94
320.358	86.94
320.587	92.94
320.816	100.94
321.046	101.94
321.275	97.94
321.504	97.94
321.733	117.94
321.962	101.94
322.191	83.94
322.42	95.94
322.649	108.94
322.878	99.94
323.108	112.94
323.337	120.94
323.566	126.94
323.795	139.94
324.024	177.94
324.253	349.94
324.482	696.94
324.71	1406.94
324.939	1851.94
325.168	702.94
325.397	210.94
325.626	158.94
325.855	128.94
326.084	107.94
326.313	118.94
326.542	149.94
326.77	202.94
326.999	387.94
327.228	784.94
327.457	1412.94
327.686	1151.94
327.914	319.94
328.143	179.94
328.372	142.94
328.6	126.94
328.829	109.94
329.058	118.94
329.287	139.94
329.515	110.94
329.744	95.94
329.972	115.94
330.201	99.94
330.43	108.94
330.658	113.94
330.887	129.94
331.115	116.94
331.344	99.94
331.572	114.94
331.801	107.94
332.03	105.94
332.258	87.94
332.486	86.94
332.715	104.94
332.943	92.94
333.172	94.94
333.4	96.94
333.629	101.94
333.857	112.94
334.085	99.94
334.314	93.94
334.542	92.94
334.771	112.94
334.999	96.94
335.227	98.94
335.455	92.94
335.684	89.94
335.912	112.94
336.14	102.94
336.369	103.94
336.597	108.94
336.825	102.94
337.053	98.94
337.281	90.94
337.51	88.94
337.738	95.94
337.966	88.94
338.194	96.94
338.422	96.94
338.65	101.94
338.878	98.94
339.106	93.94
339.334	82.94
339.562	91.94
339.79	92.94
340.018	89.94
340.246	96.94
340.474	96.94
340.702	71.94
340.93	102.94
341.158	81.94
341.386	102.94
341.614	101.94
341.842	115.94
342.07	102.94
342.298	100.94
342.526	82.94
342.754	89.94
342.981	100.94
343.209	93.94
343.437	96.94
343.665	100.94
343.893	91.94
344.12	88.94
344.348	103.94
344.576	96.94
344.804	87.94
345.031	91.94
345.259	95.94
345.487	95.94
345.714	104.94
345.942	84.94
346.17	92.94
346.397	104.94
346.625	97.94
346.853	94.94
347.08	74.94
347.308	108.94
347.535	99.94
347.763	94.94
347.99	106.94
348.218	124.94
348.445	106.94
348.673	98.94
348.9	90.94
349.128	105.94
349.355	86.94
349.583	96.94
349.81	83.94
350.037	90.94
350.265	113.94
350.492	98.94
350.72	100.94
350.947	104.94
351.174	98.94
351.402	125.94
351.629	120.94
351.856	98.94
352.083	92.94
352.311	118.94
352.538	105.94
352.765	100.94
352.992	96.94
353.22	105.94
353.447	107.94
353.674	111.94
353.901	115.94
354.128	96.94
354.355	102.94
354.583	109.94
354.81	104.94
355.037	99.94
355.264	86.94
355.491	84.94
355.718	82.94
355.945	83.94
356.172	98.94
356.399	101.94
356.626	80.94
356.853	81.94
357.08	89.94
357.307	99.94
357.534	103.94
357.761	98.94
357.988	88.94
358.215	103.94
358.441	81.94
358.668	88.94
358.895	88.94
359.122	89.94
359.349	79.94
359.576	89.94
359.802	96.94
360.029	104.94
360.256	96.94
360.483	93.94
360.709	78.94
360.936	94.94
361.163	87.94
361.39	77.94
361.616	103.94
361.843	103.94
362.07	104.94
362.296	103.94
362.523	93.94
362.749	101.94
362.976	82.94
363.203	90.94
363.429	82.94
363.656	90.94
363.882	84.94
364.109	101.94
364.335	106.94
364.562	84.94
364.788	91.94
365.015	82.94
365.241	99.94
365.468	99.94
365.694	100.94
365.92	103.94
366.147	86.94
366.373	88.94
366.599	82.94
366.826	76.94
367.052	106.94
367.278	96.94
367.505	87.94
367.731	73.94
367.957	94.94
368.184	83.94
368.41	92.94
368.636	81.94
368.862	107.94
369.089	119.94
369.315	99.94
369.541	88.94
369.767	97.94
369.993	90.94
370.219	83.94
370.445	87.94
370.672	88.94
370.898	70.94
371.124	76.94
371.35	75.94
371.576	98.94
371.802	98.94
372.028	83.94
372.254	83.94
372.48	89.94
372.706	91.94
372.932	86.94
373.158	94.94
373.384	85.94
373.61	97.94
373.835	95.94
374.061	103.94
374.287	98.94
374.513	84.94
374.739	92.94
374.965	89.94
375.191	88.94
375.416	87.94
375.642	82.94
375.868	89.94
376.094	74.94
376.319	97.94
376.545	90.94
376.771	89.94
376.997	82.94
377.222	84.94
377.448	82.94
377.674	102.94
377.899	91.94
378.125	84.94
378.35	95.94
378.576	91.94
378.802	105.94
379.027	82.94
379.253	93.94
379.478	82.94
379.704	94.94
379.929	103.94
380.155	96.94
380.38	100.94
380.606	72.94
380.831	91.94
381.057	87.94
381.282	89.94
381.507	96.94
381.733	90.94
381.958	96.94
382.184	92.94
382.409	112.94
382.634	97.94
382.86	96.94
383.085	122.94
383.31	105.94
383.535	96.94
383.761	105.94
383.986	113.94
384.211	99.94
384.436	109.94
384.662	100.94
384.887	105.94
385.112	92.94
385.337	98.94
385.562	102.94
385.787	115.94
386.013	104.94
386.238	102.94
386.463	103.94
386.688	117.94
386.913	111.94
387.138	106.94
387.363	100.94
387.588	103.94
387.813	111.94
388.038	101.94
388.263	104.94
388.488	90.94
388.713	111.94
388.938	102.94
389.163	92.94
389.387	97.94
389.612	95.94
389.837	93.94
390.062	84.94
390.287	91.94
390.512	95.94
390.736	95.94
390.961	86.94
391.186	97.94
391.411	91.94
391.636	98.94
391.86	93.94
392.085	92.94
392.31	99.94
392.534	80.94
392.759	78.94
392.984	88.94
393.208	99.94
393.433	91.94
393.658	91.94
393.882	94.94
394.107	73.94
394.331	76.94
394.556	92.94
394.78	85.94
395.005	86.94
395.229	94.94
395.454	107.94
395.678	82.94
395.903	88.94
396.127	99.94
396.352	81.94
396.576	84.94
396.801	100.94
397.025	103.94
397.249	81.94
397.474	99.94
397.698	96.94
397.922	90.94
398.147	85.94
398.371	83.94
398.595	84.94
398.82	78.94
399.044	73.94
399.268	86.94
399.492	100.94
399.717	84.94
399.941	98.94
400.165	100.94
400.389	92.94
400.613	88.94
400.837	95.94
401.062	92.94
401.286	75.94
401.51	81.94
401.734	97.94
401.958	102.94
402.182	114.94
402.406	141.94
402.63	120.94
402.854	98.94
403.078	87.94
403.302	90.94
403.526	96.94
403.75	75.94
403.974	86.94
404.198	82.94
404.422	90.94
404.645	94.94
404.869	101.94
405.093	97.94
405.317	103.94
405.541	100.94
405.765	83.94
405.988	103.94
406.212	166.94
406.436	210.94
406.66	135.94
406.883	103.94
407.107	90.94
407.331	100.94
407.555	98.94
407.778	109.94
408.002	96.94
408.226	86.94
408.449	80.94
408.673	102.94
408.896	92.94
409.12	99.94
409.344	93.94
409.567	88.94
409.791	94.94
410.014	99.94
410.238	79.94
410.461	79.94
410.685	102.94
410.908	101.94
411.132	112.94
411.355	101.94
411.578	95.94
411.802	82.94
412.025	78.94
412.249	84.94
412.472	97.94
412.695	104.94
412.919	87.94
413.142	87.94
413.365	87.94
413.589	98.94
413.812	85.94
414.035	98.94
414.258	88.94
414.482	101.94
414.705	91.94
414.928	103.94
415.151	86.94
415.374	96.94
415.597	95.94
415.821	80.94
416.044	88.94
416.267	71.94
416.49	80.94
416.713	79.94
416.936	102.94
417.159	97.94
417.382	71.94
417.605	90.94
417.828	94.94
418.051	78.94
418.274	89.94
418.497	101.94
418.72	83.94
418.943	94.94
419.166	82.94
419.389	102.94
419.611	98.94
419.834	89.94
420.057	68.94
420.28	82.94
420.503	86.94
420.726	88.94
420.948	93.94
421.171	98.94
421.394	89.94
421.617	75.94
421.839	86.94
422.062	96.94
422.285	88.94
422.507	103.94
422.73	103.94
422.953	81.94
423.175	89.94
423.398	97.94
423.621	100.94
423.843	100.94
424.066	90.94
424.288	75.94
424.511	83.94
424.733	104.94
424.956	90.94
425.178	92.94
425.401	105.94
425.623	100.94
425.846	100.94
426.068	93.94
426.291	102.94
426.513	94.94
426.735	111.94
426.958	111.94
427.18	104.94
427.402	136.94
427.625	152.94
427.847	113.94
428.069	88.94
428.292	76.94
428.514	78.94
428.736	93.94
428.958	91.94
429.181	90.94
429.403	74.94
429.625	94.94
429.847	97.94
430.069	94.94
430.292	94.94
430.514	70.94
430.736	84.94
430.958	88.94
431.18	102.94
431.402	85.94
431.624	89.94
431.846	88.94
432.068	88.94
432.29	82.94
432.512	91.94
432.734	87.94
432.956	100.94
433.178	94.94
433.4	100.94
433.622	82.94
433.844	87.94
434.066	87.94
434.287	82.94
434.509	83.94
434.731	95.94
434.953	91.94
435.175	90.94
435.397	86.94
435.618	90.94
435.84	91.94
436.062	114.94
436.284	121.94
436.505	98.94
436.727	108.94
436.949	96.94
437.17	88.94
437.392	90.94
437.614	79.94
437.835	120.94
438.057	115.94
438.278	100.94
438.5	101.94
438.721	115.94
438.943	90.94
439.165	89.94
439.386	96.94
439.608	98.94
439.829	100.94
440.05	112.94
440.272	121.94
440.493	87.94
440.715	78.94
440.936	103.94
441.158	88.94
441.379	97.94
441.6	86.94
441.822	90.94
442.043	98.94
442.264	95.94
442.486	95.94
442.707	103.94
442.928	91.94
443.149	128.94
443.371	121.94
443.592	89.94
443.813	97.94
444.034	100.94
444.255	83.94
444.476	88.94
444.698	99.94
444.919	91.94
445.14	130.94
445.361	111.94
445.582	82.94
445.803	122.94
446.024	118.94
446.245	122.94
446.466	105.94
446.687	92.94
446.908	98.94
447.129	92.94
447.35	78.94
447.571	87.94
447.792	86.94
448.013	101.94
448.234	97.94
448.455	104.94
448.675	117.94
448.896	107.94
449.117	105.94
449.338	95.94
449.559	103.94
449.779	119.94
450	99.94
450.221	90.94
450.442	91.94
450.662	95.94
450.883	95.94
451.104	94.94
451.324	91.94
451.545	93.94
451.766	86.94
451.986	87.94
452.207	88.94
452.428	101.94
452.648	95.94
452.869	119.94
453.089	95.94
453.31	104.94
453.53	100.94
453.751	73.94
453.971	108.94
454.192	114.94
454.412	94.94
454.633	82.94
454.853	91.94
455.073	74.94
455.294	73.94
455.514	106.94
455.734	100.94
455.955	85.94
456.175	82.94
456.395	87.94
456.616	100.94
456.836	90.94
457.056	87.94
457.276	79.94
457.497	80.94
457.717	91.94
457.937	87.94
458.157	90.94
458.377	90.94
458.598	107.94
458.818	145.94
459.038	147.94
459.258	98.94
459.478	91.94
459.698	80.94
459.918	70.94
460.138	75.94
460.358	88.94
460.578	86.94
460.798	74.94
461.018	85.94
461.238	86.94
461.458	98.94
461.678	88.94
461.898	73.94
462.118	106.94
462.338	84.94
462.558	95.94
462.777	85.94
462.997	82.94
463.217	75.94
463.437	74.94
463.657	82.94
463.876	90.94
464.096	100.94
464.316	98.94
464.536	97.94
464.755	95.94
464.975	107.94
465.195	145.94
465.414	158.94
465.634	100.94
465.854	92.94
466.073	91.94
466.293	90.94
466.512	81.94
466.732	91.94
466.951	74.94
467.171	88.94
467.391	101.94
467.61	94.94
467.829	102.94
468.049	91.94
468.268	94.94
468.488	82.94
468.707	74.94
468.927	88.94
469.146	89.94
469.365	79.94
469.585	80.94
469.804	86.94
470.023	95.94
470.243	83.94
470.462	99.94
470.681	102.94
470.901	74.94
471.12	88.94
471.339	91.94
471.558	83.94
471.777	82.94
471.997	94.94
472.216	85.94
472.435	92.94
472.654	91.94
472.873	76.94
473.092	90.94
473.311	92.94
473.53	97.94
473.749	82.94
473.968	100.94
474.187	99.94
474.406	104.94
474.625	90.94
474.844	80.94
475.063	76.94
475.282	84.94
475.501	88.94
475.72	98.94
475.939	100.94
476.158	94.94
476.377	100.94
476.596	98.94
476.814	87.94
477.033	88.94
477.252	76.94
477.471	94.94
477.69	98.94
477.908	87.94
478.127	88.94
478.346	97.94
478.564	94.94
478.783	94.94
479.002	95.94
479.22	86.94
479.439	89.94
479.658	99.94
479.876	98.94
480.095	86.94
480.313	88.94
480.532	87.94
480.751	85.94
480.969	97.94
481.188	97.94
481.406	92.94
481.624	85.94
481.843	92.94
482.061	90.94
482.28	98.94
482.498	97.94
482.717	109.94
482.935	82.94
483.153	91.94
483.372	94.94
483.59	99.94
483.808	96.94
484.027	94.94
484.245	75.94
484.463	108.94
484.681	97.94
484.9	100.94
485.118	99.94
485.336	82.94
485.554	100.94
485.772	96.94
485.99	103.94
486.209	112.94
486.427	106.94
486.645	103.94
486.863	107.94
487.081	97.94
487.299	98.94
487.517	102.94
487.735	102.94
487.953	89.94
488.171	86.94
488.389	92.94
488.607	101.94
488.825	90.94
489.043	81.94
489.261	90.94
489.479	86.94
489.696	83.94
489.914	102.94
490.132	98.94
490.35	85.94
490.568	83.94
490.786	76.94
491.003	98.94
491.221	83.94
491.439	102.94
491.657	80.94
491.874	84.94
492.092	73.94
492.31	94.94
492.527	88.94
492.745	86.94
492.963	84.94
493.18	100.94
493.398	104.94
493.615	111.94
493.833	94.94
494.05	79.94
494.268	96.94
494.485	96.94
494.703	82.94
494.92	96.94
495.138	96.94
495.355	95.94
495.573	104.94
495.79	95.94
496.008	94.94
496.225	85.94
496.442	82.94
496.66	99.94
496.877	97.94
497.094	89.94
497.312	90.94
497.529	69.94
497.746	87.94
497.963	90.94
498.181	86.94
498.398	94.94
498.615	103.94
498.832	96.94
499.049	95.94
499.267	92.94
499.484	89.94
499.701	96.94
499.918	98.94
500.135	82.94
500.352	80.94
500.569	90.94
500.786	101.94
501.003	92.94
501.22	85.94
501.437	80.94
501.654	97.94
501.871	101.94
502.088	79.94
502.305	99.94
502.522	97.94
502.739	86.94
502.956	96.94
503.172	93.94
503.389	101.94
503.606	116.94
503.823	100.94
504.04	84.94
504.256	99.94
504.473	84.94
504.69	89.94
504.907	83.94
505.123	90.94
505.34	84.94
505.557	81.94
505.773	90.94
505.99	88.94
506.207	76.94
506.423	91.94
506.64	85.94
506.856	98.94
507.073	86.94
507.289	96.94
507.506	85.94
507.722	97.94
507.939	104.94
508.155	108.94
508.372	103.94
508.588	107.94
508.805	100.94
509.021	85.94
509.238	82.94
509.454	99.94
509.67	91.94
509.887	104.94
510.103	122.94
510.319	196.94
510.536	673.94
510.752	2066.94
510.968	566.94
511.184	143.94
511.401	110.94
511.617	98.94
511.833	75.94
512.049	84.94
512.265	88.94
512.481	94.94
512.698	80.94
512.914	82.94
513.13	98.94
513.346	102.94
513.562	90.94
513.778	99.94
513.994	106.94
514.21	99.94
514.426	114.94
514.642	106.94
514.858	116.94
515.074	149.94
515.29	392.94
515.506	1234.94
515.721	471.94
