Data from Uncirc_1986_H10_HRD10591_00052.txt Node
Date: Wed Jan 03 12:14:36 EST 2024
User: Yrep
Spectrometer: HR+D1059
Trigger mode: 1
Integration Time (sec): 1.000000E-1
Scans to average: 1
Electric dark correction enabled: true
Nonlinearity correction enabled: false
Boxcar width: 0
XAxis mode: Wavelengths
Number of Pixels in Spectrum: 2048
>>>>>Begin Spectral Data<<<<<
223.165	-17.88
223.4	-17.88
223.635	-17.88
223.869	-19.88
224.104	-21.88
224.338	-16.88
224.573	-22.88
224.808	-15.88
225.042	-5.88
225.277	-0.88
225.511	-4.88
225.746	5.12
225.98	11.12
226.215	25.12
226.449	19.12
226.683	18.12
226.918	24.12
227.152	24.12
227.387	32.12
227.621	42.12
227.856	50.12
228.09	37.12
228.324	33.12
228.559	43.12
228.793	48.12
229.027	71.12
229.262	66.12
229.496	80.12
229.73	88.12
229.964	74.12
230.199	60.12
230.433	57.12
230.667	84.12
230.901	81.12
231.136	62.12
231.37	65.12
231.604	80.12
231.838	81.12
232.072	74.12
232.306	80.12
232.541	95.12
232.775	83.12
233.009	88.12
233.243	73.12
233.477	85.12
233.711	79.12
233.945	90.12
234.179	79.12
234.413	87.12
234.647	83.12
234.881	72.12
235.115	87.12
235.349	82.12
235.583	95.12
235.817	85.12
236.051	83.12
236.285	62.12
236.519	87.12
236.753	80.12
236.987	95.12
237.221	81.12
237.455	92.12
237.689	99.12
237.922	77.12
238.156	68.12
238.39	88.12
238.624	84.12
238.858	70.12
239.091	72.12
239.325	70.12
239.559	73.12
239.793	87.12
240.027	80.12
240.26	76.12
240.494	77.12
240.728	81.12
240.961	83.12
241.195	82.12
241.429	78.12
241.662	76.12
241.896	89.12
242.13	92.12
242.363	76.12
242.597	57.12
242.83	70.12
243.064	76.12
243.298	68.12
243.531	73.12
243.765	79.12
243.998	55.12
244.232	69.12
244.465	77.12
244.699	98.12
244.932	85.12
245.166	80.12
245.399	79.12
245.633	82.12
245.866	61.12
246.099	76.12
246.333	82.12
246.566	79.12
246.8	71.12
247.033	74.12
247.266	86.12
247.5	78.12
247.733	91.12
247.966	87.12
248.2	79.12
248.433	86.12
248.666	97.12
248.899	85.12
249.133	89.12
249.366	95.12
249.599	112.12
249.832	75.12
250.066	92.12
250.299	85.12
250.532	92.12
250.765	84.12
250.998	64.12
251.231	75.12
251.465	74.12
251.698	75.12
251.931	87.12
252.164	88.12
252.397	84.12
252.63	76.12
252.863	91.12
253.096	88.12
253.329	77.12
253.562	77.12
253.795	92.12
254.028	77.12
254.261	80.12
254.494	90.12
254.727	84.12
254.96	72.12
255.193	77.12
255.426	71.12
255.659	87.12
255.892	83.12
256.124	87.12
256.357	85.12
256.59	71.12
256.823	85.12
257.056	85.12
257.289	88.12
257.521	86.12
257.754	98.12
257.987	80.12
258.22	81.12
258.452	74.12
258.685	87.12
258.918	79.12
259.151	79.12
259.383	80.12
259.616	80.12
259.849	89.12
260.081	86.12
260.314	82.12
260.547	83.12
260.779	80.12
261.012	85.12
261.244	88.12
261.477	93.12
261.71	91.12
261.942	108.12
262.175	119.12
262.407	99.12
262.64	73.12
262.872	80.12
263.105	83.12
263.337	91.12
263.57	79.12
263.802	73.12
264.035	94.12
264.267	108.12
264.499	76.12
264.732	91.12
264.964	88.12
265.197	90.12
265.429	88.12
265.661	70.12
265.894	87.12
266.126	97.12
266.358	84.12
266.591	84.12
266.823	71.12
267.055	83.12
267.287	87.12
267.52	71.12
267.752	81.12
267.984	87.12
268.216	87.12
268.448	89.12
268.681	80.12
268.913	91.12
269.145	82.12
269.377	79.12
269.609	90.12
269.841	75.12
270.073	89.12
270.306	87.12
270.538	92.12
270.77	91.12
271.002	89.12
271.234	87.12
271.466	76.12
271.698	83.12
271.93	87.12
272.162	74.12
272.394	86.12
272.626	78.12
272.858	75.12
273.09	88.12
273.322	103.12
273.553	83.12
273.785	105.12
274.017	81.12
274.249	87.12
274.481	87.12
274.713	103.12
274.945	98.12
275.176	78.12
275.408	89.12
275.64	97.12
275.872	89.12
276.104	91.12
276.335	89.12
276.567	103.12
276.799	107.12
277.031	104.12
277.262	78.12
277.494	87.12
277.726	84.12
277.957	79.12
278.189	108.12
278.421	85.12
278.652	88.12
278.884	77.12
279.115	92.12
279.347	74.12
279.579	87.12
279.81	91.12
280.042	84.12
280.273	81.12
280.505	82.12
280.736	65.12
280.968	87.12
281.199	90.12
281.431	96.12
281.662	80.12
281.894	85.12
282.125	91.12
282.356	130.12
282.588	136.12
282.819	124.12
283.051	88.12
283.282	90.12
283.513	88.12
283.745	81.12
283.976	76.12
284.207	81.12
284.439	97.12
284.67	92.12
284.901	98.12
285.132	90.12
285.364	98.12
285.595	84.12
285.826	84.12
286.057	95.12
286.288	90.12
286.52	95.12
286.751	90.12
286.982	84.12
287.213	87.12
287.444	83.12
287.675	92.12
287.906	104.12
288.138	89.12
288.369	108.12
288.6	90.12
288.831	80.12
289.062	94.12
289.293	95.12
289.524	82.12
289.755	82.12
289.986	82.12
290.217	90.12
290.448	94.12
290.679	82.12
290.91	97.12
291.141	96.12
291.371	88.12
291.602	90.12
291.833	85.12
292.064	83.12
292.295	104.12
292.526	77.12
292.757	92.12
292.987	83.12
293.218	79.12
293.449	93.12
293.68	84.12
293.91	94.12
294.141	90.12
294.372	97.12
294.603	85.12
294.833	88.12
295.064	85.12
295.295	87.12
295.525	97.12
295.756	106.12
295.987	107.12
296.217	146.12
296.448	119.12
296.679	105.12
296.909	96.12
297.14	96.12
297.37	97.12
297.601	84.12
297.831	100.12
298.062	90.12
298.292	95.12
298.523	97.12
298.753	88.12
298.984	91.12
299.214	87.12
299.445	87.12
299.675	100.12
299.905	91.12
300.136	87.12
300.366	88.12
300.597	88.12
300.827	86.12
301.057	95.12
301.288	104.12
301.518	96.12
301.748	84.12
301.979	108.12
302.209	93.12
302.439	83.12
302.669	82.12
302.9	87.12
303.13	93.12
303.36	87.12
303.59	101.12
303.82	91.12
304.051	94.12
304.281	91.12
304.511	102.12
304.741	92.12
304.971	82.12
305.201	95.12
305.431	87.12
305.661	103.12
305.891	87.12
306.121	116.12
306.352	95.12
306.582	108.12
306.812	100.12
307.042	72.12
307.272	85.12
307.502	95.12
307.731	91.12
307.961	95.12
308.191	75.12
308.421	87.12
308.651	99.12
308.881	91.12
309.111	95.12
309.341	86.12
309.571	91.12
309.8	92.12
310.03	75.12
310.26	96.12
310.49	101.12
310.72	87.12
310.949	121.12
311.179	106.12
311.409	84.12
311.639	112.12
311.868	107.12
312.098	99.12
312.328	89.12
312.557	101.12
312.787	89.12
313.017	84.12
313.246	98.12
313.476	84.12
313.706	95.12
313.935	75.12
314.165	84.12
314.394	100.12
314.624	114.12
314.853	96.12
315.083	98.12
315.312	99.12
315.542	97.12
315.771	81.12
316.001	93.12
316.23	78.12
316.46	92.12
316.689	88.12
316.919	92.12
317.148	85.12
317.377	99.12
317.607	93.12
317.836	90.12
318.065	97.12
318.295	88.12
318.524	104.12
318.753	97.12
318.983	103.12
319.212	119.12
319.441	120.12
319.67	103.12
319.9	87.12
320.129	112.12
320.358	90.12
320.587	91.12
320.816	104.12
321.046	104.12
321.275	83.12
321.504	97.12
321.733	102.12
321.962	107.12
322.191	102.12
322.42	105.12
322.649	110.12
322.878	108.12
323.108	109.12
323.337	121.12
323.566	121.12
323.795	149.12
324.024	193.12
324.253	337.12
324.482	735.12
324.71	1530.12
324.939	2028.12
325.168	747.12
325.397	221.12
325.626	168.12
325.855	136.12
326.084	128.12
326.313	138.12
326.542	128.12
326.77	213.12
326.999	415.12
327.228	867.12
327.457	1548.12
327.686	1233.12
327.914	332.12
328.143	183.12
328.372	146.12
328.6	129.12
328.829	113.12
329.058	118.12
329.287	132.12
329.515	107.12
329.744	118.12
329.972	100.12
330.201	95.12
330.43	111.12
330.658	127.12
330.887	131.12
331.115	124.12
331.344	96.12
331.572	108.12
331.801	111.12
332.03	105.12
332.258	82.12
332.486	93.12
332.715	105.12
332.943	90.12
333.172	83.12
333.4	109.12
333.629	116.12
333.857	106.12
334.085	119.12
334.314	97.12
334.542	104.12
334.771	107.12
334.999	99.12
335.227	94.12
335.455	97.12
335.684	106.12
335.912	99.12
336.14	88.12
336.369	99.12
336.597	90.12
336.825	80.12
337.053	93.12
337.281	97.12
337.51	95.12
337.738	93.12
337.966	112.12
338.194	88.12
338.422	96.12
338.65	100.12
338.878	82.12
339.106	84.12
339.334	95.12
339.562	97.12
339.79	98.12
340.018	85.12
340.246	102.12
340.474	83.12
340.702	92.12
340.93	90.12
341.158	89.12
341.386	87.12
341.614	97.12
341.842	101.12
342.07	88.12
342.298	92.12
342.526	95.12
342.754	93.12
342.981	89.12
343.209	89.12
343.437	88.12
343.665	97.12
343.893	97.12
344.12	109.12
344.348	88.12
344.576	86.12
344.804	83.12
345.031	100.12
345.259	103.12
345.487	107.12
345.714	104.12
345.942	86.12
346.17	89.12
346.397	84.12
346.625	99.12
346.853	97.12
347.08	99.12
347.308	103.12
347.535	93.12
347.763	104.12
347.99	102.12
348.218	98.12
348.445	97.12
348.673	100.12
348.9	79.12
349.128	86.12
349.355	91.12
349.583	99.12
349.81	98.12
350.037	103.12
350.265	98.12
350.492	102.12
350.72	85.12
350.947	103.12
351.174	97.12
351.402	109.12
351.629	91.12
351.856	109.12
352.083	109.12
352.311	112.12
352.538	111.12
352.765	111.12
352.992	104.12
353.22	95.12
353.447	92.12
353.674	101.12
353.901	95.12
354.128	96.12
354.355	102.12
354.583	103.12
354.81	84.12
355.037	92.12
355.264	119.12
355.491	96.12
355.718	94.12
355.945	100.12
356.172	90.12
356.399	99.12
356.626	92.12
356.853	92.12
357.08	89.12
357.307	92.12
357.534	100.12
357.761	113.12
357.988	91.12
358.215	96.12
358.441	85.12
358.668	80.12
358.895	88.12
359.122	90.12
359.349	95.12
359.576	100.12
359.802	99.12
360.029	114.12
360.256	96.12
360.483	87.12
360.709	87.12
360.936	106.12
361.163	96.12
361.39	90.12
361.616	82.12
361.843	83.12
362.07	101.12
362.296	104.12
362.523	83.12
362.749	87.12
362.976	101.12
363.203	83.12
363.429	106.12
363.656	89.12
363.882	98.12
364.109	101.12
364.335	118.12
364.562	83.12
364.788	80.12
365.015	99.12
365.241	99.12
365.468	103.12
365.694	98.12
365.92	98.12
366.147	91.12
366.373	91.12
366.599	80.12
366.826	100.12
367.052	113.12
367.278	95.12
367.505	93.12
367.731	101.12
367.957	95.12
368.184	99.12
368.41	100.12
368.636	104.12
368.862	101.12
369.089	125.12
369.315	93.12
369.541	95.12
369.767	96.12
369.993	70.12
370.219	89.12
370.445	105.12
370.672	82.12
370.898	98.12
371.124	96.12
371.35	89.12
371.576	90.12
371.802	106.12
372.028	85.12
372.254	92.12
372.48	77.12
372.706	75.12
372.932	100.12
373.158	90.12
373.384	87.12
373.61	92.12
373.835	95.12
374.061	91.12
374.287	74.12
374.513	108.12
374.739	83.12
374.965	81.12
375.191	91.12
375.416	77.12
375.642	105.12
375.868	92.12
376.094	85.12
376.319	88.12
376.545	81.12
376.771	99.12
376.997	86.12
377.222	91.12
377.448	99.12
377.674	97.12
377.899	80.12
378.125	100.12
378.35	88.12
378.576	99.12
378.802	96.12
379.027	92.12
379.253	92.12
379.478	91.12
379.704	93.12
379.929	85.12
380.155	101.12
380.38	96.12
380.606	82.12
380.831	86.12
381.057	85.12
381.282	94.12
381.507	93.12
381.733	93.12
381.958	88.12
382.184	98.12
382.409	96.12
382.634	108.12
382.86	93.12
383.085	93.12
383.31	96.12
383.535	115.12
383.761	91.12
383.986	88.12
384.211	100.12
384.436	98.12
384.662	99.12
384.887	92.12
385.112	109.12
385.337	93.12
385.562	103.12
385.787	107.12
386.013	98.12
386.238	101.12
386.463	119.12
386.688	108.12
386.913	96.12
387.138	96.12
387.363	104.12
387.588	95.12
387.813	96.12
388.038	94.12
388.263	107.12
388.488	117.12
388.713	100.12
388.938	101.12
389.163	102.12
389.387	99.12
389.612	101.12
389.837	95.12
390.062	80.12
390.287	97.12
390.512	101.12
390.736	96.12
390.961	96.12
391.186	87.12
391.411	100.12
391.636	109.12
391.86	89.12
392.085	92.12
392.31	87.12
392.534	93.12
392.759	79.12
392.984	84.12
393.208	96.12
393.433	92.12
393.658	82.12
393.882	102.12
394.107	74.12
394.331	92.12
394.556	86.12
394.78	89.12
395.005	90.12
395.229	95.12
395.454	97.12
395.678	60.12
395.903	75.12
396.127	97.12
396.352	96.12
396.576	82.12
396.801	87.12
397.025	83.12
397.249	96.12
397.474	82.12
397.698	105.12
397.922	98.12
398.147	74.12
398.371	91.12
398.595	80.12
398.82	83.12
399.044	68.12
399.268	88.12
399.492	88.12
399.717	82.12
399.941	90.12
400.165	91.12
400.389	89.12
400.613	100.12
400.837	91.12
401.062	80.12
401.286	86.12
401.51	89.12
401.734	90.12
401.958	101.12
402.182	124.12
402.406	152.12
402.63	113.12
402.854	91.12
403.078	66.12
403.302	86.12
403.526	91.12
403.75	85.12
403.974	82.12
404.198	96.12
404.422	96.12
404.645	111.12
404.869	87.12
405.093	87.12
405.317	84.12
405.541	91.12
405.765	86.12
405.988	122.12
406.212	168.12
406.436	202.12
406.66	134.12
406.883	99.12
407.107	93.12
407.331	89.12
407.555	89.12
407.778	108.12
408.002	95.12
408.226	90.12
408.449	89.12
408.673	97.12
408.896	100.12
409.12	98.12
409.344	97.12
409.567	98.12
409.791	88.12
410.014	91.12
410.238	86.12
410.461	79.12
410.685	101.12
410.908	93.12
411.132	113.12
411.355	97.12
411.578	92.12
411.802	89.12
412.025	76.12
412.249	82.12
412.472	87.12
412.695	97.12
412.919	87.12
413.142	72.12
413.365	100.12
413.589	103.12
413.812	74.12
414.035	85.12
414.258	84.12
414.482	95.12
414.705	94.12
414.928	85.12
415.151	98.12
415.374	88.12
415.597	91.12
415.821	84.12
416.044	99.12
416.267	93.12
416.49	84.12
416.713	97.12
416.936	86.12
417.159	76.12
417.382	91.12
417.605	86.12
417.828	84.12
418.051	100.12
418.274	98.12
418.497	82.12
418.72	95.12
418.943	109.12
419.166	90.12
419.389	94.12
419.611	105.12
419.834	89.12
420.057	101.12
420.28	85.12
420.503	89.12
420.726	83.12
420.948	83.12
421.171	94.12
421.394	81.12
421.617	91.12
421.839	85.12
422.062	80.12
422.285	96.12
422.507	97.12
422.73	109.12
422.953	85.12
423.175	96.12
423.398	90.12
423.621	93.12
423.843	76.12
424.066	95.12
424.288	91.12
424.511	100.12
424.733	95.12
424.956	112.12
425.178	105.12
425.401	110.12
425.623	93.12
425.846	83.12
426.068	91.12
426.291	95.12
426.513	77.12
426.735	88.12
426.958	87.12
427.18	100.12
427.402	106.12
427.625	157.12
427.847	118.12
428.069	96.12
428.292	94.12
428.514	108.12
428.736	88.12
428.958	97.12
429.181	88.12
429.403	92.12
429.625	79.12
429.847	82.12
430.069	99.12
430.292	100.12
430.514	88.12
430.736	93.12
430.958	84.12
431.18	83.12
431.402	96.12
431.624	88.12
431.846	79.12
432.068	103.12
432.29	86.12
432.512	74.12
432.734	85.12
432.956	88.12
433.178	86.12
433.4	94.12
433.622	98.12
433.844	103.12
434.066	98.12
434.287	99.12
434.509	85.12
434.731	89.12
434.953	87.12
435.175	99.12
435.397	79.12
435.618	94.12
435.84	94.12
436.062	104.12
436.284	105.12
436.505	89.12
436.727	87.12
436.949	90.12
437.17	88.12
437.392	84.12
437.614	100.12
437.835	110.12
438.057	115.12
438.278	112.12
438.5	103.12
438.721	125.12
438.943	105.12
439.165	92.12
439.386	76.12
439.608	94.12
439.829	100.12
440.05	103.12
440.272	121.12
440.493	108.12
440.715	86.12
440.936	81.12
441.158	93.12
441.379	85.12
441.6	92.12
441.822	102.12
442.043	104.12
442.264	106.12
442.486	103.12
442.707	72.12
442.928	109.12
443.149	120.12
443.371	127.12
443.592	110.12
443.813	107.12
444.034	97.12
444.255	79.12
444.476	100.12
444.698	89.12
444.919	80.12
445.14	121.12
445.361	121.12
445.582	103.12
445.803	121.12
446.024	133.12
446.245	120.12
446.466	116.12
446.687	95.12
446.908	89.12
447.129	100.12
447.35	104.12
447.571	113.12
447.792	90.12
448.013	114.12
448.234	108.12
448.455	102.12
448.675	112.12
448.896	114.12
449.117	108.12
449.338	99.12
449.559	127.12
449.779	124.12
450	98.12
450.221	83.12
450.442	79.12
450.662	98.12
450.883	100.12
451.104	115.12
451.324	93.12
451.545	86.12
451.766	96.12
451.986	90.12
452.207	88.12
452.428	90.12
452.648	95.12
452.869	95.12
453.089	107.12
453.31	105.12
453.53	88.12
453.751	88.12
453.971	108.12
454.192	106.12
454.412	91.12
454.633	90.12
454.853	68.12
455.073	83.12
455.294	82.12
455.514	98.12
455.734	103.12
455.955	91.12
456.175	79.12
456.395	86.12
456.616	94.12
456.836	94.12
457.056	87.12
457.276	99.12
457.497	98.12
457.717	94.12
457.937	82.12
458.157	89.12
458.377	95.12
458.598	106.12
458.818	141.12
459.038	146.12
459.258	123.12
459.478	97.12
459.698	93.12
459.918	85.12
460.138	77.12
460.358	84.12
460.578	76.12
460.798	86.12
461.018	98.12
461.238	96.12
461.458	84.12
461.678	81.12
461.898	89.12
462.118	83.12
462.338	71.12
462.558	99.12
462.777	87.12
462.997	81.12
463.217	79.12
463.437	75.12
463.657	76.12
463.876	97.12
464.096	99.12
464.316	106.12
464.536	95.12
464.755	87.12
464.975	111.12
465.195	150.12
465.414	143.12
465.634	95.12
465.854	96.12
466.073	91.12
466.293	91.12
466.512	82.12
466.732	83.12
466.951	78.12
467.171	86.12
467.391	84.12
467.61	99.12
467.829	102.12
468.049	100.12
468.268	79.12
468.488	88.12
468.707	85.12
468.927	84.12
469.146	87.12
469.365	90.12
469.585	86.12
469.804	94.12
470.023	103.12
470.243	87.12
470.462	90.12
470.681	113.12
470.901	94.12
471.12	90.12
471.339	104.12
471.558	92.12
471.777	97.12
471.997	91.12
472.216	99.12
472.435	82.12
472.654	97.12
472.873	83.12
473.092	81.12
473.311	81.12
473.53	88.12
473.749	95.12
473.968	100.12
474.187	105.12
474.406	85.12
474.625	88.12
474.844	89.12
475.063	90.12
475.282	87.12
475.501	92.12
475.72	82.12
475.939	85.12
476.158	97.12
476.377	81.12
476.596	96.12
476.814	100.12
477.033	98.12
477.252	88.12
477.471	79.12
477.69	98.12
477.908	107.12
478.127	94.12
478.346	98.12
478.564	87.12
478.783	101.12
479.002	99.12
479.22	92.12
479.439	106.12
479.658	105.12
479.876	90.12
480.095	93.12
480.313	97.12
480.532	83.12
480.751	95.12
480.969	93.12
481.188	112.12
481.406	97.12
481.624	88.12
481.843	93.12
482.061	93.12
482.28	92.12
482.498	85.12
482.717	92.12
482.935	83.12
483.153	90.12
483.372	80.12
483.59	99.12
483.808	108.12
484.027	91.12
484.245	92.12
484.463	97.12
484.681	100.12
484.9	86.12
485.118	100.12
485.336	97.12
485.554	94.12
485.772	97.12
485.99	108.12
486.209	95.12
486.427	97.12
486.645	104.12
486.863	103.12
487.081	106.12
487.299	99.12
487.517	99.12
487.735	85.12
487.953	72.12
488.171	99.12
488.389	108.12
488.607	105.12
488.825	78.12
489.043	92.12
489.261	88.12
489.479	76.12
489.696	87.12
489.914	86.12
490.132	87.12
490.35	91.12
490.568	91.12
490.786	90.12
491.003	97.12
491.221	95.12
491.439	84.12
491.657	93.12
491.874	83.12
492.092	85.12
492.31	83.12
492.527	97.12
492.745	83.12
492.963	81.12
493.18	88.12
493.398	97.12
493.615	111.12
493.833	97.12
494.05	97.12
494.268	74.12
494.485	83.12
494.703	88.12
494.92	88.12
495.138	85.12
495.355	75.12
495.573	89.12
495.79	104.12
496.008	86.12
496.225	91.12
496.442	103.12
496.66	92.12
496.877	71.12
497.094	104.12
497.312	90.12
497.529	96.12
497.746	92.12
497.963	101.12
498.181	97.12
498.398	107.12
498.615	100.12
498.832	103.12
499.049	93.12
499.267	80.12
499.484	87.12
499.701	97.12
499.918	87.12
500.135	81.12
500.352	86.12
500.569	80.12
500.786	88.12
501.003	97.12
501.22	96.12
501.437	92.12
501.654	93.12
501.871	105.12
502.088	113.12
502.305	95.12
502.522	82.12
502.739	89.12
502.956	80.12
503.172	96.12
503.389	111.12
503.606	107.12
503.823	83.12
504.04	91.12
504.256	92.12
504.473	106.12
504.69	89.12
504.907	100.12
505.123	93.12
505.34	88.12
505.557	83.12
505.773	89.12
505.99	87.12
506.207	100.12
506.423	84.12
506.64	92.12
506.856	103.12
507.073	96.12
507.289	87.12
507.506	92.12
507.722	116.12
507.939	102.12
508.155	95.12
508.372	93.12
508.588	95.12
508.805	96.12
509.021	104.12
509.238	94.12
509.454	106.12
509.67	107.12
509.887	115.12
510.103	125.12
510.319	194.12
510.536	711.12
510.752	2222.12
510.968	605.12
511.184	146.12
511.401	113.12
511.617	97.12
511.833	90.12
512.049	105.12
512.265	105.12
512.481	90.12
512.698	105.12
512.914	90.12
513.13	100.12
513.346	96.12
513.562	98.12
513.778	99.12
513.994	104.12
514.21	99.12
514.426	100.12
514.642	136.12
514.858	114.12
515.074	153.12
515.29	411.12
