Data from Uncirc_1986_H10_HRD10591_00040.txt Node
Date: Wed Jan 03 12:14:34 EST 2024
User: Yrep
Spectrometer: HR+D1059
Trigger mode: 1
Integration Time (sec): 1.000000E-1
Scans to average: 1
Electric dark correction enabled: true
Nonlinearity correction enabled: false
Boxcar width: 0
XAxis mode: Wavelengths
Number of Pixels in Spectrum: 2048
>>>>>Begin Spectral Data<<<<<
223.165	-10.12
223.4	-10.12
223.635	-10.12
223.869	-10.12
224.104	-13.12
224.338	-18.12
224.573	-23.12
224.808	-16.12
225.042	-4.12
225.277	0.88
225.511	-1.12
225.746	-3.12
225.98	6.88
226.215	12.88
226.449	16.88
226.683	27.88
226.918	10.88
227.152	22.88
227.387	23.88
227.621	28.88
227.856	52.88
228.09	46.88
228.324	38.88
228.559	40.88
228.793	160.88
229.027	483.88
229.262	531.88
229.496	634.88
229.73	830.88
229.964	883.88
230.199	579.88
230.433	514.88
230.667	489.88
230.901	465.88
231.136	480.88
231.37	478.88
231.604	465.88
231.838	454.88
232.072	469.88
232.306	472.88
232.541	488.88
232.775	471.88
233.009	470.88
233.243	502.88
233.477	504.88
233.711	482.88
233.945	503.88
234.179	550.88
234.413	524.88
234.647	530.88
234.881	541.88
235.115	562.88
235.349	565.88
235.583	576.88
235.817	602.88
236.051	674.88
236.285	631.88
236.519	667.88
236.753	727.88
236.987	939.88
237.221	1448.88
237.455	1614.88
237.689	932.88
237.922	780.88
238.156	761.88
238.39	710.88
238.624	680.88
238.858	667.88
239.091	699.88
239.325	674.88
239.559	700.88
239.793	735.88
240.027	784.88
240.26	939.88
240.494	1027.88
240.728	994.88
240.961	944.88
241.195	836.88
241.429	809.88
241.662	829.88
241.896	797.88
242.13	802.88
242.363	800.88
242.597	800.88
242.83	857.88
243.064	848.88
243.298	858.88
243.531	858.88
243.765	885.88
243.998	864.88
244.232	892.88
244.465	929.88
244.699	957.88
244.932	959.88
245.166	981.88
245.399	950.88
245.633	938.88
245.866	947.88
246.099	972.88
246.333	970.88
246.566	979.88
246.8	1024.88
247.033	1042.88
247.266	1093.88
247.5	1126.88
247.733	1170.88
247.966	1219.88
248.2	1195.88
248.433	1214.88
248.666	1252.88
248.899	1440.88
249.133	1512.88
249.366	1495.88
249.599	1398.88
249.832	1288.88
250.066	1274.88
250.299	1291.88
250.532	1366.88
250.765	1550.88
250.998	1821.88
251.231	1732.88
251.465	1593.88
251.698	1497.88
251.931	1470.88
252.164	1438.88
252.397	1508.88
252.63	1477.88
252.863	1632.88
253.096	1766.88
253.329	1808.88
253.562	1713.88
253.795	1630.88
254.028	1661.88
254.261	1674.88
254.494	1877.88
254.727	2235.88
254.96	2408.88
255.193	2101.88
255.426	1809.88
255.659	1677.88
255.892	1662.88
256.124	1609.88
256.357	1566.88
256.59	1556.88
256.823	1555.88
257.056	1571.88
257.289	1585.88
257.521	1605.88
257.754	1596.88
257.987	1575.88
258.22	1591.88
258.452	1595.88
258.685	1611.88
258.918	1639.88
259.151	1713.88
259.383	1778.88
259.616	1778.88
259.849	1854.88
260.081	2022.88
260.314	2224.88
260.547	2153.88
260.779	1952.88
261.012	1893.88
261.244	1792.88
261.477	1716.88
261.71	1800.88
261.942	1808.88
262.175	1842.88
262.407	1743.88
262.64	1735.88
262.872	1706.88
263.105	1727.88
263.337	1734.88
263.57	1702.88
263.802	1724.88
264.035	1739.88
264.267	1770.88
264.499	1771.88
264.732	1768.88
264.964	1761.88
265.197	1754.88
265.429	1776.88
265.661	1788.88
265.894	1791.88
266.126	1814.88
266.358	1808.88
266.591	1891.88
266.823	1916.88
267.055	1946.88
267.287	1945.88
267.52	1929.88
267.752	1940.88
267.984	1979.88
268.216	1988.88
268.448	2034.88
268.681	2095.88
268.913	2199.88
269.145	2405.88
269.377	2502.88
269.609	2398.88
269.841	2352.88
270.073	2515.88
270.306	2816.88
270.538	2996.88
270.77	2813.88
271.002	2629.88
271.234	2546.88
271.466	2773.88
271.698	2896.88
271.93	2856.88
272.162	2949.88
272.394	2813.88
272.626	2661.88
272.858	2490.88
273.09	2413.88
273.322	2346.88
273.553	2322.88
273.785	2307.88
274.017	2332.88
274.249	2362.88
274.481	2363.88
274.713	2373.88
274.945	2428.88
275.176	2411.88
275.408	2374.88
275.64	2334.88
275.872	2316.88
276.104	2382.88
276.335	2384.88
276.567	2492.88
276.799	2636.88
277.031	2935.88
277.262	2963.88
277.494	2893.88
277.726	2685.88
277.957	2590.88
278.189	2528.88
278.421	2485.88
278.652	2470.88
278.884	2476.88
279.115	2437.88
279.347	2460.88
279.579	2436.88
279.81	2439.88
280.042	2460.88
280.273	2503.88
280.505	2483.88
280.736	2491.88
280.968	2539.88
281.199	2527.88
281.431	2489.88
281.662	2500.88
281.894	2549.88
282.125	2630.88
282.356	2778.88
282.588	2975.88
282.819	2797.88
283.051	2654.88
283.282	2603.88
283.513	2662.88
283.745	2643.88
283.976	2739.88
284.207	2733.88
284.439	2734.88
284.67	2714.88
284.901	2696.88
285.132	2703.88
285.364	2743.88
285.595	2724.88
285.826	2748.88
286.057	2726.88
286.288	2709.88
286.52	2776.88
286.751	2798.88
286.982	2810.88
287.213	2844.88
287.444	2840.88
287.675	2935.88
287.906	2959.88
288.138	3077.88
288.369	3001.88
288.6	2957.88
288.831	3011.88
289.062	2980.88
289.293	2906.88
289.524	2914.88
289.755	2864.88
289.986	2948.88
290.217	2884.88
290.448	2870.88
290.679	2975.88
290.91	2916.88
291.141	2908.88
291.371	2949.88
291.602	2937.88
291.833	2923.88
292.064	2934.88
292.295	2928.88
292.526	2890.88
292.757	2933.88
292.987	2918.88
293.218	2884.88
293.449	2949.88
293.68	2924.88
293.91	2934.88
294.141	2955.88
294.372	2910.88
294.603	2932.88
294.833	3008.88
295.064	3020.88
295.295	3021.88
295.525	3031.88
295.756	3066.88
295.987	3104.88
296.217	3318.88
296.448	3233.88
296.679	3079.88
296.909	3032.88
297.14	3104.88
297.37	3097.88
297.601	3180.88
297.831	3156.88
298.062	3133.88
298.292	3166.88
298.523	3234.88
298.753	3209.88
298.984	3163.88
299.214	3196.88
299.445	3184.88
299.675	3266.88
299.905	3254.88
300.136	3291.88
300.366	3248.88
300.597	3254.88
300.827	3388.88
301.057	3420.88
301.288	3491.88
301.518	3455.88
301.748	3451.88
301.979	3493.88
302.209	3484.88
302.439	3555.88
302.669	3480.88
302.9	3450.88
303.13	3348.88
303.36	3421.88
303.59	3518.88
303.82	3472.88
304.051	3472.88
304.281	3420.88
304.511	3358.88
304.741	3384.88
304.971	3344.88
305.201	3356.88
305.431	3457.88
305.661	3399.88
305.891	3396.88
306.121	3424.88
306.352	3418.88
306.582	3468.88
306.812	3353.88
307.042	3382.88
307.272	3329.88
307.502	3393.88
307.731	3376.88
307.961	3369.88
308.191	3404.88
308.421	3348.88
308.651	3471.88
308.881	3416.88
309.111	3521.88
309.341	3477.88
309.571	3575.88
309.8	3595.88
310.03	3682.88
310.26	3683.88
310.49	3710.88
310.72	3834.88
310.949	3835.88
311.179	3915.88
311.409	3765.88
311.639	3758.88
311.868	3752.88
312.098	3774.88
312.328	3890.88
312.557	4060.88
312.787	4115.88
313.017	4049.88
313.246	3878.88
313.476	3771.88
313.706	3865.88
313.935	3936.88
314.165	4044.88
314.394	4043.88
314.624	4037.88
314.853	3929.88
315.083	3877.88
315.312	3816.88
315.542	3776.88
315.771	3773.88
316.001	3794.88
316.23	3808.88
316.46	3786.88
316.689	3816.88
316.919	3836.88
317.148	3909.88
317.377	3866.88
317.607	3877.88
317.836	3842.88
318.065	3731.88
318.295	3758.88
318.524	3800.88
318.753	3762.88
318.983	3757.88
319.212	3782.88
319.441	3797.88
319.67	3854.88
319.9	3779.88
320.129	3782.88
320.358	3775.88
320.587	3912.88
320.816	3927.88
321.046	3953.88
321.275	3954.88
321.504	3925.88
321.733	4016.88
321.962	4084.88
322.191	4120.88
322.42	4218.88
322.649	4316.88
322.878	4299.88
323.108	4424.88
323.337	4710.88
323.566	4869.88
323.795	5198.88
324.024	5716.88
324.253	7535.88
324.482	11381.88
324.71	15564.88
324.939	15624.88
325.168	13633.88
325.397	6977.88
325.626	5460.88
325.855	5057.88
326.084	4869.88
326.313	4894.88
326.542	5116.88
326.77	5769.88
326.999	7298.88
327.228	10600.88
327.457	14684.88
327.686	14055.88
327.914	7630.88
328.143	6046.88
328.372	5627.88
328.6	5407.88
328.829	5429.88
329.058	5590.88
329.287	5570.88
329.515	5165.88
329.744	4893.88
329.972	4975.88
330.201	5006.88
330.43	5272.88
330.658	5570.88
330.887	5912.88
331.115	5511.88
331.344	5072.88
331.572	5062.88
331.801	5185.88
332.03	5188.88
332.258	5027.88
332.486	5103.88
332.715	5150.88
332.943	5346.88
333.172	5439.88
333.4	5598.88
333.629	5654.88
333.857	5710.88
334.085	5631.88
334.314	5549.88
334.542	5526.88
334.771	5521.88
334.999	5465.88
335.227	5352.88
335.455	5228.88
335.684	5182.88
335.912	5091.88
336.14	5006.88
336.369	5113.88
336.597	5166.88
336.825	5086.88
337.053	4951.88
337.281	4892.88
337.51	4850.88
337.738	4912.88
337.966	4840.88
338.194	4833.88
338.422	4711.88
338.65	4710.88
338.878	4692.88
339.106	4615.88
339.334	4623.88
339.562	4593.88
339.79	4524.88
340.018	4575.88
340.246	4597.88
340.474	4628.88
340.702	4535.88
340.93	4578.88
341.158	4525.88
341.386	4569.88
341.614	4556.88
341.842	4488.88
342.07	4475.88
342.298	4437.88
342.526	4406.88
342.754	4421.88
342.981	4478.88
343.209	4571.88
343.437	4727.88
343.665	5022.88
343.893	5327.88
344.12	5325.88
344.348	5077.88
344.576	4899.88
344.804	4849.88
345.031	4768.88
345.259	4826.88
345.487	4568.88
345.714	4501.88
345.942	4341.88
346.17	4340.88
346.397	4304.88
346.625	4275.88
346.853	4275.88
347.08	4327.88
347.308	4403.88
347.535	4452.88
347.763	4435.88
347.99	4386.88
348.218	4430.88
348.445	4470.88
348.673	4352.88
348.9	4314.88
349.128	4207.88
349.355	4230.88
349.583	4191.88
349.81	4148.88
350.037	4150.88
350.265	4165.88
350.492	4198.88
350.72	4231.88
350.947	4252.88
351.174	4268.88
351.402	4339.88
351.629	4254.88
351.856	4291.88
352.083	4420.88
352.311	4376.88
352.538	4400.88
352.765	4333.88
352.992	4258.88
353.22	4234.88
353.447	4201.88
353.674	4143.88
353.901	4044.88
354.128	4092.88
354.355	4047.88
354.583	4103.88
354.81	4112.88
355.037	4126.88
355.264	4065.88
355.491	4006.88
355.718	4028.88
355.945	4057.88
356.172	4053.88
356.399	4067.88
356.626	4037.88
356.853	4101.88
357.08	3969.88
357.307	4029.88
357.534	4041.88
357.761	4033.88
357.988	4092.88
358.215	4079.88
358.441	4141.88
358.668	4138.88
358.895	4180.88
359.122	4225.88
359.349	4170.88
359.576	4396.88
359.802	4584.88
360.029	4724.88
360.256	4650.88
360.483	4582.88
360.709	4385.88
360.936	4245.88
361.163	4324.88
361.39	4368.88
361.616	4325.88
361.843	4270.88
362.07	4362.88
362.296	4330.88
362.523	4293.88
362.749	4281.88
362.976	4223.88
363.203	4188.88
363.429	4176.88
363.656	4189.88
363.882	4161.88
364.109	4170.88
364.335	4115.88
364.562	4138.88
364.788	4177.88
365.015	4166.88
365.241	4182.88
365.468	4192.88
365.694	4222.88
365.92	4260.88
366.147	4129.88
366.373	4154.88
366.599	4118.88
366.826	4144.88
367.052	4093.88
367.278	4132.88
367.505	4157.88
367.731	4191.88
367.957	4127.88
368.184	4201.88
368.41	4280.88
368.636	4392.88
368.862	4378.88
369.089	4314.88
369.315	4202.88
369.541	4281.88
369.767	4312.88
369.993	4288.88
370.219	4226.88
370.445	4274.88
370.672	4351.88
370.898	4321.88
371.124	4307.88
371.35	4454.88
371.576	4420.88
371.802	4373.88
372.028	4442.88
372.254	4373.88
372.48	4433.88
372.706	4572.88
372.932	4562.88
373.158	4538.88
373.384	4436.88
373.61	4407.88
373.835	4495.88
374.061	4494.88
374.287	4570.88
374.513	4568.88
374.739	4774.88
374.965	4859.88
375.191	4866.88
375.416	4822.88
375.642	4690.88
375.868	4602.88
376.094	4570.88
376.319	4554.88
376.545	4460.88
376.771	4428.88
376.997	4384.88
377.222	4384.88
377.448	4381.88
377.674	4458.88
377.899	4362.88
378.125	4396.88
378.35	4437.88
378.576	4398.88
378.802	4380.88
379.027	4372.88
379.253	4396.88
379.478	4384.88
379.704	4366.88
379.929	4420.88
380.155	4408.88
380.38	4442.88
380.606	4476.88
380.831	4390.88
381.057	4444.88
381.282	4495.88
381.507	4476.88
381.733	4517.88
381.958	4556.88
382.184	4596.88
382.409	4589.88
382.634	4665.88
382.86	4667.88
383.085	4696.88
383.31	4785.88
383.535	4844.88
383.761	4872.88
383.986	4926.88
384.211	5052.88
384.436	5152.88
384.662	5192.88
384.887	5260.88
385.112	5325.88
385.337	5282.88
385.562	5392.88
385.787	5327.88
386.013	5374.88
386.238	5478.88
386.463	5412.88
386.688	5439.88
386.913	5247.88
387.138	5283.88
387.363	5246.88
387.588	5153.88
387.813	5282.88
388.038	5270.88
388.263	5259.88
388.488	5346.88
388.713	5324.88
388.938	5251.88
389.163	5282.88
389.387	5220.88
389.612	5144.88
389.837	5190.88
390.062	5125.88
390.287	5172.88
390.512	5217.88
390.736	5186.88
390.961	5463.88
391.186	5498.88
391.411	5630.88
391.636	5717.88
391.86	5914.88
392.085	5942.88
392.31	5819.88
392.534	5768.88
392.759	5607.88
392.984	5510.88
393.208	5441.88
393.433	5532.88
393.658	5430.88
393.882	5462.88
394.107	5507.88
394.331	5553.88
394.556	5586.88
394.78	5617.88
395.005	5618.88
395.229	5650.88
395.454	5847.88
395.678	5886.88
395.903	5954.88
396.127	6107.88
396.352	5842.88
396.576	5644.88
396.801	5602.88
397.025	5665.88
397.249	5787.88
397.474	5930.88
397.698	5955.88
397.922	6119.88
398.147	6224.88
398.371	6302.88
398.595	6410.88
398.82	6757.88
399.044	7279.88
399.268	8015.88
399.492	9062.88
399.717	9748.88
399.941	9541.88
400.165	9012.88
400.389	8236.88
400.613	7453.88
400.837	6928.88
401.062	6794.88
401.286	6762.88
401.51	6660.88
401.734	6668.88
401.958	6807.88
402.182	6917.88
402.406	6950.88
402.63	6999.88
402.854	7101.88
403.078	7222.88
403.302	7312.88
403.526	7569.88
403.75	7525.88
403.974	7580.88
404.198	7483.88
404.422	7600.88
404.645	7488.88
404.869	7406.88
405.093	7576.88
405.317	7710.88
405.541	7756.88
405.765	7438.88
405.988	7304.88
406.212	7515.88
406.436	7718.88
406.66	7872.88
406.883	7904.88
407.107	8603.88
407.331	9032.88
407.555	9656.88
407.778	9280.88
408.002	8454.88
408.226	8158.88
408.449	7936.88
408.673	7832.88
408.896	8040.88
409.12	8183.88
409.344	7703.88
409.567	7279.88
409.791	7302.88
410.014	7155.88
410.238	7187.88
410.461	7122.88
410.685	7165.88
410.908	7320.88
411.132	7564.88
411.355	7582.88
411.578	7194.88
411.802	6929.88
412.025	6899.88
412.249	7003.88
412.472	6957.88
412.695	6845.88
412.919	6655.88
413.142	6530.88
413.365	6552.88
413.589	6604.88
413.812	6442.88
414.035	6410.88
414.258	6441.88
414.482	6474.88
414.705	6568.88
414.928	6576.88
415.151	6553.88
415.374	6540.88
415.597	6476.88
415.821	6376.88
416.044	6407.88
416.267	6429.88
416.49	6318.88
416.713	6310.88
416.936	6451.88
417.159	6412.88
417.382	6503.88
417.605	6517.88
417.828	6662.88
418.051	6846.88
418.274	6748.88
418.497	6592.88
418.72	6705.88
418.943	6562.88
419.166	7008.88
419.389	7475.88
419.611	7226.88
419.834	7009.88
420.057	6981.88
420.28	6706.88
420.503	6529.88
420.726	6558.88
420.948	6819.88
421.171	7377.88
421.394	7214.88
421.617	6724.88
421.839	6666.88
422.062	6711.88
422.285	7028.88
422.507	7618.88
422.73	8242.88
422.953	7600.88
423.175	7240.88
423.398	7226.88
423.621	7187.88
423.843	7416.88
424.066	7468.88
424.288	7293.88
424.511	7578.88
424.733	8110.88
424.956	8533.88
425.178	8030.88
425.401	8296.88
425.623	8091.88
425.846	6978.88
426.068	6826.88
426.291	6765.88
426.513	6800.88
426.735	6892.88
426.958	7326.88
427.18	8218.88
427.402	9447.88
427.625	9448.88
427.847	7843.88
428.069	6981.88
428.292	6530.88
428.514	6350.88
428.736	6166.88
428.958	6193.88
429.181	6004.88
429.403	5988.88
429.625	6173.88
429.847	6594.88
430.069	7198.88
430.292	6622.88
430.514	6033.88
430.736	6084.88
430.958	5927.88
431.18	5814.88
431.402	5825.88
431.624	5846.88
431.846	5931.88
432.068	5890.88
432.29	5936.88
432.512	5984.88
432.734	6064.88
432.956	5890.88
433.178	5978.88
433.4	6009.88
433.622	5904.88
433.844	5860.88
434.066	5995.88
434.287	6034.88
434.509	6259.88
434.731	6467.88
434.953	6639.88
435.175	6831.88
435.397	6944.88
435.618	6815.88
435.84	7292.88
436.062	8218.88
436.284	8122.88
436.505	6788.88
436.727	6500.88
436.949	6133.88
437.17	6009.88
437.392	5987.88
437.614	6200.88
437.835	6692.88
438.057	7710.88
438.278	8439.88
438.5	8346.88
438.721	9237.88
438.943	7957.88
439.165	6669.88
439.386	6486.88
439.608	6553.88
439.829	6624.88
440.05	6999.88
440.272	7345.88
440.493	6762.88
440.715	6389.88
440.936	6324.88
441.158	6309.88
441.379	6522.88
441.6	6810.88
441.822	7091.88
442.043	7506.88
442.264	8416.88
442.486	8061.88
442.707	7149.88
442.928	6885.88
443.149	7233.88
443.371	7362.88
443.592	8018.88
443.813	9112.88
444.034	9062.88
444.255	7769.88
444.476	7564.88
444.698	7813.88
444.919	7790.88
445.14	7590.88
445.361	7476.88
445.582	7668.88
445.803	8331.88
446.024	9187.88
446.245	8672.88
446.466	7706.88
446.687	6688.88
446.908	6372.88
447.129	6002.88
447.35	5927.88
447.571	5850.88
447.792	5805.88
448.013	5838.88
448.234	6061.88
448.455	6769.88
448.675	8167.88
448.896	8566.88
449.117	6972.88
449.338	7297.88
449.559	8653.88
449.779	8938.88
450	6749.88
450.221	5928.88
450.442	5687.88
450.662	5714.88
450.883	5797.88
451.104	5925.88
451.324	5591.88
451.545	5546.88
451.766	5324.88
451.986	5309.88
452.207	5207.88
452.428	5188.88
452.648	5292.88
452.869	5200.88
453.089	5330.88
453.31	5416.88
453.53	5228.88
453.751	5166.88
453.971	5271.88
454.192	5274.88
454.412	5200.88
454.633	5133.88
454.853	5064.88
455.073	5139.88
455.294	5582.88
455.514	6132.88
455.734	5551.88
455.955	5030.88
456.175	4839.88
456.395	4810.88
456.616	4796.88
456.836	4827.88
457.056	4723.88
457.276	4714.88
457.497	4878.88
457.717	4855.88
457.937	4975.88
458.157	5048.88
458.377	5133.88
458.598	5455.88
458.818	6138.88
459.038	6958.88
459.258	6971.88
459.478	6171.88
459.698	6046.88
459.918	5983.88
460.138	6151.88
460.358	6432.88
460.578	6487.88
460.798	6572.88
461.018	6554.88
461.238	6306.88
461.458	6365.88
461.678	6290.88
461.898	6468.88
462.118	6472.88
462.338	6874.88
462.558	6994.88
462.777	7246.88
462.997	7791.88
463.217	8292.88
463.437	8131.88
463.657	7509.88
463.876	7311.88
464.096	7404.88
464.316	7350.88
464.536	7409.88
464.755	7109.88
464.975	7114.88
465.195	7215.88
465.414	7223.88
465.634	6454.88
465.854	6067.88
466.073	5849.88
466.293	5671.88
466.512	5406.88
466.732	5339.88
466.951	5321.88
467.171	5360.88
467.391	5447.88
467.61	5484.88
467.829	5434.88
468.049	5313.88
468.268	5138.88
468.488	5116.88
468.707	5049.88
468.927	5111.88
469.146	5108.88
469.365	5178.88
469.585	5150.88
469.804	5416.88
470.023	5578.88
470.243	5536.88
470.462	5626.88
470.681	5795.88
470.901	5638.88
471.12	5540.88
471.339	5444.88
471.558	5371.88
471.777	5330.88
471.997	5158.88
472.216	5228.88
472.435	5079.88
472.654	5084.88
472.873	5052.88
473.092	5074.88
473.311	5118.88
473.53	5121.88
473.749	5227.88
473.968	5799.88
474.187	6993.88
474.406	6488.88
474.625	5441.88
474.844	5261.88
475.063	5144.88
475.282	5200.88
475.501	5241.88
475.72	5284.88
475.939	5288.88
476.158	5330.88
476.377	5427.88
476.596	5354.88
476.814	5481.88
477.033	5474.88
477.252	5568.88
477.471	5696.88
477.69	5806.88
477.908	5866.88
478.127	6054.88
478.346	6114.88
478.564	6199.88
478.783	6242.88
479.002	6504.88
479.22	6483.88
479.439	6551.88
479.658	6657.88
479.876	6762.88
480.095	6929.88
480.313	7416.88
480.532	7255.88
480.751	7056.88
480.969	6938.88
481.188	6838.88
481.406	6633.88
481.624	6418.88
481.843	6209.88
482.061	6165.88
482.28	6115.88
482.498	5997.88
482.717	6030.88
482.935	6000.88
483.153	5997.88
483.372	6080.88
483.59	6061.88
483.808	5951.88
484.027	6064.88
484.245	6080.88
484.463	6163.88
484.681	6210.88
484.9	6248.88
485.118	6299.88
485.336	6307.88
485.554	6388.88
485.772	6415.88
485.99	6390.88
486.209	6480.88
486.427	6490.88
486.645	6538.88
486.863	6656.88
487.081	6612.88
487.299	6501.88
487.517	6533.88
487.735	6405.88
