Data from Uncirc_1986_H10_HRD10591_00047.txt Node
Date: Wed Jan 03 12:14:35 EST 2024
User: Yrep
Spectrometer: HR+D1059
Trigger mode: 1
Integration Time (sec): 1.000000E-1
Scans to average: 1
Electric dark correction enabled: true
Nonlinearity correction enabled: false
Boxcar width: 0
XAxis mode: Wavelengths
Number of Pixels in Spectrum: 2048
>>>>>Begin Spectral Data<<<<<
223.165	-27.44
223.4	-27.44
223.635	-27.44
223.869	-17.44
224.104	-10.44
224.338	-16.44
224.573	-16.44
224.808	-12.44
225.042	-6.44
225.277	0.56
225.511	0.56
225.746	-6.44
225.98	11.56
226.215	11.56
226.449	25.56
226.683	9.56
226.918	26.56
227.152	27.56
227.387	40.56
227.621	22.56
227.856	35.56
228.09	38.56
228.324	43.56
228.559	62.56
228.793	73.56
229.027	62.56
229.262	58.56
229.496	63.56
229.73	64.56
229.964	66.56
230.199	57.56
230.433	69.56
230.667	76.56
230.901	77.56
231.136	94.56
231.37	77.56
231.604	91.56
231.838	88.56
232.072	83.56
232.306	72.56
232.541	89.56
232.775	81.56
233.009	72.56
233.243	85.56
233.477	66.56
233.711	85.56
233.945	80.56
234.179	84.56
234.413	76.56
234.647	79.56
234.881	80.56
235.115	81.56
235.349	80.56
235.583	69.56
235.817	73.56
236.051	81.56
236.285	77.56
236.519	66.56
236.753	73.56
236.987	69.56
237.221	77.56
237.455	89.56
237.689	69.56
237.922	88.56
238.156	69.56
238.39	76.56
238.624	97.56
238.858	82.56
239.091	73.56
239.325	77.56
239.559	73.56
239.793	86.56
240.027	81.56
240.26	72.56
240.494	81.56
240.728	69.56
240.961	79.56
241.195	87.56
241.429	72.56
241.662	71.56
241.896	77.56
242.13	57.56
242.363	69.56
242.597	73.56
242.83	88.56
243.064	81.56
243.298	80.56
243.531	75.56
243.765	84.56
243.998	81.56
244.232	81.56
244.465	91.56
244.699	72.56
244.932	79.56
245.166	64.56
245.399	78.56
245.633	69.56
245.866	78.56
246.099	68.56
246.333	83.56
246.566	79.56
246.8	69.56
247.033	67.56
247.266	74.56
247.5	88.56
247.733	74.56
247.966	82.56
248.2	82.56
248.433	69.56
248.666	70.56
248.899	81.56
249.133	61.56
249.366	83.56
249.599	97.56
249.832	71.56
250.066	96.56
250.299	79.56
250.532	75.56
250.765	77.56
250.998	66.56
251.231	82.56
251.465	90.56
251.698	76.56
251.931	84.56
252.164	91.56
252.397	79.56
252.63	70.56
252.863	67.56
253.096	76.56
253.329	71.56
253.562	76.56
253.795	74.56
254.028	81.56
254.261	69.56
254.494	85.56
254.727	85.56
254.96	81.56
255.193	89.56
255.426	73.56
255.659	63.56
255.892	73.56
256.124	77.56
256.357	74.56
256.59	97.56
256.823	85.56
257.056	91.56
257.289	92.56
257.521	74.56
257.754	75.56
257.987	74.56
258.22	82.56
258.452	91.56
258.685	80.56
258.918	77.56
259.151	74.56
259.383	70.56
259.616	82.56
259.849	77.56
260.081	89.56
260.314	89.56
260.547	72.56
260.779	90.56
261.012	79.56
261.244	79.56
261.477	93.56
261.71	99.56
261.942	104.56
262.175	122.56
262.407	82.56
262.64	82.56
262.872	96.56
263.105	95.56
263.337	81.56
263.57	86.56
263.802	72.56
264.035	83.56
264.267	84.56
264.499	78.56
264.732	80.56
264.964	86.56
265.197	83.56
265.429	95.56
265.661	75.56
265.894	88.56
266.126	86.56
266.358	69.56
266.591	83.56
266.823	84.56
267.055	87.56
267.287	94.56
267.52	81.56
267.752	87.56
267.984	81.56
268.216	93.56
268.448	89.56
268.681	90.56
268.913	82.56
269.145	84.56
269.377	81.56
269.609	82.56
269.841	79.56
270.073	85.56
270.306	80.56
270.538	86.56
270.77	98.56
271.002	86.56
271.234	67.56
271.466	87.56
271.698	91.56
271.93	94.56
272.162	95.56
272.394	93.56
272.626	72.56
272.858	84.56
273.09	83.56
273.322	82.56
273.553	84.56
273.785	68.56
274.017	89.56
274.249	78.56
274.481	52.56
274.713	89.56
274.945	101.56
275.176	102.56
275.408	91.56
275.64	104.56
275.872	81.56
276.104	78.56
276.335	77.56
276.567	93.56
276.799	93.56
277.031	91.56
277.262	79.56
277.494	85.56
277.726	95.56
277.957	85.56
278.189	79.56
278.421	88.56
278.652	72.56
278.884	89.56
279.115	78.56
279.347	93.56
279.579	91.56
279.81	86.56
280.042	77.56
280.273	85.56
280.505	88.56
280.736	95.56
280.968	85.56
281.199	89.56
281.431	84.56
281.662	88.56
281.894	96.56
282.125	78.56
282.356	114.56
282.588	121.56
282.819	100.56
283.051	79.56
283.282	80.56
283.513	81.56
283.745	74.56
283.976	90.56
284.207	102.56
284.439	86.56
284.67	92.56
284.901	69.56
285.132	82.56
285.364	99.56
285.595	90.56
285.826	58.56
286.057	87.56
286.288	87.56
286.52	81.56
286.751	94.56
286.982	98.56
287.213	86.56
287.444	79.56
287.675	87.56
287.906	93.56
288.138	90.56
288.369	96.56
288.6	69.56
288.831	83.56
289.062	90.56
289.293	78.56
289.524	94.56
289.755	84.56
289.986	73.56
290.217	93.56
290.448	82.56
290.679	97.56
290.91	96.56
291.141	80.56
291.371	90.56
291.602	83.56
291.833	78.56
292.064	71.56
292.295	90.56
292.526	102.56
292.757	77.56
292.987	89.56
293.218	90.56
293.449	93.56
293.68	84.56
293.91	80.56
294.141	99.56
294.372	85.56
294.603	82.56
294.833	92.56
295.064	85.56
295.295	100.56
295.525	88.56
295.756	93.56
295.987	95.56
296.217	127.56
296.448	109.56
296.679	97.56
296.909	95.56
297.14	77.56
297.37	85.56
297.601	85.56
297.831	81.56
298.062	86.56
298.292	85.56
298.523	75.56
298.753	87.56
298.984	86.56
299.214	94.56
299.445	86.56
299.675	69.56
299.905	83.56
300.136	84.56
300.366	89.56
300.597	94.56
300.827	100.56
301.057	103.56
301.288	95.56
301.518	87.56
301.748	89.56
301.979	119.56
302.209	84.56
302.439	92.56
302.669	85.56
302.9	88.56
303.13	87.56
303.36	96.56
303.59	88.56
303.82	95.56
304.051	98.56
304.281	91.56
304.511	91.56
304.741	88.56
304.971	89.56
305.201	97.56
305.431	78.56
305.661	97.56
305.891	85.56
306.121	94.56
306.352	97.56
306.582	93.56
306.812	84.56
307.042	92.56
307.272	81.56
307.502	89.56
307.731	103.56
307.961	83.56
308.191	93.56
308.421	78.56
308.651	83.56
308.881	89.56
309.111	103.56
309.341	88.56
309.571	98.56
309.8	87.56
310.03	86.56
310.26	86.56
310.49	85.56
310.72	77.56
310.949	94.56
311.179	95.56
311.409	103.56
311.639	101.56
311.868	84.56
312.098	74.56
312.328	82.56
312.557	90.56
312.787	102.56
313.017	100.56
313.246	82.56
313.476	104.56
313.706	85.56
313.935	98.56
314.165	97.56
314.394	102.56
314.624	95.56
314.853	97.56
315.083	88.56
315.312	96.56
315.542	93.56
315.771	79.56
316.001	93.56
316.23	89.56
316.46	93.56
316.689	85.56
316.919	104.56
317.148	93.56
317.377	99.56
317.607	107.56
317.836	101.56
318.065	102.56
318.295	104.56
318.524	86.56
318.753	93.56
318.983	99.56
319.212	101.56
319.441	106.56
319.67	108.56
319.9	98.56
320.129	84.56
320.358	110.56
320.587	98.56
320.816	98.56
321.046	95.56
321.275	88.56
321.504	90.56
321.733	97.56
321.962	85.56
322.191	104.56
322.42	99.56
322.649	109.56
322.878	112.56
323.108	106.56
323.337	117.56
323.566	112.56
323.795	137.56
324.024	184.56
324.253	322.56
324.482	683.56
324.71	1410.56
324.939	1851.56
325.168	704.56
325.397	227.56
325.626	132.56
325.855	114.56
326.084	119.56
326.313	110.56
326.542	135.56
326.77	197.56
326.999	383.56
327.228	781.56
327.457	1399.56
327.686	1127.56
327.914	331.56
328.143	176.56
328.372	120.56
328.6	103.56
328.829	110.56
329.058	98.56
329.287	111.56
329.515	96.56
329.744	79.56
329.972	99.56
330.201	103.56
330.43	104.56
330.658	112.56
330.887	113.56
331.115	110.56
331.344	97.56
331.572	92.56
331.801	94.56
332.03	107.56
332.258	90.56
332.486	101.56
332.715	93.56
332.943	91.56
333.172	88.56
333.4	93.56
333.629	107.56
333.857	102.56
334.085	107.56
334.314	89.56
334.542	95.56
334.771	99.56
334.999	75.56
335.227	95.56
335.455	94.56
335.684	90.56
335.912	93.56
336.14	106.56
336.369	80.56
336.597	93.56
336.825	94.56
337.053	84.56
337.281	83.56
337.51	79.56
337.738	97.56
337.966	96.56
338.194	110.56
338.422	98.56
338.65	79.56
338.878	77.56
339.106	83.56
339.334	99.56
339.562	83.56
339.79	90.56
340.018	85.56
340.246	98.56
340.474	105.56
340.702	95.56
340.93	84.56
341.158	85.56
341.386	91.56
341.614	83.56
341.842	91.56
342.07	92.56
342.298	101.56
342.526	98.56
342.754	85.56
342.981	88.56
343.209	95.56
343.437	104.56
343.665	93.56
343.893	88.56
344.12	79.56
344.348	91.56
344.576	82.56
344.804	79.56
345.031	84.56
345.259	83.56
345.487	108.56
345.714	97.56
345.942	102.56
346.17	89.56
346.397	88.56
346.625	82.56
346.853	105.56
347.08	69.56
347.308	85.56
347.535	102.56
347.763	85.56
347.99	86.56
348.218	97.56
348.445	88.56
348.673	87.56
348.9	96.56
349.128	93.56
349.355	91.56
349.583	90.56
349.81	94.56
350.037	81.56
350.265	97.56
350.492	94.56
350.72	99.56
350.947	98.56
351.174	97.56
351.402	94.56
351.629	103.56
351.856	106.56
352.083	97.56
352.311	104.56
352.538	115.56
352.765	105.56
352.992	115.56
353.22	98.56
353.447	98.56
353.674	110.56
353.901	88.56
354.128	99.56
354.355	101.56
354.583	95.56
354.81	98.56
355.037	104.56
355.264	97.56
355.491	80.56
355.718	99.56
355.945	99.56
356.172	84.56
356.399	102.56
356.626	94.56
356.853	113.56
357.08	90.56
357.307	83.56
357.534	88.56
357.761	92.56
357.988	98.56
358.215	82.56
358.441	83.56
358.668	92.56
358.895	86.56
359.122	85.56
359.349	94.56
359.576	98.56
359.802	102.56
360.029	107.56
360.256	91.56
360.483	105.56
360.709	83.56
360.936	91.56
361.163	88.56
361.39	83.56
361.616	93.56
361.843	81.56
362.07	79.56
362.296	91.56
362.523	94.56
362.749	91.56
362.976	95.56
363.203	89.56
363.429	93.56
363.656	73.56
363.882	87.56
364.109	97.56
364.335	93.56
364.562	107.56
364.788	89.56
365.015	82.56
365.241	100.56
365.468	102.56
365.694	83.56
365.92	94.56
366.147	79.56
366.373	85.56
366.599	86.56
366.826	85.56
367.052	80.56
367.278	70.56
367.505	101.56
367.731	88.56
367.957	97.56
368.184	92.56
368.41	90.56
368.636	100.56
368.862	112.56
369.089	102.56
369.315	96.56
369.541	86.56
369.767	85.56
369.993	90.56
370.219	85.56
370.445	80.56
370.672	89.56
370.898	75.56
371.124	85.56
371.35	83.56
371.576	103.56
371.802	73.56
372.028	78.56
372.254	79.56
372.48	97.56
372.706	87.56
372.932	95.56
373.158	89.56
373.384	95.56
373.61	80.56
373.835	89.56
374.061	79.56
374.287	74.56
374.513	95.56
374.739	73.56
374.965	91.56
375.191	93.56
375.416	93.56
375.642	93.56
375.868	84.56
376.094	70.56
376.319	87.56
376.545	81.56
376.771	72.56
376.997	79.56
377.222	85.56
377.448	80.56
377.674	98.56
377.899	115.56
378.125	87.56
378.35	93.56
378.576	92.56
378.802	82.56
379.027	94.56
379.253	86.56
379.478	89.56
379.704	87.56
379.929	93.56
380.155	85.56
380.38	95.56
380.606	85.56
380.831	86.56
381.057	97.56
381.282	71.56
381.507	89.56
381.733	91.56
381.958	96.56
382.184	103.56
382.409	97.56
382.634	98.56
382.86	88.56
383.085	104.56
383.31	98.56
383.535	125.56
383.761	101.56
383.986	97.56
384.211	93.56
384.436	79.56
384.662	93.56
384.887	90.56
385.112	87.56
385.337	95.56
385.562	103.56
385.787	107.56
386.013	106.56
386.238	109.56
386.463	108.56
386.688	107.56
386.913	103.56
387.138	105.56
387.363	107.56
387.588	103.56
387.813	89.56
388.038	87.56
388.263	85.56
388.488	115.56
388.713	97.56
388.938	94.56
389.163	97.56
389.387	94.56
389.612	102.56
389.837	103.56
390.062	94.56
390.287	80.56
390.512	90.56
390.736	87.56
390.961	92.56
391.186	94.56
391.411	103.56
391.636	71.56
391.86	100.56
392.085	89.56
392.31	86.56
392.534	100.56
392.759	86.56
392.984	89.56
393.208	93.56
393.433	88.56
393.658	96.56
393.882	70.56
394.107	80.56
394.331	81.56
394.556	86.56
394.78	100.56
395.005	98.56
395.229	92.56
395.454	83.56
395.678	83.56
395.903	78.56
396.127	89.56
396.352	91.56
396.576	79.56
396.801	82.56
397.025	92.56
397.249	91.56
397.474	88.56
397.698	91.56
397.922	77.56
398.147	81.56
398.371	84.56
398.595	88.56
398.82	94.56
399.044	83.56
399.268	77.56
399.492	90.56
399.717	81.56
399.941	86.56
400.165	110.56
400.389	102.56
400.613	97.56
400.837	84.56
401.062	80.56
401.286	101.56
401.51	100.56
401.734	87.56
401.958	89.56
402.182	120.56
402.406	143.56
402.63	113.56
402.854	92.56
403.078	86.56
403.302	84.56
403.526	98.56
403.75	83.56
403.974	86.56
404.198	96.56
404.422	97.56
404.645	82.56
404.869	105.56
405.093	83.56
405.317	101.56
405.541	99.56
405.765	98.56
405.988	81.56
406.212	151.56
406.436	185.56
406.66	129.56
406.883	94.56
407.107	91.56
407.331	79.56
407.555	88.56
407.778	100.56
408.002	89.56
408.226	95.56
408.449	114.56
408.673	88.56
408.896	75.56
409.12	102.56
409.344	73.56
409.567	92.56
409.791	85.56
410.014	93.56
410.238	95.56
410.461	95.56
410.685	106.56
410.908	99.56
411.132	99.56
411.355	105.56
411.578	78.56
411.802	81.56
412.025	104.56
412.249	86.56
412.472	107.56
412.695	88.56
412.919	90.56
413.142	92.56
413.365	84.56
413.589	73.56
413.812	90.56
414.035	95.56
414.258	85.56
414.482	91.56
414.705	88.56
414.928	77.56
415.151	90.56
415.374	108.56
415.597	92.56
415.821	86.56
416.044	93.56
416.267	83.56
416.49	94.56
416.713	89.56
416.936	80.56
417.159	93.56
417.382	94.56
417.605	89.56
417.828	85.56
418.051	88.56
418.274	98.56
418.497	87.56
418.72	85.56
418.943	99.56
419.166	73.56
419.389	84.56
419.611	82.56
419.834	83.56
420.057	71.56
420.28	91.56
420.503	84.56
420.726	91.56
420.948	88.56
421.171	99.56
421.394	103.56
421.617	99.56
421.839	87.56
422.062	95.56
422.285	93.56
422.507	104.56
422.73	97.56
422.953	90.56
423.175	100.56
423.398	96.56
423.621	99.56
423.843	90.56
424.066	78.56
424.288	95.56
424.511	93.56
424.733	89.56
424.956	86.56
425.178	86.56
425.401	100.56
425.623	98.56
425.846	92.56
426.068	101.56
426.291	77.56
426.513	94.56
426.735	99.56
426.958	101.56
427.18	97.56
427.402	114.56
427.625	147.56
427.847	113.56
428.069	107.56
428.292	72.56
428.514	93.56
428.736	82.56
428.958	82.56
429.181	74.56
429.403	96.56
429.625	80.56
429.847	85.56
430.069	92.56
430.292	91.56
430.514	76.56
430.736	84.56
430.958	90.56
431.18	70.56
431.402	84.56
431.624	78.56
431.846	81.56
432.068	83.56
432.29	87.56
432.512	85.56
432.734	88.56
432.956	88.56
433.178	90.56
433.4	88.56
433.622	82.56
433.844	85.56
434.066	81.56
434.287	92.56
434.509	87.56
434.731	98.56
434.953	75.56
435.175	84.56
435.397	79.56
435.618	90.56
435.84	97.56
436.062	107.56
436.284	103.56
436.505	93.56
436.727	89.56
436.949	94.56
437.17	83.56
437.392	87.56
437.614	98.56
437.835	101.56
438.057	115.56
438.278	111.56
438.5	105.56
438.721	105.56
438.943	100.56
439.165	97.56
439.386	93.56
439.608	96.56
439.829	86.56
440.05	134.56
440.272	128.56
440.493	91.56
440.715	74.56
440.936	87.56
441.158	90.56
441.379	82.56
441.6	94.56
441.822	93.56
442.043	87.56
442.264	115.56
442.486	113.56
442.707	90.56
442.928	98.56
443.149	100.56
443.371	115.56
443.592	111.56
443.813	115.56
444.034	100.56
444.255	99.56
444.476	85.56
444.698	103.56
444.919	87.56
445.14	109.56
445.361	114.56
445.582	112.56
445.803	118.56
446.024	130.56
446.245	122.56
446.466	101.56
446.687	95.56
446.908	95.56
447.129	82.56
447.35	92.56
447.571	89.56
447.792	91.56
448.013	101.56
448.234	100.56
448.455	94.56
448.675	113.56
448.896	105.56
449.117	86.56
449.338	99.56
449.559	124.56
449.779	110.56
450	94.56
450.221	93.56
450.442	81.56
450.662	79.56
450.883	104.56
451.104	115.56
451.324	98.56
451.545	82.56
451.766	83.56
451.986	81.56
452.207	93.56
452.428	91.56
452.648	93.56
452.869	95.56
453.089	108.56
453.31	102.56
453.53	109.56
453.751	92.56
453.971	87.56
454.192	101.56
454.412	84.56
454.633	90.56
454.853	88.56
455.073	89.56
455.294	80.56
455.514	111.56
455.734	96.56
455.955	85.56
456.175	82.56
456.395	81.56
456.616	93.56
456.836	68.56
457.056	75.56
457.276	97.56
457.497	90.56
457.717	79.56
457.937	88.56
458.157	77.56
458.377	82.56
458.598	97.56
458.818	126.56
459.038	134.56
459.258	91.56
459.478	92.56
459.698	93.56
459.918	98.56
460.138	81.56
460.358	88.56
460.578	90.56
460.798	95.56
461.018	103.56
461.238	78.56
461.458	77.56
461.678	93.56
461.898	90.56
462.118	85.56
462.338	85.56
462.558	90.56
462.777	84.56
462.997	90.56
463.217	73.56
463.437	93.56
463.657	90.56
463.876	90.56
464.096	96.56
464.316	83.56
464.536	90.56
464.755	87.56
464.975	101.56
465.195	132.56
465.414	142.56
465.634	97.56
465.854	85.56
466.073	72.56
466.293	77.56
466.512	79.56
466.732	78.56
466.951	88.56
467.171	94.56
467.391	89.56
467.61	93.56
467.829	101.56
468.049	94.56
468.268	96.56
468.488	95.56
468.707	90.56
468.927	79.56
469.146	79.56
469.365	74.56
469.585	93.56
469.804	91.56
470.023	95.56
470.243	96.56
470.462	91.56
470.681	101.56
470.901	88.56
471.12	75.56
471.339	80.56
471.558	84.56
471.777	96.56
471.997	93.56
472.216	89.56
472.435	100.56
472.654	92.56
472.873	90.56
473.092	86.56
473.311	86.56
473.53	79.56
473.749	88.56
473.968	99.56
474.187	107.56
474.406	90.56
474.625	82.56
474.844	92.56
475.063	76.56
475.282	91.56
475.501	93.56
475.72	81.56
475.939	72.56
476.158	89.56
476.377	81.56
476.596	78.56
476.814	82.56
477.033	103.56
477.252	97.56
477.471	94.56
477.69	95.56
477.908	81.56
478.127	93.56
478.346	74.56
478.564	91.56
478.783	99.56
479.002	85.56
479.22	91.56
479.439	90.56
479.658	113.56
479.876	88.56
480.095	91.56
480.313	86.56
480.532	98.56
480.751	70.56
480.969	99.56
481.188	112.56
481.406	110.56
481.624	90.56
481.843	89.56
482.061	88.56
482.28	91.56
482.498	86.56
482.717	100.56
482.935	88.56
483.153	93.56
483.372	84.56
483.59	88.56
483.808	97.56
484.027	87.56
484.245	86.56
484.463	85.56
484.681	93.56
484.9	88.56
485.118	94.56
485.336	105.56
485.554	91.56
485.772	97.56
485.99	110.56
486.209	105.56
486.427	100.56
486.645	105.56
486.863	92.56
487.081	103.56
487.299	93.56
487.517	91.56
487.735	82.56
487.953	94.56
488.171	67.56
488.389	85.56
488.607	84.56
488.825	95.56
489.043	90.56
489.261	87.56
489.479	82.56
489.696	81.56
489.914	96.56
490.132	89.56
490.35	98.56
490.568	104.56
490.786	96.56
491.003	81.56
491.221	87.56
491.439	106.56
491.657	100.56
491.874	95.56
492.092	102.56
492.31	96.56
492.527	90.56
492.745	96.56
492.963	84.56
493.18	93.56
493.398	101.56
493.615	103.56
493.833	106.56
494.05	91.56
494.268	101.56
494.485	101.56
494.703	87.56
494.92	98.56
495.138	74.56
495.355	81.56
495.573	91.56
495.79	79.56
496.008	107.56
496.225	94.56
496.442	85.56
496.66	77.56
496.877	89.56
497.094	92.56
497.312	88.56
497.529	83.56
497.746	87.56
497.963	98.56
498.181	104.56
498.398	105.56
498.615	114.56
498.832	99.56
499.049	86.56
499.267	78.56
499.484	82.56
499.701	95.56
499.918	75.56
500.135	96.56
500.352	89.56
500.569	104.56
500.786	85.56
501.003	112.56
501.22	102.56
501.437	84.56
501.654	94.56
501.871	106.56
502.088	90.56
502.305	74.56
502.522	74.56
502.739	95.56
502.956	82.56
503.172	75.56
503.389	102.56
503.606	99.56
503.823	99.56
504.04	94.56
504.256	92.56
504.473	84.56
504.69	91.56
504.907	78.56
505.123	92.56
505.34	84.56
505.557	90.56
505.773	74.56
505.99	95.56
506.207	95.56
506.423	92.56
506.64	79.56
506.856	94.56
507.073	87.56
507.289	98.56
507.506	103.56
507.722	101.56
507.939	104.56
508.155	93.56
508.372	94.56
508.588	80.56
508.805	95.56
509.021	76.56
509.238	90.56
509.454	107.56
509.67	94.56
509.887	112.56
510.103	111.56
510.319	186.56
510.536	636.56
510.752	1969.56
510.968	541.56
511.184	135.56
511.401	93.56
511.617	75.56
511.833	102.56
512.049	99.56
512.265	92.56
512.481	87.56
512.698	89.56
512.914	99.56
513.13	90.56
513.346	87.56
513.562	85.56
513.778	83.56
513.994	105.56
514.21	95.56
514.426	122.56
514.642	126.56
514.858	106.56
515.074	137.56
515.29	363.56
515.506	1169.56
515.721	439.56
515.937	153.56
516.153	97.56
516.369	97.56
