Data from Uncirc_1986_H10_HRD10591_00007.txt Node
Date: Wed Jan 03 12:14:27 EST 2024
User: Yrep
Spectrometer: HR+D1059
Trigger mode: 1
Integration Time (sec): 1.000000E-1
Scans to average: 1
Electric dark correction enabled: true
Nonlinearity correction enabled: false
Boxcar width: 0
XAxis mode: Wavelengths
Number of Pixels in Spectrum: 2048
>>>>>Begin Spectral Data<<<<<
223.165	-23.44
223.4	-23.44
223.635	-23.44
223.869	-10.44
224.104	-14.44
224.338	-18.44
224.573	-9.44
224.808	-15.44
225.042	-8.44
225.277	-13.44
225.511	-6.44
225.746	0.56
225.98	3.56
226.215	20.56
226.449	27.56
226.683	20.56
226.918	23.56
227.152	23.56
227.387	30.56
227.621	44.56
227.856	50.56
228.09	50.56
228.324	52.56
228.559	49.56
228.793	51.56
229.027	83.56
229.262	64.56
229.496	72.56
229.73	77.56
229.964	104.56
230.199	86.56
230.433	88.56
230.667	85.56
230.901	75.56
231.136	80.56
231.37	75.56
231.604	82.56
231.838	90.56
232.072	76.56
232.306	77.56
232.541	88.56
232.775	77.56
233.009	80.56
233.243	79.56
233.477	81.56
233.711	81.56
233.945	81.56
234.179	80.56
234.413	82.56
234.647	86.56
234.881	87.56
235.115	69.56
235.349	79.56
235.583	92.56
235.817	77.56
236.051	74.56
236.285	81.56
236.519	74.56
236.753	67.56
236.987	74.56
237.221	90.56
237.455	88.56
237.689	66.56
237.922	80.56
238.156	77.56
238.39	74.56
238.624	65.56
238.858	73.56
239.091	89.56
239.325	84.56
239.559	92.56
239.793	87.56
240.027	77.56
240.26	77.56
240.494	74.56
240.728	61.56
240.961	78.56
241.195	85.56
241.429	75.56
241.662	71.56
241.896	70.56
242.13	67.56
242.363	79.56
242.597	76.56
242.83	98.56
243.064	88.56
243.298	81.56
243.531	80.56
243.765	82.56
243.998	62.56
244.232	63.56
244.465	90.56
244.699	71.56
244.932	88.56
245.166	85.56
245.399	85.56
245.633	86.56
245.866	66.56
246.099	82.56
246.333	86.56
246.566	76.56
246.8	72.56
247.033	91.56
247.266	80.56
247.5	87.56
247.733	91.56
247.966	82.56
248.2	78.56
248.433	77.56
248.666	85.56
248.899	84.56
249.133	73.56
249.366	80.56
249.599	98.56
249.832	85.56
250.066	84.56
250.299	91.56
250.532	74.56
250.765	79.56
250.998	83.56
251.231	85.56
251.465	78.56
251.698	87.56
251.931	78.56
252.164	77.56
252.397	80.56
252.63	94.56
252.863	66.56
253.096	70.56
253.329	76.56
253.562	83.56
253.795	89.56
254.028	88.56
254.261	76.56
254.494	94.56
254.727	70.56
254.96	91.56
255.193	83.56
255.426	77.56
255.659	88.56
255.892	95.56
256.124	82.56
256.357	94.56
256.59	91.56
256.823	73.56
257.056	80.56
257.289	70.56
257.521	90.56
257.754	90.56
257.987	86.56
258.22	86.56
258.452	93.56
258.685	99.56
258.918	76.56
259.151	96.56
259.383	93.56
259.616	97.56
259.849	97.56
260.081	76.56
260.314	88.56
260.547	82.56
260.779	95.56
261.012	97.56
261.244	93.56
261.477	80.56
261.71	92.56
261.942	102.56
262.175	124.56
262.407	89.56
262.64	73.56
262.872	89.56
263.105	93.56
263.337	86.56
263.57	90.56
263.802	84.56
264.035	83.56
264.267	84.56
264.499	91.56
264.732	75.56
264.964	86.56
265.197	84.56
265.429	90.56
265.661	84.56
265.894	72.56
266.126	94.56
266.358	80.56
266.591	86.56
266.823	91.56
267.055	89.56
267.287	84.56
267.52	88.56
267.752	110.56
267.984	86.56
268.216	83.56
268.448	97.56
268.681	87.56
268.913	94.56
269.145	89.56
269.377	93.56
269.609	96.56
269.841	89.56
270.073	92.56
270.306	82.56
270.538	90.56
270.77	96.56
271.002	81.56
271.234	99.56
271.466	100.56
271.698	85.56
271.93	85.56
272.162	98.56
272.394	81.56
272.626	102.56
272.858	98.56
273.09	77.56
273.322	85.56
273.553	67.56
273.785	81.56
274.017	88.56
274.249	84.56
274.481	91.56
274.713	86.56
274.945	97.56
275.176	73.56
275.408	85.56
275.64	91.56
275.872	82.56
276.104	76.56
276.335	101.56
276.567	76.56
276.799	109.56
277.031	108.56
277.262	92.56
277.494	83.56
277.726	89.56
277.957	91.56
278.189	96.56
278.421	98.56
278.652	94.56
278.884	94.56
279.115	92.56
279.347	88.56
279.579	103.56
279.81	82.56
280.042	88.56
280.273	93.56
280.505	101.56
280.736	96.56
280.968	89.56
281.199	90.56
281.431	85.56
281.662	92.56
281.894	82.56
282.125	97.56
282.356	126.56
282.588	136.56
282.819	116.56
283.051	83.56
283.282	82.56
283.513	93.56
283.745	100.56
283.976	97.56
284.207	98.56
284.439	96.56
284.67	87.56
284.901	102.56
285.132	100.56
285.364	83.56
285.595	98.56
285.826	88.56
286.057	85.56
286.288	84.56
286.52	95.56
286.751	82.56
286.982	82.56
287.213	80.56
287.444	93.56
287.675	95.56
287.906	84.56
288.138	100.56
288.369	106.56
288.6	101.56
288.831	88.56
289.062	92.56
289.293	98.56
289.524	87.56
289.755	104.56
289.986	89.56
290.217	90.56
290.448	93.56
290.679	90.56
290.91	82.56
291.141	95.56
291.371	88.56
291.602	90.56
291.833	86.56
292.064	85.56
292.295	85.56
292.526	98.56
292.757	92.56
292.987	99.56
293.218	94.56
293.449	101.56
293.68	96.56
293.91	76.56
294.141	85.56
294.372	82.56
294.603	93.56
294.833	92.56
295.064	82.56
295.295	96.56
295.525	83.56
295.756	108.56
295.987	116.56
296.217	120.56
296.448	137.56
296.679	91.56
296.909	94.56
297.14	93.56
297.37	94.56
297.601	74.56
297.831	97.56
298.062	92.56
298.292	101.56
298.523	96.56
298.753	98.56
298.984	84.56
299.214	103.56
299.445	95.56
299.675	94.56
299.905	93.56
300.136	92.56
300.366	99.56
300.597	96.56
300.827	80.56
301.057	92.56
301.288	91.56
301.518	102.56
301.748	95.56
301.979	99.56
302.209	100.56
302.439	90.56
302.669	83.56
302.9	93.56
303.13	100.56
303.36	101.56
303.59	93.56
303.82	106.56
304.051	95.56
304.281	83.56
304.511	91.56
304.741	88.56
304.971	107.56
305.201	90.56
305.431	97.56
305.661	94.56
305.891	101.56
306.121	97.56
306.352	109.56
306.582	105.56
306.812	81.56
307.042	85.56
307.272	81.56
307.502	87.56
307.731	109.56
307.961	84.56
308.191	93.56
308.421	103.56
308.651	96.56
308.881	100.56
309.111	98.56
309.341	89.56
309.571	97.56
309.8	95.56
310.03	104.56
310.26	96.56
310.49	91.56
310.72	93.56
310.949	102.56
311.179	92.56
311.409	74.56
311.639	92.56
311.868	102.56
312.098	105.56
312.328	100.56
312.557	108.56
312.787	105.56
313.017	100.56
313.246	88.56
313.476	103.56
313.706	89.56
313.935	102.56
314.165	99.56
314.394	106.56
314.624	107.56
314.853	93.56
315.083	105.56
315.312	83.56
315.542	101.56
315.771	97.56
316.001	97.56
316.23	86.56
316.46	91.56
316.689	96.56
316.919	81.56
317.148	110.56
317.377	102.56
317.607	108.56
317.836	102.56
318.065	89.56
318.295	95.56
318.524	85.56
318.753	89.56
318.983	96.56
319.212	98.56
319.441	92.56
319.67	117.56
319.9	94.56
320.129	105.56
320.358	90.56
320.587	94.56
320.816	94.56
321.046	113.56
321.275	106.56
321.504	109.56
321.733	103.56
321.962	86.56
322.191	100.56
322.42	89.56
322.649	105.56
322.878	105.56
323.108	125.56
323.337	118.56
323.566	121.56
323.795	159.56
324.024	184.56
324.253	350.56
324.482	758.56
324.71	1517.56
324.939	2000.56
325.168	746.56
325.397	230.56
325.626	144.56
325.855	128.56
326.084	124.56
326.313	140.56
326.542	141.56
326.77	201.56
326.999	423.56
327.228	833.56
327.457	1552.56
327.686	1270.56
327.914	349.56
328.143	188.56
328.372	141.56
328.6	113.56
328.829	121.56
329.058	126.56
329.287	108.56
329.515	110.56
329.744	104.56
329.972	116.56
330.201	96.56
330.43	107.56
330.658	130.56
330.887	132.56
331.115	136.56
331.344	100.56
331.572	104.56
331.801	109.56
332.03	104.56
332.258	100.56
332.486	91.56
332.715	98.56
332.943	101.56
333.172	93.56
333.4	117.56
333.629	113.56
333.857	98.56
334.085	100.56
334.314	91.56
334.542	96.56
334.771	103.56
334.999	100.56
335.227	97.56
335.455	98.56
335.684	90.56
335.912	100.56
336.14	94.56
336.369	100.56
336.597	109.56
336.825	109.56
337.053	100.56
337.281	96.56
337.51	104.56
337.738	98.56
337.966	93.56
338.194	105.56
338.422	87.56
338.65	84.56
338.878	73.56
339.106	92.56
339.334	100.56
339.562	100.56
339.79	68.56
340.018	80.56
340.246	70.56
340.474	100.56
340.702	90.56
340.93	103.56
341.158	87.56
341.386	94.56
341.614	89.56
341.842	90.56
342.07	97.56
342.298	101.56
342.526	88.56
342.754	99.56
342.981	96.56
343.209	95.56
343.437	106.56
343.665	122.56
343.893	116.56
344.12	90.56
344.348	83.56
344.576	102.56
344.804	105.56
345.031	101.56
345.259	110.56
345.487	109.56
345.714	104.56
345.942	94.56
346.17	99.56
346.397	89.56
346.625	100.56
346.853	93.56
347.08	106.56
347.308	85.56
347.535	104.56
347.763	88.56
347.99	97.56
348.218	110.56
348.445	91.56
348.673	99.56
348.9	91.56
349.128	101.56
349.355	103.56
349.583	96.56
349.81	85.56
350.037	105.56
350.265	107.56
350.492	94.56
350.72	94.56
350.947	91.56
351.174	106.56
351.402	121.56
351.629	94.56
351.856	86.56
352.083	105.56
352.311	101.56
352.538	106.56
352.765	107.56
352.992	116.56
353.22	109.56
353.447	105.56
353.674	108.56
353.901	91.56
354.128	109.56
354.355	101.56
354.583	99.56
354.81	97.56
355.037	97.56
355.264	100.56
355.491	102.56
355.718	89.56
355.945	105.56
356.172	93.56
356.399	102.56
356.626	99.56
356.853	93.56
357.08	89.56
357.307	100.56
357.534	104.56
357.761	96.56
357.988	105.56
358.215	92.56
358.441	88.56
358.668	94.56
358.895	90.56
359.122	89.56
359.349	97.56
359.576	97.56
359.802	97.56
360.029	101.56
360.256	102.56
360.483	106.56
360.709	110.56
360.936	103.56
361.163	92.56
361.39	82.56
361.616	104.56
361.843	92.56
362.07	94.56
362.296	100.56
362.523	99.56
362.749	103.56
362.976	93.56
363.203	82.56
363.429	94.56
363.656	95.56
363.882	102.56
364.109	91.56
364.335	99.56
364.562	98.56
364.788	106.56
365.015	107.56
365.241	107.56
365.468	115.56
365.694	107.56
365.92	89.56
366.147	88.56
366.373	90.56
366.599	97.56
366.826	94.56
367.052	89.56
367.278	80.56
367.505	96.56
367.731	85.56
367.957	78.56
368.184	87.56
368.41	103.56
368.636	99.56
368.862	108.56
369.089	120.56
369.315	104.56
369.541	109.56
369.767	88.56
369.993	95.56
370.219	103.56
370.445	87.56
370.672	92.56
370.898	91.56
371.124	98.56
371.35	84.56
371.576	91.56
371.802	107.56
372.028	91.56
372.254	108.56
372.48	96.56
372.706	91.56
372.932	82.56
373.158	86.56
373.384	89.56
373.61	96.56
373.835	90.56
374.061	91.56
374.287	84.56
374.513	84.56
374.739	100.56
374.965	90.56
375.191	88.56
375.416	93.56
375.642	91.56
375.868	86.56
376.094	100.56
376.319	90.56
376.545	81.56
376.771	99.56
376.997	86.56
377.222	95.56
377.448	92.56
377.674	79.56
377.899	112.56
378.125	96.56
378.35	109.56
378.576	102.56
378.802	89.56
379.027	103.56
379.253	83.56
379.478	100.56
379.704	109.56
379.929	98.56
380.155	97.56
380.38	107.56
380.606	99.56
380.831	94.56
381.057	111.56
381.282	98.56
381.507	96.56
381.733	89.56
381.958	82.56
382.184	92.56
382.409	97.56
382.634	92.56
382.86	102.56
383.085	98.56
383.31	105.56
383.535	105.56
383.761	109.56
383.986	95.56
384.211	99.56
384.436	110.56
384.662	103.56
384.887	100.56
385.112	92.56
385.337	113.56
385.562	102.56
385.787	112.56
386.013	113.56
386.238	106.56
386.463	97.56
386.688	111.56
386.913	114.56
387.138	96.56
387.363	91.56
387.588	91.56
387.813	103.56
388.038	101.56
388.263	94.56
388.488	113.56
388.713	108.56
388.938	96.56
389.163	105.56
389.387	103.56
389.612	88.56
389.837	90.56
390.062	92.56
390.287	98.56
390.512	93.56
390.736	91.56
390.961	101.56
391.186	109.56
391.411	98.56
391.636	99.56
391.86	95.56
392.085	89.56
392.31	71.56
392.534	100.56
392.759	106.56
392.984	83.56
393.208	106.56
393.433	93.56
393.658	100.56
393.882	97.56
394.107	83.56
394.331	94.56
394.556	91.56
394.78	93.56
395.005	82.56
395.229	108.56
395.454	90.56
395.678	90.56
395.903	88.56
396.127	85.56
396.352	90.56
396.576	80.56
396.801	98.56
397.025	102.56
397.249	98.56
397.474	99.56
397.698	95.56
397.922	93.56
398.147	90.56
398.371	82.56
398.595	79.56
398.82	82.56
399.044	93.56
399.268	79.56
399.492	84.56
399.717	81.56
399.941	88.56
400.165	88.56
400.389	88.56
400.613	77.56
400.837	93.56
401.062	101.56
401.286	97.56
401.51	82.56
401.734	93.56
401.958	105.56
402.182	120.56
402.406	133.56
402.63	104.56
402.854	92.56
403.078	90.56
403.302	91.56
403.526	101.56
403.75	91.56
403.974	96.56
404.198	86.56
404.422	93.56
404.645	98.56
404.869	84.56
405.093	94.56
405.317	100.56
405.541	100.56
405.765	96.56
405.988	115.56
406.212	156.56
406.436	196.56
406.66	115.56
406.883	95.56
407.107	97.56
407.331	99.56
407.555	101.56
407.778	88.56
408.002	90.56
408.226	99.56
408.449	88.56
408.673	97.56
408.896	98.56
409.12	98.56
409.344	84.56
409.567	89.56
409.791	76.56
410.014	88.56
410.238	97.56
410.461	107.56
410.685	90.56
410.908	99.56
411.132	106.56
411.355	103.56
411.578	101.56
411.802	81.56
412.025	89.56
412.249	100.56
412.472	96.56
412.695	91.56
412.919	88.56
413.142	75.56
413.365	86.56
413.589	97.56
413.812	86.56
414.035	104.56
414.258	92.56
414.482	101.56
414.705	88.56
414.928	102.56
415.151	92.56
415.374	106.56
415.597	91.56
415.821	96.56
416.044	86.56
416.267	101.56
416.49	88.56
416.713	92.56
416.936	92.56
417.159	82.56
417.382	84.56
417.605	89.56
417.828	102.56
418.051	93.56
418.274	100.56
418.497	98.56
418.72	85.56
418.943	97.56
419.166	99.56
419.389	92.56
419.611	101.56
419.834	89.56
420.057	81.56
420.28	98.56
420.503	98.56
420.726	86.56
420.948	98.56
421.171	81.56
421.394	88.56
421.617	91.56
421.839	100.56
422.062	102.56
422.285	105.56
422.507	113.56
422.73	93.56
422.953	103.56
423.175	96.56
423.398	106.56
423.621	90.56
423.843	82.56
424.066	106.56
424.288	90.56
424.511	92.56
424.733	85.56
424.956	110.56
425.178	108.56
425.401	112.56
425.623	107.56
425.846	86.56
426.068	87.56
426.291	84.56
426.513	82.56
426.735	92.56
426.958	98.56
427.18	92.56
427.402	136.56
427.625	147.56
427.847	109.56
428.069	101.56
428.292	94.56
428.514	88.56
428.736	83.56
428.958	92.56
429.181	90.56
429.403	89.56
429.625	99.56
429.847	104.56
430.069	112.56
430.292	79.56
430.514	88.56
430.736	91.56
430.958	84.56
431.18	98.56
431.402	83.56
431.624	94.56
431.846	98.56
432.068	110.56
432.29	91.56
432.512	89.56
432.734	87.56
432.956	86.56
433.178	102.56
433.4	106.56
433.622	81.56
433.844	101.56
434.066	101.56
434.287	100.56
434.509	85.56
434.731	84.56
434.953	76.56
435.175	88.56
435.397	88.56
435.618	81.56
435.84	108.56
436.062	119.56
436.284	107.56
436.505	106.56
436.727	106.56
436.949	101.56
437.17	90.56
437.392	71.56
437.614	95.56
437.835	96.56
438.057	112.56
438.278	116.56
438.5	117.56
438.721	131.56
438.943	114.56
439.165	86.56
439.386	83.56
439.608	102.56
439.829	102.56
440.05	117.56
440.272	144.56
440.493	94.56
440.715	90.56
440.936	96.56
441.158	94.56
441.379	92.56
441.6	88.56
441.822	107.56
442.043	90.56
442.264	93.56
442.486	110.56
442.707	97.56
442.928	96.56
443.149	132.56
443.371	120.56
443.592	109.56
443.813	105.56
444.034	126.56
444.255	90.56
444.476	85.56
444.698	107.56
444.919	101.56
445.14	128.56
445.361	127.56
445.582	102.56
445.803	137.56
446.024	137.56
446.245	127.56
446.466	106.56
446.687	89.56
446.908	86.56
447.129	86.56
447.35	89.56
447.571	87.56
447.792	90.56
448.013	98.56
448.234	106.56
448.455	98.56
448.675	103.56
448.896	105.56
449.117	108.56
449.338	92.56
449.559	123.56
449.779	125.56
450	88.56
450.221	100.56
450.442	104.56
450.662	96.56
450.883	95.56
451.104	101.56
451.324	100.56
451.545	94.56
451.766	77.56
451.986	82.56
452.207	88.56
452.428	91.56
452.648	90.56
452.869	101.56
453.089	102.56
453.31	109.56
453.53	101.56
453.751	100.56
453.971	86.56
454.192	111.56
454.412	82.56
454.633	96.56
454.853	98.56
455.073	89.56
455.294	94.56
455.514	100.56
455.734	91.56
455.955	92.56
456.175	73.56
456.395	81.56
456.616	94.56
456.836	82.56
457.056	90.56
457.276	89.56
457.497	90.56
457.717	80.56
457.937	76.56
458.157	81.56
458.377	82.56
458.598	104.56
458.818	141.56
459.038	161.56
459.258	120.56
459.478	92.56
459.698	82.56
459.918	85.56
460.138	94.56
460.358	86.56
460.578	93.56
460.798	86.56
461.018	103.56
461.238	88.56
461.458	84.56
461.678	90.56
461.898	85.56
462.118	109.56
462.338	86.56
462.558	90.56
462.777	94.56
462.997	70.56
463.217	92.56
463.437	97.56
463.657	84.56
463.876	81.56
464.096	83.56
464.316	84.56
464.536	96.56
464.755	82.56
464.975	104.56
465.195	151.56
465.414	146.56
465.634	103.56
465.854	96.56
466.073	90.56
466.293	94.56
466.512	91.56
466.732	100.56
466.951	76.56
467.171	89.56
467.391	89.56
467.61	91.56
467.829	96.56
468.049	98.56
468.268	106.56
468.488	101.56
468.707	80.56
468.927	94.56
469.146	83.56
469.365	85.56
469.585	89.56
469.804	92.56
470.023	101.56
470.243	91.56
470.462	98.56
470.681	97.56
470.901	99.56
471.12	84.56
471.339	91.56
471.558	75.56
471.777	105.56
471.997	84.56
472.216	94.56
472.435	101.56
472.654	75.56
472.873	94.56
473.092	96.56
473.311	104.56
473.53	85.56
473.749	88.56
473.968	96.56
474.187	103.56
474.406	93.56
474.625	90.56
474.844	85.56
475.063	73.56
475.282	78.56
475.501	88.56
475.72	94.56
475.939	96.56
476.158	87.56
476.377	87.56
476.596	97.56
476.814	106.56
477.033	99.56
477.252	84.56
477.471	78.56
477.69	80.56
477.908	88.56
478.127	109.56
478.346	88.56
478.564	93.56
478.783	102.56
479.002	93.56
479.22	92.56
479.439	92.56
479.658	105.56
479.876	94.56
480.095	85.56
480.313	104.56
480.532	82.56
480.751	89.56
480.969	82.56
481.188	104.56
481.406	98.56
481.624	93.56
481.843	85.56
482.061	90.56
482.28	91.56
482.498	90.56
482.717	87.56
482.935	84.56
483.153	101.56
483.372	98.56
483.59	99.56
483.808	86.56
484.027	88.56
484.245	94.56
484.463	88.56
484.681	104.56
484.9	94.56
485.118	100.56
485.336	102.56
485.554	90.56
485.772	88.56
485.99	116.56
486.209	104.56
486.427	109.56
486.645	119.56
486.863	97.56
487.081	103.56
487.299	116.56
487.517	99.56
487.735	93.56
487.953	96.56
488.171	86.56
488.389	106.56
488.607	116.56
488.825	105.56
489.043	86.56
489.261	100.56
489.479	107.56
489.696	87.56
489.914	97.56
490.132	96.56
490.35	95.56
490.568	94.56
490.786	82.56
491.003	89.56
491.221	93.56
491.439	77.56
491.657	104.56
491.874	98.56
492.092	86.56
492.31	94.56
492.527	108.56
492.745	92.56
492.963	88.56
493.18	87.56
493.398	93.56
493.615	90.56
493.833	97.56
494.05	84.56
494.268	83.56
494.485	90.56
494.703	96.56
494.92	80.56
495.138	80.56
495.355	92.56
495.573	104.56
495.79	94.56
496.008	90.56
496.225	95.56
496.442	89.56
496.66	96.56
496.877	74.56
497.094	105.56
497.312	91.56
497.529	104.56
497.746	99.56
497.963	91.56
498.181	102.56
498.398	101.56
498.615	106.56
498.832	99.56
499.049	102.56
499.267	90.56
499.484	92.56
499.701	91.56
499.918	94.56
500.135	84.56
500.352	88.56
500.569	110.56
500.786	93.56
501.003	106.56
501.22	98.56
501.437	91.56
501.654	100.56
501.871	106.56
502.088	95.56
502.305	95.56
502.522	96.56
502.739	88.56
502.956	81.56
503.172	78.56
503.389	88.56
503.606	107.56
503.823	99.56
504.04	108.56
504.256	88.56
504.473	90.56
504.69	93.56
504.907	99.56
505.123	82.56
505.34	90.56
505.557	93.56
505.773	93.56
505.99	94.56
506.207	80.56
506.423	94.56
506.64	89.56
506.856	96.56
507.073	99.56
507.289	95.56
507.506	100.56
507.722	106.56
507.939	101.56
508.155	94.56
508.372	97.56
508.588	75.56
508.805	92.56
509.021	100.56
509.238	94.56
509.454	108.56
509.67	108.56
509.887	105.56
510.103	120.56
510.319	188.56
510.536	661.56
510.752	1980.56
510.968	544.56
511.184	147.56
511.401	109.56
511.617	114.56
511.833	99.56
512.049	98.56
512.265	81.56
512.481	84.56
512.698	91.56
512.914	100.56
513.13	78.56
513.346	107.56
513.562	85.56
513.778	92.56
513.994	100.56
514.21	101.56
514.426	112.56
