Data from Uncirc_1986_H10_HRD10591_00089.txt Node
Date: Wed Jan 03 12:14:44 EST 2024
User: Yrep
Spectrometer: HR+D1059
Trigger mode: 1
Integration Time (sec): 1.000000E-1
Scans to average: 1
Electric dark correction enabled: true
Nonlinearity correction enabled: false
Boxcar width: 0
XAxis mode: Wavelengths
Number of Pixels in Spectrum: 2048
>>>>>Begin Spectral Data<<<<<
223.165	-33.06
223.4	-33.06
223.635	-33.06
223.869	-16.06
224.104	-19.06
224.338	-20.06
224.573	-16.06
224.808	-4.06
225.042	-8.06
225.277	5.94
225.511	-10.06
225.746	0.94
225.98	14.94
226.215	18.94
226.449	13.94
226.683	22.94
226.918	25.94
227.152	22.94
227.387	39.94
227.621	32.94
227.856	57.94
228.09	36.94
228.324	40.94
228.559	53.94
228.793	62.94
229.027	59.94
229.262	63.94
229.496	67.94
229.73	71.94
229.964	84.94
230.199	80.94
230.433	74.94
230.667	65.94
230.901	78.94
231.136	93.94
231.37	87.94
231.604	79.94
231.838	82.94
232.072	87.94
232.306	91.94
232.541	79.94
232.775	70.94
233.009	72.94
233.243	85.94
233.477	80.94
233.711	76.94
233.945	71.94
234.179	86.94
234.413	90.94
234.647	73.94
234.881	76.94
235.115	68.94
235.349	80.94
235.583	80.94
235.817	80.94
236.051	92.94
236.285	73.94
236.519	82.94
236.753	84.94
236.987	81.94
237.221	99.94
237.455	75.94
237.689	80.94
237.922	67.94
238.156	82.94
238.39	84.94
238.624	87.94
238.858	75.94
239.091	73.94
239.325	74.94
239.559	84.94
239.793	82.94
240.027	87.94
240.26	73.94
240.494	90.94
240.728	67.94
240.961	78.94
241.195	86.94
241.429	71.94
241.662	74.94
241.896	70.94
242.13	71.94
242.363	74.94
242.597	68.94
242.83	70.94
243.064	78.94
243.298	76.94
243.531	80.94
243.765	75.94
243.998	91.94
244.232	91.94
244.465	94.94
244.699	81.94
244.932	80.94
245.166	74.94
245.399	72.94
245.633	81.94
245.866	71.94
246.099	73.94
246.333	64.94
246.566	83.94
246.8	84.94
247.033	96.94
247.266	90.94
247.5	64.94
247.733	69.94
247.966	89.94
248.2	82.94
248.433	81.94
248.666	83.94
248.899	79.94
249.133	76.94
249.366	101.94
249.599	98.94
249.832	70.94
250.066	98.94
250.299	82.94
250.532	77.94
250.765	74.94
250.998	80.94
251.231	78.94
251.465	87.94
251.698	83.94
251.931	71.94
252.164	82.94
252.397	80.94
252.63	86.94
252.863	70.94
253.096	84.94
253.329	71.94
253.562	78.94
253.795	88.94
254.028	75.94
254.261	94.94
254.494	88.94
254.727	86.94
254.96	74.94
255.193	66.94
255.426	74.94
255.659	72.94
255.892	81.94
256.124	79.94
256.357	80.94
256.59	66.94
256.823	96.94
257.056	99.94
257.289	79.94
257.521	72.94
257.754	65.94
257.987	76.94
258.22	71.94
258.452	87.94
258.685	90.94
258.918	89.94
259.151	89.94
259.383	86.94
259.616	65.94
259.849	78.94
260.081	79.94
260.314	93.94
260.547	100.94
260.779	78.94
261.012	86.94
261.244	92.94
261.477	78.94
261.71	80.94
261.942	99.94
262.175	122.94
262.407	88.94
262.64	88.94
262.872	84.94
263.105	90.94
263.337	84.94
263.57	91.94
263.802	87.94
264.035	79.94
264.267	87.94
264.499	90.94
264.732	82.94
264.964	87.94
265.197	82.94
265.429	93.94
265.661	86.94
265.894	92.94
266.126	73.94
266.358	99.94
266.591	70.94
266.823	82.94
267.055	73.94
267.287	80.94
267.52	82.94
267.752	83.94
267.984	84.94
268.216	97.94
268.448	94.94
268.681	81.94
268.913	83.94
269.145	87.94
269.377	96.94
269.609	80.94
269.841	82.94
270.073	82.94
270.306	91.94
270.538	84.94
270.77	89.94
271.002	88.94
271.234	87.94
271.466	92.94
271.698	77.94
271.93	82.94
272.162	87.94
272.394	85.94
272.626	97.94
272.858	87.94
273.09	86.94
273.322	92.94
273.553	100.94
273.785	75.94
274.017	99.94
274.249	88.94
274.481	72.94
274.713	88.94
274.945	71.94
275.176	80.94
275.408	96.94
275.64	91.94
275.872	87.94
276.104	79.94
276.335	80.94
276.567	100.94
276.799	96.94
277.031	74.94
277.262	82.94
277.494	90.94
277.726	85.94
277.957	78.94
278.189	90.94
278.421	78.94
278.652	95.94
278.884	82.94
279.115	74.94
279.347	82.94
279.579	78.94
279.81	94.94
280.042	98.94
280.273	90.94
280.505	95.94
280.736	86.94
280.968	93.94
281.199	92.94
281.431	84.94
281.662	80.94
281.894	98.94
282.125	94.94
282.356	122.94
282.588	124.94
282.819	106.94
283.051	100.94
283.282	92.94
283.513	87.94
283.745	90.94
283.976	91.94
284.207	103.94
284.439	84.94
284.67	88.94
284.901	89.94
285.132	83.94
285.364	94.94
285.595	79.94
285.826	85.94
286.057	86.94
286.288	82.94
286.52	66.94
286.751	94.94
286.982	94.94
287.213	71.94
287.444	87.94
287.675	95.94
287.906	78.94
288.138	84.94
288.369	89.94
288.6	78.94
288.831	92.94
289.062	82.94
289.293	84.94
289.524	82.94
289.755	84.94
289.986	79.94
290.217	104.94
290.448	96.94
290.679	99.94
290.91	91.94
291.141	92.94
291.371	94.94
291.602	87.94
291.833	79.94
292.064	88.94
292.295	91.94
292.526	85.94
292.757	82.94
292.987	68.94
293.218	90.94
293.449	94.94
293.68	87.94
293.91	96.94
294.141	103.94
294.372	87.94
294.603	79.94
294.833	92.94
295.064	89.94
295.295	90.94
295.525	83.94
295.756	78.94
295.987	113.94
296.217	131.94
296.448	112.94
296.679	90.94
296.909	90.94
297.14	74.94
297.37	90.94
297.601	86.94
297.831	96.94
298.062	90.94
298.292	82.94
298.523	82.94
298.753	79.94
298.984	98.94
299.214	83.94
299.445	86.94
299.675	82.94
299.905	104.94
300.136	100.94
300.366	75.94
300.597	96.94
300.827	87.94
301.057	91.94
301.288	97.94
301.518	100.94
301.748	73.94
301.979	97.94
302.209	87.94
302.439	99.94
302.669	90.94
302.9	94.94
303.13	96.94
303.36	92.94
303.59	102.94
303.82	123.94
304.051	94.94
304.281	100.94
304.511	81.94
304.741	98.94
304.971	80.94
305.201	81.94
305.431	86.94
305.661	96.94
305.891	89.94
306.121	92.94
306.352	109.94
306.582	103.94
306.812	98.94
307.042	96.94
307.272	90.94
307.502	96.94
307.731	86.94
307.961	86.94
308.191	98.94
308.421	98.94
308.651	82.94
308.881	102.94
309.111	92.94
309.341	86.94
309.571	99.94
309.8	90.94
310.03	102.94
310.26	89.94
310.49	91.94
310.72	91.94
310.949	88.94
311.179	96.94
311.409	87.94
311.639	96.94
311.868	87.94
312.098	84.94
312.328	82.94
312.557	105.94
312.787	102.94
313.017	93.94
313.246	105.94
313.476	77.94
313.706	86.94
313.935	78.94
314.165	96.94
314.394	79.94
314.624	103.94
314.853	77.94
315.083	91.94
315.312	91.94
315.542	101.94
315.771	105.94
316.001	107.94
316.23	102.94
316.46	87.94
316.689	89.94
316.919	97.94
317.148	98.94
317.377	97.94
317.607	106.94
317.836	91.94
318.065	88.94
318.295	89.94
318.524	94.94
318.753	93.94
318.983	91.94
319.212	103.94
319.441	94.94
319.67	114.94
319.9	103.94
320.129	89.94
320.358	93.94
320.587	90.94
320.816	76.94
321.046	95.94
321.275	98.94
321.504	93.94
321.733	94.94
321.962	93.94
322.191	95.94
322.42	94.94
322.649	97.94
322.878	107.94
323.108	107.94
323.337	89.94
323.566	106.94
323.795	132.94
324.024	181.94
324.253	346.94
324.482	742.94
324.71	1451.94
324.939	1955.94
325.168	751.94
325.397	217.94
325.626	148.94
325.855	132.94
326.084	126.94
326.313	118.94
326.542	155.94
326.77	221.94
326.999	428.94
327.228	857.94
327.457	1523.94
327.686	1225.94
327.914	346.94
328.143	194.94
328.372	135.94
328.6	121.94
328.829	108.94
329.058	125.94
329.287	126.94
329.515	100.94
329.744	105.94
329.972	103.94
330.201	100.94
330.43	105.94
330.658	132.94
330.887	119.94
331.115	120.94
331.344	96.94
331.572	94.94
331.801	91.94
332.03	90.94
332.258	102.94
332.486	101.94
332.715	102.94
332.943	97.94
333.172	98.94
333.4	89.94
333.629	87.94
333.857	95.94
334.085	107.94
334.314	111.94
334.542	108.94
334.771	118.94
334.999	106.94
335.227	83.94
335.455	106.94
335.684	95.94
335.912	91.94
336.14	111.94
336.369	95.94
336.597	90.94
336.825	97.94
337.053	88.94
337.281	98.94
337.51	87.94
337.738	92.94
337.966	96.94
338.194	86.94
338.422	90.94
338.65	88.94
338.878	102.94
339.106	99.94
339.334	95.94
339.562	92.94
339.79	89.94
340.018	100.94
340.246	95.94
340.474	99.94
340.702	82.94
340.93	96.94
341.158	91.94
341.386	92.94
341.614	88.94
341.842	99.94
342.07	90.94
342.298	89.94
342.526	83.94
342.754	76.94
342.981	82.94
343.209	97.94
343.437	98.94
343.665	101.94
343.893	93.94
344.12	120.94
344.348	104.94
344.576	86.94
344.804	87.94
345.031	105.94
345.259	98.94
345.487	87.94
345.714	79.94
345.942	101.94
346.17	99.94
346.397	94.94
346.625	95.94
346.853	85.94
347.08	96.94
347.308	98.94
347.535	115.94
347.763	98.94
347.99	103.94
348.218	102.94
348.445	102.94
348.673	94.94
348.9	74.94
349.128	105.94
349.355	87.94
349.583	102.94
349.81	87.94
350.037	82.94
350.265	102.94
350.492	99.94
350.72	103.94
350.947	98.94
351.174	119.94
351.402	107.94
351.629	89.94
351.856	92.94
352.083	96.94
352.311	91.94
352.538	102.94
352.765	105.94
352.992	108.94
353.22	112.94
353.447	102.94
353.674	95.94
353.901	89.94
354.128	100.94
354.355	106.94
354.583	102.94
354.81	102.94
355.037	99.94
355.264	90.94
355.491	93.94
355.718	86.94
355.945	97.94
356.172	98.94
356.399	87.94
356.626	87.94
356.853	88.94
357.08	97.94
357.307	82.94
357.534	105.94
357.761	82.94
357.988	93.94
358.215	94.94
358.441	82.94
358.668	102.94
358.895	82.94
359.122	94.94
359.349	91.94
359.576	88.94
359.802	95.94
360.029	113.94
360.256	109.94
360.483	96.94
360.709	94.94
360.936	94.94
361.163	92.94
361.39	98.94
361.616	88.94
361.843	86.94
362.07	91.94
362.296	107.94
362.523	80.94
362.749	92.94
362.976	94.94
363.203	88.94
363.429	87.94
363.656	89.94
363.882	91.94
364.109	94.94
364.335	85.94
364.562	102.94
364.788	83.94
365.015	95.94
365.241	96.94
365.468	102.94
365.694	92.94
365.92	92.94
366.147	83.94
366.373	97.94
366.599	100.94
366.826	82.94
367.052	91.94
367.278	90.94
367.505	85.94
367.731	83.94
367.957	90.94
368.184	96.94
368.41	102.94
368.636	113.94
368.862	120.94
369.089	100.94
369.315	101.94
369.541	102.94
369.767	101.94
369.993	94.94
370.219	89.94
370.445	95.94
370.672	85.94
370.898	95.94
371.124	79.94
371.35	97.94
371.576	84.94
371.802	89.94
372.028	95.94
372.254	97.94
372.48	97.94
372.706	79.94
372.932	97.94
373.158	90.94
373.384	112.94
373.61	87.94
373.835	85.94
374.061	81.94
374.287	103.94
374.513	94.94
374.739	84.94
374.965	86.94
375.191	90.94
375.416	87.94
375.642	94.94
375.868	102.94
376.094	89.94
376.319	88.94
376.545	94.94
376.771	84.94
376.997	87.94
377.222	86.94
377.448	84.94
377.674	91.94
377.899	99.94
378.125	82.94
378.35	92.94
378.576	90.94
378.802	98.94
379.027	88.94
379.253	86.94
379.478	86.94
379.704	81.94
379.929	94.94
380.155	90.94
380.38	103.94
380.606	89.94
380.831	101.94
381.057	103.94
381.282	93.94
381.507	102.94
381.733	79.94
381.958	92.94
382.184	94.94
382.409	102.94
382.634	101.94
382.86	103.94
383.085	98.94
383.31	99.94
383.535	98.94
383.761	95.94
383.986	91.94
384.211	99.94
384.436	98.94
384.662	111.94
384.887	101.94
385.112	89.94
385.337	96.94
385.562	97.94
385.787	94.94
386.013	103.94
386.238	97.94
386.463	94.94
386.688	104.94
386.913	89.94
387.138	98.94
387.363	104.94
387.588	83.94
387.813	89.94
388.038	99.94
388.263	102.94
388.488	105.94
388.713	106.94
388.938	98.94
389.163	89.94
389.387	90.94
389.612	95.94
389.837	101.94
390.062	95.94
390.287	95.94
390.512	94.94
390.736	94.94
390.961	82.94
391.186	107.94
391.411	91.94
391.636	97.94
391.86	91.94
392.085	83.94
392.31	82.94
392.534	91.94
392.759	87.94
392.984	84.94
393.208	91.94
393.433	85.94
393.658	83.94
393.882	93.94
394.107	83.94
394.331	74.94
394.556	92.94
394.78	82.94
395.005	95.94
395.229	84.94
395.454	86.94
395.678	102.94
395.903	83.94
396.127	103.94
396.352	92.94
396.576	96.94
396.801	96.94
397.025	70.94
397.249	99.94
397.474	94.94
397.698	79.94
397.922	83.94
398.147	94.94
398.371	89.94
398.595	90.94
398.82	84.94
399.044	99.94
399.268	81.94
399.492	88.94
399.717	102.94
399.941	91.94
400.165	83.94
400.389	92.94
400.613	84.94
400.837	99.94
401.062	105.94
401.286	97.94
401.51	94.94
401.734	95.94
401.958	107.94
402.182	109.94
402.406	149.94
402.63	116.94
402.854	99.94
403.078	94.94
403.302	103.94
403.526	80.94
403.75	94.94
403.974	104.94
404.198	97.94
404.422	85.94
404.645	87.94
404.869	101.94
405.093	99.94
405.317	107.94
405.541	104.94
405.765	96.94
405.988	105.94
406.212	161.94
406.436	211.94
406.66	138.94
406.883	115.94
407.107	78.94
407.331	89.94
407.555	75.94
407.778	82.94
408.002	80.94
408.226	91.94
408.449	79.94
408.673	80.94
408.896	89.94
409.12	95.94
409.344	95.94
409.567	100.94
409.791	104.94
410.014	82.94
410.238	107.94
410.461	105.94
410.685	94.94
410.908	104.94
411.132	91.94
411.355	95.94
411.578	88.94
411.802	95.94
412.025	100.94
412.249	97.94
412.472	88.94
412.695	96.94
412.919	95.94
413.142	82.94
413.365	86.94
413.589	92.94
413.812	94.94
414.035	83.94
414.258	86.94
414.482	86.94
414.705	97.94
414.928	91.94
415.151	84.94
415.374	99.94
415.597	79.94
415.821	84.94
416.044	93.94
416.267	89.94
416.49	94.94
416.713	82.94
416.936	79.94
417.159	75.94
417.382	86.94
417.605	80.94
417.828	102.94
418.051	95.94
418.274	87.94
418.497	80.94
418.72	89.94
418.943	93.94
419.166	84.94
419.389	84.94
419.611	83.94
419.834	84.94
420.057	81.94
420.28	91.94
420.503	82.94
420.726	74.94
420.948	87.94
421.171	91.94
421.394	97.94
421.617	90.94
421.839	76.94
422.062	81.94
422.285	101.94
422.507	101.94
422.73	91.94
422.953	84.94
423.175	102.94
423.398	84.94
423.621	92.94
423.843	93.94
424.066	97.94
424.288	79.94
424.511	87.94
424.733	88.94
424.956	96.94
425.178	90.94
425.401	107.94
425.623	90.94
425.846	96.94
426.068	94.94
426.291	78.94
426.513	74.94
426.735	82.94
426.958	100.94
427.18	98.94
427.402	135.94
427.625	168.94
427.847	116.94
428.069	113.94
428.292	98.94
428.514	87.94
428.736	102.94
428.958	82.94
429.181	94.94
429.403	86.94
429.625	91.94
429.847	86.94
430.069	97.94
430.292	82.94
430.514	89.94
430.736	78.94
430.958	100.94
431.18	92.94
431.402	92.94
431.624	96.94
431.846	74.94
432.068	88.94
432.29	85.94
432.512	104.94
432.734	88.94
432.956	86.94
433.178	95.94
433.4	96.94
433.622	82.94
433.844	78.94
434.066	91.94
434.287	88.94
434.509	101.94
434.731	95.94
434.953	84.94
435.175	95.94
435.397	93.94
435.618	86.94
435.84	90.94
436.062	122.94
436.284	105.94
436.505	106.94
436.727	106.94
436.949	97.94
437.17	92.94
437.392	90.94
437.614	93.94
437.835	100.94
438.057	103.94
438.278	117.94
438.5	115.94
438.721	112.94
438.943	93.94
439.165	96.94
439.386	79.94
439.608	92.94
439.829	95.94
440.05	106.94
440.272	142.94
440.493	102.94
440.715	94.94
440.936	88.94
441.158	94.94
441.379	92.94
441.6	104.94
441.822	94.94
442.043	91.94
442.264	102.94
442.486	99.94
442.707	97.94
442.928	109.94
443.149	116.94
443.371	123.94
443.592	101.94
443.813	107.94
444.034	106.94
444.255	87.94
444.476	86.94
444.698	80.94
444.919	88.94
445.14	124.94
445.361	133.94
445.582	104.94
445.803	125.94
446.024	121.94
446.245	130.94
446.466	104.94
446.687	80.94
446.908	88.94
447.129	86.94
447.35	92.94
447.571	96.94
447.792	87.94
448.013	107.94
448.234	103.94
448.455	92.94
448.675	109.94
448.896	107.94
449.117	103.94
449.338	112.94
449.559	107.94
449.779	122.94
450	100.94
450.221	72.94
450.442	90.94
450.662	80.94
450.883	102.94
451.104	117.94
451.324	91.94
451.545	72.94
451.766	89.94
451.986	98.94
452.207	92.94
452.428	85.94
452.648	86.94
452.869	100.94
453.089	111.94
453.31	105.94
453.53	84.94
453.751	88.94
453.971	98.94
454.192	98.94
454.412	95.94
454.633	89.94
454.853	91.94
455.073	82.94
455.294	89.94
455.514	103.94
455.734	90.94
455.955	85.94
456.175	98.94
456.395	84.94
456.616	70.94
456.836	89.94
457.056	92.94
457.276	76.94
457.497	73.94
457.717	95.94
457.937	86.94
458.157	90.94
458.377	86.94
458.598	100.94
458.818	139.94
459.038	152.94
459.258	136.94
459.478	94.94
459.698	81.94
459.918	85.94
460.138	83.94
460.358	97.94
460.578	93.94
460.798	85.94
461.018	93.94
461.238	85.94
461.458	85.94
461.678	73.94
461.898	84.94
462.118	90.94
462.338	87.94
462.558	99.94
462.777	79.94
462.997	98.94
463.217	87.94
463.437	93.94
463.657	83.94
463.876	89.94
464.096	85.94
464.316	82.94
464.536	97.94
464.755	84.94
464.975	111.94
465.195	156.94
465.414	146.94
465.634	92.94
465.854	81.94
466.073	79.94
466.293	87.94
466.512	99.94
466.732	85.94
466.951	95.94
467.171	88.94
467.391	83.94
467.61	99.94
467.829	88.94
468.049	94.94
468.268	80.94
468.488	95.94
468.707	92.94
468.927	89.94
469.146	72.94
469.365	82.94
469.585	95.94
469.804	88.94
470.023	99.94
470.243	88.94
470.462	98.94
470.681	101.94
470.901	81.94
471.12	97.94
471.339	91.94
471.558	68.94
471.777	98.94
471.997	96.94
472.216	100.94
472.435	113.94
472.654	103.94
472.873	88.94
473.092	93.94
473.311	84.94
473.53	82.94
473.749	80.94
473.968	91.94
474.187	101.94
474.406	95.94
474.625	84.94
474.844	91.94
475.063	84.94
475.282	91.94
475.501	74.94
475.72	87.94
475.939	88.94
476.158	86.94
476.377	84.94
476.596	102.94
476.814	105.94
477.033	78.94
477.252	86.94
477.471	87.94
477.69	102.94
477.908	87.94
478.127	91.94
478.346	90.94
478.564	89.94
478.783	96.94
479.002	93.94
479.22	80.94
479.439	100.94
479.658	102.94
479.876	95.94
480.095	94.94
480.313	89.94
480.532	78.94
480.751	106.94
480.969	107.94
481.188	131.94
481.406	110.94
481.624	102.94
481.843	89.94
482.061	88.94
482.28	82.94
482.498	91.94
482.717	94.94
482.935	89.94
483.153	98.94
483.372	82.94
483.59	91.94
483.808	80.94
484.027	92.94
484.245	105.94
484.463	88.94
484.681	99.94
484.9	108.94
485.118	102.94
485.336	86.94
485.554	95.94
485.772	84.94
485.99	102.94
486.209	118.94
486.427	101.94
486.645	87.94
486.863	97.94
487.081	91.94
487.299	94.94
487.517	98.94
487.735	102.94
487.953	96.94
488.171	107.94
488.389	96.94
488.607	97.94
488.825	93.94
489.043	91.94
489.261	89.94
489.479	94.94
489.696	92.94
489.914	86.94
490.132	91.94
490.35	88.94
490.568	83.94
490.786	86.94
491.003	86.94
491.221	79.94
491.439	90.94
491.657	94.94
491.874	107.94
492.092	86.94
492.31	80.94
492.527	80.94
492.745	87.94
492.963	89.94
493.18	106.94
493.398	82.94
493.615	103.94
493.833	86.94
494.05	86.94
494.268	96.94
494.485	100.94
494.703	96.94
494.92	81.94
495.138	96.94
495.355	79.94
495.573	92.94
495.79	87.94
496.008	104.94
496.225	104.94
496.442	105.94
496.66	82.94
496.877	78.94
497.094	95.94
497.312	100.94
497.529	88.94
497.746	101.94
497.963	85.94
498.181	88.94
498.398	95.94
498.615	110.94
498.832	88.94
499.049	105.94
499.267	87.94
499.484	75.94
499.701	90.94
499.918	93.94
500.135	88.94
500.352	105.94
500.569	84.94
500.786	86.94
501.003	76.94
501.22	85.94
501.437	85.94
501.654	102.94
501.871	99.94
502.088	86.94
502.305	89.94
502.522	73.94
502.739	96.94
502.956	91.94
503.172	94.94
503.389	94.94
503.606	103.94
503.823	82.94
504.04	85.94
504.256	101.94
504.473	82.94
504.69	86.94
504.907	103.94
505.123	88.94
505.34	88.94
505.557	91.94
505.773	75.94
505.99	97.94
506.207	87.94
506.423	97.94
506.64	93.94
506.856	89.94
507.073	83.94
507.289	91.94
507.506	98.94
507.722	102.94
507.939	104.94
508.155	97.94
508.372	91.94
508.588	92.94
508.805	108.94
509.021	114.94
509.238	96.94
509.454	87.94
509.67	97.94
509.887	88.94
510.103	126.94
510.319	208.94
510.536	662.94
510.752	2025.94
510.968	572.94
511.184	144.94
511.401	108.94
511.617	99.94
511.833	102.94
512.049	80.94
512.265	84.94
512.481	91.94
512.698	90.94
512.914	88.94
513.13	81.94
513.346	105.94
513.562	94.94
513.778	97.94
513.994	88.94
514.21	93.94
514.426	111.94
514.642	125.94
514.858	109.94
515.074	151.94
515.29	398.94
515.506	1278.94
515.721	464.94
515.937	142.94
