Data from Uncirc_1986_H10_HRD10591_00088.txt Node
Date: Wed Jan 03 12:14:44 EST 2024
User: Yrep
Spectrometer: HR+D1059
Trigger mode: 1
Integration Time (sec): 1.000000E-1
Scans to average: 1
Electric dark correction enabled: true
Nonlinearity correction enabled: false
Boxcar width: 0
XAxis mode: Wavelengths
Number of Pixels in Spectrum: 2048
>>>>>Begin Spectral Data<<<<<
223.165	-10.06
223.4	-10.06
223.635	-10.06
223.869	-18.06
224.104	-20.06
224.338	-28.06
224.573	-23.06
224.808	-20.06
225.042	-8.06
225.277	3.94
225.511	-3.06
225.746	13.94
225.98	6.94
226.215	1.94
226.449	17.94
226.683	21.94
226.918	35.94
227.152	27.94
227.387	31.94
227.621	38.94
227.856	43.94
228.09	39.94
228.324	43.94
228.559	50.94
228.793	70.94
229.027	73.94
229.262	71.94
229.496	68.94
229.73	74.94
229.964	90.94
230.199	73.94
230.433	78.94
230.667	87.94
230.901	77.94
231.136	69.94
231.37	93.94
231.604	65.94
231.838	82.94
232.072	85.94
232.306	75.94
232.541	86.94
232.775	76.94
233.009	85.94
233.243	83.94
233.477	75.94
233.711	70.94
233.945	60.94
234.179	83.94
234.413	95.94
234.647	82.94
234.881	82.94
235.115	73.94
235.349	83.94
235.583	86.94
235.817	79.94
236.051	69.94
236.285	90.94
236.519	75.94
236.753	83.94
236.987	81.94
237.221	78.94
237.455	77.94
237.689	90.94
237.922	73.94
238.156	67.94
238.39	65.94
238.624	77.94
238.858	73.94
239.091	70.94
239.325	70.94
239.559	77.94
239.793	68.94
240.027	70.94
240.26	81.94
240.494	99.94
240.728	74.94
240.961	84.94
241.195	83.94
241.429	85.94
241.662	65.94
241.896	80.94
242.13	72.94
242.363	69.94
242.597	84.94
242.83	85.94
243.064	81.94
243.298	86.94
243.531	78.94
243.765	69.94
243.998	93.94
244.232	71.94
244.465	93.94
244.699	89.94
244.932	79.94
245.166	71.94
245.399	90.94
245.633	86.94
245.866	81.94
246.099	75.94
246.333	74.94
246.566	79.94
246.8	78.94
247.033	84.94
247.266	73.94
247.5	85.94
247.733	78.94
247.966	82.94
248.2	93.94
248.433	71.94
248.666	82.94
248.899	89.94
249.133	86.94
249.366	93.94
249.599	88.94
249.832	82.94
250.066	96.94
250.299	85.94
250.532	80.94
250.765	67.94
250.998	87.94
251.231	78.94
251.465	88.94
251.698	71.94
251.931	83.94
252.164	73.94
252.397	81.94
252.63	81.94
252.863	82.94
253.096	85.94
253.329	91.94
253.562	85.94
253.795	70.94
254.028	79.94
254.261	82.94
254.494	86.94
254.727	90.94
254.96	83.94
255.193	79.94
255.426	66.94
255.659	73.94
255.892	72.94
256.124	78.94
256.357	89.94
256.59	79.94
256.823	91.94
257.056	84.94
257.289	74.94
257.521	96.94
257.754	72.94
257.987	90.94
258.22	94.94
258.452	89.94
258.685	81.94
258.918	86.94
259.151	89.94
259.383	97.94
259.616	86.94
259.849	72.94
260.081	72.94
260.314	81.94
260.547	83.94
260.779	84.94
261.012	85.94
261.244	81.94
261.477	79.94
261.71	95.94
261.942	101.94
262.175	110.94
262.407	92.94
262.64	65.94
262.872	88.94
263.105	83.94
263.337	90.94
263.57	80.94
263.802	88.94
264.035	78.94
264.267	82.94
264.499	78.94
264.732	80.94
264.964	95.94
265.197	93.94
265.429	90.94
265.661	93.94
265.894	82.94
266.126	82.94
266.358	87.94
266.591	93.94
266.823	81.94
267.055	74.94
267.287	83.94
267.52	80.94
267.752	68.94
267.984	82.94
268.216	89.94
268.448	88.94
268.681	85.94
268.913	73.94
269.145	67.94
269.377	88.94
269.609	87.94
269.841	93.94
270.073	98.94
270.306	85.94
270.538	66.94
270.77	89.94
271.002	79.94
271.234	84.94
271.466	67.94
271.698	87.94
271.93	93.94
272.162	90.94
272.394	80.94
272.626	84.94
272.858	81.94
273.09	82.94
273.322	93.94
273.553	86.94
273.785	79.94
274.017	89.94
274.249	84.94
274.481	92.94
274.713	83.94
274.945	81.94
275.176	83.94
275.408	97.94
275.64	85.94
275.872	93.94
276.104	93.94
276.335	82.94
276.567	105.94
276.799	102.94
277.031	106.94
277.262	104.94
277.494	90.94
277.726	95.94
277.957	85.94
278.189	78.94
278.421	81.94
278.652	85.94
278.884	79.94
279.115	70.94
279.347	79.94
279.579	77.94
279.81	95.94
280.042	94.94
280.273	89.94
280.505	83.94
280.736	96.94
280.968	82.94
281.199	75.94
281.431	72.94
281.662	79.94
281.894	75.94
282.125	97.94
282.356	111.94
282.588	133.94
282.819	112.94
283.051	89.94
283.282	85.94
283.513	82.94
283.745	95.94
283.976	85.94
284.207	81.94
284.439	87.94
284.67	100.94
284.901	90.94
285.132	83.94
285.364	86.94
285.595	78.94
285.826	80.94
286.057	86.94
286.288	80.94
286.52	88.94
286.751	95.94
286.982	99.94
287.213	78.94
287.444	87.94
287.675	86.94
287.906	102.94
288.138	81.94
288.369	91.94
288.6	90.94
288.831	98.94
289.062	85.94
289.293	94.94
289.524	79.94
289.755	90.94
289.986	79.94
290.217	82.94
290.448	99.94
290.679	99.94
290.91	104.94
291.141	92.94
291.371	74.94
291.602	77.94
291.833	77.94
292.064	93.94
292.295	94.94
292.526	79.94
292.757	94.94
292.987	75.94
293.218	92.94
293.449	95.94
293.68	72.94
293.91	87.94
294.141	85.94
294.372	81.94
294.603	84.94
294.833	97.94
295.064	81.94
295.295	78.94
295.525	87.94
295.756	91.94
295.987	117.94
296.217	119.94
296.448	118.94
296.679	81.94
296.909	89.94
297.14	86.94
297.37	87.94
297.601	89.94
297.831	94.94
298.062	73.94
298.292	89.94
298.523	88.94
298.753	91.94
298.984	94.94
299.214	87.94
299.445	102.94
299.675	96.94
299.905	91.94
300.136	85.94
300.366	76.94
300.597	90.94
300.827	87.94
301.057	93.94
301.288	106.94
301.518	97.94
301.748	102.94
301.979	115.94
302.209	77.94
302.439	70.94
302.669	83.94
302.9	84.94
303.13	82.94
303.36	87.94
303.59	82.94
303.82	104.94
304.051	98.94
304.281	97.94
304.511	85.94
304.741	98.94
304.971	97.94
305.201	89.94
305.431	95.94
305.661	90.94
305.891	89.94
306.121	95.94
306.352	108.94
306.582	103.94
306.812	77.94
307.042	87.94
307.272	85.94
307.502	87.94
307.731	85.94
307.961	80.94
308.191	85.94
308.421	67.94
308.651	100.94
308.881	103.94
309.111	90.94
309.341	90.94
309.571	109.94
309.8	84.94
310.03	105.94
310.26	96.94
310.49	102.94
310.72	97.94
310.949	102.94
311.179	88.94
311.409	97.94
311.639	95.94
311.868	98.94
312.098	86.94
312.328	99.94
312.557	99.94
312.787	85.94
313.017	95.94
313.246	105.94
313.476	94.94
313.706	95.94
313.935	103.94
314.165	101.94
314.394	99.94
314.624	83.94
314.853	95.94
315.083	84.94
315.312	74.94
315.542	88.94
315.771	98.94
316.001	91.94
316.23	92.94
316.46	84.94
316.689	97.94
316.919	85.94
317.148	74.94
317.377	86.94
317.607	95.94
317.836	91.94
318.065	101.94
318.295	74.94
318.524	89.94
318.753	77.94
318.983	96.94
319.212	104.94
319.441	92.94
319.67	84.94
319.9	95.94
320.129	93.94
320.358	107.94
320.587	103.94
320.816	112.94
321.046	110.94
321.275	107.94
321.504	94.94
321.733	76.94
321.962	79.94
322.191	105.94
322.42	104.94
322.649	114.94
322.878	96.94
323.108	106.94
323.337	116.94
323.566	136.94
323.795	142.94
324.024	187.94
324.253	356.94
324.482	747.94
324.71	1548.94
324.939	2045.94
325.168	747.94
325.397	245.94
325.626	153.94
325.855	123.94
326.084	117.94
326.313	107.94
326.542	137.94
326.77	213.94
326.999	402.94
327.228	840.94
327.457	1581.94
327.686	1245.94
327.914	341.94
328.143	178.94
328.372	122.94
328.6	122.94
328.829	133.94
329.058	115.94
329.287	111.94
329.515	110.94
329.744	121.94
329.972	103.94
330.201	105.94
330.43	110.94
330.658	109.94
330.887	139.94
331.115	117.94
331.344	100.94
331.572	109.94
331.801	108.94
332.03	101.94
332.258	107.94
332.486	106.94
332.715	93.94
332.943	92.94
333.172	104.94
333.4	94.94
333.629	103.94
333.857	105.94
334.085	93.94
334.314	103.94
334.542	104.94
334.771	125.94
334.999	81.94
335.227	101.94
335.455	99.94
335.684	100.94
335.912	94.94
336.14	99.94
336.369	101.94
336.597	101.94
336.825	89.94
337.053	94.94
337.281	83.94
337.51	101.94
337.738	108.94
337.966	82.94
338.194	90.94
338.422	93.94
338.65	103.94
338.878	91.94
339.106	88.94
339.334	79.94
339.562	98.94
339.79	86.94
340.018	88.94
340.246	102.94
340.474	88.94
340.702	100.94
340.93	87.94
341.158	90.94
341.386	90.94
341.614	103.94
341.842	90.94
342.07	99.94
342.298	86.94
342.526	104.94
342.754	76.94
342.981	88.94
343.209	95.94
343.437	102.94
343.665	83.94
343.893	84.94
344.12	91.94
344.348	103.94
344.576	96.94
344.804	98.94
345.031	101.94
345.259	97.94
345.487	90.94
345.714	100.94
345.942	101.94
346.17	94.94
346.397	92.94
346.625	88.94
346.853	103.94
347.08	102.94
347.308	104.94
347.535	101.94
347.763	105.94
347.99	92.94
348.218	93.94
348.445	107.94
348.673	109.94
348.9	110.94
349.128	108.94
349.355	95.94
349.583	91.94
349.81	91.94
350.037	89.94
350.265	99.94
350.492	84.94
350.72	93.94
350.947	105.94
351.174	113.94
351.402	103.94
351.629	96.94
351.856	103.94
352.083	98.94
352.311	105.94
352.538	99.94
352.765	104.94
352.992	103.94
353.22	104.94
353.447	88.94
353.674	114.94
353.901	108.94
354.128	101.94
354.355	111.94
354.583	85.94
354.81	91.94
355.037	99.94
355.264	95.94
355.491	90.94
355.718	89.94
355.945	93.94
356.172	93.94
356.399	89.94
356.626	91.94
356.853	68.94
357.08	85.94
357.307	93.94
357.534	103.94
357.761	104.94
357.988	94.94
358.215	85.94
358.441	91.94
358.668	82.94
358.895	95.94
359.122	88.94
359.349	85.94
359.576	89.94
359.802	92.94
360.029	124.94
360.256	102.94
360.483	85.94
360.709	97.94
360.936	103.94
361.163	91.94
361.39	91.94
361.616	103.94
361.843	87.94
362.07	95.94
362.296	98.94
362.523	80.94
362.749	91.94
362.976	96.94
363.203	91.94
363.429	92.94
363.656	74.94
363.882	95.94
364.109	86.94
364.335	93.94
364.562	83.94
364.788	94.94
365.015	89.94
365.241	87.94
365.468	96.94
365.694	103.94
365.92	97.94
366.147	106.94
366.373	102.94
366.599	90.94
366.826	90.94
367.052	90.94
367.278	89.94
367.505	93.94
367.731	91.94
367.957	78.94
368.184	97.94
368.41	100.94
368.636	98.94
368.862	114.94
369.089	103.94
369.315	93.94
369.541	90.94
369.767	75.94
369.993	103.94
370.219	98.94
370.445	90.94
370.672	93.94
370.898	77.94
371.124	91.94
371.35	83.94
371.576	82.94
371.802	101.94
372.028	94.94
372.254	90.94
372.48	85.94
372.706	80.94
372.932	88.94
373.158	92.94
373.384	85.94
373.61	94.94
373.835	96.94
374.061	84.94
374.287	88.94
374.513	99.94
374.739	90.94
374.965	93.94
375.191	88.94
375.416	89.94
375.642	88.94
375.868	85.94
376.094	85.94
376.319	90.94
376.545	88.94
376.771	95.94
376.997	100.94
377.222	92.94
377.448	85.94
377.674	93.94
377.899	91.94
378.125	85.94
378.35	95.94
378.576	93.94
378.802	85.94
379.027	86.94
379.253	77.94
379.478	83.94
379.704	88.94
379.929	82.94
380.155	96.94
380.38	99.94
380.606	98.94
380.831	84.94
381.057	104.94
381.282	88.94
381.507	95.94
381.733	98.94
381.958	99.94
382.184	89.94
382.409	104.94
382.634	97.94
382.86	85.94
383.085	100.94
383.31	95.94
383.535	95.94
383.761	87.94
383.986	88.94
384.211	93.94
384.436	90.94
384.662	110.94
384.887	109.94
385.112	89.94
385.337	101.94
385.562	95.94
385.787	98.94
386.013	100.94
386.238	94.94
386.463	97.94
386.688	98.94
386.913	97.94
387.138	100.94
387.363	103.94
387.588	85.94
387.813	101.94
388.038	102.94
388.263	91.94
388.488	90.94
388.713	109.94
388.938	92.94
389.163	97.94
389.387	108.94
389.612	94.94
389.837	104.94
390.062	85.94
390.287	107.94
390.512	92.94
390.736	89.94
390.961	97.94
391.186	85.94
391.411	97.94
391.636	97.94
391.86	90.94
392.085	85.94
392.31	92.94
392.534	83.94
392.759	86.94
392.984	88.94
393.208	74.94
393.433	86.94
393.658	88.94
393.882	94.94
394.107	77.94
394.331	92.94
394.556	89.94
394.78	91.94
395.005	98.94
395.229	94.94
395.454	90.94
395.678	94.94
395.903	96.94
396.127	89.94
396.352	93.94
396.576	89.94
396.801	87.94
397.025	85.94
397.249	71.94
397.474	86.94
397.698	99.94
397.922	96.94
398.147	83.94
398.371	84.94
398.595	89.94
398.82	88.94
399.044	97.94
399.268	79.94
399.492	79.94
399.717	82.94
399.941	94.94
400.165	93.94
400.389	96.94
400.613	82.94
400.837	80.94
401.062	72.94
401.286	81.94
401.51	89.94
401.734	103.94
401.958	92.94
402.182	113.94
402.406	155.94
402.63	114.94
402.854	90.94
403.078	78.94
403.302	88.94
403.526	86.94
403.75	95.94
403.974	78.94
404.198	97.94
404.422	89.94
404.645	74.94
404.869	69.94
405.093	91.94
405.317	96.94
405.541	95.94
405.765	88.94
405.988	113.94
406.212	163.94
406.436	207.94
406.66	126.94
406.883	97.94
407.107	93.94
407.331	96.94
407.555	85.94
407.778	108.94
408.002	89.94
408.226	81.94
408.449	81.94
408.673	88.94
408.896	81.94
409.12	100.94
409.344	90.94
409.567	85.94
409.791	85.94
410.014	117.94
410.238	95.94
410.461	86.94
410.685	81.94
410.908	86.94
411.132	93.94
411.355	97.94
411.578	77.94
411.802	87.94
412.025	89.94
412.249	81.94
412.472	84.94
412.695	102.94
412.919	106.94
413.142	89.94
413.365	82.94
413.589	99.94
413.812	90.94
414.035	87.94
414.258	91.94
414.482	82.94
414.705	88.94
414.928	96.94
415.151	95.94
415.374	98.94
415.597	103.94
415.821	90.94
416.044	83.94
416.267	86.94
416.49	96.94
416.713	89.94
416.936	97.94
417.159	83.94
417.382	78.94
417.605	85.94
417.828	105.94
418.051	90.94
418.274	75.94
418.497	73.94
418.72	100.94
418.943	97.94
419.166	80.94
419.389	89.94
419.611	95.94
419.834	87.94
420.057	85.94
420.28	96.94
420.503	93.94
420.726	94.94
420.948	92.94
421.171	96.94
421.394	106.94
421.617	88.94
421.839	84.94
422.062	89.94
422.285	94.94
422.507	101.94
422.73	106.94
422.953	75.94
423.175	89.94
423.398	89.94
423.621	102.94
423.843	90.94
424.066	84.94
424.288	90.94
424.511	87.94
424.733	85.94
424.956	102.94
425.178	94.94
425.401	113.94
425.623	100.94
425.846	97.94
426.068	75.94
426.291	81.94
426.513	87.94
426.735	88.94
426.958	90.94
427.18	117.94
427.402	134.94
427.625	168.94
427.847	123.94
428.069	123.94
428.292	91.94
428.514	81.94
428.736	96.94
428.958	93.94
429.181	66.94
429.403	89.94
429.625	99.94
429.847	90.94
430.069	107.94
430.292	82.94
430.514	79.94
430.736	90.94
430.958	73.94
431.18	86.94
431.402	93.94
431.624	94.94
431.846	71.94
432.068	98.94
432.29	82.94
432.512	86.94
432.734	81.94
432.956	101.94
433.178	94.94
433.4	99.94
433.622	98.94
433.844	93.94
434.066	97.94
434.287	89.94
434.509	90.94
434.731	93.94
434.953	84.94
435.175	81.94
435.397	84.94
435.618	99.94
435.84	92.94
436.062	117.94
436.284	112.94
436.505	107.94
436.727	97.94
436.949	99.94
437.17	90.94
437.392	89.94
437.614	88.94
437.835	98.94
438.057	114.94
438.278	118.94
438.5	92.94
438.721	110.94
438.943	113.94
439.165	93.94
439.386	95.94
439.608	95.94
439.829	91.94
440.05	106.94
440.272	134.94
440.493	106.94
440.715	84.94
440.936	93.94
441.158	100.94
441.379	91.94
441.6	98.94
441.822	101.94
442.043	86.94
442.264	96.94
442.486	86.94
442.707	96.94
442.928	103.94
443.149	132.94
443.371	125.94
443.592	113.94
443.813	111.94
444.034	105.94
444.255	86.94
444.476	96.94
444.698	88.94
444.919	67.94
445.14	131.94
445.361	126.94
445.582	118.94
445.803	131.94
446.024	125.94
446.245	122.94
446.466	103.94
446.687	90.94
446.908	94.94
447.129	102.94
447.35	90.94
447.571	108.94
447.792	90.94
448.013	81.94
448.234	99.94
448.455	103.94
448.675	110.94
448.896	106.94
449.117	115.94
449.338	105.94
449.559	128.94
449.779	126.94
450	93.94
450.221	74.94
450.442	96.94
450.662	107.94
450.883	98.94
451.104	99.94
451.324	101.94
451.545	83.94
451.766	85.94
451.986	84.94
452.207	90.94
452.428	84.94
452.648	98.94
452.869	111.94
453.089	103.94
453.31	105.94
453.53	84.94
453.751	83.94
453.971	87.94
454.192	90.94
454.412	93.94
454.633	81.94
454.853	89.94
455.073	94.94
455.294	91.94
455.514	93.94
455.734	94.94
455.955	84.94
456.175	83.94
456.395	74.94
456.616	98.94
456.836	98.94
457.056	91.94
457.276	85.94
457.497	85.94
457.717	109.94
457.937	83.94
458.157	91.94
458.377	85.94
458.598	100.94
458.818	129.94
459.038	153.94
459.258	107.94
459.478	71.94
459.698	91.94
459.918	93.94
460.138	79.94
460.358	70.94
460.578	89.94
460.798	94.94
461.018	94.94
461.238	84.94
461.458	85.94
461.678	90.94
461.898	87.94
462.118	80.94
462.338	91.94
462.558	94.94
462.777	74.94
462.997	85.94
463.217	81.94
463.437	77.94
463.657	106.94
463.876	83.94
464.096	83.94
464.316	93.94
464.536	81.94
464.755	108.94
464.975	102.94
465.195	142.94
465.414	131.94
465.634	92.94
465.854	100.94
466.073	84.94
466.293	101.94
466.512	93.94
466.732	73.94
466.951	93.94
467.171	105.94
467.391	85.94
467.61	112.94
467.829	97.94
468.049	94.94
468.268	98.94
468.488	98.94
468.707	82.94
468.927	66.94
469.146	75.94
469.365	72.94
469.585	89.94
469.804	78.94
470.023	89.94
470.243	87.94
470.462	95.94
470.681	101.94
470.901	70.94
471.12	70.94
471.339	91.94
471.558	81.94
471.777	78.94
471.997	90.94
472.216	96.94
472.435	120.94
472.654	102.94
472.873	85.94
473.092	88.94
473.311	80.94
473.53	96.94
473.749	95.94
473.968	93.94
474.187	120.94
474.406	98.94
474.625	93.94
474.844	85.94
475.063	84.94
475.282	86.94
475.501	91.94
475.72	100.94
475.939	83.94
476.158	87.94
476.377	97.94
476.596	82.94
476.814	81.94
477.033	83.94
477.252	83.94
477.471	85.94
477.69	79.94
477.908	82.94
478.127	86.94
478.346	97.94
478.564	82.94
478.783	97.94
479.002	87.94
479.22	87.94
479.439	98.94
479.658	101.94
479.876	91.94
480.095	85.94
480.313	103.94
480.532	88.94
480.751	111.94
480.969	105.94
481.188	143.94
481.406	113.94
481.624	95.94
481.843	81.94
482.061	97.94
482.28	70.94
482.498	92.94
482.717	83.94
482.935	89.94
483.153	99.94
483.372	94.94
483.59	93.94
483.808	82.94
484.027	89.94
484.245	96.94
484.463	96.94
484.681	95.94
484.9	96.94
485.118	102.94
485.336	95.94
485.554	113.94
485.772	91.94
485.99	106.94
486.209	111.94
486.427	98.94
486.645	111.94
486.863	89.94
487.081	98.94
487.299	109.94
487.517	103.94
487.735	96.94
487.953	93.94
488.171	97.94
488.389	103.94
488.607	105.94
488.825	97.94
489.043	86.94
489.261	80.94
489.479	95.94
489.696	85.94
489.914	87.94
490.132	90.94
490.35	93.94
490.568	76.94
490.786	90.94
491.003	71.94
491.221	99.94
491.439	89.94
491.657	88.94
491.874	89.94
492.092	90.94
492.31	91.94
492.527	78.94
492.745	105.94
492.963	76.94
493.18	88.94
493.398	90.94
493.615	86.94
493.833	81.94
494.05	92.94
494.268	90.94
494.485	93.94
494.703	84.94
494.92	75.94
495.138	90.94
495.355	88.94
495.573	92.94
495.79	85.94
496.008	97.94
496.225	96.94
496.442	95.94
496.66	90.94
496.877	91.94
497.094	91.94
497.312	79.94
497.529	77.94
497.746	99.94
497.963	83.94
498.181	86.94
498.398	81.94
498.615	114.94
498.832	88.94
499.049	85.94
499.267	91.94
499.484	82.94
499.701	83.94
499.918	93.94
500.135	83.94
500.352	93.94
500.569	86.94
500.786	80.94
501.003	103.94
501.22	98.94
501.437	95.94
501.654	103.94
501.871	101.94
502.088	105.94
502.305	89.94
502.522	92.94
502.739	82.94
502.956	86.94
503.172	97.94
503.389	95.94
503.606	104.94
503.823	88.94
504.04	100.94
504.256	93.94
504.473	81.94
504.69	87.94
504.907	87.94
505.123	89.94
505.34	90.94
505.557	105.94
505.773	86.94
505.99	81.94
506.207	72.94
506.423	97.94
506.64	101.94
506.856	93.94
507.073	79.94
507.289	83.94
507.506	94.94
507.722	99.94
507.939	78.94
508.155	102.94
508.372	101.94
508.588	106.94
508.805	105.94
509.021	93.94
509.238	90.94
509.454	90.94
509.67	103.94
509.887	97.94
510.103	116.94
510.319	191.94
510.536	675.94
510.752	2162.94
510.968	611.94
511.184	158.94
511.401	100.94
511.617	95.94
511.833	99.94
512.049	88.94
512.265	99.94
512.481	71.94
512.698	90.94
512.914	101.94
513.13	96.94
513.346	92.94
513.562	79.94
513.778	87.94
513.994	102.94
514.21	89.94
514.426	104.94
514.642	129.94
514.858	120.94
515.074	151.94
515.29	427.94
515.506	1353.94
515.721	490.94
515.937	149.94
