Data from Uncirc_1986_H10_HRD10591_00017.txt Node
Date: Wed Jan 03 12:14:29 EST 2024
User: Yrep
Spectrometer: HR+D1059
Trigger mode: 1
Integration Time (sec): 1.000000E-1
Scans to average: 1
Electric dark correction enabled: true
Nonlinearity correction enabled: false
Boxcar width: 0
XAxis mode: Wavelengths
Number of Pixels in Spectrum: 2048
>>>>>Begin Spectral Data<<<<<
223.165	-23.88
223.4	-23.88
223.635	-23.88
223.869	-29.88
224.104	-10.88
224.338	-19.88
224.573	-16.88
224.808	-1.88
225.042	-7.88
225.277	3.12
225.511	-4.88
225.746	9.12
225.98	8.12
226.215	13.12
226.449	18.12
226.683	21.12
226.918	21.12
227.152	22.12
227.387	43.12
227.621	51.12
227.856	49.12
228.09	59.12
228.324	59.12
228.559	69.12
228.793	55.12
229.027	75.12
229.262	71.12
229.496	69.12
229.73	74.12
229.964	68.12
230.199	82.12
230.433	88.12
230.667	75.12
230.901	83.12
231.136	83.12
231.37	85.12
231.604	81.12
231.838	87.12
232.072	84.12
232.306	84.12
232.541	94.12
232.775	69.12
233.009	67.12
233.243	84.12
233.477	86.12
233.711	91.12
233.945	82.12
234.179	87.12
234.413	87.12
234.647	78.12
234.881	81.12
235.115	85.12
235.349	67.12
235.583	81.12
235.817	84.12
236.051	80.12
236.285	84.12
236.519	81.12
236.753	88.12
236.987	83.12
237.221	81.12
237.455	88.12
237.689	76.12
237.922	85.12
238.156	69.12
238.39	85.12
238.624	76.12
238.858	65.12
239.091	92.12
239.325	75.12
239.559	93.12
239.793	70.12
240.027	79.12
240.26	84.12
240.494	77.12
240.728	69.12
240.961	83.12
241.195	78.12
241.429	77.12
241.662	73.12
241.896	73.12
242.13	68.12
242.363	76.12
242.597	83.12
242.83	76.12
243.064	79.12
243.298	62.12
243.531	72.12
243.765	96.12
243.998	89.12
244.232	83.12
244.465	89.12
244.699	83.12
244.932	80.12
245.166	82.12
245.399	79.12
245.633	69.12
245.866	84.12
246.099	87.12
246.333	89.12
246.566	84.12
246.8	81.12
247.033	70.12
247.266	74.12
247.5	77.12
247.733	77.12
247.966	90.12
248.2	87.12
248.433	80.12
248.666	85.12
248.899	91.12
249.133	90.12
249.366	96.12
249.599	101.12
249.832	77.12
250.066	99.12
250.299	71.12
250.532	87.12
250.765	74.12
250.998	69.12
251.231	65.12
251.465	100.12
251.698	67.12
251.931	79.12
252.164	75.12
252.397	84.12
252.63	65.12
252.863	77.12
253.096	84.12
253.329	84.12
253.562	74.12
253.795	71.12
254.028	83.12
254.261	87.12
254.494	86.12
254.727	76.12
254.96	86.12
255.193	74.12
255.426	86.12
255.659	81.12
255.892	72.12
256.124	75.12
256.357	94.12
256.59	81.12
256.823	85.12
257.056	75.12
257.289	84.12
257.521	95.12
257.754	84.12
257.987	87.12
258.22	87.12
258.452	81.12
258.685	80.12
258.918	78.12
259.151	87.12
259.383	68.12
259.616	83.12
259.849	81.12
260.081	96.12
260.314	86.12
260.547	89.12
260.779	92.12
261.012	85.12
261.244	93.12
261.477	87.12
261.71	97.12
261.942	99.12
262.175	100.12
262.407	93.12
262.64	92.12
262.872	85.12
263.105	94.12
263.337	95.12
263.57	86.12
263.802	66.12
264.035	74.12
264.267	77.12
264.499	84.12
264.732	88.12
264.964	98.12
265.197	92.12
265.429	94.12
265.661	81.12
265.894	81.12
266.126	100.12
266.358	92.12
266.591	89.12
266.823	81.12
267.055	100.12
267.287	90.12
267.52	79.12
267.752	80.12
267.984	77.12
268.216	79.12
268.448	88.12
268.681	88.12
268.913	85.12
269.145	85.12
269.377	82.12
269.609	74.12
269.841	81.12
270.073	71.12
270.306	63.12
270.538	77.12
270.77	62.12
271.002	79.12
271.234	81.12
271.466	88.12
271.698	77.12
271.93	99.12
272.162	95.12
272.394	86.12
272.626	96.12
272.858	99.12
273.09	79.12
273.322	83.12
273.553	93.12
273.785	80.12
274.017	89.12
274.249	92.12
274.481	75.12
274.713	91.12
274.945	91.12
275.176	88.12
275.408	80.12
275.64	87.12
275.872	72.12
276.104	79.12
276.335	101.12
276.567	99.12
276.799	102.12
277.031	101.12
277.262	90.12
277.494	97.12
277.726	92.12
277.957	80.12
278.189	86.12
278.421	87.12
278.652	83.12
278.884	78.12
279.115	87.12
279.347	88.12
279.579	92.12
279.81	93.12
280.042	80.12
280.273	88.12
280.505	83.12
280.736	82.12
280.968	80.12
281.199	91.12
281.431	87.12
281.662	103.12
281.894	84.12
282.125	92.12
282.356	115.12
282.588	128.12
282.819	96.12
283.051	92.12
283.282	91.12
283.513	82.12
283.745	84.12
283.976	87.12
284.207	81.12
284.439	87.12
284.67	95.12
284.901	87.12
285.132	76.12
285.364	94.12
285.595	85.12
285.826	106.12
286.057	95.12
286.288	99.12
286.52	87.12
286.751	88.12
286.982	84.12
287.213	88.12
287.444	86.12
287.675	85.12
287.906	89.12
288.138	84.12
288.369	87.12
288.6	97.12
288.831	93.12
289.062	114.12
289.293	93.12
289.524	98.12
289.755	87.12
289.986	80.12
290.217	83.12
290.448	94.12
290.679	99.12
290.91	93.12
291.141	100.12
291.371	98.12
291.602	74.12
291.833	83.12
292.064	96.12
292.295	84.12
292.526	86.12
292.757	91.12
292.987	82.12
293.218	97.12
293.449	73.12
293.68	108.12
293.91	79.12
294.141	97.12
294.372	101.12
294.603	96.12
294.833	87.12
295.064	99.12
295.295	72.12
295.525	81.12
295.756	106.12
295.987	114.12
296.217	125.12
296.448	111.12
296.679	83.12
296.909	89.12
297.14	95.12
297.37	93.12
297.601	83.12
297.831	94.12
298.062	90.12
298.292	85.12
298.523	98.12
298.753	98.12
298.984	104.12
299.214	91.12
299.445	88.12
299.675	91.12
299.905	104.12
300.136	107.12
300.366	78.12
300.597	83.12
300.827	99.12
301.057	99.12
301.288	98.12
301.518	82.12
301.748	88.12
301.979	89.12
302.209	93.12
302.439	95.12
302.669	73.12
302.9	93.12
303.13	97.12
303.36	93.12
303.59	104.12
303.82	106.12
304.051	109.12
304.281	96.12
304.511	74.12
304.741	94.12
304.971	82.12
305.201	99.12
305.431	85.12
305.661	97.12
305.891	91.12
306.121	99.12
306.352	94.12
306.582	104.12
306.812	98.12
307.042	88.12
307.272	93.12
307.502	101.12
307.731	87.12
307.961	85.12
308.191	100.12
308.421	97.12
308.651	87.12
308.881	104.12
309.111	98.12
309.341	99.12
309.571	100.12
309.8	89.12
310.03	90.12
310.26	89.12
310.49	96.12
310.72	102.12
310.949	104.12
311.179	98.12
311.409	80.12
311.639	81.12
311.868	103.12
312.098	111.12
312.328	117.12
312.557	93.12
312.787	100.12
313.017	72.12
313.246	85.12
313.476	98.12
313.706	97.12
313.935	92.12
314.165	82.12
314.394	84.12
314.624	96.12
314.853	86.12
315.083	84.12
315.312	95.12
315.542	89.12
315.771	79.12
316.001	73.12
316.23	92.12
316.46	107.12
316.689	92.12
316.919	87.12
317.148	86.12
317.377	99.12
317.607	97.12
317.836	97.12
318.065	85.12
318.295	83.12
318.524	95.12
318.753	83.12
318.983	95.12
319.212	101.12
319.441	99.12
319.67	101.12
319.9	97.12
320.129	97.12
320.358	106.12
320.587	89.12
320.816	104.12
321.046	108.12
321.275	82.12
321.504	101.12
321.733	109.12
321.962	92.12
322.191	81.12
322.42	104.12
322.649	104.12
322.878	115.12
323.108	112.12
323.337	130.12
323.566	132.12
323.795	144.12
324.024	184.12
324.253	358.12
324.482	737.12
324.71	1504.12
324.939	1978.12
325.168	713.12
325.397	217.12
325.626	133.12
325.855	123.12
326.084	118.12
326.313	122.12
326.542	130.12
326.77	203.12
326.999	400.12
327.228	843.12
327.457	1525.12
327.686	1175.12
327.914	352.12
328.143	184.12
328.372	136.12
328.6	131.12
328.829	125.12
329.058	120.12
329.287	126.12
329.515	119.12
329.744	95.12
329.972	107.12
330.201	99.12
330.43	108.12
330.658	127.12
330.887	130.12
331.115	99.12
331.344	102.12
331.572	103.12
331.801	96.12
332.03	109.12
332.258	85.12
332.486	90.12
332.715	87.12
332.943	88.12
333.172	91.12
333.4	94.12
333.629	102.12
333.857	109.12
334.085	113.12
334.314	103.12
334.542	101.12
334.771	83.12
334.999	91.12
335.227	108.12
335.455	104.12
335.684	90.12
335.912	100.12
336.14	95.12
336.369	109.12
336.597	85.12
336.825	108.12
337.053	98.12
337.281	90.12
337.51	108.12
337.738	106.12
337.966	87.12
338.194	87.12
338.422	97.12
338.65	93.12
338.878	100.12
339.106	97.12
339.334	97.12
339.562	91.12
339.79	85.12
340.018	86.12
340.246	91.12
340.474	95.12
340.702	92.12
340.93	98.12
341.158	93.12
341.386	100.12
341.614	88.12
341.842	99.12
342.07	83.12
342.298	98.12
342.526	95.12
342.754	109.12
342.981	95.12
343.209	96.12
343.437	98.12
343.665	97.12
343.893	95.12
344.12	98.12
344.348	103.12
344.576	101.12
344.804	118.12
345.031	93.12
345.259	86.12
345.487	91.12
345.714	86.12
345.942	91.12
346.17	98.12
346.397	83.12
346.625	97.12
346.853	107.12
347.08	81.12
347.308	101.12
347.535	93.12
347.763	110.12
347.99	115.12
348.218	98.12
348.445	104.12
348.673	97.12
348.9	102.12
349.128	83.12
349.355	106.12
349.583	87.12
349.81	91.12
350.037	100.12
350.265	93.12
350.492	93.12
350.72	111.12
350.947	97.12
351.174	102.12
351.402	111.12
351.629	106.12
351.856	104.12
352.083	99.12
352.311	103.12
352.538	106.12
352.765	97.12
352.992	99.12
353.22	97.12
353.447	89.12
353.674	87.12
353.901	96.12
354.128	99.12
354.355	103.12
354.583	93.12
354.81	107.12
355.037	97.12
355.264	88.12
355.491	95.12
355.718	91.12
355.945	96.12
356.172	99.12
356.399	105.12
356.626	89.12
356.853	92.12
357.08	106.12
357.307	86.12
357.534	76.12
357.761	103.12
357.988	108.12
358.215	109.12
358.441	83.12
358.668	96.12
358.895	93.12
359.122	90.12
359.349	85.12
359.576	86.12
359.802	103.12
360.029	116.12
360.256	111.12
360.483	113.12
360.709	72.12
360.936	99.12
361.163	106.12
361.39	94.12
361.616	86.12
361.843	91.12
362.07	90.12
362.296	94.12
362.523	101.12
362.749	89.12
362.976	83.12
363.203	94.12
363.429	79.12
363.656	85.12
363.882	83.12
364.109	95.12
364.335	86.12
364.562	95.12
364.788	96.12
365.015	83.12
365.241	108.12
365.468	89.12
365.694	104.12
365.92	111.12
366.147	98.12
366.373	97.12
366.599	86.12
366.826	96.12
367.052	97.12
367.278	100.12
367.505	88.12
367.731	95.12
367.957	95.12
368.184	89.12
368.41	89.12
368.636	117.12
368.862	119.12
369.089	98.12
369.315	115.12
369.541	93.12
369.767	91.12
369.993	109.12
370.219	100.12
370.445	98.12
370.672	84.12
370.898	97.12
371.124	92.12
371.35	94.12
371.576	89.12
371.802	83.12
372.028	93.12
372.254	89.12
372.48	83.12
372.706	91.12
372.932	96.12
373.158	93.12
373.384	90.12
373.61	83.12
373.835	85.12
374.061	93.12
374.287	100.12
374.513	85.12
374.739	88.12
374.965	93.12
375.191	81.12
375.416	74.12
375.642	109.12
375.868	92.12
376.094	109.12
376.319	98.12
376.545	68.12
376.771	93.12
376.997	99.12
377.222	87.12
377.448	91.12
377.674	83.12
377.899	84.12
378.125	98.12
378.35	99.12
378.576	105.12
378.802	99.12
379.027	91.12
379.253	104.12
379.478	97.12
379.704	88.12
379.929	78.12
380.155	93.12
380.38	91.12
380.606	87.12
380.831	89.12
381.057	99.12
381.282	102.12
381.507	92.12
381.733	94.12
381.958	111.12
382.184	98.12
382.409	102.12
382.634	87.12
382.86	95.12
383.085	104.12
383.31	93.12
383.535	98.12
383.761	97.12
383.986	96.12
384.211	95.12
384.436	94.12
384.662	83.12
384.887	106.12
385.112	97.12
385.337	98.12
385.562	93.12
385.787	99.12
386.013	102.12
386.238	113.12
386.463	98.12
386.688	107.12
386.913	102.12
387.138	106.12
387.363	115.12
387.588	97.12
387.813	113.12
388.038	97.12
388.263	113.12
388.488	112.12
388.713	100.12
388.938	92.12
389.163	104.12
389.387	91.12
389.612	92.12
389.837	85.12
390.062	88.12
390.287	81.12
390.512	93.12
390.736	98.12
390.961	96.12
391.186	88.12
391.411	104.12
391.636	97.12
391.86	84.12
392.085	95.12
392.31	91.12
392.534	89.12
392.759	90.12
392.984	81.12
393.208	95.12
393.433	101.12
393.658	96.12
393.882	88.12
394.107	91.12
394.331	95.12
394.556	77.12
394.78	73.12
395.005	91.12
395.229	88.12
395.454	85.12
395.678	93.12
395.903	80.12
396.127	74.12
396.352	96.12
396.576	81.12
396.801	95.12
397.025	80.12
397.249	83.12
397.474	89.12
397.698	91.12
397.922	96.12
398.147	87.12
398.371	90.12
398.595	95.12
398.82	92.12
399.044	86.12
399.268	95.12
399.492	85.12
399.717	90.12
399.941	87.12
400.165	85.12
400.389	77.12
400.613	89.12
400.837	92.12
401.062	81.12
401.286	76.12
401.51	87.12
401.734	91.12
401.958	100.12
402.182	116.12
402.406	131.12
402.63	116.12
402.854	103.12
403.078	95.12
403.302	94.12
403.526	92.12
403.75	85.12
403.974	85.12
404.198	85.12
404.422	79.12
404.645	79.12
404.869	98.12
405.093	80.12
405.317	88.12
405.541	92.12
405.765	102.12
405.988	126.12
406.212	171.12
406.436	201.12
406.66	135.12
406.883	118.12
407.107	105.12
407.331	88.12
407.555	89.12
407.778	107.12
408.002	85.12
408.226	97.12
408.449	96.12
408.673	80.12
408.896	99.12
409.12	96.12
409.344	87.12
409.567	108.12
409.791	92.12
410.014	103.12
410.238	103.12
410.461	106.12
410.685	93.12
410.908	94.12
411.132	97.12
411.355	102.12
411.578	91.12
411.802	97.12
412.025	98.12
412.249	91.12
412.472	89.12
412.695	88.12
412.919	87.12
413.142	92.12
413.365	89.12
413.589	89.12
413.812	94.12
414.035	108.12
414.258	93.12
414.482	98.12
414.705	87.12
414.928	83.12
415.151	87.12
415.374	83.12
415.597	99.12
415.821	88.12
416.044	100.12
416.267	94.12
416.49	72.12
416.713	90.12
416.936	86.12
417.159	83.12
417.382	99.12
417.605	90.12
417.828	97.12
418.051	86.12
418.274	88.12
418.497	98.12
418.72	87.12
418.943	98.12
419.166	96.12
419.389	99.12
419.611	90.12
419.834	89.12
420.057	82.12
420.28	74.12
420.503	98.12
420.726	111.12
420.948	101.12
421.171	102.12
421.394	109.12
421.617	87.12
421.839	92.12
422.062	74.12
422.285	95.12
422.507	92.12
422.73	103.12
422.953	95.12
423.175	100.12
423.398	85.12
423.621	106.12
423.843	106.12
424.066	94.12
424.288	92.12
424.511	98.12
424.733	101.12
424.956	93.12
425.178	83.12
425.401	100.12
425.623	100.12
425.846	89.12
426.068	103.12
426.291	99.12
426.513	84.12
426.735	83.12
426.958	99.12
427.18	96.12
427.402	120.12
427.625	156.12
427.847	119.12
428.069	94.12
428.292	87.12
428.514	90.12
428.736	86.12
428.958	96.12
429.181	80.12
429.403	88.12
429.625	84.12
429.847	90.12
430.069	91.12
430.292	88.12
430.514	89.12
430.736	72.12
430.958	77.12
431.18	86.12
431.402	93.12
431.624	92.12
431.846	98.12
432.068	96.12
432.29	89.12
432.512	87.12
432.734	89.12
432.956	87.12
433.178	89.12
433.4	97.12
433.622	86.12
433.844	106.12
434.066	99.12
434.287	101.12
434.509	85.12
434.731	88.12
434.953	88.12
435.175	97.12
435.397	92.12
435.618	91.12
435.84	95.12
436.062	117.12
436.284	92.12
436.505	92.12
436.727	113.12
436.949	94.12
437.17	96.12
437.392	85.12
437.614	88.12
437.835	101.12
438.057	116.12
438.278	112.12
438.5	100.12
438.721	116.12
438.943	99.12
439.165	93.12
439.386	92.12
439.608	113.12
439.829	86.12
440.05	106.12
440.272	115.12
440.493	101.12
440.715	81.12
440.936	84.12
441.158	88.12
441.379	80.12
441.6	87.12
441.822	75.12
442.043	99.12
442.264	105.12
442.486	91.12
442.707	82.12
442.928	98.12
443.149	97.12
443.371	114.12
443.592	119.12
443.813	106.12
444.034	98.12
444.255	95.12
444.476	92.12
444.698	83.12
444.919	79.12
445.14	128.12
445.361	125.12
445.582	124.12
445.803	121.12
446.024	122.12
446.245	116.12
446.466	104.12
446.687	83.12
446.908	79.12
447.129	88.12
447.35	92.12
447.571	88.12
447.792	97.12
448.013	99.12
448.234	114.12
448.455	107.12
448.675	112.12
448.896	114.12
449.117	98.12
449.338	97.12
449.559	132.12
449.779	130.12
450	92.12
450.221	89.12
450.442	100.12
450.662	89.12
450.883	111.12
451.104	104.12
451.324	98.12
451.545	87.12
451.766	109.12
451.986	95.12
452.207	86.12
452.428	81.12
452.648	111.12
452.869	111.12
453.089	122.12
453.31	106.12
453.53	112.12
453.751	93.12
453.971	99.12
454.192	100.12
454.412	83.12
454.633	96.12
454.853	98.12
455.073	92.12
455.294	96.12
455.514	107.12
455.734	95.12
455.955	93.12
456.175	77.12
456.395	88.12
456.616	104.12
456.836	88.12
457.056	90.12
457.276	91.12
457.497	84.12
457.717	69.12
457.937	83.12
458.157	76.12
458.377	95.12
458.598	108.12
458.818	131.12
459.038	149.12
459.258	113.12
459.478	95.12
459.698	87.12
459.918	91.12
460.138	83.12
460.358	96.12
460.578	104.12
460.798	87.12
461.018	89.12
461.238	87.12
461.458	85.12
461.678	75.12
461.898	100.12
462.118	93.12
462.338	95.12
462.558	89.12
462.777	104.12
462.997	88.12
463.217	91.12
463.437	92.12
463.657	87.12
463.876	84.12
464.096	101.12
464.316	104.12
464.536	89.12
464.755	108.12
464.975	98.12
465.195	138.12
465.414	139.12
465.634	97.12
465.854	88.12
466.073	92.12
466.293	97.12
466.512	93.12
466.732	84.12
466.951	98.12
467.171	98.12
467.391	103.12
467.61	106.12
467.829	98.12
468.049	85.12
468.268	84.12
468.488	82.12
468.707	85.12
468.927	87.12
469.146	84.12
469.365	95.12
469.585	94.12
469.804	100.12
470.023	95.12
470.243	91.12
470.462	107.12
470.681	113.12
470.901	87.12
471.12	61.12
471.339	87.12
471.558	83.12
471.777	102.12
471.997	89.12
472.216	103.12
472.435	92.12
472.654	91.12
472.873	106.12
473.092	96.12
473.311	88.12
473.53	86.12
473.749	90.12
473.968	107.12
474.187	112.12
474.406	85.12
474.625	93.12
474.844	96.12
475.063	83.12
475.282	69.12
475.501	79.12
475.72	103.12
475.939	84.12
476.158	80.12
476.377	83.12
476.596	81.12
476.814	86.12
477.033	95.12
477.252	95.12
477.471	100.12
477.69	81.12
477.908	87.12
478.127	69.12
478.346	82.12
478.564	91.12
478.783	100.12
479.002	83.12
479.22	91.12
479.439	99.12
479.658	101.12
479.876	105.12
480.095	96.12
480.313	85.12
480.532	108.12
480.751	106.12
480.969	98.12
481.188	108.12
481.406	111.12
481.624	91.12
481.843	93.12
482.061	99.12
482.28	96.12
482.498	96.12
482.717	99.12
482.935	88.12
483.153	83.12
483.372	92.12
483.59	89.12
483.808	91.12
484.027	92.12
484.245	95.12
484.463	100.12
484.681	100.12
484.9	91.12
485.118	100.12
485.336	93.12
485.554	100.12
485.772	100.12
485.99	119.12
486.209	113.12
486.427	104.12
486.645	105.12
486.863	113.12
487.081	105.12
487.299	101.12
487.517	100.12
487.735	93.12
487.953	92.12
488.171	107.12
488.389	92.12
488.607	100.12
488.825	90.12
489.043	91.12
489.261	108.12
489.479	97.12
489.696	94.12
489.914	91.12
490.132	98.12
490.35	92.12
490.568	91.12
490.786	85.12
491.003	93.12
491.221	93.12
491.439	100.12
491.657	107.12
491.874	94.12
492.092	87.12
492.31	84.12
492.527	91.12
492.745	85.12
492.963	88.12
493.18	93.12
493.398	88.12
493.615	99.12
493.833	97.12
494.05	83.12
494.268	93.12
494.485	95.12
494.703	81.12
494.92	86.12
495.138	92.12
495.355	99.12
495.573	83.12
495.79	87.12
496.008	104.12
496.225	80.12
496.442	83.12
496.66	84.12
496.877	74.12
497.094	89.12
497.312	87.12
497.529	93.12
497.746	94.12
497.963	94.12
498.181	99.12
498.398	89.12
498.615	103.12
498.832	101.12
499.049	90.12
499.267	85.12
499.484	75.12
499.701	97.12
499.918	100.12
500.135	79.12
500.352	82.12
500.569	82.12
500.786	90.12
501.003	77.12
501.22	101.12
501.437	96.12
501.654	97.12
501.871	107.12
502.088	94.12
502.305	97.12
502.522	99.12
502.739	90.12
502.956	87.12
503.172	100.12
503.389	79.12
503.606	106.12
503.823	95.12
504.04	80.12
504.256	96.12
504.473	87.12
504.69	88.12
504.907	95.12
505.123	86.12
505.34	85.12
505.557	89.12
505.773	89.12
505.99	91.12
506.207	104.12
506.423	96.12
506.64	101.12
506.856	87.12
507.073	105.12
507.289	101.12
507.506	100.12
507.722	98.12
507.939	98.12
508.155	87.12
508.372	93.12
508.588	80.12
508.805	95.12
509.021	97.12
509.238	87.12
509.454	98.12
509.67	111.12
509.887	99.12
510.103	125.12
510.319	203.12
510.536	682.12
510.752	2043.12
510.968	573.12
511.184	132.12
511.401	109.12
511.617	95.12
511.833	93.12
512.049	101.12
512.265	88.12
512.481	96.12
512.698	102.12
512.914	99.12
513.13	97.12
513.346	102.12
513.562	90.12
513.778	100.12
513.994	91.12
514.21	108.12
514.426	106.12
514.642	121.12
514.858	113.12
515.074	158.12
515.29	389.12
515.506	1282.12
