Data from Uncirc_1986_H10_HRD10591_00032.txt Node
Date: Wed Jan 03 12:14:32 EST 2024
User: Yrep
Spectrometer: HR+D1059
Trigger mode: 1
Integration Time (sec): 1.000000E-1
Scans to average: 1
Electric dark correction enabled: true
Nonlinearity correction enabled: false
Boxcar width: 0
XAxis mode: Wavelengths
Number of Pixels in Spectrum: 2048
>>>>>Begin Spectral Data<<<<<
223.165	-6.44
223.4	-6.44
223.635	-6.44
223.869	-13.44
224.104	-12.44
224.338	-8.44
224.573	4.56
224.808	-30.44
225.042	-17.44
225.277	-4.44
225.511	0.56
225.746	-8.44
225.98	6.56
226.215	2.56
226.449	23.56
226.683	18.56
226.918	21.56
227.152	23.56
227.387	41.56
227.621	35.56
227.856	41.56
228.09	50.56
228.324	55.56
228.559	48.56
228.793	47.56
229.027	54.56
229.262	55.56
229.496	69.56
229.73	75.56
229.964	82.56
230.199	82.56
230.433	79.56
230.667	58.56
230.901	72.56
231.136	70.56
231.37	78.56
231.604	65.56
231.838	83.56
232.072	81.56
232.306	77.56
232.541	79.56
232.775	81.56
233.009	78.56
233.243	82.56
233.477	67.56
233.711	80.56
233.945	90.56
234.179	69.56
234.413	93.56
234.647	84.56
234.881	69.56
235.115	72.56
235.349	74.56
235.583	79.56
235.817	64.56
236.051	72.56
236.285	81.56
236.519	83.56
236.753	82.56
236.987	77.56
237.221	81.56
237.455	80.56
237.689	71.56
237.922	63.56
238.156	75.56
238.39	68.56
238.624	81.56
238.858	66.56
239.091	67.56
239.325	67.56
239.559	66.56
239.793	64.56
240.027	71.56
240.26	75.56
240.494	76.56
240.728	75.56
240.961	65.56
241.195	73.56
241.429	74.56
241.662	84.56
241.896	70.56
242.13	93.56
242.363	73.56
242.597	79.56
242.83	83.56
243.064	58.56
243.298	71.56
243.531	71.56
243.765	72.56
243.998	75.56
244.232	93.56
244.465	89.56
244.699	80.56
244.932	88.56
245.166	80.56
245.399	69.56
245.633	64.56
245.866	78.56
246.099	61.56
246.333	75.56
246.566	77.56
246.8	79.56
247.033	84.56
247.266	65.56
247.5	76.56
247.733	79.56
247.966	75.56
248.2	81.56
248.433	92.56
248.666	72.56
248.899	84.56
249.133	77.56
249.366	99.56
249.599	100.56
249.832	68.56
250.066	79.56
250.299	74.56
250.532	86.56
250.765	81.56
250.998	93.56
251.231	71.56
251.465	72.56
251.698	71.56
251.931	77.56
252.164	75.56
252.397	79.56
252.63	68.56
252.863	83.56
253.096	81.56
253.329	86.56
253.562	77.56
253.795	69.56
254.028	66.56
254.261	70.56
254.494	86.56
254.727	83.56
254.96	76.56
255.193	75.56
255.426	82.56
255.659	75.56
255.892	81.56
256.124	72.56
256.357	71.56
256.59	93.56
256.823	83.56
257.056	71.56
257.289	82.56
257.521	75.56
257.754	69.56
257.987	83.56
258.22	81.56
258.452	69.56
258.685	75.56
258.918	82.56
259.151	86.56
259.383	76.56
259.616	84.56
259.849	64.56
260.081	100.56
260.314	75.56
260.547	69.56
260.779	75.56
261.012	64.56
261.244	79.56
261.477	76.56
261.71	89.56
261.942	88.56
262.175	104.56
262.407	88.56
262.64	93.56
262.872	79.56
263.105	102.56
263.337	85.56
263.57	92.56
263.802	88.56
264.035	83.56
264.267	79.56
264.499	87.56
264.732	86.56
264.964	68.56
265.197	77.56
265.429	80.56
265.661	77.56
265.894	83.56
266.126	72.56
266.358	67.56
266.591	71.56
266.823	70.56
267.055	89.56
267.287	67.56
267.52	86.56
267.752	91.56
267.984	86.56
268.216	89.56
268.448	85.56
268.681	65.56
268.913	82.56
269.145	81.56
269.377	81.56
269.609	92.56
269.841	67.56
270.073	79.56
270.306	87.56
270.538	90.56
270.77	79.56
271.002	77.56
271.234	79.56
271.466	94.56
271.698	82.56
271.93	87.56
272.162	81.56
272.394	96.56
272.626	78.56
272.858	91.56
273.09	81.56
273.322	94.56
273.553	83.56
273.785	68.56
274.017	81.56
274.249	88.56
274.481	84.56
274.713	76.56
274.945	84.56
275.176	73.56
275.408	78.56
275.64	82.56
275.872	87.56
276.104	89.56
276.335	84.56
276.567	100.56
276.799	105.56
277.031	106.56
277.262	79.56
277.494	72.56
277.726	99.56
277.957	89.56
278.189	87.56
278.421	77.56
278.652	92.56
278.884	75.56
279.115	77.56
279.347	89.56
279.579	88.56
279.81	86.56
280.042	85.56
280.273	93.56
280.505	91.56
280.736	87.56
280.968	83.56
281.199	85.56
281.431	99.56
281.662	102.56
281.894	85.56
282.125	99.56
282.356	117.56
282.588	132.56
282.819	102.56
283.051	104.56
283.282	81.56
283.513	85.56
283.745	87.56
283.976	73.56
284.207	84.56
284.439	83.56
284.67	66.56
284.901	84.56
285.132	89.56
285.364	80.56
285.595	85.56
285.826	91.56
286.057	84.56
286.288	81.56
286.52	85.56
286.751	81.56
286.982	78.56
287.213	80.56
287.444	85.56
287.675	91.56
287.906	83.56
288.138	100.56
288.369	72.56
288.6	87.56
288.831	93.56
289.062	92.56
289.293	93.56
289.524	81.56
289.755	86.56
289.986	91.56
290.217	73.56
290.448	71.56
290.679	72.56
290.91	94.56
291.141	75.56
291.371	85.56
291.602	93.56
291.833	96.56
292.064	91.56
292.295	87.56
292.526	81.56
292.757	89.56
292.987	101.56
293.218	82.56
293.449	89.56
293.68	91.56
293.91	85.56
294.141	84.56
294.372	83.56
294.603	81.56
294.833	96.56
295.064	98.56
295.295	94.56
295.525	91.56
295.756	102.56
295.987	123.56
296.217	123.56
296.448	112.56
296.679	91.56
296.909	98.56
297.14	86.56
297.37	81.56
297.601	76.56
297.831	79.56
298.062	80.56
298.292	80.56
298.523	82.56
298.753	75.56
298.984	75.56
299.214	82.56
299.445	89.56
299.675	84.56
299.905	85.56
300.136	97.56
300.366	76.56
300.597	83.56
300.827	86.56
301.057	90.56
301.288	97.56
301.518	93.56
301.748	96.56
301.979	88.56
302.209	86.56
302.439	92.56
302.669	88.56
302.9	86.56
303.13	81.56
303.36	85.56
303.59	103.56
303.82	85.56
304.051	95.56
304.281	87.56
304.511	91.56
304.741	72.56
304.971	94.56
305.201	100.56
305.431	87.56
305.661	79.56
305.891	82.56
306.121	88.56
306.352	84.56
306.582	94.56
306.812	94.56
307.042	99.56
307.272	81.56
307.502	101.56
307.731	84.56
307.961	89.56
308.191	94.56
308.421	85.56
308.651	91.56
308.881	97.56
309.111	88.56
309.341	96.56
309.571	94.56
309.8	83.56
310.03	89.56
310.26	95.56
310.49	73.56
310.72	85.56
310.949	93.56
311.179	100.56
311.409	101.56
311.639	78.56
311.868	89.56
312.098	93.56
312.328	86.56
312.557	97.56
312.787	101.56
313.017	107.56
313.246	104.56
313.476	88.56
313.706	93.56
313.935	99.56
314.165	103.56
314.394	92.56
314.624	83.56
314.853	98.56
315.083	93.56
315.312	94.56
315.542	91.56
315.771	101.56
316.001	100.56
316.23	88.56
316.46	80.56
316.689	87.56
316.919	77.56
317.148	87.56
317.377	95.56
317.607	85.56
317.836	94.56
318.065	78.56
318.295	81.56
318.524	90.56
318.753	79.56
318.983	96.56
319.212	100.56
319.441	116.56
319.67	110.56
319.9	95.56
320.129	94.56
320.358	80.56
320.587	82.56
320.816	100.56
321.046	93.56
321.275	98.56
321.504	85.56
321.733	96.56
321.962	89.56
322.191	79.56
322.42	105.56
322.649	103.56
322.878	103.56
323.108	109.56
323.337	113.56
323.566	132.56
323.795	147.56
324.024	200.56
324.253	358.56
324.482	764.56
324.71	1538.56
324.939	2033.56
325.168	727.56
325.397	221.56
325.626	137.56
325.855	114.56
326.084	115.56
326.313	119.56
326.542	134.56
326.77	221.56
326.999	441.56
327.228	862.56
327.457	1599.56
327.686	1255.56
327.914	350.56
328.143	170.56
328.372	127.56
328.6	105.56
328.829	99.56
329.058	125.56
329.287	116.56
329.515	100.56
329.744	95.56
329.972	105.56
330.201	95.56
330.43	96.56
330.658	114.56
330.887	125.56
331.115	123.56
331.344	101.56
331.572	85.56
331.801	87.56
332.03	107.56
332.258	91.56
332.486	85.56
332.715	93.56
332.943	73.56
333.172	87.56
333.4	90.56
333.629	106.56
333.857	105.56
334.085	110.56
334.314	97.56
334.542	98.56
334.771	114.56
334.999	95.56
335.227	81.56
335.455	92.56
335.684	92.56
335.912	93.56
336.14	101.56
336.369	86.56
336.597	109.56
336.825	113.56
337.053	93.56
337.281	87.56
337.51	90.56
337.738	79.56
337.966	72.56
338.194	93.56
338.422	106.56
338.65	96.56
338.878	96.56
339.106	86.56
339.334	85.56
339.562	73.56
339.79	80.56
340.018	87.56
340.246	87.56
340.474	92.56
340.702	96.56
340.93	87.56
341.158	100.56
341.386	83.56
341.614	79.56
341.842	108.56
342.07	87.56
342.298	89.56
342.526	87.56
342.754	82.56
342.981	92.56
343.209	81.56
343.437	91.56
343.665	91.56
343.893	89.56
344.12	87.56
344.348	81.56
344.576	88.56
344.804	99.56
345.031	93.56
345.259	93.56
345.487	94.56
345.714	98.56
345.942	88.56
346.17	90.56
346.397	95.56
346.625	97.56
346.853	89.56
347.08	77.56
347.308	93.56
347.535	98.56
347.763	108.56
347.99	96.56
348.218	99.56
348.445	100.56
348.673	101.56
348.9	83.56
349.128	93.56
349.355	88.56
349.583	91.56
349.81	109.56
350.037	91.56
350.265	85.56
350.492	92.56
350.72	96.56
350.947	99.56
351.174	109.56
351.402	107.56
351.629	86.56
351.856	93.56
352.083	105.56
352.311	103.56
352.538	115.56
352.765	91.56
352.992	89.56
353.22	113.56
353.447	111.56
353.674	102.56
353.901	92.56
354.128	99.56
354.355	88.56
354.583	95.56
354.81	92.56
355.037	100.56
355.264	90.56
355.491	95.56
355.718	87.56
355.945	83.56
356.172	97.56
356.399	102.56
356.626	101.56
356.853	101.56
357.08	82.56
357.307	89.56
357.534	83.56
357.761	95.56
357.988	83.56
358.215	84.56
358.441	87.56
358.668	85.56
358.895	92.56
359.122	79.56
359.349	77.56
359.576	96.56
359.802	85.56
360.029	87.56
360.256	97.56
360.483	89.56
360.709	103.56
360.936	101.56
361.163	85.56
361.39	116.56
361.616	99.56
361.843	90.56
362.07	86.56
362.296	92.56
362.523	87.56
362.749	91.56
362.976	92.56
363.203	93.56
363.429	74.56
363.656	90.56
363.882	90.56
364.109	95.56
364.335	99.56
364.562	85.56
364.788	91.56
365.015	82.56
365.241	89.56
365.468	96.56
365.694	104.56
365.92	96.56
366.147	96.56
366.373	85.56
366.599	92.56
366.826	83.56
367.052	82.56
367.278	79.56
367.505	86.56
367.731	91.56
367.957	102.56
368.184	93.56
368.41	93.56
368.636	85.56
368.862	94.56
369.089	95.56
369.315	100.56
369.541	91.56
369.767	87.56
369.993	79.56
370.219	72.56
370.445	91.56
370.672	82.56
370.898	96.56
371.124	84.56
371.35	81.56
371.576	83.56
371.802	82.56
372.028	96.56
372.254	105.56
372.48	77.56
372.706	86.56
372.932	89.56
373.158	87.56
373.384	96.56
373.61	82.56
373.835	84.56
374.061	93.56
374.287	84.56
374.513	88.56
374.739	92.56
374.965	86.56
375.191	70.56
375.416	102.56
375.642	111.56
375.868	90.56
376.094	97.56
376.319	96.56
376.545	64.56
376.771	88.56
376.997	98.56
377.222	105.56
377.448	93.56
377.674	89.56
377.899	101.56
378.125	89.56
378.35	90.56
378.576	83.56
378.802	81.56
379.027	86.56
379.253	81.56
379.478	97.56
379.704	99.56
379.929	95.56
380.155	90.56
380.38	86.56
380.606	87.56
380.831	95.56
381.057	82.56
381.282	94.56
381.507	93.56
381.733	87.56
381.958	94.56
382.184	104.56
382.409	98.56
382.634	92.56
382.86	94.56
383.085	95.56
383.31	92.56
383.535	92.56
383.761	80.56
383.986	88.56
384.211	97.56
384.436	95.56
384.662	88.56
384.887	107.56
385.112	98.56
385.337	105.56
385.562	97.56
385.787	99.56
386.013	104.56
386.238	94.56
386.463	96.56
386.688	95.56
386.913	101.56
387.138	101.56
387.363	97.56
387.588	105.56
387.813	87.56
388.038	96.56
388.263	102.56
388.488	91.56
388.713	70.56
388.938	89.56
389.163	91.56
389.387	108.56
389.612	104.56
389.837	104.56
390.062	99.56
390.287	105.56
390.512	87.56
390.736	85.56
390.961	71.56
391.186	95.56
391.411	89.56
391.636	93.56
391.86	83.56
392.085	75.56
392.31	76.56
392.534	82.56
392.759	87.56
392.984	91.56
393.208	93.56
393.433	83.56
393.658	82.56
393.882	89.56
394.107	84.56
394.331	97.56
394.556	76.56
394.78	83.56
395.005	79.56
395.229	96.56
395.454	80.56
395.678	77.56
395.903	101.56
396.127	75.56
396.352	99.56
396.576	85.56
396.801	82.56
397.025	93.56
397.249	83.56
397.474	89.56
397.698	85.56
397.922	87.56
398.147	86.56
398.371	84.56
398.595	81.56
398.82	91.56
399.044	76.56
399.268	92.56
399.492	93.56
399.717	88.56
399.941	95.56
400.165	85.56
400.389	80.56
400.613	88.56
400.837	80.56
401.062	94.56
401.286	87.56
401.51	81.56
401.734	77.56
401.958	98.56
402.182	117.56
402.406	154.56
402.63	106.56
402.854	97.56
403.078	85.56
403.302	87.56
403.526	112.56
403.75	84.56
403.974	86.56
404.198	79.56
404.422	75.56
404.645	77.56
404.869	97.56
405.093	101.56
405.317	93.56
405.541	96.56
405.765	102.56
405.988	116.56
406.212	154.56
406.436	214.56
406.66	134.56
406.883	97.56
407.107	91.56
407.331	106.56
407.555	105.56
407.778	107.56
408.002	71.56
408.226	89.56
408.449	87.56
408.673	94.56
408.896	83.56
409.12	85.56
409.344	93.56
409.567	103.56
409.791	91.56
410.014	102.56
410.238	108.56
410.461	79.56
410.685	91.56
410.908	101.56
411.132	102.56
411.355	92.56
411.578	98.56
411.802	90.56
412.025	88.56
412.249	87.56
412.472	86.56
412.695	70.56
412.919	94.56
413.142	95.56
413.365	77.56
413.589	104.56
413.812	75.56
414.035	102.56
414.258	73.56
414.482	96.56
414.705	78.56
414.928	86.56
415.151	84.56
415.374	79.56
415.597	91.56
415.821	75.56
416.044	68.56
416.267	78.56
416.49	73.56
416.713	95.56
416.936	86.56
417.159	86.56
417.382	89.56
417.605	93.56
417.828	91.56
418.051	87.56
418.274	95.56
418.497	97.56
418.72	82.56
418.943	92.56
419.166	79.56
419.389	82.56
419.611	104.56
419.834	87.56
420.057	93.56
420.28	87.56
420.503	95.56
420.726	82.56
420.948	96.56
421.171	96.56
421.394	98.56
421.617	97.56
421.839	93.56
422.062	69.56
422.285	84.56
422.507	101.56
422.73	95.56
422.953	95.56
423.175	85.56
423.398	95.56
423.621	100.56
423.843	78.56
424.066	77.56
424.288	94.56
424.511	84.56
424.733	102.56
424.956	101.56
425.178	97.56
425.401	99.56
425.623	103.56
425.846	80.56
426.068	80.56
426.291	81.56
426.513	89.56
426.735	87.56
426.958	95.56
427.18	94.56
427.402	120.56
427.625	135.56
427.847	125.56
428.069	106.56
428.292	90.56
428.514	79.56
428.736	85.56
428.958	79.56
429.181	103.56
429.403	87.56
429.625	87.56
429.847	86.56
430.069	87.56
430.292	80.56
430.514	87.56
430.736	99.56
430.958	98.56
431.18	84.56
431.402	83.56
431.624	83.56
431.846	82.56
432.068	81.56
432.29	91.56
432.512	88.56
432.734	75.56
432.956	96.56
433.178	86.56
433.4	96.56
433.622	80.56
433.844	99.56
434.066	88.56
434.287	95.56
434.509	83.56
434.731	87.56
434.953	91.56
435.175	93.56
435.397	91.56
435.618	99.56
435.84	95.56
436.062	119.56
436.284	110.56
436.505	101.56
436.727	105.56
436.949	88.56
437.17	87.56
437.392	101.56
437.614	91.56
437.835	87.56
438.057	101.56
438.278	99.56
438.5	97.56
438.721	116.56
438.943	100.56
439.165	100.56
439.386	83.56
439.608	86.56
439.829	97.56
440.05	120.56
440.272	124.56
440.493	87.56
440.715	79.56
440.936	87.56
441.158	87.56
441.379	81.56
441.6	87.56
441.822	86.56
442.043	89.56
442.264	78.56
442.486	101.56
442.707	88.56
442.928	117.56
443.149	137.56
443.371	118.56
443.592	103.56
443.813	108.56
444.034	100.56
444.255	90.56
444.476	95.56
444.698	89.56
444.919	84.56
445.14	131.56
445.361	117.56
445.582	101.56
445.803	125.56
446.024	127.56
446.245	128.56
446.466	104.56
446.687	80.56
446.908	95.56
447.129	87.56
447.35	79.56
447.571	91.56
447.792	89.56
448.013	104.56
448.234	111.56
448.455	93.56
448.675	106.56
448.896	103.56
449.117	94.56
449.338	115.56
449.559	119.56
449.779	124.56
450	94.56
450.221	82.56
450.442	82.56
450.662	89.56
450.883	93.56
451.104	107.56
451.324	91.56
451.545	87.56
451.766	86.56
451.986	78.56
452.207	87.56
452.428	82.56
452.648	97.56
452.869	99.56
453.089	111.56
453.31	110.56
453.53	89.56
453.751	79.56
453.971	98.56
454.192	115.56
454.412	87.56
454.633	71.56
454.853	83.56
455.073	75.56
455.294	100.56
455.514	111.56
455.734	95.56
455.955	89.56
456.175	87.56
456.395	85.56
456.616	84.56
456.836	71.56
457.056	81.56
457.276	83.56
457.497	72.56
457.717	88.56
457.937	85.56
458.157	82.56
458.377	82.56
458.598	101.56
458.818	136.56
459.038	156.56
459.258	112.56
459.478	88.56
459.698	86.56
459.918	75.56
460.138	87.56
460.358	94.56
460.578	91.56
460.798	90.56
461.018	83.56
461.238	96.56
461.458	91.56
461.678	92.56
461.898	92.56
462.118	83.56
462.338	78.56
462.558	79.56
462.777	89.56
462.997	95.56
463.217	70.56
463.437	71.56
463.657	86.56
463.876	90.56
464.096	84.56
464.316	80.56
464.536	92.56
464.755	85.56
464.975	93.56
465.195	163.56
465.414	146.56
465.634	80.56
465.854	83.56
466.073	87.56
466.293	97.56
466.512	109.56
466.732	92.56
466.951	95.56
467.171	92.56
467.391	85.56
467.61	110.56
467.829	89.56
468.049	95.56
468.268	72.56
468.488	99.56
468.707	88.56
468.927	68.56
469.146	85.56
469.365	79.56
469.585	75.56
469.804	83.56
470.023	91.56
470.243	89.56
470.462	86.56
470.681	110.56
470.901	86.56
471.12	81.56
471.339	79.56
471.558	75.56
471.777	88.56
471.997	77.56
472.216	90.56
472.435	98.56
472.654	86.56
472.873	71.56
473.092	70.56
473.311	91.56
473.53	77.56
473.749	96.56
473.968	91.56
474.187	116.56
474.406	93.56
474.625	83.56
474.844	66.56
475.063	84.56
475.282	89.56
475.501	85.56
475.72	77.56
475.939	93.56
476.158	83.56
476.377	75.56
476.596	80.56
476.814	87.56
477.033	81.56
477.252	81.56
477.471	87.56
477.69	85.56
477.908	87.56
478.127	85.56
478.346	73.56
478.564	83.56
478.783	79.56
479.002	77.56
479.22	87.56
479.439	96.56
479.658	104.56
479.876	92.56
480.095	87.56
480.313	83.56
480.532	88.56
480.751	88.56
480.969	78.56
481.188	104.56
481.406	94.56
481.624	90.56
481.843	96.56
482.061	90.56
482.28	82.56
482.498	75.56
482.717	86.56
482.935	78.56
483.153	76.56
483.372	80.56
483.59	88.56
483.808	90.56
484.027	95.56
484.245	92.56
484.463	82.56
484.681	84.56
484.9	96.56
485.118	105.56
485.336	89.56
485.554	97.56
485.772	96.56
485.99	103.56
486.209	92.56
486.427	105.56
486.645	108.56
486.863	105.56
487.081	107.56
487.299	104.56
487.517	83.56
487.735	109.56
487.953	99.56
488.171	92.56
488.389	107.56
488.607	98.56
488.825	94.56
489.043	91.56
489.261	96.56
489.479	85.56
489.696	81.56
489.914	81.56
490.132	75.56
490.35	85.56
490.568	95.56
490.786	84.56
491.003	93.56
491.221	91.56
491.439	100.56
491.657	79.56
491.874	88.56
492.092	88.56
492.31	80.56
492.527	93.56
492.745	87.56
492.963	89.56
493.18	87.56
493.398	87.56
493.615	89.56
493.833	92.56
494.05	83.56
494.268	86.56
494.485	91.56
494.703	86.56
494.92	92.56
495.138	87.56
495.355	86.56
495.573	85.56
495.79	78.56
496.008	97.56
496.225	103.56
496.442	108.56
496.66	85.56
496.877	89.56
497.094	100.56
497.312	100.56
497.529	82.56
497.746	93.56
497.963	87.56
498.181	94.56
498.398	100.56
498.615	113.56
498.832	99.56
499.049	90.56
499.267	93.56
499.484	88.56
499.701	88.56
499.918	87.56
500.135	75.56
500.352	75.56
500.569	84.56
500.786	97.56
501.003	67.56
501.22	76.56
501.437	89.56
501.654	93.56
501.871	97.56
502.088	92.56
502.305	88.56
502.522	91.56
502.739	78.56
502.956	85.56
503.172	88.56
503.389	91.56
503.606	98.56
503.823	99.56
504.04	88.56
504.256	88.56
504.473	86.56
504.69	96.56
504.907	103.56
505.123	87.56
505.34	84.56
505.557	80.56
505.773	94.56
505.99	82.56
506.207	84.56
506.423	95.56
506.64	102.56
506.856	97.56
507.073	96.56
507.289	70.56
507.506	86.56
507.722	103.56
507.939	105.56
508.155	96.56
508.372	80.56
508.588	97.56
508.805	91.56
509.021	92.56
509.238	80.56
509.454	79.56
509.67	89.56
509.887	107.56
510.103	128.56
510.319	222.56
510.536	716.56
510.752	2113.56
510.968	591.56
511.184	141.56
511.401	114.56
511.617	98.56
511.833	102.56
512.049	92.56
512.265	96.56
512.481	92.56
512.698	98.56
512.914	97.56
513.13	83.56
513.346	79.56
513.562	85.56
513.778	94.56
513.994	98.56
514.21	92.56
514.426	103.56
514.642	116.56
514.858	123.56
515.074	162.56
515.29	397.56
515.506	1361.56
515.721	490.56
515.937	153.56
516.153	105.56
516.369	93.56
516.585	88.56
516.801	105.56
