Data from Uncirc_1986_H10_HRD10591_00061.txt Node
Date: Wed Jan 03 12:14:38 EST 2024
User: Yrep
Spectrometer: HR+D1059
Trigger mode: 1
Integration Time (sec): 1.000000E-1
Scans to average: 1
Electric dark correction enabled: true
Nonlinearity correction enabled: false
Boxcar width: 0
XAxis mode: Wavelengths
Number of Pixels in Spectrum: 2048
>>>>>Begin Spectral Data<<<<<
223.165	-15.69
223.4	-15.69
223.635	-15.69
223.869	-22.69
224.104	-26.69
224.338	-25.69
224.573	-11.69
224.808	-5.69
225.042	-11.69
225.277	-2.69
225.511	-4.69
225.746	16.31
225.98	4.31
226.215	7.31
226.449	14.31
226.683	12.31
226.918	31.31
227.152	41.31
227.387	36.31
227.621	22.31
227.856	42.31
228.09	30.31
228.324	60.31
228.559	60.31
228.793	162.31
229.027	436.31
229.262	506.31
229.496	618.31
229.73	819.31
229.964	846.31
230.199	571.31
230.433	499.31
230.667	476.31
230.901	460.31
231.136	466.31
231.37	475.31
231.604	455.31
231.838	464.31
232.072	448.31
232.306	448.31
232.541	462.31
232.775	466.31
233.009	461.31
233.243	474.31
233.477	474.31
233.711	495.31
233.945	500.31
234.179	524.31
234.413	504.31
234.647	517.31
234.881	527.31
235.115	546.31
235.349	559.31
235.583	550.31
235.817	616.31
236.051	636.31
236.285	614.31
236.519	598.31
236.753	686.31
236.987	909.31
237.221	1448.31
237.455	1553.31
237.689	896.31
237.922	736.31
238.156	744.31
238.39	681.31
238.624	659.31
238.858	632.31
239.091	654.31
239.325	670.31
239.559	691.31
239.793	711.31
240.027	784.31
240.26	911.31
240.494	967.31
240.728	934.31
240.961	934.31
241.195	847.31
241.429	794.31
241.662	798.31
241.896	777.31
242.13	787.31
242.363	788.31
242.597	797.31
242.83	829.31
243.064	808.31
243.298	828.31
243.531	830.31
243.765	847.31
243.998	837.31
244.232	862.31
244.465	882.31
244.699	903.31
244.932	926.31
245.166	890.31
245.399	891.31
245.633	877.31
245.866	891.31
246.099	934.31
246.333	981.31
246.566	930.31
246.8	972.31
247.033	1023.31
247.266	1042.31
247.5	1089.31
247.733	1187.31
247.966	1154.31
248.2	1167.31
248.433	1151.31
248.666	1225.31
248.899	1355.31
249.133	1424.31
249.366	1441.31
249.599	1324.31
249.832	1219.31
250.066	1202.31
250.299	1226.31
250.532	1364.31
250.765	1514.31
250.998	1766.31
251.231	1642.31
251.465	1493.31
251.698	1444.31
251.931	1411.31
252.164	1375.31
252.397	1383.31
252.63	1477.31
252.863	1550.31
253.096	1727.31
253.329	1770.31
253.562	1678.31
253.795	1601.31
254.028	1585.31
254.261	1593.31
254.494	1853.31
254.727	2126.31
254.96	2279.31
255.193	2005.31
255.426	1763.31
255.659	1634.31
255.892	1592.31
256.124	1558.31
256.357	1540.31
256.59	1506.31
256.823	1475.31
257.056	1533.31
257.289	1516.31
257.521	1566.31
257.754	1553.31
257.987	1530.31
258.22	1551.31
258.452	1513.31
258.685	1554.31
258.918	1530.31
259.151	1627.31
259.383	1695.31
259.616	1683.31
259.849	1771.31
260.081	1946.31
260.314	2114.31
260.547	2074.31
260.779	1898.31
261.012	1799.31
261.244	1767.31
261.477	1674.31
261.71	1729.31
261.942	1770.31
262.175	1781.31
262.407	1721.31
262.64	1679.31
262.872	1643.31
263.105	1671.31
263.337	1657.31
263.57	1680.31
263.802	1674.31
264.035	1642.31
264.267	1683.31
264.499	1681.31
264.732	1662.31
264.964	1690.31
265.197	1688.31
265.429	1693.31
265.661	1701.31
265.894	1716.31
266.126	1730.31
266.358	1732.31
266.591	1828.31
266.823	1877.31
267.055	1901.31
267.287	1895.31
267.52	1846.31
267.752	1822.31
267.984	1882.31
268.216	1867.31
268.448	1945.31
268.681	2029.31
268.913	2193.31
269.145	2353.31
269.377	2403.31
269.609	2313.31
269.841	2262.31
270.073	2371.31
270.306	2650.31
270.538	2843.31
270.77	2687.31
271.002	2499.31
271.234	2480.31
271.466	2638.31
271.698	2762.31
271.93	2752.31
272.162	2788.31
272.394	2680.31
272.626	2561.31
272.858	2427.31
273.09	2296.31
273.322	2284.31
273.553	2218.31
273.785	2218.31
274.017	2189.31
274.249	2258.31
274.481	2256.31
274.713	2286.31
274.945	2323.31
275.176	2268.31
275.408	2277.31
275.64	2250.31
275.872	2235.31
276.104	2284.31
276.335	2294.31
276.567	2373.31
276.799	2566.31
277.031	2745.31
277.262	2908.31
277.494	2779.31
277.726	2579.31
277.957	2540.31
278.189	2492.31
278.421	2394.31
278.652	2418.31
278.884	2375.31
279.115	2318.31
279.347	2371.31
279.579	2331.31
279.81	2357.31
280.042	2320.31
280.273	2350.31
280.505	2342.31
280.736	2380.31
280.968	2365.31
281.199	2420.31
281.431	2419.31
281.662	2442.31
281.894	2470.31
282.125	2506.31
282.356	2674.31
282.588	2804.31
282.819	2694.31
283.051	2521.31
283.282	2533.31
283.513	2571.31
283.745	2576.31
283.976	2622.31
284.207	2624.31
284.439	2566.31
284.67	2623.31
284.901	2594.31
285.132	2622.31
285.364	2592.31
285.595	2644.31
285.826	2622.31
286.057	2657.31
286.288	2636.31
286.52	2640.31
286.751	2679.31
286.982	2713.31
287.213	2691.31
287.444	2728.31
287.675	2831.31
287.906	2868.31
288.138	2923.31
288.369	2953.31
288.6	2882.31
288.831	2880.31
289.062	2799.31
289.293	2790.31
289.524	2809.31
289.755	2775.31
289.986	2775.31
290.217	2770.31
290.448	2768.31
290.679	2781.31
290.91	2762.31
291.141	2770.31
291.371	2811.31
291.602	2798.31
291.833	2800.31
292.064	2790.31
292.295	2786.31
292.526	2783.31
292.757	2775.31
292.987	2751.31
293.218	2731.31
293.449	2807.31
293.68	2795.31
293.91	2791.31
294.141	2805.31
294.372	2770.31
294.603	2827.31
294.833	2866.31
295.064	2845.31
295.295	2881.31
295.525	2901.31
295.756	2906.31
295.987	2964.31
296.217	3148.31
296.448	3103.31
296.679	2935.31
296.909	2910.31
297.14	2926.31
297.37	2991.31
297.601	2996.31
297.831	3022.31
298.062	2982.31
298.292	3014.31
298.523	3079.31
298.753	3085.31
298.984	3104.31
299.214	3116.31
299.445	3057.31
299.675	3080.31
299.905	3133.31
300.136	3142.31
300.366	3124.31
300.597	3106.31
300.827	3276.31
301.057	3345.31
301.288	3325.31
301.518	3292.31
301.748	3289.31
301.979	3358.31
302.209	3342.31
302.439	3331.31
302.669	3340.31
302.9	3295.31
303.13	3278.31
303.36	3358.31
303.59	3312.31
303.82	3370.31
304.051	3303.31
304.281	3293.31
304.511	3289.31
304.741	3252.31
304.971	3268.31
305.201	3203.31
305.431	3242.31
305.661	3222.31
305.891	3191.31
306.121	3205.31
306.352	3300.31
306.582	3292.31
306.812	3148.31
307.042	3236.31
307.272	3293.31
307.502	3261.31
307.731	3222.31
307.961	3217.31
308.191	3277.31
308.421	3201.31
308.651	3262.31
308.881	3210.31
309.111	3277.31
309.341	3311.31
309.571	3415.31
309.8	3416.31
310.03	3530.31
310.26	3574.31
310.49	3560.31
310.72	3699.31
310.949	3782.31
311.179	3726.31
311.409	3613.31
311.639	3641.31
311.868	3622.31
312.098	3650.31
312.328	3719.31
312.557	3879.31
312.787	3964.31
313.017	3860.31
313.246	3753.31
313.476	3704.31
313.706	3765.31
313.935	3792.31
314.165	3898.31
314.394	3886.31
314.624	3889.31
314.853	3816.31
315.083	3756.31
315.312	3731.31
315.542	3699.31
315.771	3630.31
316.001	3644.31
316.23	3618.31
316.46	3675.31
316.689	3692.31
316.919	3723.31
317.148	3727.31
317.377	3738.31
317.607	3744.31
317.836	3666.31
318.065	3567.31
318.295	3642.31
318.524	3606.31
318.753	3573.31
318.983	3667.31
319.212	3607.31
319.441	3712.31
319.67	3662.31
319.9	3608.31
320.129	3637.31
320.358	3665.31
320.587	3683.31
320.816	3738.31
321.046	3781.31
321.275	3781.31
321.504	3779.31
321.733	3820.31
321.962	3872.31
322.191	3914.31
322.42	3997.31
322.649	4167.31
322.878	4203.31
323.108	4285.31
323.337	4557.31
323.566	4640.31
323.795	4963.31
324.024	5530.31
324.253	7256.31
324.482	10887.31
324.71	15258.31
324.939	15624.31
325.168	13285.31
325.397	6614.31
325.626	5286.31
325.855	4822.31
326.084	4700.31
326.313	4759.31
326.542	4861.31
326.77	5454.31
326.999	6902.31
327.228	10104.31
327.457	14484.31
327.686	13791.31
327.914	7306.31
328.143	5757.31
328.372	5334.31
328.6	5096.31
328.829	5024.31
329.058	5310.31
329.287	5239.31
329.515	4888.31
329.744	4687.31
329.972	4681.31
330.201	4843.31
330.43	5034.31
330.658	5416.31
330.887	5703.31
331.115	5250.31
331.344	4906.31
331.572	4824.31
331.801	4971.31
332.03	4978.31
332.258	4864.31
332.486	4877.31
332.715	5008.31
332.943	5043.31
333.172	5229.31
333.4	5393.31
333.629	5397.31
333.857	5467.31
334.085	5420.31
334.314	5294.31
334.542	5284.31
334.771	5323.31
334.999	5188.31
335.227	5102.31
335.455	5023.31
335.684	5004.31
335.912	4899.31
336.14	4877.31
336.369	4891.31
336.597	5020.31
336.825	4897.31
337.053	4831.31
337.281	4712.31
337.51	4698.31
337.738	4665.31
337.966	4596.31
338.194	4628.31
338.422	4628.31
338.65	4521.31
338.878	4451.31
339.106	4493.31
339.334	4492.31
339.562	4409.31
339.79	4320.31
340.018	4364.31
340.246	4340.31
340.474	4413.31
340.702	4327.31
340.93	4396.31
341.158	4291.31
341.386	4351.31
341.614	4424.31
341.842	4309.31
342.07	4246.31
342.298	4292.31
342.526	4283.31
342.754	4225.31
342.981	4288.31
343.209	4342.31
343.437	4588.31
343.665	4792.31
343.893	5080.31
344.12	5132.31
344.348	4855.31
344.576	4699.31
344.804	4656.31
345.031	4544.31
345.259	4560.31
345.487	4384.31
345.714	4302.31
345.942	4172.31
346.17	4256.31
346.397	4138.31
346.625	4203.31
346.853	4128.31
347.08	4098.31
347.308	4116.31
347.535	4261.31
347.763	4316.31
347.99	4172.31
348.218	4280.31
348.445	4249.31
348.673	4230.31
348.9	4188.31
349.128	4170.31
349.355	4024.31
349.583	3996.31
349.81	4026.31
350.037	3990.31
350.265	4028.31
350.492	4041.31
350.72	4033.31
350.947	4027.31
351.174	4118.31
351.402	4173.31
351.629	4070.31
351.856	4110.31
352.083	4174.31
352.311	4177.31
352.538	4223.31
352.765	4116.31
352.992	4085.31
353.22	4062.31
353.447	3985.31
353.674	3972.31
353.901	3922.31
354.128	3939.31
354.355	3967.31
354.583	3893.31
354.81	3931.31
355.037	3888.31
355.264	3945.31
355.491	3856.31
355.718	3894.31
355.945	3838.31
356.172	3890.31
356.399	3943.31
356.626	3848.31
356.853	3904.31
357.08	3869.31
357.307	3903.31
357.534	3908.31
357.761	3898.31
357.988	3952.31
358.215	3898.31
358.441	3922.31
358.668	3920.31
358.895	4013.31
359.122	3990.31
359.349	4120.31
359.576	4195.31
359.802	4482.31
360.029	4620.31
360.256	4548.31
360.483	4372.31
360.709	4144.31
360.936	4162.31
361.163	4139.31
361.39	4118.31
361.616	4188.31
361.843	4137.31
362.07	4142.31
362.296	4100.31
362.523	4163.31
362.749	4113.31
362.976	4074.31
363.203	4029.31
363.429	3956.31
363.656	3955.31
363.882	4020.31
364.109	3908.31
364.335	3925.31
364.562	3982.31
364.788	3963.31
365.015	4020.31
365.241	3928.31
365.468	3967.31
365.694	4020.31
365.92	4064.31
366.147	3969.31
366.373	3956.31
366.599	3939.31
366.826	3925.31
367.052	3959.31
367.278	3970.31
367.505	4012.31
367.731	3995.31
367.957	4025.31
368.184	4073.31
368.41	4094.31
368.636	4213.31
368.862	4166.31
369.089	4089.31
369.315	4055.31
369.541	4110.31
369.767	4138.31
369.993	4118.31
370.219	4149.31
370.445	4147.31
370.672	4192.31
370.898	4151.31
371.124	4272.31
371.35	4262.31
371.576	4251.31
371.802	4205.31
372.028	4210.31
372.254	4267.31
372.48	4325.31
372.706	4369.31
372.932	4396.31
373.158	4404.31
373.384	4341.31
373.61	4279.31
373.835	4291.31
374.061	4287.31
374.287	4416.31
374.513	4356.31
374.739	4558.31
374.965	4642.31
375.191	4649.31
375.416	4610.31
375.642	4502.31
375.868	4453.31
376.094	4382.31
376.319	4298.31
376.545	4340.31
376.771	4288.31
376.997	4250.31
377.222	4219.31
377.448	4230.31
377.674	4204.31
377.899	4273.31
378.125	4217.31
378.35	4202.31
378.576	4217.31
378.802	4184.31
379.027	4216.31
379.253	4230.31
379.478	4169.31
379.704	4244.31
379.929	4254.31
380.155	4238.31
380.38	4218.31
380.606	4337.31
380.831	4163.31
381.057	4295.31
381.282	4258.31
381.507	4282.31
381.733	4358.31
381.958	4334.31
382.184	4374.31
382.409	4434.31
382.634	4470.31
382.86	4460.31
383.085	4554.31
383.31	4635.31
383.535	4690.31
383.761	4712.31
383.986	4830.31
384.211	4865.31
384.436	4945.31
384.662	4964.31
384.887	5056.31
385.112	4999.31
385.337	5167.31
385.562	5129.31
385.787	5098.31
386.013	5142.31
386.238	5240.31
386.463	5189.31
386.688	5205.31
386.913	5053.31
387.138	5042.31
387.363	4997.31
387.588	5038.31
387.813	5058.31
388.038	4996.31
388.263	5119.31
388.488	5085.31
388.713	5120.31
388.938	5065.31
389.163	5062.31
389.387	5070.31
389.612	5004.31
389.837	5052.31
390.062	4982.31
390.287	4946.31
390.512	4988.31
390.736	5065.31
390.961	5190.31
391.186	5241.31
391.411	5384.31
391.636	5522.31
391.86	5594.31
392.085	5715.31
392.31	5596.31
392.534	5523.31
392.759	5359.31
392.984	5283.31
393.208	5292.31
393.433	5269.31
393.658	5241.31
393.882	5236.31
394.107	5318.31
394.331	5330.31
394.556	5379.31
394.78	5359.31
395.005	5456.31
395.229	5444.31
395.454	5573.31
395.678	5664.31
395.903	5672.31
396.127	5823.31
396.352	5554.31
396.576	5374.31
396.801	5353.31
397.025	5468.31
397.249	5583.31
397.474	5683.31
397.698	5624.31
397.922	5842.31
398.147	6077.31
398.371	6058.31
398.595	6146.31
398.82	6463.31
399.044	7019.31
399.268	7731.31
399.492	8725.31
399.717	9349.31
399.941	9239.31
400.165	8626.31
400.389	7909.31
400.613	7126.31
400.837	6702.31
401.062	6495.31
401.286	6404.31
401.51	6423.31
401.734	6407.31
401.958	6457.31
402.182	6627.31
402.406	6629.31
402.63	6745.31
402.854	6768.31
403.078	6939.31
403.302	7090.31
403.526	7204.31
403.75	7281.31
403.974	7262.31
404.198	7173.31
404.422	7266.31
404.645	7212.31
404.869	7149.31
405.093	7308.31
405.317	7526.31
405.541	7477.31
405.765	7159.31
405.988	7060.31
406.212	7207.31
406.436	7382.31
406.66	7557.31
406.883	7605.31
407.107	8118.31
407.331	8731.31
407.555	9282.31
407.778	8931.31
408.002	8183.31
408.226	7804.31
408.449	7634.31
408.673	7515.31
408.896	7778.31
409.12	7911.31
409.344	7405.31
409.567	7012.31
409.791	6950.31
410.014	6865.31
410.238	6891.31
410.461	6820.31
410.685	6986.31
410.908	7018.31
411.132	7325.31
411.355	7349.31
411.578	6883.31
411.802	6619.31
412.025	6661.31
412.249	6778.31
412.472	6700.31
412.695	6632.31
412.919	6387.31
413.142	6313.31
413.365	6292.31
413.589	6333.31
413.812	6331.31
414.035	6142.31
414.258	6211.31
414.482	6300.31
414.705	6266.31
414.928	6178.31
415.151	6282.31
415.374	6313.31
415.597	6175.31
415.821	6165.31
416.044	6185.31
416.267	6207.31
416.49	6122.31
416.713	6092.31
416.936	6204.31
417.159	6171.31
417.382	6259.31
417.605	6257.31
417.828	6432.31
418.051	6450.31
418.274	6387.31
418.497	6338.31
418.72	6392.31
418.943	6319.31
419.166	6777.31
419.389	7153.31
419.611	6994.31
419.834	6803.31
420.057	6663.31
420.28	6386.31
420.503	6209.31
420.726	6386.31
420.948	6535.31
421.171	6962.31
421.394	6867.31
421.617	6430.31
421.839	6458.31
422.062	6462.31
422.285	6599.31
422.507	7395.31
422.73	7991.31
422.953	7263.31
423.175	6874.31
423.398	6997.31
423.621	6882.31
423.843	7172.31
424.066	7105.31
424.288	6992.31
424.511	7169.31
424.733	7734.31
424.956	8260.31
425.178	7717.31
425.401	7820.31
425.623	7675.31
425.846	6746.31
426.068	6591.31
426.291	6437.31
426.513	6465.31
426.735	6625.31
426.958	7140.31
427.18	7886.31
427.402	9110.31
427.625	9091.31
427.847	7568.31
428.069	6722.31
428.292	6320.31
428.514	6052.31
428.736	5909.31
428.958	5935.31
429.181	5704.31
429.403	5746.31
429.625	5868.31
429.847	6220.31
430.069	6855.31
430.292	6401.31
430.514	5789.31
430.736	5763.31
430.958	5682.31
431.18	5578.31
431.402	5530.31
431.624	5617.31
431.846	5672.31
432.068	5647.31
432.29	5812.31
432.512	5669.31
432.734	5764.31
432.956	5727.31
433.178	5817.31
433.4	5702.31
433.622	5710.31
433.844	5637.31
434.066	5670.31
434.287	5745.31
434.509	5980.31
434.731	6213.31
434.953	6383.31
435.175	6495.31
435.397	6562.31
435.618	6512.31
435.84	7052.31
436.062	7875.31
436.284	7879.31
436.505	6510.31
436.727	6247.31
436.949	5948.31
437.17	5764.31
437.392	5712.31
437.614	5939.31
437.835	6391.31
438.057	7411.31
438.278	8069.31
438.5	7898.31
438.721	9001.31
438.943	7660.31
439.165	6397.31
439.386	6254.31
439.608	6159.31
439.829	6347.31
440.05	6706.31
440.272	7166.31
440.493	6392.31
440.715	6079.31
440.936	6046.31
441.158	6055.31
441.379	6231.31
441.6	6572.31
441.822	6719.31
442.043	7248.31
442.264	8060.31
442.486	7802.31
442.707	6896.31
442.928	6683.31
443.149	6848.31
443.371	7139.31
443.592	7662.31
443.813	8706.31
444.034	8606.31
444.255	7461.31
444.476	7272.31
444.698	7446.31
444.919	7495.31
445.14	7262.31
445.361	7186.31
445.582	7406.31
445.803	8138.31
446.024	8682.31
446.245	8242.31
446.466	7453.31
446.687	6446.31
446.908	6018.31
447.129	5788.31
447.35	5600.31
447.571	5599.31
447.792	5475.31
448.013	5627.31
448.234	5867.31
448.455	6512.31
448.675	7822.31
448.896	8266.31
449.117	6741.31
449.338	6992.31
449.559	8427.31
449.779	8604.31
450	6500.31
450.221	5785.31
450.442	5519.31
450.662	5519.31
450.883	5463.31
451.104	5568.31
451.324	5431.31
451.545	5334.31
451.766	5129.31
451.986	5064.31
452.207	5018.31
452.428	4991.31
452.648	5008.31
452.869	5036.31
453.089	5152.31
453.31	5235.31
453.53	5027.31
453.751	4935.31
453.971	5016.31
454.192	5218.31
454.412	4955.31
454.633	4902.31
454.853	4869.31
455.073	4878.31
455.294	5306.31
455.514	5875.31
455.734	5236.31
455.955	4807.31
456.175	4686.31
456.395	4514.31
456.616	4605.31
456.836	4643.31
457.056	4587.31
457.276	4522.31
457.497	4654.31
457.717	4583.31
457.937	4751.31
458.157	4814.31
458.377	4888.31
458.598	5243.31
458.818	5945.31
459.038	6724.31
459.258	6709.31
459.478	5924.31
459.698	5712.31
459.918	5796.31
460.138	6019.31
460.358	6176.31
460.578	6170.31
460.798	6229.31
461.018	6260.31
461.238	6170.31
461.458	6100.31
461.678	6131.31
461.898	6204.31
462.118	6306.31
462.338	6541.31
462.558	6734.31
462.777	6997.31
462.997	7471.31
463.217	7980.31
463.437	7766.31
463.657	7188.31
463.876	6949.31
464.096	6991.31
464.316	6999.31
464.536	7101.31
464.755	6897.31
464.975	6756.31
465.195	6986.31
465.414	6994.31
465.634	6102.31
465.854	5817.31
466.073	5555.31
466.293	5362.31
466.512	5197.31
466.732	5067.31
466.951	5174.31
467.171	5130.31
467.391	5210.31
467.61	5251.31
467.829	5188.31
468.049	5125.31
468.268	4972.31
468.488	4924.31
468.707	4920.31
468.927	4929.31
469.146	4888.31
469.365	4917.31
469.585	4944.31
469.804	5194.31
470.023	5390.31
470.243	5348.31
470.462	5410.31
470.681	5464.31
470.901	5454.31
471.12	5258.31
471.339	5258.31
471.558	5182.31
471.777	5062.31
471.997	4956.31
472.216	4896.31
472.435	4989.31
472.654	4849.31
472.873	4802.31
473.092	4894.31
473.311	4896.31
473.53	4967.31
473.749	4978.31
473.968	5546.31
474.187	6738.31
474.406	6221.31
474.625	5266.31
474.844	4986.31
475.063	4977.31
475.282	4933.31
475.501	4989.31
475.72	5066.31
475.939	5089.31
476.158	5055.31
476.377	5095.31
476.596	5158.31
476.814	5301.31
477.033	5300.31
477.252	5266.31
477.471	5458.31
477.69	5518.31
477.908	5627.31
478.127	5770.31
478.346	5873.31
478.564	5942.31
478.783	6074.31
479.002	6174.31
479.22	6232.31
479.439	6236.31
479.658	6389.31
479.876	6480.31
480.095	6711.31
480.313	7066.31
480.532	6940.31
480.751	6767.31
480.969	6657.31
481.188	6596.31
481.406	6401.31
481.624	6133.31
481.843	5993.31
482.061	5916.31
482.28	5829.31
482.498	5831.31
482.717	5831.31
482.935	5744.31
483.153	5730.31
483.372	5761.31
483.59	5754.31
483.808	5695.31
484.027	5796.31
484.245	5813.31
484.463	5778.31
484.681	5932.31
484.9	5931.31
485.118	6029.31
485.336	6081.31
485.554	6158.31
485.772	6193.31
485.99	6110.31
486.209	6238.31
486.427	6231.31
486.645	6277.31
486.863	6439.31
487.081	6419.31
487.299	6236.31
487.517	6202.31
487.735	6165.31
