Data from Uncirc_1986_H10_HRD10591_00084.txt Node
Date: Wed Jan 03 12:14:43 EST 2024
User: Yrep
Spectrometer: HR+D1059
Trigger mode: 1
Integration Time (sec): 1.000000E-1
Scans to average: 1
Electric dark correction enabled: true
Nonlinearity correction enabled: false
Boxcar width: 0
XAxis mode: Wavelengths
Number of Pixels in Spectrum: 2048
>>>>>Begin Spectral Data<<<<<
223.165	-18.31
223.4	-18.31
223.635	-18.31
223.869	-24.31
224.104	-15.31
224.338	-23.31
224.573	-18.31
224.808	-15.31
225.042	-0.31
225.277	-16.31
225.511	16.69
225.746	-2.31
225.98	8.69
226.215	12.69
226.449	23.69
226.683	22.69
226.918	23.69
227.152	25.69
227.387	39.69
227.621	52.69
227.856	33.69
228.09	47.69
228.324	47.69
228.559	57.69
228.793	43.69
229.027	54.69
229.262	75.69
229.496	64.69
229.73	72.69
229.964	87.69
230.199	68.69
230.433	87.69
230.667	83.69
230.901	73.69
231.136	85.69
231.37	84.69
231.604	83.69
231.838	88.69
232.072	51.69
232.306	59.69
232.541	86.69
232.775	72.69
233.009	67.69
233.243	81.69
233.477	84.69
233.711	78.69
233.945	92.69
234.179	88.69
234.413	88.69
234.647	83.69
234.881	68.69
235.115	75.69
235.349	63.69
235.583	87.69
235.817	83.69
236.051	71.69
236.285	88.69
236.519	71.69
236.753	67.69
236.987	76.69
237.221	85.69
237.455	83.69
237.689	81.69
237.922	75.69
238.156	79.69
238.39	72.69
238.624	79.69
238.858	69.69
239.091	69.69
239.325	81.69
239.559	85.69
239.793	91.69
240.027	66.69
240.26	69.69
240.494	77.69
240.728	72.69
240.961	68.69
241.195	80.69
241.429	76.69
241.662	77.69
241.896	76.69
242.13	63.69
242.363	82.69
242.597	71.69
242.83	77.69
243.064	70.69
243.298	58.69
243.531	91.69
243.765	86.69
243.998	83.69
244.232	73.69
244.465	78.69
244.699	85.69
244.932	79.69
245.166	83.69
245.399	87.69
245.633	71.69
245.866	79.69
246.099	74.69
246.333	97.69
246.566	74.69
246.8	83.69
247.033	72.69
247.266	64.69
247.5	71.69
247.733	71.69
247.966	80.69
248.2	81.69
248.433	85.69
248.666	92.69
248.899	79.69
249.133	77.69
249.366	97.69
249.599	86.69
249.832	79.69
250.066	76.69
250.299	79.69
250.532	88.69
250.765	66.69
250.998	79.69
251.231	63.69
251.465	82.69
251.698	70.69
251.931	64.69
252.164	75.69
252.397	67.69
252.63	65.69
252.863	78.69
253.096	86.69
253.329	62.69
253.562	70.69
253.795	94.69
254.028	81.69
254.261	65.69
254.494	77.69
254.727	91.69
254.96	82.69
255.193	75.69
255.426	91.69
255.659	77.69
255.892	82.69
256.124	78.69
256.357	63.69
256.59	72.69
256.823	80.69
257.056	84.69
257.289	73.69
257.521	91.69
257.754	80.69
257.987	85.69
258.22	91.69
258.452	88.69
258.685	68.69
258.918	87.69
259.151	77.69
259.383	80.69
259.616	76.69
259.849	87.69
260.081	79.69
260.314	88.69
260.547	75.69
260.779	75.69
261.012	84.69
261.244	77.69
261.477	78.69
261.71	86.69
261.942	104.69
262.175	108.69
262.407	79.69
262.64	81.69
262.872	81.69
263.105	78.69
263.337	82.69
263.57	85.69
263.802	80.69
264.035	77.69
264.267	75.69
264.499	84.69
264.732	77.69
264.964	72.69
265.197	87.69
265.429	83.69
265.661	77.69
265.894	81.69
266.126	82.69
266.358	81.69
266.591	77.69
266.823	83.69
267.055	92.69
267.287	64.69
267.52	70.69
267.752	73.69
267.984	73.69
268.216	88.69
268.448	79.69
268.681	73.69
268.913	76.69
269.145	81.69
269.377	82.69
269.609	79.69
269.841	84.69
270.073	75.69
270.306	75.69
270.538	74.69
270.77	76.69
271.002	78.69
271.234	87.69
271.466	92.69
271.698	87.69
271.93	89.69
272.162	80.69
272.394	107.69
272.626	81.69
272.858	78.69
273.09	81.69
273.322	64.69
273.553	89.69
273.785	96.69
274.017	75.69
274.249	85.69
274.481	88.69
274.713	89.69
274.945	81.69
275.176	93.69
275.408	81.69
275.64	73.69
275.872	96.69
276.104	91.69
276.335	79.69
276.567	105.69
276.799	99.69
277.031	95.69
277.262	94.69
277.494	87.69
277.726	90.69
277.957	97.69
278.189	75.69
278.421	90.69
278.652	84.69
278.884	88.69
279.115	78.69
279.347	86.69
279.579	95.69
279.81	83.69
280.042	82.69
280.273	80.69
280.505	79.69
280.736	79.69
280.968	94.69
281.199	89.69
281.431	92.69
281.662	87.69
281.894	85.69
282.125	93.69
282.356	113.69
282.588	130.69
282.819	102.69
283.051	80.69
283.282	93.69
283.513	80.69
283.745	84.69
283.976	79.69
284.207	85.69
284.439	78.69
284.67	89.69
284.901	96.69
285.132	91.69
285.364	81.69
285.595	84.69
285.826	83.69
286.057	85.69
286.288	83.69
286.52	88.69
286.751	72.69
286.982	82.69
287.213	85.69
287.444	82.69
287.675	83.69
287.906	81.69
288.138	83.69
288.369	78.69
288.6	87.69
288.831	87.69
289.062	88.69
289.293	89.69
289.524	81.69
289.755	92.69
289.986	84.69
290.217	97.69
290.448	87.69
290.679	80.69
290.91	85.69
291.141	83.69
291.371	68.69
291.602	67.69
291.833	72.69
292.064	84.69
292.295	78.69
292.526	84.69
292.757	86.69
292.987	69.69
293.218	89.69
293.449	79.69
293.68	98.69
293.91	84.69
294.141	88.69
294.372	93.69
294.603	81.69
294.833	83.69
295.064	79.69
295.295	91.69
295.525	85.69
295.756	87.69
295.987	108.69
296.217	119.69
296.448	103.69
296.679	98.69
296.909	91.69
297.14	92.69
297.37	89.69
297.601	88.69
297.831	95.69
298.062	81.69
298.292	94.69
298.523	94.69
298.753	88.69
298.984	99.69
299.214	87.69
299.445	84.69
299.675	77.69
299.905	95.69
300.136	80.69
300.366	89.69
300.597	76.69
300.827	70.69
301.057	91.69
301.288	96.69
301.518	91.69
301.748	93.69
301.979	91.69
302.209	91.69
302.439	92.69
302.669	83.69
302.9	91.69
303.13	75.69
303.36	102.69
303.59	93.69
303.82	92.69
304.051	91.69
304.281	84.69
304.511	99.69
304.741	94.69
304.971	70.69
305.201	84.69
305.431	87.69
305.661	75.69
305.891	85.69
306.121	92.69
306.352	98.69
306.582	100.69
306.812	105.69
307.042	91.69
307.272	89.69
307.502	99.69
307.731	89.69
307.961	87.69
308.191	91.69
308.421	98.69
308.651	89.69
308.881	91.69
309.111	83.69
309.341	93.69
309.571	89.69
309.8	88.69
310.03	95.69
310.26	91.69
310.49	91.69
310.72	102.69
310.949	99.69
311.179	108.69
311.409	95.69
311.639	92.69
311.868	90.69
312.098	87.69
312.328	100.69
312.557	85.69
312.787	102.69
313.017	105.69
313.246	98.69
313.476	85.69
313.706	86.69
313.935	100.69
314.165	83.69
314.394	98.69
314.624	92.69
314.853	101.69
315.083	85.69
315.312	72.69
315.542	89.69
315.771	93.69
316.001	79.69
316.23	85.69
316.46	93.69
316.689	78.69
316.919	82.69
317.148	83.69
317.377	92.69
317.607	87.69
317.836	82.69
318.065	69.69
318.295	87.69
318.524	86.69
318.753	87.69
318.983	107.69
319.212	98.69
319.441	94.69
319.67	106.69
319.9	96.69
320.129	82.69
320.358	92.69
320.587	86.69
320.816	81.69
321.046	96.69
321.275	95.69
321.504	83.69
321.733	84.69
321.962	79.69
322.191	98.69
322.42	88.69
322.649	97.69
322.878	115.69
323.108	118.69
323.337	108.69
323.566	118.69
323.795	134.69
324.024	181.69
324.253	328.69
324.482	727.69
324.71	1455.69
324.939	1897.69
325.168	690.69
325.397	216.69
325.626	147.69
325.855	128.69
326.084	105.69
326.313	121.69
326.542	149.69
326.77	225.69
326.999	419.69
327.228	813.69
327.457	1476.69
327.686	1193.69
327.914	322.69
328.143	161.69
328.372	143.69
328.6	91.69
328.829	116.69
329.058	112.69
329.287	124.69
329.515	106.69
329.744	91.69
329.972	86.69
330.201	110.69
330.43	104.69
330.658	119.69
330.887	118.69
331.115	105.69
331.344	95.69
331.572	101.69
331.801	94.69
332.03	92.69
332.258	93.69
332.486	81.69
332.715	98.69
332.943	91.69
333.172	86.69
333.4	86.69
333.629	115.69
333.857	101.69
334.085	104.69
334.314	100.69
334.542	102.69
334.771	97.69
334.999	91.69
335.227	92.69
335.455	86.69
335.684	94.69
335.912	97.69
336.14	88.69
336.369	103.69
336.597	76.69
336.825	83.69
337.053	91.69
337.281	93.69
337.51	87.69
337.738	87.69
337.966	73.69
338.194	79.69
338.422	93.69
338.65	83.69
338.878	71.69
339.106	101.69
339.334	92.69
339.562	99.69
339.79	94.69
340.018	83.69
340.246	79.69
340.474	95.69
340.702	95.69
340.93	83.69
341.158	89.69
341.386	95.69
341.614	97.69
341.842	90.69
342.07	98.69
342.298	93.69
342.526	90.69
342.754	81.69
342.981	81.69
343.209	90.69
343.437	96.69
343.665	80.69
343.893	80.69
344.12	94.69
344.348	80.69
344.576	82.69
344.804	87.69
345.031	87.69
345.259	89.69
345.487	96.69
345.714	78.69
345.942	87.69
346.17	97.69
346.397	92.69
346.625	85.69
346.853	92.69
347.08	91.69
347.308	88.69
347.535	79.69
347.763	95.69
347.99	104.69
348.218	98.69
348.445	87.69
348.673	93.69
348.9	91.69
349.128	95.69
349.355	83.69
349.583	99.69
349.81	100.69
350.037	101.69
350.265	101.69
350.492	103.69
350.72	78.69
350.947	102.69
351.174	100.69
351.402	97.69
351.629	98.69
351.856	107.69
352.083	89.69
352.311	97.69
352.538	101.69
352.765	104.69
352.992	115.69
353.22	98.69
353.447	107.69
353.674	104.69
353.901	101.69
354.128	101.69
354.355	99.69
354.583	108.69
354.81	100.69
355.037	83.69
355.264	89.69
355.491	84.69
355.718	84.69
355.945	98.69
356.172	86.69
356.399	89.69
356.626	79.69
356.853	92.69
357.08	79.69
357.307	92.69
357.534	99.69
357.761	82.69
357.988	87.69
358.215	84.69
358.441	78.69
358.668	87.69
358.895	83.69
359.122	83.69
359.349	89.69
359.576	84.69
359.802	92.69
360.029	101.69
360.256	96.69
360.483	95.69
360.709	76.69
360.936	91.69
361.163	89.69
361.39	112.69
361.616	89.69
361.843	94.69
362.07	95.69
362.296	98.69
362.523	80.69
362.749	92.69
362.976	86.69
363.203	80.69
363.429	79.69
363.656	91.69
363.882	78.69
364.109	88.69
364.335	99.69
364.562	91.69
364.788	85.69
365.015	100.69
365.241	100.69
365.468	101.69
365.694	109.69
365.92	91.69
366.147	91.69
366.373	79.69
366.599	89.69
366.826	77.69
367.052	86.69
367.278	87.69
367.505	84.69
367.731	95.69
367.957	81.69
368.184	94.69
368.41	101.69
368.636	96.69
368.862	119.69
369.089	91.69
369.315	79.69
369.541	108.69
369.767	86.69
369.993	81.69
370.219	95.69
370.445	95.69
370.672	94.69
370.898	95.69
371.124	79.69
371.35	84.69
371.576	85.69
371.802	78.69
372.028	70.69
372.254	77.69
372.48	91.69
372.706	90.69
372.932	87.69
373.158	98.69
373.384	72.69
373.61	92.69
373.835	98.69
374.061	77.69
374.287	84.69
374.513	71.69
374.739	87.69
374.965	85.69
375.191	91.69
375.416	82.69
375.642	92.69
375.868	91.69
376.094	72.69
376.319	79.69
376.545	85.69
376.771	87.69
376.997	83.69
377.222	82.69
377.448	90.69
377.674	79.69
377.899	85.69
378.125	91.69
378.35	91.69
378.576	92.69
378.802	94.69
379.027	93.69
379.253	95.69
379.478	80.69
379.704	93.69
379.929	96.69
380.155	82.69
380.38	83.69
380.606	109.69
380.831	85.69
381.057	89.69
381.282	80.69
381.507	96.69
381.733	97.69
381.958	108.69
382.184	96.69
382.409	89.69
382.634	98.69
382.86	85.69
383.085	82.69
383.31	93.69
383.535	95.69
383.761	105.69
383.986	96.69
384.211	95.69
384.436	96.69
384.662	95.69
384.887	98.69
385.112	90.69
385.337	88.69
385.562	103.69
385.787	112.69
386.013	101.69
386.238	111.69
386.463	101.69
386.688	101.69
386.913	88.69
387.138	96.69
387.363	91.69
387.588	102.69
387.813	95.69
388.038	94.69
388.263	93.69
388.488	98.69
388.713	81.69
388.938	101.69
389.163	104.69
389.387	101.69
389.612	88.69
389.837	84.69
390.062	92.69
390.287	88.69
390.512	89.69
390.736	91.69
390.961	89.69
391.186	95.69
391.411	105.69
391.636	97.69
391.86	61.69
392.085	91.69
392.31	78.69
392.534	80.69
392.759	84.69
392.984	93.69
393.208	78.69
393.433	89.69
393.658	93.69
393.882	80.69
394.107	77.69
394.331	90.69
394.556	89.69
394.78	86.69
395.005	87.69
395.229	86.69
395.454	73.69
395.678	85.69
395.903	85.69
396.127	82.69
396.352	88.69
396.576	74.69
396.801	93.69
397.025	85.69
397.249	82.69
397.474	87.69
397.698	83.69
397.922	64.69
398.147	99.69
398.371	89.69
398.595	82.69
398.82	85.69
399.044	81.69
399.268	75.69
399.492	85.69
399.717	85.69
399.941	83.69
400.165	82.69
400.389	91.69
400.613	81.69
400.837	69.69
401.062	91.69
401.286	77.69
401.51	85.69
401.734	92.69
401.958	104.69
402.182	109.69
402.406	139.69
402.63	112.69
402.854	93.69
403.078	89.69
403.302	83.69
403.526	96.69
403.75	99.69
403.974	72.69
404.198	79.69
404.422	81.69
404.645	76.69
404.869	83.69
405.093	91.69
405.317	99.69
405.541	93.69
405.765	96.69
405.988	114.69
406.212	159.69
406.436	193.69
406.66	127.69
406.883	107.69
407.107	86.69
407.331	82.69
407.555	88.69
407.778	93.69
408.002	88.69
408.226	97.69
408.449	92.69
408.673	94.69
408.896	88.69
409.12	89.69
409.344	77.69
409.567	81.69
409.791	92.69
410.014	95.69
410.238	82.69
410.461	102.69
410.685	75.69
410.908	84.69
411.132	93.69
411.355	97.69
411.578	87.69
411.802	92.69
412.025	67.69
412.249	89.69
412.472	93.69
412.695	102.69
412.919	91.69
413.142	93.69
413.365	80.69
413.589	86.69
413.812	93.69
414.035	85.69
414.258	93.69
414.482	83.69
414.705	73.69
414.928	89.69
415.151	97.69
415.374	99.69
415.597	87.69
415.821	82.69
416.044	82.69
416.267	89.69
416.49	86.69
416.713	95.69
416.936	83.69
417.159	80.69
417.382	93.69
417.605	97.69
417.828	94.69
418.051	87.69
418.274	90.69
418.497	93.69
418.72	88.69
418.943	92.69
419.166	82.69
419.389	85.69
419.611	95.69
419.834	84.69
420.057	87.69
420.28	85.69
420.503	84.69
420.726	103.69
420.948	85.69
421.171	98.69
421.394	101.69
421.617	92.69
421.839	79.69
422.062	82.69
422.285	81.69
422.507	81.69
422.73	109.69
422.953	93.69
423.175	88.69
423.398	88.69
423.621	87.69
423.843	82.69
424.066	87.69
424.288	88.69
424.511	92.69
424.733	92.69
424.956	101.69
425.178	85.69
425.401	102.69
425.623	85.69
425.846	91.69
426.068	91.69
426.291	79.69
426.513	78.69
426.735	83.69
426.958	80.69
427.18	97.69
427.402	122.69
427.625	139.69
427.847	124.69
428.069	85.69
428.292	88.69
428.514	88.69
428.736	87.69
428.958	96.69
429.181	71.69
429.403	91.69
429.625	88.69
429.847	86.69
430.069	103.69
430.292	98.69
430.514	79.69
430.736	72.69
430.958	87.69
431.18	91.69
431.402	94.69
431.624	78.69
431.846	82.69
432.068	86.69
432.29	83.69
432.512	102.69
432.734	73.69
432.956	72.69
433.178	85.69
433.4	97.69
433.622	79.69
433.844	77.69
434.066	97.69
434.287	92.69
434.509	84.69
434.731	100.69
434.953	75.69
435.175	95.69
435.397	88.69
435.618	79.69
435.84	108.69
436.062	111.69
436.284	97.69
436.505	87.69
436.727	94.69
436.949	80.69
437.17	85.69
437.392	84.69
437.614	90.69
437.835	107.69
438.057	118.69
438.278	107.69
438.5	93.69
438.721	94.69
438.943	100.69
439.165	72.69
439.386	87.69
439.608	81.69
439.829	103.69
440.05	109.69
440.272	128.69
440.493	92.69
440.715	93.69
440.936	92.69
441.158	77.69
441.379	88.69
441.6	83.69
441.822	88.69
442.043	100.69
442.264	98.69
442.486	99.69
442.707	105.69
442.928	102.69
443.149	124.69
443.371	118.69
443.592	96.69
443.813	110.69
444.034	99.69
444.255	82.69
444.476	83.69
444.698	92.69
444.919	79.69
445.14	121.69
445.361	118.69
445.582	124.69
445.803	129.69
446.024	116.69
446.245	126.69
446.466	96.69
446.687	82.69
446.908	91.69
447.129	91.69
447.35	87.69
447.571	100.69
447.792	86.69
448.013	95.69
448.234	93.69
448.455	92.69
448.675	129.69
448.896	106.69
449.117	103.69
449.338	98.69
449.559	127.69
449.779	132.69
450	93.69
450.221	76.69
450.442	87.69
450.662	98.69
450.883	81.69
451.104	98.69
451.324	91.69
451.545	87.69
451.766	92.69
451.986	85.69
452.207	78.69
452.428	100.69
452.648	101.69
452.869	114.69
453.089	87.69
453.31	113.69
453.53	91.69
453.751	87.69
453.971	110.69
454.192	101.69
454.412	84.69
454.633	83.69
454.853	78.69
455.073	91.69
455.294	77.69
455.514	85.69
455.734	93.69
455.955	90.69
456.175	86.69
456.395	76.69
456.616	83.69
456.836	90.69
457.056	79.69
457.276	82.69
457.497	93.69
457.717	70.69
457.937	81.69
458.157	94.69
458.377	91.69
458.598	95.69
458.818	136.69
459.038	139.69
459.258	91.69
459.478	87.69
459.698	101.69
459.918	80.69
460.138	71.69
460.358	86.69
460.578	78.69
460.798	76.69
461.018	117.69
461.238	98.69
461.458	78.69
461.678	95.69
461.898	76.69
462.118	94.69
462.338	90.69
462.558	74.69
462.777	94.69
462.997	92.69
463.217	92.69
463.437	88.69
463.657	81.69
463.876	87.69
464.096	80.69
464.316	81.69
464.536	85.69
464.755	103.69
464.975	108.69
465.195	147.69
465.414	144.69
465.634	97.69
465.854	94.69
466.073	101.69
466.293	96.69
466.512	71.69
466.732	81.69
466.951	81.69
467.171	93.69
467.391	86.69
467.61	100.69
467.829	86.69
468.049	92.69
468.268	109.69
468.488	79.69
468.707	88.69
468.927	80.69
469.146	72.69
469.365	86.69
469.585	99.69
469.804	87.69
470.023	75.69
470.243	95.69
470.462	103.69
470.681	104.69
470.901	91.69
471.12	77.69
471.339	72.69
471.558	81.69
471.777	87.69
471.997	72.69
472.216	103.69
472.435	109.69
472.654	86.69
472.873	84.69
473.092	88.69
473.311	87.69
473.53	81.69
473.749	94.69
473.968	89.69
474.187	104.69
474.406	90.69
474.625	83.69
474.844	91.69
475.063	77.69
475.282	96.69
475.501	104.69
475.72	88.69
475.939	76.69
476.158	99.69
476.377	79.69
476.596	97.69
476.814	88.69
477.033	97.69
477.252	89.69
477.471	96.69
477.69	89.69
477.908	85.69
478.127	97.69
478.346	76.69
478.564	78.69
478.783	86.69
479.002	98.69
479.22	87.69
479.439	101.69
479.658	108.69
479.876	79.69
480.095	84.69
480.313	90.69
480.532	94.69
480.751	96.69
480.969	96.69
481.188	120.69
481.406	120.69
481.624	84.69
481.843	87.69
482.061	89.69
482.28	81.69
482.498	92.69
482.717	79.69
482.935	91.69
483.153	83.69
483.372	77.69
483.59	80.69
483.808	84.69
484.027	84.69
484.245	98.69
484.463	97.69
484.681	89.69
484.9	97.69
485.118	104.69
485.336	85.69
485.554	99.69
485.772	94.69
485.99	97.69
486.209	96.69
486.427	111.69
486.645	101.69
486.863	99.69
487.081	99.69
487.299	97.69
487.517	79.69
487.735	92.69
487.953	92.69
488.171	95.69
488.389	100.69
488.607	93.69
488.825	93.69
489.043	100.69
489.261	97.69
489.479	91.69
489.696	80.69
489.914	93.69
490.132	100.69
490.35	102.69
490.568	81.69
490.786	79.69
491.003	93.69
491.221	95.69
491.439	104.69
491.657	81.69
491.874	99.69
492.092	94.69
492.31	95.69
492.527	83.69
492.745	87.69
492.963	86.69
493.18	70.69
493.398	94.69
493.615	93.69
493.833	87.69
494.05	73.69
494.268	78.69
494.485	96.69
494.703	87.69
494.92	93.69
495.138	93.69
495.355	86.69
495.573	99.69
495.79	100.69
496.008	88.69
496.225	99.69
496.442	81.69
496.66	93.69
496.877	92.69
497.094	101.69
497.312	82.69
497.529	85.69
497.746	84.69
497.963	79.69
498.181	79.69
498.398	82.69
498.615	106.69
498.832	114.69
499.049	81.69
499.267	95.69
499.484	90.69
499.701	88.69
499.918	85.69
500.135	82.69
500.352	72.69
500.569	95.69
500.786	79.69
501.003	80.69
501.22	79.69
501.437	84.69
501.654	93.69
501.871	108.69
502.088	92.69
502.305	94.69
502.522	91.69
502.739	90.69
502.956	99.69
503.172	94.69
503.389	91.69
503.606	91.69
503.823	90.69
504.04	86.69
504.256	97.69
504.473	100.69
504.69	93.69
504.907	91.69
505.123	83.69
505.34	101.69
505.557	83.69
505.773	82.69
505.99	86.69
506.207	84.69
506.423	92.69
506.64	95.69
506.856	98.69
507.073	88.69
507.289	83.69
507.506	85.69
507.722	116.69
507.939	100.69
508.155	91.69
508.372	99.69
508.588	81.69
508.805	74.69
509.021	113.69
509.238	111.69
509.454	91.69
509.67	88.69
509.887	101.69
510.103	115.69
510.319	176.69
510.536	675.69
510.752	2078.69
510.968	571.69
511.184	146.69
511.401	97.69
511.617	110.69
511.833	100.69
512.049	85.69
512.265	93.69
512.481	88.69
512.698	81.69
512.914	97.69
513.13	87.69
513.346	97.69
513.562	101.69
513.778	84.69
513.994	112.69
514.21	85.69
514.426	107.69
514.642	104.69
514.858	102.69
515.074	174.69
515.29	410.69
515.506	1224.69
515.721	449.69
515.937	139.69
516.153	105.69
516.369	91.69
516.585	100.69
516.801	91.69
