Data from Uncirc_1986_H10_HRD10591_00022.txt Node
Date: Wed Jan 03 12:14:30 EST 2024
User: Yrep
Spectrometer: HR+D1059
Trigger mode: 1
Integration Time (sec): 1.000000E-1
Scans to average: 1
Electric dark correction enabled: true
Nonlinearity correction enabled: false
Boxcar width: 0
XAxis mode: Wavelengths
Number of Pixels in Spectrum: 2048
>>>>>Begin Spectral Data<<<<<
223.165	-22.62
223.4	-22.62
223.635	-22.62
223.869	-10.62
224.104	-24.62
224.338	-13.62
224.573	-21.62
224.808	-15.62
225.042	-2.62
225.277	-15.62
225.511	-10.62
225.746	14.38
225.98	7.38
226.215	13.38
226.449	18.38
226.683	29.38
226.918	21.38
227.152	33.38
227.387	44.38
227.621	29.38
227.856	32.38
228.09	53.38
228.324	36.38
228.559	67.38
228.793	54.38
229.027	59.38
229.262	67.38
229.496	69.38
229.73	72.38
229.964	77.38
230.199	78.38
230.433	63.38
230.667	77.38
230.901	73.38
231.136	78.38
231.37	67.38
231.604	78.38
231.838	75.38
232.072	87.38
232.306	70.38
232.541	78.38
232.775	74.38
233.009	68.38
233.243	88.38
233.477	80.38
233.711	73.38
233.945	64.38
234.179	89.38
234.413	68.38
234.647	80.38
234.881	72.38
235.115	74.38
235.349	80.38
235.583	80.38
235.817	83.38
236.051	74.38
236.285	82.38
236.519	82.38
236.753	81.38
236.987	88.38
237.221	84.38
237.455	82.38
237.689	69.38
237.922	86.38
238.156	75.38
238.39	78.38
238.624	67.38
238.858	71.38
239.091	78.38
239.325	73.38
239.559	84.38
239.793	78.38
240.027	75.38
240.26	82.38
240.494	67.38
240.728	70.38
240.961	76.38
241.195	76.38
241.429	80.38
241.662	82.38
241.896	78.38
242.13	84.38
242.363	91.38
242.597	74.38
242.83	70.38
243.064	86.38
243.298	72.38
243.531	81.38
243.765	84.38
243.998	86.38
244.232	72.38
244.465	60.38
244.699	80.38
244.932	74.38
245.166	80.38
245.399	81.38
245.633	84.38
245.866	79.38
246.099	76.38
246.333	72.38
246.566	86.38
246.8	76.38
247.033	82.38
247.266	87.38
247.5	71.38
247.733	65.38
247.966	81.38
248.2	87.38
248.433	81.38
248.666	65.38
248.899	86.38
249.133	68.38
249.366	112.38
249.599	89.38
249.832	81.38
250.066	83.38
250.299	78.38
250.532	86.38
250.765	83.38
250.998	86.38
251.231	83.38
251.465	88.38
251.698	78.38
251.931	59.38
252.164	82.38
252.397	83.38
252.63	67.38
252.863	79.38
253.096	74.38
253.329	79.38
253.562	94.38
253.795	79.38
254.028	79.38
254.261	89.38
254.494	78.38
254.727	81.38
254.96	76.38
255.193	90.38
255.426	76.38
255.659	78.38
255.892	78.38
256.124	84.38
256.357	95.38
256.59	75.38
256.823	95.38
257.056	87.38
257.289	92.38
257.521	83.38
257.754	97.38
257.987	79.38
258.22	92.38
258.452	78.38
258.685	80.38
258.918	94.38
259.151	92.38
259.383	71.38
259.616	87.38
259.849	85.38
260.081	93.38
260.314	100.38
260.547	81.38
260.779	77.38
261.012	78.38
261.244	88.38
261.477	91.38
261.71	99.38
261.942	105.38
262.175	117.38
262.407	94.38
262.64	83.38
262.872	80.38
263.105	81.38
263.337	88.38
263.57	83.38
263.802	87.38
264.035	93.38
264.267	89.38
264.499	85.38
264.732	91.38
264.964	80.38
265.197	82.38
265.429	80.38
265.661	74.38
265.894	73.38
266.126	92.38
266.358	83.38
266.591	74.38
266.823	86.38
267.055	96.38
267.287	81.38
267.52	87.38
267.752	76.38
267.984	91.38
268.216	85.38
268.448	91.38
268.681	90.38
268.913	89.38
269.145	88.38
269.377	75.38
269.609	97.38
269.841	92.38
270.073	91.38
270.306	84.38
270.538	80.38
270.77	78.38
271.002	93.38
271.234	72.38
271.466	89.38
271.698	88.38
271.93	85.38
272.162	86.38
272.394	93.38
272.626	81.38
272.858	68.38
273.09	85.38
273.322	88.38
273.553	82.38
273.785	74.38
274.017	85.38
274.249	98.38
274.481	92.38
274.713	86.38
274.945	82.38
275.176	87.38
275.408	85.38
275.64	85.38
275.872	76.38
276.104	95.38
276.335	78.38
276.567	98.38
276.799	99.38
277.031	93.38
277.262	93.38
277.494	93.38
277.726	98.38
277.957	84.38
278.189	80.38
278.421	75.38
278.652	87.38
278.884	90.38
279.115	90.38
279.347	92.38
279.579	86.38
279.81	86.38
280.042	85.38
280.273	80.38
280.505	95.38
280.736	86.38
280.968	82.38
281.199	95.38
281.431	86.38
281.662	95.38
281.894	87.38
282.125	82.38
282.356	109.38
282.588	142.38
282.819	97.38
283.051	90.38
283.282	78.38
283.513	79.38
283.745	90.38
283.976	88.38
284.207	86.38
284.439	86.38
284.67	97.38
284.901	85.38
285.132	95.38
285.364	97.38
285.595	79.38
285.826	91.38
286.057	88.38
286.288	88.38
286.52	89.38
286.751	91.38
286.982	87.38
287.213	83.38
287.444	99.38
287.675	78.38
287.906	80.38
288.138	91.38
288.369	98.38
288.6	101.38
288.831	80.38
289.062	88.38
289.293	92.38
289.524	81.38
289.755	88.38
289.986	91.38
290.217	94.38
290.448	78.38
290.679	89.38
290.91	90.38
291.141	96.38
291.371	91.38
291.602	78.38
291.833	83.38
292.064	87.38
292.295	96.38
292.526	98.38
292.757	84.38
292.987	95.38
293.218	77.38
293.449	80.38
293.68	85.38
293.91	72.38
294.141	94.38
294.372	93.38
294.603	82.38
294.833	91.38
295.064	107.38
295.295	95.38
295.525	80.38
295.756	95.38
295.987	118.38
296.217	120.38
296.448	120.38
296.679	95.38
296.909	100.38
297.14	90.38
297.37	98.38
297.601	88.38
297.831	83.38
298.062	97.38
298.292	90.38
298.523	104.38
298.753	80.38
298.984	93.38
299.214	111.38
299.445	90.38
299.675	82.38
299.905	93.38
300.136	88.38
300.366	90.38
300.597	89.38
300.827	87.38
301.057	96.38
301.288	96.38
301.518	95.38
301.748	89.38
301.979	93.38
302.209	85.38
302.439	84.38
302.669	90.38
302.9	85.38
303.13	89.38
303.36	92.38
303.59	108.38
303.82	108.38
304.051	103.38
304.281	81.38
304.511	93.38
304.741	103.38
304.971	90.38
305.201	88.38
305.431	89.38
305.661	89.38
305.891	90.38
306.121	96.38
306.352	90.38
306.582	94.38
306.812	92.38
307.042	82.38
307.272	97.38
307.502	103.38
307.731	87.38
307.961	71.38
308.191	86.38
308.421	79.38
308.651	94.38
308.881	96.38
309.111	99.38
309.341	89.38
309.571	98.38
309.8	97.38
310.03	86.38
310.26	86.38
310.49	97.38
310.72	100.38
310.949	97.38
311.179	99.38
311.409	94.38
311.639	78.38
311.868	96.38
312.098	92.38
312.328	99.38
312.557	89.38
312.787	90.38
313.017	106.38
313.246	81.38
313.476	99.38
313.706	101.38
313.935	89.38
314.165	87.38
314.394	95.38
314.624	81.38
314.853	98.38
315.083	96.38
315.312	87.38
315.542	81.38
315.771	88.38
316.001	92.38
316.23	91.38
316.46	102.38
316.689	85.38
316.919	91.38
317.148	99.38
317.377	95.38
317.607	95.38
317.836	66.38
318.065	84.38
318.295	95.38
318.524	96.38
318.753	87.38
318.983	91.38
319.212	103.38
319.441	108.38
319.67	118.38
319.9	91.38
320.129	91.38
320.358	99.38
320.587	97.38
320.816	99.38
321.046	87.38
321.275	105.38
321.504	89.38
321.733	94.38
321.962	97.38
322.191	101.38
322.42	109.38
322.649	103.38
322.878	91.38
323.108	116.38
323.337	110.38
323.566	123.38
323.795	132.38
324.024	194.38
324.253	353.38
324.482	735.38
324.71	1473.38
324.939	1939.38
325.168	743.38
325.397	233.38
325.626	131.38
325.855	126.38
326.084	116.38
326.313	122.38
326.542	124.38
326.77	208.38
326.999	409.38
327.228	852.38
327.457	1512.38
327.686	1206.38
327.914	348.38
328.143	167.38
328.372	146.38
328.6	127.38
328.829	108.38
329.058	140.38
329.287	120.38
329.515	87.38
329.744	96.38
329.972	100.38
330.201	101.38
330.43	104.38
330.658	108.38
330.887	130.38
331.115	100.38
331.344	95.38
331.572	115.38
331.801	97.38
332.03	96.38
332.258	91.38
332.486	103.38
332.715	81.38
332.943	89.38
333.172	102.38
333.4	97.38
333.629	102.38
333.857	104.38
334.085	91.38
334.314	108.38
334.542	94.38
334.771	112.38
334.999	99.38
335.227	93.38
335.455	98.38
335.684	91.38
335.912	97.38
336.14	103.38
336.369	99.38
336.597	91.38
336.825	104.38
337.053	99.38
337.281	92.38
337.51	105.38
337.738	92.38
337.966	83.38
338.194	106.38
338.422	91.38
338.65	90.38
338.878	90.38
339.106	85.38
339.334	101.38
339.562	91.38
339.79	102.38
340.018	100.38
340.246	110.38
340.474	94.38
340.702	89.38
340.93	103.38
341.158	91.38
341.386	98.38
341.614	100.38
341.842	90.38
342.07	99.38
342.298	81.38
342.526	83.38
342.754	96.38
342.981	99.38
343.209	88.38
343.437	83.38
343.665	85.38
343.893	85.38
344.12	82.38
344.348	100.38
344.576	88.38
344.804	101.38
345.031	99.38
345.259	91.38
345.487	96.38
345.714	95.38
345.942	83.38
346.17	102.38
346.397	93.38
346.625	96.38
346.853	93.38
347.08	80.38
347.308	94.38
347.535	91.38
347.763	97.38
347.99	90.38
348.218	95.38
348.445	103.38
348.673	102.38
348.9	86.38
349.128	90.38
349.355	99.38
349.583	94.38
349.81	90.38
350.037	88.38
350.265	99.38
350.492	87.38
350.72	83.38
350.947	98.38
351.174	99.38
351.402	105.38
351.629	94.38
351.856	98.38
352.083	103.38
352.311	113.38
352.538	107.38
352.765	114.38
352.992	118.38
353.22	94.38
353.447	108.38
353.674	102.38
353.901	99.38
354.128	101.38
354.355	82.38
354.583	106.38
354.81	103.38
355.037	111.38
355.264	111.38
355.491	89.38
355.718	86.38
355.945	93.38
356.172	85.38
356.399	102.38
356.626	95.38
356.853	99.38
357.08	94.38
357.307	94.38
357.534	98.38
357.761	94.38
357.988	88.38
358.215	89.38
358.441	93.38
358.668	96.38
358.895	90.38
359.122	90.38
359.349	92.38
359.576	88.38
359.802	107.38
360.029	113.38
360.256	102.38
360.483	88.38
360.709	93.38
360.936	96.38
361.163	86.38
361.39	102.38
361.616	79.38
361.843	86.38
362.07	96.38
362.296	84.38
362.523	92.38
362.749	93.38
362.976	73.38
363.203	87.38
363.429	87.38
363.656	93.38
363.882	83.38
364.109	85.38
364.335	88.38
364.562	95.38
364.788	94.38
365.015	85.38
365.241	94.38
365.468	89.38
365.694	92.38
365.92	92.38
366.147	85.38
366.373	87.38
366.599	102.38
366.826	99.38
367.052	98.38
367.278	92.38
367.505	94.38
367.731	90.38
367.957	87.38
368.184	95.38
368.41	107.38
368.636	119.38
368.862	105.38
369.089	99.38
369.315	76.38
369.541	105.38
369.767	94.38
369.993	72.38
370.219	97.38
370.445	90.38
370.672	89.38
370.898	92.38
371.124	100.38
371.35	86.38
371.576	84.38
371.802	90.38
372.028	99.38
372.254	85.38
372.48	86.38
372.706	77.38
372.932	83.38
373.158	88.38
373.384	90.38
373.61	97.38
373.835	95.38
374.061	97.38
374.287	84.38
374.513	102.38
374.739	93.38
374.965	86.38
375.191	90.38
375.416	98.38
375.642	84.38
375.868	90.38
376.094	94.38
376.319	79.38
376.545	82.38
376.771	86.38
376.997	79.38
377.222	89.38
377.448	99.38
377.674	87.38
377.899	90.38
378.125	97.38
378.35	88.38
378.576	89.38
378.802	81.38
379.027	79.38
379.253	87.38
379.478	94.38
379.704	84.38
379.929	99.38
380.155	106.38
380.38	96.38
380.606	95.38
380.831	91.38
381.057	86.38
381.282	92.38
381.507	87.38
381.733	73.38
381.958	82.38
382.184	95.38
382.409	95.38
382.634	96.38
382.86	94.38
383.085	97.38
383.31	94.38
383.535	103.38
383.761	97.38
383.986	114.38
384.211	102.38
384.436	111.38
384.662	94.38
384.887	107.38
385.112	94.38
385.337	78.38
385.562	93.38
385.787	104.38
386.013	106.38
386.238	112.38
386.463	101.38
386.688	106.38
386.913	99.38
387.138	99.38
387.363	107.38
387.588	94.38
387.813	110.38
388.038	110.38
388.263	99.38
388.488	94.38
388.713	88.38
388.938	78.38
389.163	87.38
389.387	96.38
389.612	91.38
389.837	97.38
390.062	90.38
390.287	96.38
390.512	94.38
390.736	85.38
390.961	95.38
391.186	91.38
391.411	88.38
391.636	90.38
391.86	77.38
392.085	86.38
392.31	84.38
392.534	72.38
392.759	83.38
392.984	91.38
393.208	86.38
393.433	103.38
393.658	98.38
393.882	89.38
394.107	81.38
394.331	86.38
394.556	96.38
394.78	95.38
395.005	90.38
395.229	83.38
395.454	85.38
395.678	65.38
395.903	78.38
396.127	86.38
396.352	99.38
396.576	80.38
396.801	90.38
397.025	97.38
397.249	86.38
397.474	82.38
397.698	84.38
397.922	74.38
398.147	81.38
398.371	81.38
398.595	89.38
398.82	94.38
399.044	82.38
399.268	89.38
399.492	75.38
399.717	83.38
399.941	91.38
400.165	95.38
400.389	106.38
400.613	99.38
400.837	98.38
401.062	89.38
401.286	80.38
401.51	78.38
401.734	83.38
401.958	105.38
402.182	136.38
402.406	150.38
402.63	119.38
402.854	97.38
403.078	90.38
403.302	79.38
403.526	81.38
403.75	86.38
403.974	78.38
404.198	100.38
404.422	79.38
404.645	95.38
404.869	94.38
405.093	87.38
405.317	106.38
405.541	88.38
405.765	88.38
405.988	107.38
406.212	146.38
406.436	196.38
406.66	140.38
406.883	98.38
407.107	92.38
407.331	86.38
407.555	100.38
407.778	84.38
408.002	87.38
408.226	81.38
408.449	84.38
408.673	101.38
408.896	85.38
409.12	91.38
409.344	81.38
409.567	91.38
409.791	95.38
410.014	100.38
410.238	97.38
410.461	88.38
410.685	100.38
410.908	103.38
411.132	86.38
411.355	95.38
411.578	89.38
411.802	99.38
412.025	99.38
412.249	99.38
412.472	83.38
412.695	106.38
412.919	82.38
413.142	87.38
413.365	83.38
413.589	83.38
413.812	98.38
414.035	86.38
414.258	98.38
414.482	80.38
414.705	85.38
414.928	91.38
415.151	96.38
415.374	90.38
415.597	111.38
415.821	82.38
416.044	91.38
416.267	90.38
416.49	87.38
416.713	79.38
416.936	91.38
417.159	81.38
417.382	73.38
417.605	80.38
417.828	98.38
418.051	86.38
418.274	104.38
418.497	81.38
418.72	87.38
418.943	92.38
419.166	86.38
419.389	88.38
419.611	86.38
419.834	99.38
420.057	94.38
420.28	87.38
420.503	86.38
420.726	92.38
420.948	104.38
421.171	78.38
421.394	80.38
421.617	108.38
421.839	89.38
422.062	83.38
422.285	97.38
422.507	95.38
422.73	109.38
422.953	87.38
423.175	102.38
423.398	97.38
423.621	92.38
423.843	88.38
424.066	78.38
424.288	97.38
424.511	92.38
424.733	94.38
424.956	113.38
425.178	98.38
425.401	85.38
425.623	90.38
425.846	96.38
426.068	87.38
426.291	102.38
426.513	82.38
426.735	96.38
426.958	89.38
427.18	96.38
427.402	128.38
427.625	156.38
427.847	121.38
428.069	102.38
428.292	84.38
428.514	94.38
428.736	92.38
428.958	82.38
429.181	90.38
429.403	82.38
429.625	88.38
429.847	107.38
430.069	99.38
430.292	94.38
430.514	78.38
430.736	94.38
430.958	92.38
431.18	76.38
431.402	82.38
431.624	86.38
431.846	84.38
432.068	75.38
432.29	76.38
432.512	77.38
432.734	92.38
432.956	81.38
433.178	86.38
433.4	93.38
433.622	95.38
433.844	97.38
434.066	104.38
434.287	99.38
434.509	90.38
434.731	84.38
434.953	82.38
435.175	85.38
435.397	84.38
435.618	89.38
435.84	101.38
436.062	108.38
436.284	112.38
436.505	107.38
436.727	86.38
436.949	97.38
437.17	89.38
437.392	96.38
437.614	82.38
437.835	108.38
438.057	112.38
438.278	111.38
438.5	102.38
438.721	116.38
438.943	90.38
439.165	90.38
439.386	102.38
439.608	86.38
439.829	100.38
440.05	117.38
440.272	129.38
440.493	95.38
440.715	81.38
440.936	95.38
441.158	84.38
441.379	78.38
441.6	107.38
441.822	104.38
442.043	89.38
442.264	118.38
442.486	100.38
442.707	90.38
442.928	102.38
443.149	129.38
443.371	115.38
443.592	114.38
443.813	103.38
444.034	123.38
444.255	87.38
444.476	83.38
444.698	74.38
444.919	82.38
445.14	126.38
445.361	117.38
445.582	126.38
445.803	114.38
446.024	122.38
446.245	124.38
446.466	108.38
446.687	92.38
446.908	89.38
447.129	94.38
447.35	102.38
447.571	96.38
447.792	90.38
448.013	112.38
448.234	98.38
448.455	97.38
448.675	110.38
448.896	107.38
449.117	103.38
449.338	103.38
449.559	126.38
449.779	123.38
450	92.38
450.221	74.38
450.442	90.38
450.662	102.38
450.883	108.38
451.104	115.38
451.324	79.38
451.545	84.38
451.766	96.38
451.986	84.38
452.207	97.38
452.428	90.38
452.648	92.38
452.869	90.38
453.089	107.38
453.31	94.38
453.53	83.38
453.751	84.38
453.971	83.38
454.192	103.38
454.412	92.38
454.633	94.38
454.853	84.38
455.073	83.38
455.294	103.38
455.514	91.38
455.734	98.38
455.955	72.38
456.175	93.38
456.395	90.38
456.616	78.38
456.836	88.38
457.056	79.38
457.276	97.38
457.497	92.38
457.717	75.38
457.937	80.38
458.157	86.38
458.377	94.38
458.598	118.38
458.818	136.38
459.038	149.38
459.258	101.38
459.478	94.38
459.698	77.38
459.918	90.38
460.138	86.38
460.358	81.38
460.578	81.38
460.798	78.38
461.018	91.38
461.238	92.38
461.458	89.38
461.678	80.38
461.898	107.38
462.118	82.38
462.338	96.38
462.558	108.38
462.777	92.38
462.997	68.38
463.217	97.38
463.437	85.38
463.657	78.38
463.876	95.38
464.096	81.38
464.316	87.38
464.536	94.38
464.755	97.38
464.975	94.38
465.195	157.38
465.414	138.38
465.634	90.38
465.854	105.38
466.073	92.38
466.293	82.38
466.512	80.38
466.732	82.38
466.951	88.38
467.171	95.38
467.391	92.38
467.61	102.38
467.829	105.38
468.049	92.38
468.268	100.38
468.488	99.38
468.707	84.38
468.927	83.38
469.146	83.38
469.365	87.38
469.585	86.38
469.804	102.38
470.023	97.38
470.243	84.38
470.462	96.38
470.681	99.38
470.901	79.38
471.12	88.38
471.339	97.38
471.558	82.38
471.777	94.38
471.997	90.38
472.216	87.38
472.435	108.38
472.654	95.38
472.873	107.38
473.092	95.38
473.311	81.38
473.53	86.38
473.749	68.38
473.968	85.38
474.187	95.38
474.406	97.38
474.625	83.38
474.844	87.38
475.063	74.38
475.282	91.38
475.501	76.38
475.72	87.38
475.939	82.38
476.158	79.38
476.377	80.38
476.596	82.38
476.814	98.38
477.033	113.38
477.252	79.38
477.471	76.38
477.69	90.38
477.908	73.38
478.127	78.38
478.346	88.38
478.564	82.38
478.783	91.38
479.002	103.38
479.22	104.38
479.439	102.38
479.658	104.38
479.876	80.38
480.095	84.38
480.313	90.38
480.532	99.38
480.751	87.38
480.969	90.38
481.188	103.38
481.406	97.38
481.624	98.38
481.843	87.38
482.061	86.38
482.28	88.38
482.498	67.38
482.717	93.38
482.935	90.38
483.153	99.38
483.372	94.38
483.59	73.38
483.808	96.38
484.027	80.38
484.245	88.38
484.463	91.38
484.681	110.38
484.9	95.38
485.118	100.38
485.336	110.38
485.554	86.38
485.772	117.38
485.99	109.38
486.209	102.38
486.427	112.38
486.645	106.38
486.863	106.38
487.081	105.38
487.299	101.38
487.517	94.38
487.735	88.38
487.953	84.38
488.171	101.38
488.389	108.38
488.607	95.38
488.825	83.38
489.043	90.38
489.261	102.38
489.479	115.38
489.696	94.38
489.914	90.38
490.132	89.38
490.35	103.38
490.568	100.38
490.786	98.38
491.003	89.38
491.221	82.38
491.439	95.38
491.657	91.38
491.874	90.38
492.092	104.38
492.31	103.38
492.527	86.38
492.745	84.38
492.963	94.38
493.18	82.38
493.398	81.38
493.615	100.38
493.833	93.38
494.05	79.38
494.268	87.38
494.485	76.38
494.703	92.38
494.92	95.38
495.138	90.38
495.355	95.38
495.573	83.38
495.79	97.38
496.008	79.38
496.225	90.38
496.442	98.38
496.66	99.38
496.877	76.38
497.094	87.38
497.312	98.38
497.529	87.38
497.746	95.38
497.963	98.38
498.181	94.38
498.398	90.38
498.615	96.38
498.832	75.38
499.049	113.38
499.267	101.38
499.484	94.38
499.701	84.38
499.918	102.38
500.135	86.38
500.352	88.38
500.569	75.38
500.786	84.38
501.003	91.38
501.22	85.38
501.437	108.38
501.654	96.38
501.871	111.38
502.088	89.38
502.305	105.38
502.522	100.38
502.739	102.38
502.956	92.38
503.172	99.38
503.389	87.38
503.606	108.38
503.823	100.38
504.04	98.38
504.256	98.38
504.473	84.38
504.69	81.38
504.907	91.38
505.123	92.38
505.34	73.38
505.557	88.38
505.773	90.38
505.99	91.38
506.207	95.38
506.423	90.38
506.64	99.38
506.856	87.38
507.073	94.38
507.289	91.38
507.506	100.38
507.722	103.38
507.939	114.38
508.155	96.38
508.372	88.38
508.588	92.38
508.805	95.38
509.021	94.38
509.238	103.38
509.454	101.38
509.67	105.38
509.887	119.38
510.103	142.38
510.319	199.38
510.536	709.38
510.752	2145.38
510.968	594.38
511.184	137.38
511.401	95.38
511.617	94.38
511.833	104.38
512.049	95.38
512.265	84.38
512.481	84.38
512.698	100.38
512.914	84.38
513.13	85.38
513.346	107.38
513.562	80.38
513.778	94.38
513.994	90.38
514.21	102.38
514.426	111.38
514.642	130.38
514.858	113.38
515.074	159.38
515.29	416.38
515.506	1265.38
515.721	452.38
515.937	146.38
516.153	93.38
