Data from Uncirc_1986_H10_HRD10591_00020.txt Node
Date: Wed Jan 03 12:14:30 EST 2024
User: Yrep
Spectrometer: HR+D1059
Trigger mode: 1
Integration Time (sec): 1.000000E-1
Scans to average: 1
Electric dark correction enabled: true
Nonlinearity correction enabled: false
Boxcar width: 0
XAxis mode: Wavelengths
Number of Pixels in Spectrum: 2048
>>>>>Begin Spectral Data<<<<<
223.165	-31.25
223.4	-31.25
223.635	-31.25
223.869	-17.25
224.104	-2.25
224.338	3.75
224.573	-18.25
224.808	-17.25
225.042	-14.25
225.277	-11.25
225.511	9.75
225.746	2.75
225.98	3.75
226.215	17.75
226.449	13.75
226.683	30.75
226.918	12.75
227.152	16.75
227.387	36.75
227.621	39.75
227.856	31.75
228.09	50.75
228.324	40.75
228.559	48.75
228.793	45.75
229.027	53.75
229.262	56.75
229.496	65.75
229.73	76.75
229.964	80.75
230.199	79.75
230.433	82.75
230.667	77.75
230.901	82.75
231.136	64.75
231.37	72.75
231.604	87.75
231.838	78.75
232.072	85.75
232.306	87.75
232.541	77.75
232.775	96.75
233.009	87.75
233.243	79.75
233.477	82.75
233.711	100.75
233.945	59.75
234.179	76.75
234.413	76.75
234.647	80.75
234.881	89.75
235.115	82.75
235.349	81.75
235.583	79.75
235.817	85.75
236.051	69.75
236.285	74.75
236.519	76.75
236.753	82.75
236.987	68.75
237.221	93.75
237.455	88.75
237.689	70.75
237.922	73.75
238.156	87.75
238.39	78.75
238.624	76.75
238.858	74.75
239.091	65.75
239.325	76.75
239.559	73.75
239.793	66.75
240.027	78.75
240.26	75.75
240.494	71.75
240.728	71.75
240.961	72.75
241.195	80.75
241.429	81.75
241.662	61.75
241.896	82.75
242.13	76.75
242.363	70.75
242.597	80.75
242.83	80.75
243.064	89.75
243.298	80.75
243.531	78.75
243.765	78.75
243.998	69.75
244.232	82.75
244.465	76.75
244.699	73.75
244.932	76.75
245.166	70.75
245.399	69.75
245.633	66.75
245.866	78.75
246.099	69.75
246.333	64.75
246.566	67.75
246.8	70.75
247.033	87.75
247.266	78.75
247.5	92.75
247.733	87.75
247.966	76.75
248.2	68.75
248.433	76.75
248.666	74.75
248.899	73.75
249.133	78.75
249.366	93.75
249.599	97.75
249.832	69.75
250.066	95.75
250.299	76.75
250.532	77.75
250.765	74.75
250.998	68.75
251.231	76.75
251.465	83.75
251.698	76.75
251.931	79.75
252.164	74.75
252.397	73.75
252.63	80.75
252.863	73.75
253.096	73.75
253.329	83.75
253.562	79.75
253.795	89.75
254.028	79.75
254.261	81.75
254.494	71.75
254.727	90.75
254.96	93.75
255.193	74.75
255.426	80.75
255.659	87.75
255.892	68.75
256.124	96.75
256.357	74.75
256.59	74.75
256.823	72.75
257.056	67.75
257.289	72.75
257.521	89.75
257.754	92.75
257.987	89.75
258.22	74.75
258.452	80.75
258.685	70.75
258.918	77.75
259.151	86.75
259.383	64.75
259.616	78.75
259.849	80.75
260.081	82.75
260.314	73.75
260.547	68.75
260.779	74.75
261.012	88.75
261.244	78.75
261.477	80.75
261.71	86.75
261.942	110.75
262.175	97.75
262.407	88.75
262.64	82.75
262.872	79.75
263.105	82.75
263.337	80.75
263.57	78.75
263.802	81.75
264.035	94.75
264.267	80.75
264.499	80.75
264.732	87.75
264.964	73.75
265.197	76.75
265.429	76.75
265.661	81.75
265.894	93.75
266.126	80.75
266.358	81.75
266.591	73.75
266.823	74.75
267.055	63.75
267.287	72.75
267.52	71.75
267.752	89.75
267.984	88.75
268.216	78.75
268.448	71.75
268.681	95.75
268.913	88.75
269.145	80.75
269.377	86.75
269.609	78.75
269.841	72.75
270.073	73.75
270.306	85.75
270.538	76.75
270.77	92.75
271.002	90.75
271.234	85.75
271.466	74.75
271.698	78.75
271.93	84.75
272.162	92.75
272.394	88.75
272.626	78.75
272.858	67.75
273.09	84.75
273.322	88.75
273.553	86.75
273.785	95.75
274.017	93.75
274.249	95.75
274.481	70.75
274.713	101.75
274.945	87.75
275.176	93.75
275.408	92.75
275.64	79.75
275.872	97.75
276.104	79.75
276.335	84.75
276.567	106.75
276.799	107.75
277.031	88.75
277.262	92.75
277.494	73.75
277.726	90.75
277.957	84.75
278.189	81.75
278.421	92.75
278.652	89.75
278.884	92.75
279.115	98.75
279.347	86.75
279.579	96.75
279.81	85.75
280.042	82.75
280.273	77.75
280.505	76.75
280.736	86.75
280.968	89.75
281.199	76.75
281.431	90.75
281.662	82.75
281.894	86.75
282.125	89.75
282.356	117.75
282.588	120.75
282.819	98.75
283.051	83.75
283.282	82.75
283.513	84.75
283.745	80.75
283.976	80.75
284.207	73.75
284.439	92.75
284.67	76.75
284.901	71.75
285.132	82.75
285.364	70.75
285.595	89.75
285.826	84.75
286.057	98.75
286.288	93.75
286.52	81.75
286.751	82.75
286.982	84.75
287.213	83.75
287.444	64.75
287.675	87.75
287.906	81.75
288.138	84.75
288.369	88.75
288.6	98.75
288.831	95.75
289.062	95.75
289.293	95.75
289.524	83.75
289.755	76.75
289.986	88.75
290.217	103.75
290.448	90.75
290.679	77.75
290.91	79.75
291.141	80.75
291.371	78.75
291.602	77.75
291.833	82.75
292.064	90.75
292.295	89.75
292.526	88.75
292.757	93.75
292.987	81.75
293.218	84.75
293.449	85.75
293.68	85.75
293.91	92.75
294.141	78.75
294.372	86.75
294.603	94.75
294.833	94.75
295.064	84.75
295.295	88.75
295.525	90.75
295.756	89.75
295.987	101.75
296.217	122.75
296.448	115.75
296.679	89.75
296.909	96.75
297.14	90.75
297.37	86.75
297.601	92.75
297.831	80.75
298.062	97.75
298.292	84.75
298.523	92.75
298.753	81.75
298.984	93.75
299.214	84.75
299.445	79.75
299.675	82.75
299.905	99.75
300.136	91.75
300.366	87.75
300.597	98.75
300.827	88.75
301.057	110.75
301.288	87.75
301.518	103.75
301.748	79.75
301.979	86.75
302.209	97.75
302.439	84.75
302.669	74.75
302.9	82.75
303.13	87.75
303.36	81.75
303.59	78.75
303.82	92.75
304.051	89.75
304.281	88.75
304.511	101.75
304.741	95.75
304.971	88.75
305.201	69.75
305.431	84.75
305.661	73.75
305.891	95.75
306.121	97.75
306.352	98.75
306.582	95.75
306.812	92.75
307.042	98.75
307.272	97.75
307.502	82.75
307.731	77.75
307.961	100.75
308.191	87.75
308.421	82.75
308.651	93.75
308.881	84.75
309.111	102.75
309.341	86.75
309.571	97.75
309.8	88.75
310.03	88.75
310.26	81.75
310.49	88.75
310.72	97.75
310.949	93.75
311.179	109.75
311.409	96.75
311.639	103.75
311.868	102.75
312.098	100.75
312.328	85.75
312.557	92.75
312.787	95.75
313.017	88.75
313.246	88.75
313.476	76.75
313.706	109.75
313.935	68.75
314.165	89.75
314.394	106.75
314.624	98.75
314.853	87.75
315.083	89.75
315.312	94.75
315.542	98.75
315.771	88.75
316.001	78.75
316.23	83.75
316.46	85.75
316.689	88.75
316.919	95.75
317.148	94.75
317.377	88.75
317.607	84.75
317.836	94.75
318.065	99.75
318.295	80.75
318.524	87.75
318.753	96.75
318.983	76.75
319.212	93.75
319.441	97.75
319.67	87.75
319.9	101.75
320.129	84.75
320.358	93.75
320.587	91.75
320.816	92.75
321.046	90.75
321.275	96.75
321.504	105.75
321.733	98.75
321.962	87.75
322.191	89.75
322.42	80.75
322.649	108.75
322.878	114.75
323.108	102.75
323.337	121.75
323.566	127.75
323.795	157.75
324.024	191.75
324.253	354.75
324.482	750.75
324.71	1540.75
324.939	2013.75
325.168	760.75
325.397	222.75
325.626	144.75
325.855	111.75
326.084	130.75
326.313	132.75
326.542	152.75
326.77	216.75
326.999	421.75
327.228	863.75
327.457	1594.75
327.686	1248.75
327.914	336.75
328.143	174.75
328.372	131.75
328.6	118.75
328.829	99.75
329.058	126.75
329.287	107.75
329.515	96.75
329.744	96.75
329.972	89.75
330.201	103.75
330.43	88.75
330.658	120.75
330.887	120.75
331.115	102.75
331.344	86.75
331.572	94.75
331.801	106.75
332.03	103.75
332.258	121.75
332.486	92.75
332.715	93.75
332.943	97.75
333.172	102.75
333.4	96.75
333.629	104.75
333.857	105.75
334.085	102.75
334.314	93.75
334.542	99.75
334.771	108.75
334.999	95.75
335.227	87.75
335.455	87.75
335.684	93.75
335.912	86.75
336.14	97.75
336.369	84.75
336.597	95.75
336.825	93.75
337.053	103.75
337.281	76.75
337.51	88.75
337.738	89.75
337.966	106.75
338.194	85.75
338.422	79.75
338.65	79.75
338.878	82.75
339.106	71.75
339.334	86.75
339.562	71.75
339.79	88.75
340.018	98.75
340.246	72.75
340.474	106.75
340.702	99.75
340.93	89.75
341.158	85.75
341.386	94.75
341.614	97.75
341.842	88.75
342.07	108.75
342.298	88.75
342.526	93.75
342.754	83.75
342.981	92.75
343.209	84.75
343.437	107.75
343.665	83.75
343.893	85.75
344.12	94.75
344.348	93.75
344.576	92.75
344.804	93.75
345.031	90.75
345.259	87.75
345.487	86.75
345.714	89.75
345.942	101.75
346.17	108.75
346.397	93.75
346.625	80.75
346.853	97.75
347.08	96.75
347.308	88.75
347.535	86.75
347.763	88.75
347.99	90.75
348.218	81.75
348.445	106.75
348.673	86.75
348.9	87.75
349.128	92.75
349.355	98.75
349.583	99.75
349.81	92.75
350.037	87.75
350.265	96.75
350.492	84.75
350.72	94.75
350.947	89.75
351.174	104.75
351.402	106.75
351.629	101.75
351.856	101.75
352.083	94.75
352.311	94.75
352.538	97.75
352.765	109.75
352.992	102.75
353.22	99.75
353.447	108.75
353.674	99.75
353.901	94.75
354.128	73.75
354.355	96.75
354.583	106.75
354.81	91.75
355.037	78.75
355.264	84.75
355.491	84.75
355.718	84.75
355.945	100.75
356.172	84.75
356.399	75.75
356.626	69.75
356.853	97.75
357.08	88.75
357.307	86.75
357.534	91.75
357.761	88.75
357.988	78.75
358.215	101.75
358.441	112.75
358.668	82.75
358.895	97.75
359.122	93.75
359.349	94.75
359.576	91.75
359.802	102.75
360.029	93.75
360.256	99.75
360.483	99.75
360.709	87.75
360.936	97.75
361.163	89.75
361.39	87.75
361.616	100.75
361.843	100.75
362.07	72.75
362.296	82.75
362.523	100.75
362.749	83.75
362.976	80.75
363.203	102.75
363.429	90.75
363.656	94.75
363.882	87.75
364.109	96.75
364.335	82.75
364.562	82.75
364.788	95.75
365.015	90.75
365.241	105.75
365.468	94.75
365.694	93.75
365.92	78.75
366.147	99.75
366.373	73.75
366.599	88.75
366.826	85.75
367.052	80.75
367.278	86.75
367.505	97.75
367.731	96.75
367.957	93.75
368.184	88.75
368.41	111.75
368.636	98.75
368.862	106.75
369.089	105.75
369.315	97.75
369.541	93.75
369.767	96.75
369.993	82.75
370.219	78.75
370.445	88.75
370.672	82.75
370.898	94.75
371.124	92.75
371.35	86.75
371.576	88.75
371.802	78.75
372.028	74.75
372.254	83.75
372.48	93.75
372.706	92.75
372.932	80.75
373.158	89.75
373.384	82.75
373.61	95.75
373.835	85.75
374.061	80.75
374.287	96.75
374.513	86.75
374.739	90.75
374.965	102.75
375.191	92.75
375.416	95.75
375.642	96.75
375.868	85.75
376.094	85.75
376.319	83.75
376.545	81.75
376.771	92.75
376.997	83.75
377.222	88.75
377.448	96.75
377.674	86.75
377.899	86.75
378.125	68.75
378.35	82.75
378.576	94.75
378.802	82.75
379.027	68.75
379.253	87.75
379.478	81.75
379.704	90.75
379.929	88.75
380.155	72.75
380.38	78.75
380.606	84.75
380.831	98.75
381.057	84.75
381.282	85.75
381.507	108.75
381.733	94.75
381.958	98.75
382.184	85.75
382.409	99.75
382.634	104.75
382.86	111.75
383.085	102.75
383.31	121.75
383.535	90.75
383.761	82.75
383.986	89.75
384.211	93.75
384.436	97.75
384.662	97.75
384.887	92.75
385.112	88.75
385.337	94.75
385.562	90.75
385.787	110.75
386.013	117.75
386.238	111.75
386.463	101.75
386.688	105.75
386.913	106.75
387.138	89.75
387.363	91.75
387.588	100.75
387.813	100.75
388.038	109.75
388.263	94.75
388.488	108.75
388.713	85.75
388.938	89.75
389.163	93.75
389.387	97.75
389.612	106.75
389.837	96.75
390.062	88.75
390.287	109.75
390.512	89.75
390.736	90.75
390.961	94.75
391.186	93.75
391.411	98.75
391.636	104.75
391.86	96.75
392.085	74.75
392.31	77.75
392.534	86.75
392.759	85.75
392.984	78.75
393.208	86.75
393.433	86.75
393.658	87.75
393.882	80.75
394.107	71.75
394.331	80.75
394.556	82.75
394.78	83.75
395.005	88.75
395.229	90.75
395.454	89.75
395.678	81.75
395.903	85.75
396.127	93.75
396.352	84.75
396.576	81.75
396.801	88.75
397.025	98.75
397.249	88.75
397.474	82.75
397.698	81.75
397.922	82.75
398.147	74.75
398.371	73.75
398.595	80.75
398.82	90.75
399.044	79.75
399.268	87.75
399.492	88.75
399.717	86.75
399.941	87.75
400.165	87.75
400.389	85.75
400.613	88.75
400.837	84.75
401.062	89.75
401.286	88.75
401.51	90.75
401.734	88.75
401.958	99.75
402.182	117.75
402.406	145.75
402.63	103.75
402.854	95.75
403.078	93.75
403.302	90.75
403.526	89.75
403.75	97.75
403.974	73.75
404.198	75.75
404.422	95.75
404.645	66.75
404.869	85.75
405.093	92.75
405.317	92.75
405.541	103.75
405.765	102.75
405.988	96.75
406.212	158.75
406.436	222.75
406.66	125.75
406.883	92.75
407.107	85.75
407.331	86.75
407.555	85.75
407.778	93.75
408.002	91.75
408.226	77.75
408.449	85.75
408.673	75.75
408.896	90.75
409.12	85.75
409.344	93.75
409.567	97.75
409.791	107.75
410.014	85.75
410.238	89.75
410.461	83.75
410.685	80.75
410.908	98.75
411.132	90.75
411.355	103.75
411.578	100.75
411.802	81.75
412.025	101.75
412.249	85.75
412.472	92.75
412.695	90.75
412.919	89.75
413.142	95.75
413.365	87.75
413.589	89.75
413.812	78.75
414.035	82.75
414.258	84.75
414.482	96.75
414.705	103.75
414.928	92.75
415.151	96.75
415.374	100.75
415.597	99.75
415.821	86.75
416.044	89.75
416.267	80.75
416.49	82.75
416.713	89.75
416.936	90.75
417.159	85.75
417.382	100.75
417.605	80.75
417.828	85.75
418.051	90.75
418.274	86.75
418.497	82.75
418.72	94.75
418.943	87.75
419.166	94.75
419.389	89.75
419.611	93.75
419.834	89.75
420.057	97.75
420.28	94.75
420.503	68.75
420.726	79.75
420.948	100.75
421.171	87.75
421.394	86.75
421.617	96.75
421.839	81.75
422.062	96.75
422.285	102.75
422.507	106.75
422.73	107.75
422.953	83.75
423.175	106.75
423.398	101.75
423.621	85.75
423.843	93.75
424.066	83.75
424.288	89.75
424.511	93.75
424.733	92.75
424.956	96.75
425.178	95.75
425.401	91.75
425.623	101.75
425.846	98.75
426.068	88.75
426.291	85.75
426.513	97.75
426.735	99.75
426.958	86.75
427.18	88.75
427.402	131.75
427.625	142.75
427.847	116.75
428.069	117.75
428.292	84.75
428.514	84.75
428.736	94.75
428.958	83.75
429.181	92.75
429.403	70.75
429.625	94.75
429.847	94.75
430.069	97.75
430.292	94.75
430.514	85.75
430.736	88.75
430.958	87.75
431.18	83.75
431.402	103.75
431.624	85.75
431.846	98.75
432.068	84.75
432.29	98.75
432.512	97.75
432.734	92.75
432.956	91.75
433.178	87.75
433.4	92.75
433.622	91.75
433.844	91.75
434.066	89.75
434.287	84.75
434.509	88.75
434.731	84.75
434.953	92.75
435.175	87.75
435.397	95.75
435.618	91.75
435.84	100.75
436.062	113.75
436.284	108.75
436.505	103.75
436.727	93.75
436.949	98.75
437.17	87.75
437.392	90.75
437.614	83.75
437.835	103.75
438.057	90.75
438.278	92.75
438.5	103.75
438.721	123.75
438.943	101.75
439.165	78.75
439.386	85.75
439.608	82.75
439.829	95.75
440.05	93.75
440.272	124.75
440.493	98.75
440.715	88.75
440.936	77.75
441.158	86.75
441.379	88.75
441.6	101.75
441.822	94.75
442.043	108.75
442.264	109.75
442.486	95.75
442.707	94.75
442.928	105.75
443.149	132.75
443.371	111.75
443.592	104.75
443.813	88.75
444.034	114.75
444.255	81.75
444.476	94.75
444.698	76.75
444.919	79.75
445.14	125.75
445.361	108.75
445.582	91.75
445.803	120.75
446.024	120.75
446.245	124.75
446.466	90.75
446.687	92.75
446.908	86.75
447.129	88.75
447.35	88.75
447.571	79.75
447.792	79.75
448.013	95.75
448.234	99.75
448.455	105.75
448.675	101.75
448.896	107.75
449.117	91.75
449.338	115.75
449.559	128.75
449.779	140.75
450	81.75
450.221	106.75
450.442	84.75
450.662	90.75
450.883	102.75
451.104	101.75
451.324	100.75
451.545	96.75
451.766	82.75
451.986	80.75
452.207	86.75
452.428	88.75
452.648	97.75
452.869	108.75
453.089	120.75
453.31	111.75
453.53	102.75
453.751	86.75
453.971	88.75
454.192	102.75
454.412	100.75
454.633	82.75
454.853	88.75
455.073	95.75
455.294	83.75
455.514	94.75
455.734	80.75
455.955	86.75
456.175	85.75
456.395	79.75
456.616	92.75
456.836	86.75
457.056	89.75
457.276	96.75
457.497	75.75
457.717	92.75
457.937	98.75
458.157	66.75
458.377	95.75
458.598	93.75
458.818	123.75
459.038	143.75
459.258	124.75
459.478	82.75
459.698	97.75
459.918	69.75
460.138	73.75
460.358	92.75
460.578	84.75
460.798	84.75
461.018	89.75
461.238	81.75
461.458	77.75
461.678	93.75
461.898	77.75
462.118	77.75
462.338	81.75
462.558	79.75
462.777	73.75
462.997	88.75
463.217	80.75
463.437	91.75
463.657	83.75
463.876	79.75
464.096	84.75
464.316	86.75
464.536	91.75
464.755	86.75
464.975	109.75
465.195	158.75
465.414	134.75
465.634	94.75
465.854	84.75
466.073	72.75
466.293	73.75
466.512	82.75
466.732	77.75
466.951	93.75
467.171	98.75
467.391	93.75
467.61	87.75
467.829	90.75
468.049	93.75
468.268	78.75
468.488	82.75
468.707	74.75
468.927	82.75
469.146	103.75
469.365	85.75
469.585	89.75
469.804	90.75
470.023	77.75
470.243	96.75
470.462	98.75
470.681	111.75
470.901	103.75
471.12	101.75
471.339	81.75
471.558	86.75
471.777	99.75
471.997	90.75
472.216	91.75
472.435	84.75
472.654	97.75
472.873	89.75
473.092	83.75
473.311	91.75
473.53	79.75
473.749	80.75
473.968	90.75
474.187	104.75
474.406	102.75
474.625	87.75
474.844	96.75
475.063	68.75
475.282	89.75
475.501	77.75
475.72	80.75
475.939	71.75
476.158	71.75
476.377	86.75
476.596	94.75
476.814	89.75
477.033	91.75
477.252	93.75
477.471	85.75
477.69	87.75
477.908	86.75
478.127	83.75
478.346	74.75
478.564	99.75
478.783	100.75
479.002	88.75
479.22	84.75
479.439	107.75
479.658	99.75
479.876	88.75
480.095	94.75
480.313	95.75
480.532	89.75
480.751	68.75
480.969	84.75
481.188	106.75
481.406	99.75
481.624	96.75
481.843	89.75
482.061	90.75
482.28	82.75
482.498	94.75
482.717	76.75
482.935	88.75
483.153	94.75
483.372	82.75
483.59	92.75
483.808	86.75
484.027	91.75
484.245	87.75
484.463	96.75
484.681	91.75
484.9	78.75
485.118	94.75
485.336	86.75
485.554	100.75
485.772	92.75
485.99	96.75
486.209	92.75
486.427	103.75
486.645	104.75
486.863	101.75
487.081	97.75
487.299	93.75
487.517	104.75
487.735	81.75
487.953	108.75
488.171	89.75
488.389	90.75
488.607	93.75
488.825	101.75
489.043	95.75
489.261	98.75
489.479	102.75
489.696	90.75
489.914	96.75
490.132	88.75
490.35	89.75
490.568	114.75
490.786	86.75
491.003	89.75
491.221	74.75
491.439	87.75
491.657	88.75
491.874	87.75
492.092	82.75
492.31	102.75
492.527	61.75
492.745	84.75
492.963	95.75
493.18	81.75
493.398	83.75
493.615	101.75
493.833	92.75
494.05	96.75
494.268	84.75
494.485	84.75
494.703	79.75
494.92	72.75
495.138	101.75
495.355	98.75
495.573	80.75
495.79	97.75
496.008	96.75
496.225	88.75
496.442	101.75
496.66	92.75
496.877	86.75
497.094	83.75
497.312	96.75
497.529	89.75
497.746	98.75
497.963	89.75
498.181	85.75
498.398	90.75
498.615	113.75
498.832	113.75
499.049	96.75
499.267	90.75
499.484	101.75
499.701	96.75
499.918	88.75
500.135	83.75
500.352	79.75
500.569	84.75
500.786	88.75
501.003	85.75
501.22	86.75
501.437	94.75
501.654	87.75
501.871	91.75
502.088	79.75
502.305	80.75
502.522	82.75
502.739	87.75
502.956	100.75
503.172	101.75
503.389	94.75
503.606	101.75
503.823	105.75
504.04	93.75
504.256	90.75
504.473	82.75
504.69	84.75
504.907	93.75
505.123	95.75
505.34	87.75
505.557	77.75
505.773	95.75
505.99	86.75
506.207	94.75
506.423	78.75
506.64	95.75
506.856	99.75
507.073	93.75
507.289	106.75
507.506	82.75
507.722	109.75
507.939	73.75
508.155	93.75
508.372	79.75
508.588	88.75
508.805	100.75
509.021	89.75
509.238	92.75
509.454	113.75
509.67	95.75
509.887	100.75
510.103	118.75
510.319	185.75
510.536	644.75
510.752	2031.75
510.968	564.75
511.184	141.75
511.401	110.75
511.617	79.75
511.833	98.75
512.049	81.75
512.265	98.75
512.481	87.75
512.698	87.75
512.914	87.75
513.13	100.75
513.346	90.75
513.562	82.75
513.778	97.75
513.994	92.75
514.21	96.75
514.426	117.75
514.642	118.75
514.858	106.75
515.074	158.75
515.29	401.75
515.506	1268.75
515.721	466.75
515.937	138.75
516.153	126.75
516.369	90.75
516.585	96.75
516.801	90.75
