Data from Uncirc_1986_H10_HRD10591_00064.txt Node
Date: Wed Jan 03 12:14:39 EST 2024
User: Yrep
Spectrometer: HR+D1059
Trigger mode: 1
Integration Time (sec): 1.000000E-1
Scans to average: 1
Electric dark correction enabled: true
Nonlinearity correction enabled: false
Boxcar width: 0
XAxis mode: Wavelengths
Number of Pixels in Spectrum: 2048
>>>>>Begin Spectral Data<<<<<
223.165	-5.56
223.4	-5.56
223.635	-5.56
223.869	-21.56
224.104	-28.56
224.338	-26.56
224.573	-4.56
224.808	-8.56
225.042	-11.56
225.277	-3.56
225.511	12.44
225.746	8.44
225.98	2.44
226.215	13.44
226.449	10.44
226.683	26.44
226.918	14.44
227.152	22.44
227.387	41.44
227.621	26.44
227.856	33.44
228.09	44.44
228.324	39.44
228.559	54.44
228.793	158.44
229.027	442.44
229.262	498.44
229.496	630.44
229.73	812.44
229.964	804.44
230.199	546.44
230.433	499.44
230.667	478.44
230.901	450.44
231.136	435.44
231.37	453.44
231.604	479.44
231.838	465.44
232.072	457.44
232.306	482.44
232.541	468.44
232.775	472.44
233.009	457.44
233.243	473.44
233.477	488.44
233.711	485.44
233.945	513.44
234.179	505.44
234.413	505.44
234.647	520.44
234.881	512.44
235.115	538.44
235.349	544.44
235.583	553.44
235.817	609.44
236.051	649.44
236.285	626.44
236.519	625.44
236.753	712.44
236.987	916.44
237.221	1437.44
237.455	1527.44
237.689	935.44
237.922	759.44
238.156	726.44
238.39	690.44
238.624	659.44
238.858	649.44
239.091	674.44
239.325	686.44
239.559	688.44
239.793	722.44
240.027	771.44
240.26	902.44
240.494	997.44
240.728	966.44
240.961	930.44
241.195	846.44
241.429	802.44
241.662	785.44
241.896	783.44
242.13	779.44
242.363	760.44
242.597	788.44
242.83	865.44
243.064	828.44
243.298	829.44
243.531	820.44
243.765	822.44
243.998	835.44
244.232	851.44
244.465	921.44
244.699	914.44
244.932	887.44
245.166	889.44
245.399	938.44
245.633	936.44
245.866	926.44
246.099	955.44
246.333	961.44
246.566	956.44
246.8	962.44
247.033	1016.44
247.266	1033.44
247.5	1156.44
247.733	1183.44
247.966	1113.44
248.2	1168.44
248.433	1151.44
248.666	1206.44
248.899	1372.44
249.133	1458.44
249.366	1431.44
249.599	1313.44
249.832	1203.44
250.066	1232.44
250.299	1273.44
250.532	1326.44
250.765	1548.44
250.998	1715.44
251.231	1664.44
251.465	1504.44
251.698	1473.44
251.931	1436.44
252.164	1405.44
252.397	1464.44
252.63	1468.44
252.863	1542.44
253.096	1697.44
253.329	1734.44
253.562	1658.44
253.795	1605.44
254.028	1563.44
254.261	1658.44
254.494	1830.44
254.727	2137.44
254.96	2285.44
255.193	2040.44
255.426	1718.44
255.659	1664.44
255.892	1597.44
256.124	1604.44
256.357	1550.44
256.59	1535.44
256.823	1539.44
257.056	1495.44
257.289	1481.44
257.521	1535.44
257.754	1584.44
257.987	1536.44
258.22	1568.44
258.452	1533.44
258.685	1548.44
258.918	1564.44
259.151	1650.44
259.383	1687.44
259.616	1719.44
259.849	1767.44
260.081	1902.44
260.314	2137.44
260.547	2061.44
260.779	1916.44
261.012	1788.44
261.244	1722.44
261.477	1721.44
261.71	1706.44
261.942	1767.44
262.175	1774.44
262.407	1767.44
262.64	1631.44
262.872	1725.44
263.105	1696.44
263.337	1655.44
263.57	1663.44
263.802	1664.44
264.035	1657.44
264.267	1714.44
264.499	1696.44
264.732	1721.44
264.964	1691.44
265.197	1728.44
265.429	1747.44
265.661	1757.44
265.894	1705.44
266.126	1733.44
266.358	1778.44
266.591	1824.44
266.823	1879.44
267.055	1882.44
267.287	1876.44
267.52	1830.44
267.752	1886.44
267.984	1891.44
268.216	1872.44
268.448	1920.44
268.681	1984.44
268.913	2131.44
269.145	2328.44
269.377	2408.44
269.609	2294.44
269.841	2231.44
270.073	2400.44
270.306	2674.44
270.538	2890.44
270.77	2697.44
271.002	2523.44
271.234	2537.44
271.466	2649.44
271.698	2752.44
271.93	2786.44
272.162	2777.44
272.394	2707.44
272.626	2572.44
272.858	2380.44
273.09	2345.44
273.322	2255.44
273.553	2256.44
273.785	2248.44
274.017	2229.44
274.249	2233.44
274.481	2230.44
274.713	2266.44
274.945	2320.44
275.176	2240.44
275.408	2284.44
275.64	2300.44
275.872	2255.44
276.104	2296.44
276.335	2321.44
276.567	2388.44
276.799	2537.44
277.031	2789.44
277.262	2905.44
277.494	2814.44
277.726	2616.44
277.957	2499.44
278.189	2459.44
278.421	2425.44
278.652	2404.44
278.884	2377.44
279.115	2393.44
279.347	2429.44
279.579	2365.44
279.81	2336.44
280.042	2350.44
280.273	2373.44
280.505	2405.44
280.736	2389.44
280.968	2410.44
281.199	2410.44
281.431	2427.44
281.662	2463.44
281.894	2473.44
282.125	2547.44
282.356	2684.44
282.588	2806.44
282.819	2643.44
283.051	2550.44
283.282	2524.44
283.513	2583.44
283.745	2663.44
283.976	2638.44
284.207	2644.44
284.439	2660.44
284.67	2658.44
284.901	2634.44
285.132	2608.44
285.364	2646.44
285.595	2627.44
285.826	2640.44
286.057	2698.44
286.288	2641.44
286.52	2734.44
286.751	2702.44
286.982	2660.44
287.213	2761.44
287.444	2730.44
287.675	2820.44
287.906	2898.44
288.138	2944.44
288.369	2906.44
288.6	2934.44
288.831	2818.44
289.062	2823.44
289.293	2820.44
289.524	2810.44
289.755	2778.44
289.986	2822.44
290.217	2787.44
290.448	2766.44
290.679	2830.44
290.91	2823.44
291.141	2844.44
291.371	2788.44
291.602	2840.44
291.833	2757.44
292.064	2790.44
292.295	2838.44
292.526	2804.44
292.757	2837.44
292.987	2838.44
293.218	2783.44
293.449	2910.44
293.68	2836.44
293.91	2852.44
294.141	2815.44
294.372	2823.44
294.603	2910.44
294.833	2852.44
295.064	2853.44
295.295	2946.44
295.525	2904.44
295.756	2958.44
295.987	2962.44
296.217	3177.44
296.448	3139.44
296.679	2976.44
296.909	2915.44
297.14	2966.44
297.37	3014.44
297.601	3027.44
297.831	3040.44
298.062	3027.44
298.292	3061.44
298.523	3134.44
298.753	3112.44
298.984	3084.44
299.214	3077.44
299.445	3097.44
299.675	3088.44
299.905	3156.44
300.136	3083.44
300.366	3130.44
300.597	3162.44
300.827	3237.44
301.057	3364.44
301.288	3351.44
301.518	3329.44
301.748	3310.44
301.979	3383.44
302.209	3402.44
302.439	3393.44
302.669	3361.44
302.9	3279.44
303.13	3281.44
303.36	3370.44
303.59	3360.44
303.82	3387.44
304.051	3391.44
304.281	3285.44
304.511	3282.44
304.741	3244.44
304.971	3301.44
305.201	3258.44
305.431	3198.44
305.661	3314.44
305.891	3218.44
306.121	3327.44
306.352	3371.44
306.582	3271.44
306.812	3236.44
307.042	3280.44
307.272	3268.44
307.502	3262.44
307.731	3276.44
307.961	3306.44
308.191	3283.44
308.421	3258.44
308.651	3341.44
308.881	3280.44
309.111	3358.44
309.341	3331.44
309.571	3487.44
309.8	3468.44
310.03	3548.44
310.26	3628.44
310.49	3496.44
310.72	3671.44
310.949	3729.44
311.179	3780.44
311.409	3602.44
311.639	3670.44
311.868	3617.44
312.098	3673.44
312.328	3752.44
312.557	3872.44
312.787	4006.44
313.017	3900.44
313.246	3824.44
313.476	3694.44
313.706	3773.44
313.935	3841.44
314.165	3930.44
314.394	3922.44
314.624	3833.44
314.853	3792.44
315.083	3765.44
315.312	3664.44
315.542	3732.44
315.771	3650.44
316.001	3603.44
316.23	3643.44
316.46	3672.44
316.689	3694.44
316.919	3696.44
317.148	3752.44
317.377	3704.44
317.607	3689.44
317.836	3682.44
318.065	3631.44
318.295	3683.44
318.524	3707.44
318.753	3715.44
318.983	3688.44
319.212	3668.44
319.441	3778.44
319.67	3700.44
319.9	3716.44
320.129	3696.44
320.358	3693.44
320.587	3711.44
320.816	3760.44
321.046	3797.44
321.275	3838.44
321.504	3866.44
321.733	3849.44
321.962	3895.44
322.191	4027.44
322.42	4100.44
322.649	4186.44
322.878	4190.44
323.108	4308.44
323.337	4552.44
323.566	4632.44
323.795	4935.44
324.024	5444.44
324.253	7100.44
324.482	10557.44
324.71	15000.44
324.939	15626.44
325.168	12937.44
325.397	6610.44
325.626	5182.44
325.855	4824.44
326.084	4743.44
326.313	4717.44
326.542	4897.44
326.77	5482.44
326.999	6792.44
327.228	9990.44
327.457	14152.44
327.686	13440.44
327.914	7233.44
328.143	5805.44
328.372	5335.44
328.6	5166.44
328.829	5122.44
329.058	5247.44
329.287	5206.44
329.515	5012.44
329.744	4710.44
329.972	4743.44
330.201	4837.44
330.43	5061.44
330.658	5377.44
330.887	5644.44
331.115	5302.44
331.344	4872.44
331.572	4759.44
331.801	4939.44
332.03	4989.44
332.258	4872.44
332.486	4885.44
332.715	4940.44
332.943	5148.44
333.172	5244.44
333.4	5396.44
333.629	5430.44
333.857	5517.44
334.085	5458.44
334.314	5442.44
334.542	5414.44
334.771	5355.44
334.999	5225.44
335.227	5152.44
335.455	5102.44
335.684	5020.44
335.912	5006.44
336.14	4903.44
336.369	4921.44
336.597	4952.44
336.825	4906.44
337.053	4767.44
337.281	4766.44
337.51	4681.44
337.738	4697.44
337.966	4631.44
338.194	4664.44
338.422	4617.44
338.65	4548.44
338.878	4536.44
339.106	4465.44
339.334	4449.44
339.562	4428.44
339.79	4310.44
340.018	4368.44
340.246	4378.44
340.474	4397.44
340.702	4401.44
340.93	4364.44
341.158	4390.44
341.386	4385.44
341.614	4414.44
341.842	4327.44
342.07	4251.44
342.298	4284.44
342.526	4257.44
342.754	4220.44
342.981	4305.44
343.209	4373.44
343.437	4609.44
343.665	4862.44
343.893	5092.44
344.12	5144.44
344.348	4963.44
344.576	4736.44
344.804	4716.44
345.031	4594.44
345.259	4590.44
345.487	4420.44
345.714	4321.44
345.942	4212.44
346.17	4208.44
346.397	4212.44
346.625	4214.44
346.853	4174.44
347.08	4173.44
347.308	4170.44
347.535	4270.44
347.763	4233.44
347.99	4253.44
348.218	4285.44
348.445	4288.44
348.673	4219.44
348.9	4156.44
349.128	4073.44
349.355	4036.44
349.583	4056.44
349.81	4065.44
350.037	4006.44
350.265	4073.44
350.492	4048.44
350.72	4021.44
350.947	4121.44
351.174	4141.44
351.402	4202.44
351.629	4143.44
351.856	4144.44
352.083	4245.44
352.311	4213.44
352.538	4162.44
352.765	4194.44
352.992	4131.44
353.22	4035.44
353.447	4054.44
353.674	3965.44
353.901	3928.44
354.128	3926.44
354.355	4002.44
354.583	3893.44
354.81	3944.44
355.037	3904.44
355.264	3904.44
355.491	3912.44
355.718	3915.44
355.945	3931.44
356.172	3933.44
356.399	3889.44
356.626	3955.44
356.853	3905.44
357.08	3936.44
357.307	3946.44
357.534	3900.44
357.761	3941.44
357.988	3952.44
358.215	3953.44
358.441	3957.44
358.668	4005.44
358.895	4012.44
359.122	4052.44
359.349	4112.44
359.576	4190.44
359.802	4446.44
360.029	4520.44
360.256	4533.44
360.483	4381.44
360.709	4187.44
360.936	4179.44
361.163	4176.44
361.39	4204.44
361.616	4149.44
361.843	4137.44
362.07	4146.44
362.296	4189.44
362.523	4119.44
362.749	4164.44
362.976	4121.44
363.203	4034.44
363.429	3984.44
363.656	4097.44
363.882	4025.44
364.109	4030.44
364.335	4011.44
364.562	3985.44
364.788	4017.44
365.015	4101.44
365.241	3984.44
365.468	4032.44
365.694	4096.44
365.92	4045.44
366.147	4009.44
366.373	3986.44
366.599	3977.44
366.826	3905.44
367.052	3932.44
367.278	4012.44
367.505	4067.44
367.731	4065.44
367.957	4035.44
368.184	4050.44
368.41	4149.44
368.636	4215.44
368.862	4292.44
369.089	4115.44
369.315	4121.44
369.541	4078.44
369.767	4101.44
369.993	4166.44
370.219	4132.44
370.445	4187.44
370.672	4209.44
370.898	4223.44
371.124	4165.44
371.35	4289.44
371.576	4213.44
371.802	4262.44
372.028	4265.44
372.254	4335.44
372.48	4319.44
372.706	4400.44
372.932	4460.44
373.158	4336.44
373.384	4294.44
373.61	4288.44
373.835	4314.44
374.061	4332.44
374.287	4426.44
374.513	4460.44
374.739	4607.44
374.965	4727.44
375.191	4666.44
375.416	4590.44
375.642	4534.44
375.868	4441.44
376.094	4448.44
376.319	4384.44
376.545	4335.44
376.771	4283.44
376.997	4260.44
377.222	4259.44
377.448	4261.44
377.674	4278.44
377.899	4242.44
378.125	4336.44
378.35	4268.44
378.576	4281.44
378.802	4202.44
379.027	4242.44
379.253	4255.44
379.478	4211.44
379.704	4254.44
379.929	4304.44
380.155	4329.44
380.38	4320.44
380.606	4345.44
380.831	4286.44
381.057	4328.44
381.282	4245.44
381.507	4304.44
381.733	4325.44
381.958	4371.44
382.184	4409.44
382.409	4460.44
382.634	4523.44
382.86	4492.44
383.085	4564.44
383.31	4677.44
383.535	4723.44
383.761	4750.44
383.986	4809.44
384.211	4896.44
384.436	5042.44
384.662	4989.44
384.887	5085.44
385.112	5080.44
385.337	5169.44
385.562	5157.44
385.787	5192.44
386.013	5253.44
386.238	5305.44
386.463	5224.44
386.688	5210.44
386.913	5097.44
387.138	5101.44
387.363	5153.44
387.588	5034.44
387.813	5044.44
388.038	5082.44
388.263	5090.44
388.488	5099.44
388.713	5137.44
388.938	5139.44
389.163	5008.44
389.387	5167.44
389.612	4978.44
389.837	5062.44
390.062	5042.44
390.287	5050.44
390.512	5115.44
390.736	5115.44
390.961	5194.44
391.186	5283.44
391.411	5410.44
391.636	5545.44
391.86	5726.44
392.085	5744.44
392.31	5632.44
392.534	5592.44
392.759	5427.44
392.984	5354.44
393.208	5331.44
393.433	5305.44
393.658	5243.44
393.882	5289.44
394.107	5402.44
394.331	5427.44
394.556	5355.44
394.78	5472.44
395.005	5408.44
395.229	5432.44
395.454	5621.44
395.678	5652.44
395.903	5782.44
396.127	5861.44
396.352	5667.44
396.576	5454.44
396.801	5420.44
397.025	5502.44
397.249	5598.44
397.474	5703.44
397.698	5729.44
397.922	5924.44
398.147	6061.44
398.371	5965.44
398.595	6173.44
398.82	6467.44
399.044	7012.44
399.268	7791.44
399.492	8846.44
399.717	9531.44
399.941	9197.44
400.165	8646.44
400.389	8045.44
400.613	7223.44
400.837	6789.44
401.062	6553.44
401.286	6528.44
401.51	6406.44
401.734	6493.44
401.958	6493.44
402.182	6626.44
402.406	6748.44
402.63	6769.44
402.854	6919.44
403.078	7034.44
403.302	7145.44
403.526	7164.44
403.75	7239.44
403.974	7317.44
404.198	7246.44
404.422	7333.44
404.645	7248.44
404.869	7200.44
405.093	7442.44
405.317	7473.44
405.541	7505.44
405.765	7166.44
405.988	7165.44
406.212	7216.44
406.436	7507.44
406.66	7624.44
406.883	7560.44
407.107	8213.44
407.331	8697.44
407.555	9313.44
407.778	8981.44
408.002	8302.44
408.226	7776.44
408.449	7738.44
408.673	7536.44
408.896	7778.44
409.12	7928.44
409.344	7441.44
409.567	6950.44
409.791	7049.44
410.014	7036.44
410.238	6948.44
410.461	6871.44
410.685	6995.44
410.908	7064.44
411.132	7376.44
411.355	7312.44
411.578	6985.44
411.802	6729.44
412.025	6683.44
412.249	6775.44
412.472	6734.44
412.695	6686.44
412.919	6488.44
413.142	6335.44
413.365	6400.44
413.589	6480.44
413.812	6292.44
414.035	6204.44
414.258	6257.44
414.482	6339.44
414.705	6306.44
414.928	6338.44
415.151	6339.44
415.374	6373.44
415.597	6287.44
415.821	6260.44
416.044	6193.44
416.267	6192.44
416.49	6197.44
416.713	6190.44
416.936	6152.44
417.159	6188.44
417.382	6295.44
417.605	6210.44
417.828	6393.44
418.051	6577.44
418.274	6478.44
418.497	6425.44
418.72	6579.44
418.943	6421.44
419.166	6847.44
419.389	7252.44
419.611	7120.44
419.834	6842.44
420.057	6686.44
420.28	6511.44
420.503	6324.44
420.726	6423.44
420.948	6542.44
421.171	6993.44
421.394	6926.44
421.617	6558.44
421.839	6486.44
422.062	6533.44
422.285	6744.44
422.507	7498.44
422.73	7908.44
422.953	7259.44
423.175	6949.44
423.398	6950.44
423.621	6964.44
423.843	7279.44
424.066	7198.44
424.288	7066.44
424.511	7240.44
424.733	7728.44
424.956	8254.44
425.178	7639.44
425.401	7886.44
425.623	7858.44
425.846	6766.44
426.068	6597.44
426.291	6551.44
426.513	6506.44
426.735	6581.44
426.958	7086.44
427.18	7928.44
427.402	9104.44
427.625	9075.44
427.847	7565.44
428.069	6749.44
428.292	6407.44
428.514	6015.44
428.736	6015.44
428.958	5953.44
429.181	5769.44
429.403	5800.44
429.625	6003.44
429.847	6286.44
430.069	6899.44
430.292	6412.44
430.514	5788.44
430.736	5780.44
430.958	5742.44
431.18	5586.44
431.402	5691.44
431.624	5596.44
431.846	5724.44
432.068	5672.44
432.29	5845.44
432.512	5632.44
432.734	5794.44
432.956	5734.44
433.178	5885.44
433.4	5743.44
433.622	5710.44
433.844	5727.44
434.066	5765.44
434.287	5840.44
434.509	6087.44
434.731	6356.44
434.953	6422.44
435.175	6593.44
435.397	6775.44
435.618	6599.44
435.84	6949.44
436.062	7852.44
436.284	7704.44
436.505	6521.44
436.727	6269.44
436.949	6009.44
437.17	5859.44
437.392	5773.44
437.614	5900.44
437.835	6327.44
438.057	7372.44
438.278	7984.44
438.5	7905.44
438.721	8710.44
438.943	7604.44
439.165	6460.44
439.386	6206.44
439.608	6285.44
439.829	6353.44
440.05	6675.44
440.272	7038.44
440.493	6455.44
440.715	6136.44
440.936	6116.44
441.158	6111.44
441.379	6199.44
441.6	6556.44
441.822	6833.44
442.043	7340.44
442.264	8172.44
442.486	7749.44
442.707	6860.44
442.928	6724.44
443.149	6937.44
443.371	7160.44
443.592	7690.44
443.813	8704.44
444.034	8608.44
444.255	7537.44
444.476	7305.44
444.698	7494.44
444.919	7582.44
445.14	7438.44
445.361	7197.44
445.582	7447.44
445.803	7926.44
446.024	8696.44
446.245	8262.44
446.466	7440.44
446.687	6490.44
446.908	6102.44
447.129	5819.44
447.35	5704.44
447.571	5637.44
447.792	5521.44
448.013	5680.44
448.234	5856.44
448.455	6469.44
448.675	7719.44
448.896	8266.44
449.117	6792.44
449.338	6976.44
449.559	8433.44
449.779	8508.44
450	6484.44
450.221	5763.44
450.442	5541.44
450.662	5523.44
450.883	5593.44
451.104	5637.44
451.324	5485.44
451.545	5310.44
451.766	5169.44
451.986	5109.44
452.207	5124.44
452.428	4977.44
452.648	5105.44
452.869	5044.44
453.089	5158.44
453.31	5281.44
453.53	5048.44
453.751	5039.44
453.971	5067.44
454.192	5201.44
454.412	4949.44
454.633	4916.44
454.853	4850.44
455.073	4996.44
455.294	5353.44
455.514	5958.44
455.734	5380.44
455.955	4807.44
456.175	4733.44
456.395	4615.44
456.616	4679.44
456.836	4645.44
457.056	4589.44
457.276	4554.44
457.497	4730.44
457.717	4689.44
457.937	4762.44
458.157	4848.44
458.377	4946.44
458.598	5265.44
458.818	5961.44
459.038	6748.44
459.258	6578.44
459.478	5929.44
459.698	5735.44
459.918	5800.44
460.138	6028.44
460.358	6203.44
460.578	6337.44
460.798	6326.44
461.018	6297.44
461.238	6160.44
461.458	6145.44
461.678	6093.44
461.898	6351.44
462.118	6319.44
462.338	6686.44
462.558	6668.44
462.777	7086.44
462.997	7612.44
463.217	8048.44
463.437	7864.44
463.657	7234.44
463.876	7068.44
464.096	7057.44
464.316	7031.44
464.536	7088.44
464.755	6950.44
464.975	6814.44
465.195	6909.44
465.414	6932.44
465.634	6121.44
465.854	5821.44
466.073	5656.44
466.293	5424.44
466.512	5275.44
466.732	5160.44
466.951	5194.44
467.171	5180.44
467.391	5309.44
467.61	5320.44
467.829	5224.44
468.049	5151.44
468.268	4976.44
468.488	5006.44
468.707	4912.44
468.927	4906.44
469.146	4978.44
469.365	5070.44
469.585	5029.44
469.804	5192.44
470.023	5405.44
470.243	5260.44
470.462	5499.44
470.681	5578.44
470.901	5448.44
471.12	5273.44
471.339	5240.44
471.558	5249.44
471.777	5127.44
471.997	5022.44
472.216	5013.44
472.435	4997.44
472.654	4918.44
472.873	4904.44
473.092	4863.44
473.311	4894.44
473.53	4981.44
473.749	5108.44
473.968	5666.44
474.187	6716.44
474.406	6285.44
474.625	5325.44
474.844	5023.44
475.063	4970.44
475.282	5030.44
475.501	5031.44
475.72	5062.44
475.939	5048.44
476.158	5167.44
476.377	5107.44
476.596	5163.44
476.814	5372.44
477.033	5346.44
477.252	5382.44
477.471	5504.44
477.69	5621.44
477.908	5708.44
478.127	5829.44
478.346	5953.44
478.564	6020.44
478.783	6094.44
479.002	6270.44
479.22	6310.44
479.439	6314.44
479.658	6383.44
479.876	6456.44
480.095	6759.44
480.313	7053.44
480.532	6954.44
480.751	6767.44
480.969	6695.44
481.188	6619.44
481.406	6436.44
481.624	6166.44
481.843	6047.44
482.061	5916.44
482.28	5893.44
482.498	5778.44
482.717	5802.44
482.935	5826.44
483.153	5768.44
483.372	5849.44
483.59	5743.44
483.808	5768.44
484.027	5849.44
484.245	5800.44
484.463	5829.44
484.681	5973.44
484.9	6042.44
485.118	6030.44
485.336	6063.44
485.554	6134.44
485.772	6240.44
485.99	6163.44
486.209	6270.44
486.427	6244.44
486.645	6313.44
486.863	6484.44
487.081	6333.44
487.299	6278.44
487.517	6271.44
487.735	6284.44
487.953	6144.44
