Data from Uncirc_1986_H10_HRD10591_00070.txt Node
Date: Wed Jan 03 12:14:40 EST 2024
User: Yrep
Spectrometer: HR+D1059
Trigger mode: 1
Integration Time (sec): 1.000000E-1
Scans to average: 1
Electric dark correction enabled: true
Nonlinearity correction enabled: false
Boxcar width: 0
XAxis mode: Wavelengths
Number of Pixels in Spectrum: 2048
>>>>>Begin Spectral Data<<<<<
223.165	-27.69
223.4	-27.69
223.635	-27.69
223.869	-16.69
224.104	-20.69
224.338	-8.69
224.573	-25.69
224.808	-6.69
225.042	-13.69
225.277	-1.69
225.511	-4.69
225.746	2.31
225.98	7.31
226.215	11.31
226.449	14.31
226.683	33.31
226.918	26.31
227.152	31.31
227.387	37.31
227.621	43.31
227.856	48.31
228.09	43.31
228.324	53.31
228.559	63.31
228.793	56.31
229.027	63.31
229.262	57.31
229.496	69.31
229.73	83.31
229.964	70.31
230.199	72.31
230.433	64.31
230.667	74.31
230.901	77.31
231.136	71.31
231.37	74.31
231.604	77.31
231.838	83.31
232.072	85.31
232.306	83.31
232.541	81.31
232.775	86.31
233.009	88.31
233.243	76.31
233.477	79.31
233.711	83.31
233.945	83.31
234.179	78.31
234.413	75.31
234.647	77.31
234.881	67.31
235.115	81.31
235.349	84.31
235.583	85.31
235.817	79.31
236.051	78.31
236.285	65.31
236.519	77.31
236.753	78.31
236.987	72.31
237.221	82.31
237.455	68.31
237.689	68.31
237.922	68.31
238.156	80.31
238.39	71.31
238.624	68.31
238.858	80.31
239.091	76.31
239.325	62.31
239.559	79.31
239.793	73.31
240.027	92.31
240.26	85.31
240.494	79.31
240.728	77.31
240.961	57.31
241.195	77.31
241.429	67.31
241.662	89.31
241.896	72.31
242.13	77.31
242.363	67.31
242.597	85.31
242.83	66.31
243.064	84.31
243.298	68.31
243.531	71.31
243.765	83.31
243.998	73.31
244.232	79.31
244.465	89.31
244.699	77.31
244.932	77.31
245.166	81.31
245.399	77.31
245.633	67.31
245.866	73.31
246.099	81.31
246.333	82.31
246.566	65.31
246.8	80.31
247.033	65.31
247.266	93.31
247.5	93.31
247.733	70.31
247.966	78.31
248.2	73.31
248.433	93.31
248.666	77.31
248.899	71.31
249.133	79.31
249.366	88.31
249.599	97.31
249.832	75.31
250.066	70.31
250.299	77.31
250.532	70.31
250.765	82.31
250.998	84.31
251.231	81.31
251.465	90.31
251.698	85.31
251.931	73.31
252.164	71.31
252.397	70.31
252.63	81.31
252.863	88.31
253.096	75.31
253.329	86.31
253.562	80.31
253.795	78.31
254.028	80.31
254.261	81.31
254.494	77.31
254.727	63.31
254.96	85.31
255.193	90.31
255.426	79.31
255.659	67.31
255.892	83.31
256.124	60.31
256.357	85.31
256.59	85.31
256.823	83.31
257.056	70.31
257.289	66.31
257.521	72.31
257.754	84.31
257.987	68.31
258.22	95.31
258.452	83.31
258.685	77.31
258.918	78.31
259.151	67.31
259.383	85.31
259.616	87.31
259.849	71.31
260.081	85.31
260.314	85.31
260.547	77.31
260.779	83.31
261.012	80.31
261.244	80.31
261.477	88.31
261.71	77.31
261.942	102.31
262.175	97.31
262.407	84.31
262.64	89.31
262.872	85.31
263.105	93.31
263.337	71.31
263.57	79.31
263.802	87.31
264.035	70.31
264.267	67.31
264.499	79.31
264.732	81.31
264.964	78.31
265.197	77.31
265.429	81.31
265.661	81.31
265.894	84.31
266.126	75.31
266.358	83.31
266.591	91.31
266.823	90.31
267.055	79.31
267.287	71.31
267.52	74.31
267.752	76.31
267.984	99.31
268.216	72.31
268.448	71.31
268.681	77.31
268.913	93.31
269.145	86.31
269.377	83.31
269.609	86.31
269.841	89.31
270.073	87.31
270.306	85.31
270.538	83.31
270.77	102.31
271.002	87.31
271.234	88.31
271.466	88.31
271.698	86.31
271.93	102.31
272.162	96.31
272.394	89.31
272.626	98.31
272.858	95.31
273.09	95.31
273.322	82.31
273.553	86.31
273.785	90.31
274.017	90.31
274.249	89.31
274.481	79.31
274.713	93.31
274.945	93.31
275.176	94.31
275.408	91.31
275.64	86.31
275.872	89.31
276.104	85.31
276.335	89.31
276.567	87.31
276.799	120.31
277.031	103.31
277.262	91.31
277.494	85.31
277.726	86.31
277.957	81.31
278.189	85.31
278.421	71.31
278.652	89.31
278.884	75.31
279.115	75.31
279.347	72.31
279.579	74.31
279.81	79.31
280.042	90.31
280.273	84.31
280.505	86.31
280.736	69.31
280.968	91.31
281.199	87.31
281.431	102.31
281.662	81.31
281.894	89.31
282.125	85.31
282.356	113.31
282.588	143.31
282.819	115.31
283.051	89.31
283.282	72.31
283.513	85.31
283.745	80.31
283.976	90.31
284.207	77.31
284.439	80.31
284.67	90.31
284.901	89.31
285.132	83.31
285.364	85.31
285.595	84.31
285.826	92.31
286.057	93.31
286.288	71.31
286.52	85.31
286.751	94.31
286.982	88.31
287.213	86.31
287.444	83.31
287.675	85.31
287.906	84.31
288.138	81.31
288.369	89.31
288.6	93.31
288.831	79.31
289.062	94.31
289.293	89.31
289.524	87.31
289.755	93.31
289.986	83.31
290.217	90.31
290.448	84.31
290.679	100.31
290.91	91.31
291.141	93.31
291.371	85.31
291.602	79.31
291.833	71.31
292.064	82.31
292.295	95.31
292.526	85.31
292.757	84.31
292.987	77.31
293.218	81.31
293.449	78.31
293.68	87.31
293.91	93.31
294.141	88.31
294.372	74.31
294.603	83.31
294.833	86.31
295.064	84.31
295.295	90.31
295.525	87.31
295.756	95.31
295.987	111.31
296.217	138.31
296.448	111.31
296.679	96.31
296.909	102.31
297.14	91.31
297.37	97.31
297.601	84.31
297.831	95.31
298.062	100.31
298.292	88.31
298.523	95.31
298.753	89.31
298.984	73.31
299.214	77.31
299.445	93.31
299.675	84.31
299.905	84.31
300.136	89.31
300.366	92.31
300.597	90.31
300.827	100.31
301.057	99.31
301.288	89.31
301.518	90.31
301.748	74.31
301.979	96.31
302.209	83.31
302.439	87.31
302.669	96.31
302.9	93.31
303.13	110.31
303.36	101.31
303.59	100.31
303.82	105.31
304.051	109.31
304.281	94.31
304.511	89.31
304.741	75.31
304.971	86.31
305.201	99.31
305.431	87.31
305.661	83.31
305.891	97.31
306.121	97.31
306.352	100.31
306.582	89.31
306.812	100.31
307.042	87.31
307.272	76.31
307.502	88.31
307.731	93.31
307.961	101.31
308.191	77.31
308.421	74.31
308.651	89.31
308.881	95.31
309.111	94.31
309.341	90.31
309.571	94.31
309.8	83.31
310.03	84.31
310.26	101.31
310.49	93.31
310.72	88.31
310.949	101.31
311.179	107.31
311.409	90.31
311.639	83.31
311.868	104.31
312.098	89.31
312.328	108.31
312.557	97.31
312.787	114.31
313.017	110.31
313.246	92.31
313.476	99.31
313.706	80.31
313.935	98.31
314.165	101.31
314.394	102.31
314.624	99.31
314.853	84.31
315.083	88.31
315.312	88.31
315.542	81.31
315.771	89.31
316.001	95.31
316.23	90.31
316.46	89.31
316.689	89.31
316.919	94.31
317.148	92.31
317.377	90.31
317.607	91.31
317.836	98.31
318.065	81.31
318.295	89.31
318.524	86.31
318.753	97.31
318.983	81.31
319.212	80.31
319.441	100.31
319.67	105.31
319.9	93.31
320.129	93.31
320.358	89.31
320.587	94.31
320.816	100.31
321.046	100.31
321.275	101.31
321.504	87.31
321.733	91.31
321.962	95.31
322.191	100.31
322.42	102.31
322.649	97.31
322.878	99.31
323.108	107.31
323.337	107.31
323.566	118.31
323.795	144.31
324.024	193.31
324.253	344.31
324.482	724.31
324.71	1426.31
324.939	1924.31
325.168	724.31
325.397	223.31
325.626	148.31
325.855	114.31
326.084	114.31
326.313	107.31
326.542	151.31
326.77	197.31
326.999	377.31
327.228	823.31
327.457	1458.31
327.686	1176.31
327.914	337.31
328.143	191.31
328.372	145.31
328.6	120.31
328.829	127.31
329.058	123.31
329.287	104.31
329.515	86.31
329.744	101.31
329.972	95.31
330.201	116.31
330.43	103.31
330.658	117.31
330.887	136.31
331.115	109.31
331.344	97.31
331.572	92.31
331.801	112.31
332.03	100.31
332.258	86.31
332.486	85.31
332.715	87.31
332.943	106.31
333.172	82.31
333.4	86.31
333.629	98.31
333.857	109.31
334.085	102.31
334.314	98.31
334.542	105.31
334.771	106.31
334.999	103.31
335.227	94.31
335.455	102.31
335.684	92.31
335.912	86.31
336.14	91.31
336.369	95.31
336.597	104.31
336.825	101.31
337.053	92.31
337.281	94.31
337.51	95.31
337.738	95.31
337.966	94.31
338.194	97.31
338.422	83.31
338.65	102.31
338.878	96.31
339.106	97.31
339.334	98.31
339.562	87.31
339.79	109.31
340.018	90.31
340.246	105.31
340.474	94.31
340.702	86.31
340.93	105.31
341.158	96.31
341.386	73.31
341.614	93.31
341.842	80.31
342.07	88.31
342.298	99.31
342.526	92.31
342.754	89.31
342.981	84.31
343.209	93.31
343.437	98.31
343.665	89.31
343.893	80.31
344.12	103.31
344.348	83.31
344.576	106.31
344.804	87.31
345.031	95.31
345.259	94.31
345.487	80.31
345.714	99.31
345.942	101.31
346.17	97.31
346.397	110.31
346.625	102.31
346.853	89.31
347.08	97.31
347.308	78.31
347.535	88.31
347.763	87.31
347.99	106.31
348.218	110.31
348.445	93.31
348.673	92.31
348.9	109.31
349.128	87.31
349.355	88.31
349.583	102.31
349.81	101.31
350.037	88.31
350.265	97.31
350.492	97.31
350.72	93.31
350.947	96.31
351.174	113.31
351.402	108.31
351.629	100.31
351.856	104.31
352.083	108.31
352.311	114.31
352.538	90.31
352.765	102.31
352.992	117.31
353.22	109.31
353.447	111.31
353.674	100.31
353.901	106.31
354.128	92.31
354.355	85.31
354.583	100.31
354.81	90.31
355.037	103.31
355.264	101.31
355.491	97.31
355.718	93.31
355.945	100.31
356.172	92.31
356.399	90.31
356.626	87.31
356.853	99.31
357.08	91.31
357.307	95.31
357.534	94.31
357.761	86.31
357.988	87.31
358.215	90.31
358.441	94.31
358.668	85.31
358.895	85.31
359.122	95.31
359.349	93.31
359.576	97.31
359.802	105.31
360.029	113.31
360.256	99.31
360.483	91.31
360.709	82.31
360.936	90.31
361.163	89.31
361.39	102.31
361.616	89.31
361.843	82.31
362.07	91.31
362.296	98.31
362.523	93.31
362.749	82.31
362.976	93.31
363.203	109.31
363.429	78.31
363.656	90.31
363.882	106.31
364.109	85.31
364.335	93.31
364.562	82.31
364.788	79.31
365.015	93.31
365.241	83.31
365.468	106.31
365.694	98.31
365.92	97.31
366.147	82.31
366.373	86.31
366.599	93.31
366.826	93.31
367.052	90.31
367.278	96.31
367.505	93.31
367.731	83.31
367.957	75.31
368.184	115.31
368.41	87.31
368.636	103.31
368.862	106.31
369.089	99.31
369.315	87.31
369.541	83.31
369.767	83.31
369.993	86.31
370.219	92.31
370.445	78.31
370.672	90.31
370.898	104.31
371.124	85.31
371.35	99.31
371.576	74.31
371.802	85.31
372.028	87.31
372.254	85.31
372.48	83.31
372.706	91.31
372.932	89.31
373.158	79.31
373.384	85.31
373.61	80.31
373.835	87.31
374.061	83.31
374.287	98.31
374.513	79.31
374.739	88.31
374.965	100.31
375.191	85.31
375.416	80.31
375.642	83.31
375.868	102.31
376.094	103.31
376.319	85.31
376.545	96.31
376.771	94.31
376.997	87.31
377.222	89.31
377.448	93.31
377.674	88.31
377.899	98.31
378.125	84.31
378.35	96.31
378.576	91.31
378.802	81.31
379.027	77.31
379.253	90.31
379.478	93.31
379.704	85.31
379.929	81.31
380.155	94.31
380.38	103.31
380.606	94.31
380.831	91.31
381.057	96.31
381.282	87.31
381.507	86.31
381.733	100.31
381.958	84.31
382.184	92.31
382.409	97.31
382.634	107.31
382.86	93.31
383.085	102.31
383.31	100.31
383.535	98.31
383.761	96.31
383.986	94.31
384.211	97.31
384.436	96.31
384.662	107.31
384.887	81.31
385.112	102.31
385.337	87.31
385.562	102.31
385.787	98.31
386.013	88.31
386.238	99.31
386.463	99.31
386.688	94.31
386.913	95.31
387.138	97.31
387.363	100.31
387.588	85.31
387.813	86.31
388.038	95.31
388.263	93.31
388.488	106.31
388.713	111.31
388.938	98.31
389.163	89.31
389.387	74.31
389.612	101.31
389.837	105.31
390.062	106.31
390.287	96.31
390.512	101.31
390.736	84.31
390.961	70.31
391.186	90.31
391.411	86.31
391.636	95.31
391.86	86.31
392.085	90.31
392.31	88.31
392.534	85.31
392.759	77.31
392.984	73.31
393.208	88.31
393.433	90.31
393.658	90.31
393.882	74.31
394.107	86.31
394.331	87.31
394.556	84.31
394.78	88.31
395.005	81.31
395.229	84.31
395.454	89.31
395.678	99.31
395.903	90.31
396.127	101.31
396.352	97.31
396.576	87.31
396.801	83.31
397.025	89.31
397.249	81.31
397.474	87.31
397.698	93.31
397.922	96.31
398.147	83.31
398.371	72.31
398.595	86.31
398.82	70.31
399.044	86.31
399.268	86.31
399.492	72.31
399.717	100.31
399.941	98.31
400.165	98.31
400.389	86.31
400.613	86.31
400.837	95.31
401.062	93.31
401.286	92.31
401.51	79.31
401.734	88.31
401.958	93.31
402.182	118.31
402.406	149.31
402.63	104.31
402.854	91.31
403.078	77.31
403.302	97.31
403.526	101.31
403.75	93.31
403.974	90.31
404.198	93.31
404.422	88.31
404.645	89.31
404.869	91.31
405.093	91.31
405.317	89.31
405.541	97.31
405.765	100.31
405.988	110.31
406.212	179.31
406.436	190.31
406.66	132.31
406.883	91.31
407.107	84.31
407.331	88.31
407.555	105.31
407.778	99.31
408.002	101.31
408.226	86.31
408.449	80.31
408.673	87.31
408.896	96.31
409.12	97.31
409.344	95.31
409.567	78.31
409.791	79.31
410.014	78.31
410.238	93.31
410.461	97.31
410.685	99.31
410.908	101.31
411.132	107.31
411.355	91.31
411.578	81.31
411.802	98.31
412.025	95.31
412.249	72.31
412.472	98.31
412.695	95.31
412.919	83.31
413.142	101.31
413.365	89.31
413.589	87.31
413.812	93.31
414.035	89.31
414.258	98.31
414.482	90.31
414.705	83.31
414.928	86.31
415.151	105.31
415.374	75.31
415.597	89.31
415.821	85.31
416.044	95.31
416.267	77.31
416.49	83.31
416.713	93.31
416.936	86.31
417.159	101.31
417.382	81.31
417.605	92.31
417.828	92.31
418.051	89.31
418.274	99.31
418.497	92.31
418.72	89.31
418.943	81.31
419.166	90.31
419.389	99.31
419.611	103.31
419.834	87.31
420.057	95.31
420.28	83.31
420.503	80.31
420.726	74.31
420.948	90.31
421.171	99.31
421.394	98.31
421.617	86.31
421.839	90.31
422.062	91.31
422.285	94.31
422.507	94.31
422.73	101.31
422.953	88.31
423.175	79.31
423.398	89.31
423.621	81.31
423.843	82.31
424.066	91.31
424.288	78.31
424.511	79.31
424.733	82.31
424.956	99.31
425.178	82.31
425.401	87.31
425.623	91.31
425.846	79.31
426.068	93.31
426.291	83.31
426.513	98.31
426.735	93.31
426.958	81.31
427.18	110.31
427.402	131.31
427.625	147.31
427.847	115.31
428.069	98.31
428.292	101.31
428.514	92.31
428.736	70.31
428.958	75.31
429.181	99.31
429.403	79.31
429.625	84.31
429.847	86.31
430.069	90.31
430.292	85.31
430.514	81.31
430.736	82.31
430.958	88.31
431.18	86.31
431.402	97.31
431.624	94.31
431.846	92.31
432.068	81.31
432.29	97.31
432.512	70.31
432.734	89.31
432.956	104.31
433.178	94.31
433.4	94.31
433.622	100.31
433.844	85.31
434.066	81.31
434.287	90.31
434.509	78.31
434.731	79.31
434.953	105.31
435.175	98.31
435.397	93.31
435.618	98.31
435.84	106.31
436.062	107.31
436.284	116.31
436.505	95.31
436.727	91.31
436.949	93.31
437.17	73.31
437.392	83.31
437.614	101.31
437.835	94.31
438.057	105.31
438.278	98.31
438.5	123.31
438.721	111.31
438.943	88.31
439.165	84.31
439.386	88.31
439.608	88.31
439.829	97.31
440.05	104.31
440.272	130.31
440.493	97.31
440.715	82.31
440.936	81.31
441.158	90.31
441.379	68.31
441.6	81.31
441.822	102.31
442.043	81.31
442.264	104.31
442.486	88.31
442.707	90.31
442.928	103.31
443.149	113.31
443.371	123.31
443.592	97.31
443.813	111.31
444.034	101.31
444.255	81.31
444.476	81.31
444.698	91.31
444.919	92.31
445.14	126.31
445.361	115.31
445.582	110.31
445.803	130.31
446.024	130.31
446.245	120.31
446.466	114.31
446.687	88.31
446.908	93.31
447.129	82.31
447.35	81.31
447.571	88.31
447.792	85.31
448.013	87.31
448.234	103.31
448.455	102.31
448.675	118.31
448.896	120.31
449.117	105.31
449.338	106.31
449.559	130.31
449.779	122.31
450	107.31
450.221	88.31
450.442	85.31
450.662	90.31
450.883	95.31
451.104	90.31
451.324	90.31
451.545	74.31
451.766	82.31
451.986	81.31
452.207	71.31
452.428	69.31
452.648	88.31
452.869	117.31
453.089	111.31
453.31	117.31
453.53	94.31
453.751	88.31
453.971	87.31
454.192	97.31
454.412	107.31
454.633	81.31
454.853	89.31
455.073	92.31
455.294	103.31
455.514	97.31
455.734	74.31
455.955	85.31
456.175	90.31
456.395	95.31
456.616	85.31
456.836	87.31
457.056	89.31
457.276	95.31
457.497	96.31
457.717	82.31
457.937	85.31
458.157	87.31
458.377	98.31
458.598	112.31
458.818	134.31
459.038	141.31
459.258	119.31
459.478	95.31
459.698	70.31
459.918	98.31
460.138	95.31
460.358	92.31
460.578	89.31
460.798	81.31
461.018	89.31
461.238	82.31
461.458	98.31
461.678	67.31
461.898	93.31
462.118	91.31
462.338	95.31
462.558	92.31
462.777	97.31
462.997	88.31
463.217	90.31
463.437	81.31
463.657	80.31
463.876	88.31
464.096	73.31
464.316	86.31
464.536	89.31
464.755	97.31
464.975	101.31
465.195	145.31
465.414	148.31
465.634	88.31
465.854	77.31
466.073	87.31
466.293	88.31
466.512	89.31
466.732	93.31
466.951	102.31
467.171	75.31
467.391	98.31
467.61	83.31
467.829	85.31
468.049	89.31
468.268	85.31
468.488	102.31
468.707	87.31
468.927	70.31
469.146	81.31
469.365	98.31
469.585	94.31
469.804	102.31
470.023	96.31
470.243	81.31
470.462	94.31
470.681	106.31
470.901	95.31
471.12	91.31
471.339	89.31
471.558	89.31
471.777	70.31
471.997	101.31
472.216	94.31
472.435	110.31
472.654	91.31
472.873	98.31
473.092	83.31
473.311	74.31
473.53	80.31
473.749	81.31
473.968	84.31
474.187	101.31
474.406	102.31
474.625	80.31
474.844	102.31
475.063	68.31
475.282	96.31
475.501	93.31
475.72	96.31
475.939	69.31
476.158	98.31
476.377	87.31
476.596	73.31
476.814	91.31
477.033	94.31
477.252	90.31
477.471	91.31
477.69	78.31
477.908	87.31
478.127	100.31
478.346	94.31
478.564	103.31
478.783	102.31
479.002	87.31
479.22	97.31
479.439	111.31
479.658	103.31
479.876	108.31
480.095	92.31
480.313	86.31
480.532	89.31
480.751	111.31
480.969	91.31
481.188	114.31
481.406	103.31
481.624	97.31
481.843	79.31
482.061	79.31
482.28	84.31
482.498	81.31
482.717	86.31
482.935	85.31
483.153	72.31
483.372	95.31
483.59	87.31
483.808	74.31
484.027	76.31
484.245	82.31
484.463	93.31
484.681	94.31
484.9	105.31
485.118	102.31
485.336	105.31
485.554	97.31
485.772	109.31
485.99	95.31
486.209	107.31
486.427	106.31
486.645	105.31
486.863	121.31
487.081	109.31
487.299	97.31
487.517	96.31
487.735	111.31
487.953	91.31
488.171	97.31
488.389	80.31
488.607	97.31
488.825	87.31
489.043	90.31
489.261	88.31
489.479	110.31
489.696	93.31
489.914	91.31
490.132	81.31
490.35	83.31
490.568	86.31
490.786	85.31
491.003	87.31
491.221	89.31
491.439	94.31
491.657	95.31
491.874	94.31
492.092	96.31
492.31	95.31
492.527	91.31
492.745	94.31
492.963	101.31
493.18	81.31
493.398	85.31
493.615	94.31
493.833	104.31
494.05	100.31
494.268	86.31
494.485	100.31
494.703	98.31
494.92	83.31
495.138	85.31
495.355	93.31
495.573	84.31
495.79	78.31
496.008	101.31
496.225	113.31
496.442	92.31
496.66	84.31
496.877	82.31
497.094	97.31
497.312	97.31
497.529	93.31
497.746	104.31
497.963	101.31
498.181	91.31
498.398	85.31
498.615	96.31
498.832	93.31
499.049	99.31
499.267	106.31
499.484	66.31
499.701	99.31
499.918	104.31
500.135	98.31
500.352	98.31
500.569	91.31
500.786	104.31
501.003	85.31
501.22	82.31
501.437	87.31
501.654	109.31
501.871	111.31
502.088	93.31
502.305	93.31
502.522	84.31
502.739	96.31
502.956	89.31
503.172	93.31
503.389	105.31
503.606	107.31
503.823	98.31
504.04	95.31
504.256	95.31
504.473	98.31
504.69	89.31
504.907	101.31
505.123	95.31
505.34	109.31
505.557	80.31
505.773	78.31
505.99	75.31
506.207	101.31
506.423	73.31
506.64	79.31
506.856	81.31
507.073	100.31
507.289	96.31
507.506	94.31
507.722	111.31
507.939	105.31
508.155	88.31
508.372	94.31
508.588	95.31
508.805	96.31
509.021	110.31
509.238	95.31
509.454	97.31
509.67	95.31
509.887	122.31
510.103	139.31
510.319	184.31
510.536	665.31
510.752	2069.31
510.968	584.31
511.184	148.31
511.401	120.31
511.617	101.31
511.833	100.31
512.049	100.31
512.265	90.31
512.481	101.31
512.698	85.31
512.914	97.31
513.13	97.31
513.346	100.31
513.562	83.31
513.778	90.31
513.994	98.31
514.21	99.31
514.426	109.31
514.642	122.31
514.858	118.31
515.074	155.31
515.29	389.31
515.506	1282.31
515.721	487.31
515.937	141.31
