Data from Uncirc_1986_H10_HRD10591_00024.txt Node
Date: Wed Jan 03 12:14:31 EST 2024
User: Yrep
Spectrometer: HR+D1059
Trigger mode: 1
Integration Time (sec): 1.000000E-1
Scans to average: 1
Electric dark correction enabled: true
Nonlinearity correction enabled: false
Boxcar width: 0
XAxis mode: Wavelengths
Number of Pixels in Spectrum: 2048
>>>>>Begin Spectral Data<<<<<
223.165	-23.88
223.4	-23.88
223.635	-23.88
223.869	-7.88
224.104	-14.88
224.338	-2.88
224.573	-25.88
224.808	-12.88
225.042	-7.88
225.277	-0.88
225.511	3.12
225.746	-0.88
225.98	-8.88
226.215	4.12
226.449	7.12
226.683	27.12
226.918	27.12
227.152	38.12
227.387	36.12
227.621	49.12
227.856	42.12
228.09	52.12
228.324	62.12
228.559	58.12
228.793	57.12
229.027	65.12
229.262	68.12
229.496	72.12
229.73	71.12
229.964	82.12
230.199	72.12
230.433	76.12
230.667	79.12
230.901	74.12
231.136	87.12
231.37	72.12
231.604	68.12
231.838	70.12
232.072	79.12
232.306	85.12
232.541	91.12
232.775	90.12
233.009	80.12
233.243	71.12
233.477	81.12
233.711	69.12
233.945	77.12
234.179	91.12
234.413	85.12
234.647	66.12
234.881	84.12
235.115	87.12
235.349	77.12
235.583	80.12
235.817	82.12
236.051	88.12
236.285	95.12
236.519	83.12
236.753	86.12
236.987	98.12
237.221	78.12
237.455	74.12
237.689	81.12
237.922	89.12
238.156	69.12
238.39	75.12
238.624	80.12
238.858	89.12
239.091	83.12
239.325	81.12
239.559	80.12
239.793	85.12
240.027	75.12
240.26	70.12
240.494	69.12
240.728	61.12
240.961	87.12
241.195	91.12
241.429	88.12
241.662	76.12
241.896	85.12
242.13	79.12
242.363	67.12
242.597	77.12
242.83	80.12
243.064	90.12
243.298	69.12
243.531	66.12
243.765	77.12
243.998	80.12
244.232	84.12
244.465	72.12
244.699	92.12
244.932	75.12
245.166	71.12
245.399	94.12
245.633	91.12
245.866	44.12
246.099	75.12
246.333	87.12
246.566	83.12
246.8	70.12
247.033	75.12
247.266	68.12
247.5	76.12
247.733	69.12
247.966	81.12
248.2	75.12
248.433	89.12
248.666	80.12
248.899	77.12
249.133	75.12
249.366	89.12
249.599	95.12
249.832	83.12
250.066	79.12
250.299	84.12
250.532	87.12
250.765	83.12
250.998	79.12
251.231	71.12
251.465	68.12
251.698	76.12
251.931	73.12
252.164	74.12
252.397	92.12
252.63	77.12
252.863	78.12
253.096	73.12
253.329	88.12
253.562	76.12
253.795	88.12
254.028	87.12
254.261	81.12
254.494	79.12
254.727	89.12
254.96	72.12
255.193	85.12
255.426	84.12
255.659	101.12
255.892	79.12
256.124	81.12
256.357	62.12
256.59	70.12
256.823	75.12
257.056	77.12
257.289	59.12
257.521	88.12
257.754	90.12
257.987	81.12
258.22	90.12
258.452	99.12
258.685	96.12
258.918	75.12
259.151	89.12
259.383	88.12
259.616	72.12
259.849	81.12
260.081	76.12
260.314	77.12
260.547	86.12
260.779	81.12
261.012	96.12
261.244	81.12
261.477	82.12
261.71	91.12
261.942	101.12
262.175	115.12
262.407	88.12
262.64	74.12
262.872	101.12
263.105	99.12
263.337	81.12
263.57	73.12
263.802	91.12
264.035	80.12
264.267	95.12
264.499	83.12
264.732	86.12
264.964	87.12
265.197	91.12
265.429	84.12
265.661	81.12
265.894	78.12
266.126	90.12
266.358	84.12
266.591	80.12
266.823	97.12
267.055	83.12
267.287	85.12
267.52	93.12
267.752	109.12
267.984	89.12
268.216	82.12
268.448	71.12
268.681	87.12
268.913	79.12
269.145	80.12
269.377	84.12
269.609	87.12
269.841	90.12
270.073	101.12
270.306	92.12
270.538	100.12
270.77	79.12
271.002	74.12
271.234	85.12
271.466	67.12
271.698	91.12
271.93	87.12
272.162	92.12
272.394	87.12
272.626	71.12
272.858	77.12
273.09	88.12
273.322	82.12
273.553	85.12
273.785	100.12
274.017	81.12
274.249	81.12
274.481	81.12
274.713	95.12
274.945	81.12
275.176	97.12
275.408	97.12
275.64	95.12
275.872	75.12
276.104	79.12
276.335	83.12
276.567	86.12
276.799	93.12
277.031	100.12
277.262	75.12
277.494	83.12
277.726	75.12
277.957	81.12
278.189	94.12
278.421	83.12
278.652	86.12
278.884	88.12
279.115	83.12
279.347	83.12
279.579	74.12
279.81	89.12
280.042	90.12
280.273	85.12
280.505	79.12
280.736	76.12
280.968	83.12
281.199	83.12
281.431	70.12
281.662	87.12
281.894	91.12
282.125	101.12
282.356	114.12
282.588	137.12
282.819	117.12
283.051	82.12
283.282	75.12
283.513	70.12
283.745	86.12
283.976	84.12
284.207	91.12
284.439	92.12
284.67	92.12
284.901	93.12
285.132	80.12
285.364	75.12
285.595	106.12
285.826	87.12
286.057	85.12
286.288	82.12
286.52	75.12
286.751	80.12
286.982	80.12
287.213	94.12
287.444	93.12
287.675	86.12
287.906	99.12
288.138	88.12
288.369	98.12
288.6	98.12
288.831	84.12
289.062	96.12
289.293	80.12
289.524	72.12
289.755	92.12
289.986	95.12
290.217	79.12
290.448	98.12
290.679	90.12
290.91	83.12
291.141	92.12
291.371	87.12
291.602	83.12
291.833	95.12
292.064	81.12
292.295	93.12
292.526	89.12
292.757	91.12
292.987	82.12
293.218	86.12
293.449	89.12
293.68	87.12
293.91	76.12
294.141	87.12
294.372	93.12
294.603	86.12
294.833	76.12
295.064	89.12
295.295	93.12
295.525	92.12
295.756	99.12
295.987	103.12
296.217	136.12
296.448	119.12
296.679	94.12
296.909	86.12
297.14	91.12
297.37	89.12
297.601	95.12
297.831	96.12
298.062	76.12
298.292	84.12
298.523	90.12
298.753	89.12
298.984	103.12
299.214	90.12
299.445	92.12
299.675	85.12
299.905	115.12
300.136	94.12
300.366	75.12
300.597	83.12
300.827	91.12
301.057	100.12
301.288	107.12
301.518	99.12
301.748	88.12
301.979	92.12
302.209	85.12
302.439	81.12
302.669	86.12
302.9	89.12
303.13	95.12
303.36	98.12
303.59	107.12
303.82	112.12
304.051	78.12
304.281	100.12
304.511	89.12
304.741	94.12
304.971	92.12
305.201	90.12
305.431	83.12
305.661	88.12
305.891	91.12
306.121	100.12
306.352	113.12
306.582	101.12
306.812	90.12
307.042	101.12
307.272	79.12
307.502	97.12
307.731	76.12
307.961	101.12
308.191	98.12
308.421	84.12
308.651	93.12
308.881	96.12
309.111	92.12
309.341	87.12
309.571	99.12
309.8	100.12
310.03	106.12
310.26	96.12
310.49	87.12
310.72	98.12
310.949	97.12
311.179	95.12
311.409	93.12
311.639	115.12
311.868	92.12
312.098	110.12
312.328	86.12
312.557	99.12
312.787	107.12
313.017	85.12
313.246	73.12
313.476	91.12
313.706	100.12
313.935	88.12
314.165	105.12
314.394	102.12
314.624	88.12
314.853	90.12
315.083	91.12
315.312	83.12
315.542	101.12
315.771	90.12
316.001	83.12
316.23	88.12
316.46	87.12
316.689	105.12
316.919	103.12
317.148	99.12
317.377	90.12
317.607	98.12
317.836	96.12
318.065	94.12
318.295	96.12
318.524	83.12
318.753	85.12
318.983	96.12
319.212	92.12
319.441	113.12
319.67	106.12
319.9	99.12
320.129	100.12
320.358	101.12
320.587	99.12
320.816	100.12
321.046	107.12
321.275	105.12
321.504	103.12
321.733	98.12
321.962	103.12
322.191	91.12
322.42	112.12
322.649	99.12
322.878	94.12
323.108	97.12
323.337	119.12
323.566	122.12
323.795	148.12
324.024	187.12
324.253	366.12
324.482	757.12
324.71	1511.12
324.939	2034.12
325.168	751.12
325.397	233.12
325.626	150.12
325.855	117.12
326.084	141.12
326.313	119.12
326.542	143.12
326.77	222.12
326.999	406.12
327.228	842.12
327.457	1548.12
327.686	1231.12
327.914	351.12
328.143	179.12
328.372	145.12
328.6	116.12
328.829	116.12
329.058	109.12
329.287	120.12
329.515	121.12
329.744	96.12
329.972	94.12
330.201	107.12
330.43	109.12
330.658	117.12
330.887	129.12
331.115	104.12
331.344	95.12
331.572	89.12
331.801	95.12
332.03	90.12
332.258	107.12
332.486	99.12
332.715	90.12
332.943	97.12
333.172	99.12
333.4	94.12
333.629	111.12
333.857	108.12
334.085	113.12
334.314	99.12
334.542	99.12
334.771	93.12
334.999	99.12
335.227	107.12
335.455	88.12
335.684	99.12
335.912	87.12
336.14	93.12
336.369	95.12
336.597	107.12
336.825	103.12
337.053	82.12
337.281	85.12
337.51	86.12
337.738	92.12
337.966	98.12
338.194	84.12
338.422	92.12
338.65	82.12
338.878	91.12
339.106	97.12
339.334	100.12
339.562	83.12
339.79	92.12
340.018	80.12
340.246	96.12
340.474	101.12
340.702	97.12
340.93	87.12
341.158	88.12
341.386	106.12
341.614	117.12
341.842	76.12
342.07	84.12
342.298	96.12
342.526	88.12
342.754	90.12
342.981	106.12
343.209	75.12
343.437	103.12
343.665	88.12
343.893	97.12
344.12	96.12
344.348	96.12
344.576	83.12
344.804	99.12
345.031	92.12
345.259	101.12
345.487	87.12
345.714	95.12
345.942	83.12
346.17	91.12
346.397	77.12
346.625	87.12
346.853	111.12
347.08	80.12
347.308	105.12
347.535	92.12
347.763	93.12
347.99	113.12
348.218	90.12
348.445	100.12
348.673	94.12
348.9	93.12
349.128	97.12
349.355	83.12
349.583	92.12
349.81	95.12
350.037	98.12
350.265	103.12
350.492	105.12
350.72	78.12
350.947	93.12
351.174	109.12
351.402	112.12
351.629	93.12
351.856	90.12
352.083	105.12
352.311	97.12
352.538	109.12
352.765	111.12
352.992	107.12
353.22	105.12
353.447	92.12
353.674	103.12
353.901	107.12
354.128	96.12
354.355	91.12
354.583	97.12
354.81	91.12
355.037	100.12
355.264	82.12
355.491	97.12
355.718	99.12
355.945	111.12
356.172	105.12
356.399	92.12
356.626	105.12
356.853	101.12
357.08	86.12
357.307	89.12
357.534	91.12
357.761	80.12
357.988	101.12
358.215	95.12
358.441	94.12
358.668	93.12
358.895	93.12
359.122	76.12
359.349	88.12
359.576	77.12
359.802	92.12
360.029	103.12
360.256	103.12
360.483	83.12
360.709	90.12
360.936	102.12
361.163	85.12
361.39	81.12
361.616	91.12
361.843	87.12
362.07	93.12
362.296	104.12
362.523	90.12
362.749	100.12
362.976	95.12
363.203	85.12
363.429	92.12
363.656	101.12
363.882	82.12
364.109	83.12
364.335	91.12
364.562	91.12
364.788	95.12
365.015	79.12
365.241	98.12
365.468	101.12
365.694	90.12
365.92	95.12
366.147	99.12
366.373	96.12
366.599	103.12
366.826	92.12
367.052	91.12
367.278	84.12
367.505	93.12
367.731	87.12
367.957	85.12
368.184	100.12
368.41	100.12
368.636	99.12
368.862	115.12
369.089	100.12
369.315	96.12
369.541	88.12
369.767	93.12
369.993	92.12
370.219	97.12
370.445	85.12
370.672	89.12
370.898	101.12
371.124	96.12
371.35	74.12
371.576	85.12
371.802	91.12
372.028	83.12
372.254	89.12
372.48	91.12
372.706	84.12
372.932	106.12
373.158	85.12
373.384	92.12
373.61	103.12
373.835	87.12
374.061	91.12
374.287	96.12
374.513	98.12
374.739	87.12
374.965	90.12
375.191	89.12
375.416	82.12
375.642	88.12
375.868	85.12
376.094	67.12
376.319	81.12
376.545	92.12
376.771	90.12
376.997	102.12
377.222	99.12
377.448	100.12
377.674	86.12
377.899	106.12
378.125	89.12
378.35	92.12
378.576	92.12
378.802	88.12
379.027	101.12
379.253	95.12
379.478	76.12
379.704	89.12
379.929	89.12
380.155	101.12
380.38	99.12
380.606	85.12
380.831	93.12
381.057	100.12
381.282	104.12
381.507	97.12
381.733	95.12
381.958	101.12
382.184	85.12
382.409	86.12
382.634	97.12
382.86	93.12
383.085	103.12
383.31	92.12
383.535	90.12
383.761	106.12
383.986	109.12
384.211	102.12
384.436	104.12
384.662	109.12
384.887	101.12
385.112	98.12
385.337	83.12
385.562	109.12
385.787	90.12
386.013	110.12
386.238	122.12
386.463	95.12
386.688	101.12
386.913	90.12
387.138	106.12
387.363	99.12
387.588	103.12
387.813	101.12
388.038	108.12
388.263	105.12
388.488	121.12
388.713	96.12
388.938	95.12
389.163	87.12
389.387	95.12
389.612	95.12
389.837	82.12
390.062	84.12
390.287	111.12
390.512	106.12
390.736	90.12
390.961	99.12
391.186	86.12
391.411	97.12
391.636	84.12
391.86	83.12
392.085	98.12
392.31	80.12
392.534	83.12
392.759	92.12
392.984	101.12
393.208	91.12
393.433	102.12
393.658	92.12
393.882	87.12
394.107	94.12
394.331	78.12
394.556	88.12
394.78	99.12
395.005	92.12
395.229	76.12
395.454	86.12
395.678	73.12
395.903	91.12
396.127	90.12
396.352	84.12
396.576	92.12
396.801	99.12
397.025	98.12
397.249	80.12
397.474	87.12
397.698	87.12
397.922	90.12
398.147	95.12
398.371	87.12
398.595	92.12
398.82	91.12
399.044	91.12
399.268	72.12
399.492	76.12
399.717	90.12
399.941	89.12
400.165	98.12
400.389	99.12
400.613	90.12
400.837	97.12
401.062	90.12
401.286	86.12
401.51	90.12
401.734	89.12
401.958	100.12
402.182	125.12
402.406	140.12
402.63	103.12
402.854	88.12
403.078	81.12
403.302	93.12
403.526	92.12
403.75	91.12
403.974	86.12
404.198	87.12
404.422	102.12
404.645	97.12
404.869	89.12
405.093	86.12
405.317	93.12
405.541	108.12
405.765	88.12
405.988	114.12
406.212	159.12
406.436	228.12
406.66	126.12
406.883	100.12
407.107	87.12
407.331	100.12
407.555	89.12
407.778	91.12
408.002	85.12
408.226	84.12
408.449	89.12
408.673	72.12
408.896	94.12
409.12	87.12
409.344	99.12
409.567	91.12
409.791	85.12
410.014	110.12
410.238	99.12
410.461	81.12
410.685	90.12
410.908	98.12
411.132	102.12
411.355	101.12
411.578	91.12
411.802	97.12
412.025	94.12
412.249	91.12
412.472	93.12
412.695	88.12
412.919	93.12
413.142	102.12
413.365	92.12
413.589	95.12
413.812	86.12
414.035	74.12
414.258	86.12
414.482	87.12
414.705	104.12
414.928	80.12
415.151	87.12
415.374	111.12
415.597	88.12
415.821	71.12
416.044	91.12
416.267	76.12
416.49	87.12
416.713	95.12
416.936	90.12
417.159	89.12
417.382	81.12
417.605	88.12
417.828	94.12
418.051	83.12
418.274	78.12
418.497	78.12
418.72	95.12
418.943	86.12
419.166	78.12
419.389	97.12
419.611	89.12
419.834	87.12
420.057	90.12
420.28	89.12
420.503	98.12
420.726	78.12
420.948	91.12
421.171	99.12
421.394	89.12
421.617	106.12
421.839	93.12
422.062	107.12
422.285	99.12
422.507	104.12
422.73	101.12
422.953	100.12
423.175	73.12
423.398	84.12
423.621	97.12
423.843	90.12
424.066	100.12
424.288	83.12
424.511	91.12
424.733	101.12
424.956	111.12
425.178	106.12
425.401	103.12
425.623	109.12
425.846	96.12
426.068	84.12
426.291	100.12
426.513	101.12
426.735	77.12
426.958	99.12
427.18	94.12
427.402	132.12
427.625	165.12
427.847	134.12
428.069	93.12
428.292	97.12
428.514	77.12
428.736	79.12
428.958	89.12
429.181	98.12
429.403	76.12
429.625	83.12
429.847	101.12
430.069	87.12
430.292	107.12
430.514	96.12
430.736	86.12
430.958	95.12
431.18	83.12
431.402	92.12
431.624	97.12
431.846	104.12
432.068	87.12
432.29	90.12
432.512	79.12
432.734	93.12
432.956	83.12
433.178	97.12
433.4	104.12
433.622	91.12
433.844	83.12
434.066	93.12
434.287	84.12
434.509	99.12
434.731	85.12
434.953	95.12
435.175	87.12
435.397	91.12
435.618	87.12
435.84	94.12
436.062	111.12
436.284	113.12
436.505	91.12
436.727	98.12
436.949	89.12
437.17	90.12
437.392	82.12
437.614	102.12
437.835	99.12
438.057	117.12
438.278	105.12
438.5	100.12
438.721	139.12
438.943	103.12
439.165	89.12
439.386	88.12
439.608	99.12
439.829	105.12
440.05	112.12
440.272	131.12
440.493	99.12
440.715	92.12
440.936	97.12
441.158	89.12
441.379	93.12
441.6	80.12
441.822	80.12
442.043	87.12
442.264	98.12
442.486	83.12
442.707	92.12
442.928	109.12
443.149	126.12
443.371	110.12
443.592	99.12
443.813	102.12
444.034	111.12
444.255	100.12
444.476	100.12
444.698	82.12
444.919	68.12
445.14	125.12
445.361	129.12
445.582	114.12
445.803	133.12
446.024	129.12
446.245	117.12
446.466	99.12
446.687	91.12
446.908	87.12
447.129	88.12
447.35	84.12
447.571	93.12
447.792	96.12
448.013	101.12
448.234	94.12
448.455	88.12
448.675	113.12
448.896	121.12
449.117	96.12
449.338	92.12
449.559	132.12
449.779	95.12
450	80.12
450.221	78.12
450.442	99.12
450.662	101.12
450.883	100.12
451.104	113.12
451.324	87.12
451.545	76.12
451.766	89.12
451.986	82.12
452.207	87.12
452.428	98.12
452.648	97.12
452.869	110.12
453.089	122.12
453.31	113.12
453.53	94.12
453.751	84.12
453.971	97.12
454.192	96.12
454.412	98.12
454.633	85.12
454.853	86.12
455.073	83.12
455.294	92.12
455.514	88.12
455.734	95.12
455.955	82.12
456.175	98.12
456.395	96.12
456.616	86.12
456.836	88.12
457.056	86.12
457.276	96.12
457.497	97.12
457.717	87.12
457.937	92.12
458.157	96.12
458.377	85.12
458.598	93.12
458.818	141.12
459.038	145.12
459.258	113.12
459.478	90.12
459.698	90.12
459.918	84.12
460.138	87.12
460.358	94.12
460.578	89.12
460.798	85.12
461.018	92.12
461.238	93.12
461.458	89.12
461.678	103.12
461.898	94.12
462.118	83.12
462.338	84.12
462.558	91.12
462.777	94.12
462.997	83.12
463.217	77.12
463.437	85.12
463.657	98.12
463.876	107.12
464.096	88.12
464.316	82.12
464.536	99.12
464.755	92.12
464.975	109.12
465.195	138.12
465.414	149.12
465.634	104.12
465.854	77.12
466.073	84.12
466.293	98.12
466.512	81.12
466.732	96.12
466.951	80.12
467.171	94.12
467.391	98.12
467.61	96.12
467.829	92.12
468.049	93.12
468.268	86.12
468.488	87.12
468.707	91.12
468.927	95.12
469.146	96.12
469.365	98.12
469.585	90.12
469.804	96.12
470.023	84.12
470.243	106.12
470.462	110.12
470.681	114.12
470.901	102.12
471.12	91.12
471.339	73.12
471.558	97.12
471.777	91.12
471.997	88.12
472.216	97.12
472.435	101.12
472.654	81.12
472.873	90.12
473.092	93.12
473.311	78.12
473.53	77.12
473.749	102.12
473.968	92.12
474.187	105.12
474.406	103.12
474.625	90.12
474.844	89.12
475.063	91.12
475.282	82.12
475.501	89.12
475.72	76.12
475.939	100.12
476.158	96.12
476.377	92.12
476.596	89.12
476.814	105.12
477.033	84.12
477.252	77.12
477.471	92.12
477.69	82.12
477.908	83.12
478.127	88.12
478.346	87.12
478.564	83.12
478.783	100.12
479.002	95.12
479.22	79.12
479.439	108.12
479.658	106.12
479.876	91.12
480.095	101.12
480.313	101.12
480.532	81.12
480.751	87.12
480.969	92.12
481.188	104.12
481.406	103.12
481.624	92.12
481.843	80.12
482.061	79.12
482.28	92.12
482.498	94.12
482.717	85.12
482.935	95.12
483.153	84.12
483.372	81.12
483.59	87.12
483.808	98.12
484.027	83.12
484.245	96.12
484.463	86.12
484.681	108.12
484.9	97.12
485.118	91.12
485.336	93.12
485.554	96.12
485.772	103.12
485.99	101.12
486.209	106.12
486.427	122.12
486.645	109.12
486.863	120.12
487.081	92.12
487.299	91.12
487.517	118.12
487.735	92.12
487.953	91.12
488.171	90.12
488.389	77.12
488.607	89.12
488.825	87.12
489.043	83.12
489.261	88.12
489.479	88.12
489.696	87.12
489.914	82.12
490.132	95.12
490.35	100.12
490.568	93.12
490.786	118.12
491.003	82.12
491.221	87.12
491.439	99.12
491.657	103.12
491.874	96.12
492.092	88.12
492.31	107.12
492.527	90.12
492.745	81.12
492.963	92.12
493.18	87.12
493.398	105.12
493.615	98.12
493.833	91.12
494.05	91.12
494.268	90.12
494.485	87.12
494.703	90.12
494.92	92.12
495.138	84.12
495.355	85.12
495.573	98.12
495.79	83.12
496.008	87.12
496.225	86.12
496.442	99.12
496.66	93.12
496.877	104.12
497.094	93.12
497.312	89.12
497.529	89.12
497.746	90.12
497.963	92.12
498.181	95.12
498.398	97.12
498.615	96.12
498.832	101.12
499.049	87.12
499.267	94.12
499.484	89.12
499.701	98.12
499.918	89.12
500.135	98.12
500.352	92.12
500.569	101.12
500.786	107.12
501.003	100.12
501.22	90.12
501.437	103.12
501.654	88.12
501.871	106.12
502.088	94.12
502.305	76.12
502.522	89.12
502.739	85.12
502.956	95.12
503.172	84.12
503.389	100.12
503.606	97.12
503.823	85.12
504.04	92.12
504.256	92.12
504.473	80.12
504.69	91.12
504.907	98.12
505.123	94.12
505.34	97.12
505.557	69.12
505.773	88.12
505.99	82.12
506.207	98.12
506.423	95.12
506.64	95.12
506.856	92.12
507.073	81.12
507.289	101.12
507.506	96.12
507.722	112.12
507.939	107.12
508.155	95.12
508.372	73.12
508.588	101.12
508.805	103.12
509.021	89.12
509.238	84.12
509.454	98.12
509.67	93.12
509.887	107.12
510.103	134.12
510.319	199.12
510.536	719.12
510.752	2264.12
510.968	621.12
511.184	147.12
511.401	104.12
511.617	103.12
511.833	104.12
512.049	99.12
512.265	96.12
512.481	95.12
512.698	90.12
512.914	85.12
513.13	86.12
513.346	86.12
513.562	86.12
513.778	91.12
513.994	99.12
514.21	106.12
514.426	109.12
514.642	127.12
514.858	130.12
515.074	163.12
515.29	406.12
515.506	1333.12
515.721	508.12
