Data from Uncirc_1986_H10_HRD10591_00069.txt Node
Date: Wed Jan 03 12:14:40 EST 2024
User: Yrep
Spectrometer: HR+D1059
Trigger mode: 1
Integration Time (sec): 1.000000E-1
Scans to average: 1
Electric dark correction enabled: true
Nonlinearity correction enabled: false
Boxcar width: 0
XAxis mode: Wavelengths
Number of Pixels in Spectrum: 2048
>>>>>Begin Spectral Data<<<<<
223.165	-15.31
223.4	-15.31
223.635	-15.31
223.869	-16.31
224.104	-23.31
224.338	-16.31
224.573	-16.31
224.808	-14.31
225.042	-7.31
225.277	-12.31
225.511	-10.31
225.746	-8.31
225.98	14.69
226.215	22.69
226.449	16.69
226.683	14.69
226.918	38.69
227.152	32.69
227.387	28.69
227.621	42.69
227.856	45.69
228.09	33.69
228.324	55.69
228.559	42.69
228.793	67.69
229.027	53.69
229.262	61.69
229.496	91.69
229.73	80.69
229.964	80.69
230.199	78.69
230.433	80.69
230.667	80.69
230.901	78.69
231.136	86.69
231.37	78.69
231.604	78.69
231.838	87.69
232.072	92.69
232.306	78.69
232.541	77.69
232.775	88.69
233.009	79.69
233.243	79.69
233.477	73.69
233.711	102.69
233.945	62.69
234.179	81.69
234.413	83.69
234.647	91.69
234.881	89.69
235.115	73.69
235.349	62.69
235.583	79.69
235.817	71.69
236.051	76.69
236.285	79.69
236.519	82.69
236.753	82.69
236.987	85.69
237.221	74.69
237.455	92.69
237.689	86.69
237.922	83.69
238.156	82.69
238.39	78.69
238.624	79.69
238.858	87.69
239.091	64.69
239.325	92.69
239.559	81.69
239.793	76.69
240.027	81.69
240.26	76.69
240.494	75.69
240.728	73.69
240.961	92.69
241.195	78.69
241.429	90.69
241.662	83.69
241.896	75.69
242.13	78.69
242.363	75.69
242.597	67.69
242.83	92.69
243.064	86.69
243.298	79.69
243.531	82.69
243.765	78.69
243.998	89.69
244.232	85.69
244.465	93.69
244.699	85.69
244.932	84.69
245.166	93.69
245.399	80.69
245.633	61.69
245.866	86.69
246.099	89.69
246.333	92.69
246.566	87.69
246.8	71.69
247.033	76.69
247.266	73.69
247.5	80.69
247.733	76.69
247.966	67.69
248.2	74.69
248.433	82.69
248.666	94.69
248.899	78.69
249.133	92.69
249.366	83.69
249.599	98.69
249.832	78.69
250.066	85.69
250.299	86.69
250.532	74.69
250.765	86.69
250.998	66.69
251.231	89.69
251.465	83.69
251.698	72.69
251.931	64.69
252.164	88.69
252.397	89.69
252.63	79.69
252.863	88.69
253.096	78.69
253.329	77.69
253.562	89.69
253.795	90.69
254.028	79.69
254.261	62.69
254.494	84.69
254.727	100.69
254.96	71.69
255.193	76.69
255.426	87.69
255.659	94.69
255.892	82.69
256.124	80.69
256.357	83.69
256.59	78.69
256.823	83.69
257.056	87.69
257.289	99.69
257.521	92.69
257.754	83.69
257.987	88.69
258.22	78.69
258.452	79.69
258.685	84.69
258.918	82.69
259.151	104.69
259.383	90.69
259.616	98.69
259.849	85.69
260.081	84.69
260.314	80.69
260.547	89.69
260.779	84.69
261.012	80.69
261.244	69.69
261.477	103.69
261.71	78.69
261.942	103.69
262.175	110.69
262.407	74.69
262.64	68.69
262.872	82.69
263.105	91.69
263.337	86.69
263.57	94.69
263.802	91.69
264.035	82.69
264.267	76.69
264.499	66.69
264.732	80.69
264.964	99.69
265.197	75.69
265.429	89.69
265.661	88.69
265.894	86.69
266.126	71.69
266.358	86.69
266.591	89.69
266.823	75.69
267.055	90.69
267.287	76.69
267.52	91.69
267.752	86.69
267.984	80.69
268.216	96.69
268.448	81.69
268.681	87.69
268.913	86.69
269.145	83.69
269.377	86.69
269.609	84.69
269.841	84.69
270.073	90.69
270.306	68.69
270.538	75.69
270.77	80.69
271.002	82.69
271.234	75.69
271.466	102.69
271.698	97.69
271.93	71.69
272.162	79.69
272.394	82.69
272.626	84.69
272.858	78.69
273.09	89.69
273.322	82.69
273.553	75.69
273.785	86.69
274.017	78.69
274.249	87.69
274.481	71.69
274.713	81.69
274.945	86.69
275.176	95.69
275.408	77.69
275.64	75.69
275.872	90.69
276.104	90.69
276.335	88.69
276.567	96.69
276.799	96.69
277.031	98.69
277.262	72.69
277.494	85.69
277.726	103.69
277.957	86.69
278.189	83.69
278.421	86.69
278.652	87.69
278.884	82.69
279.115	82.69
279.347	82.69
279.579	93.69
279.81	93.69
280.042	97.69
280.273	99.69
280.505	84.69
280.736	82.69
280.968	90.69
281.199	90.69
281.431	85.69
281.662	95.69
281.894	82.69
282.125	98.69
282.356	107.69
282.588	127.69
282.819	114.69
283.051	95.69
283.282	88.69
283.513	85.69
283.745	87.69
283.976	100.69
284.207	91.69
284.439	95.69
284.67	89.69
284.901	76.69
285.132	86.69
285.364	83.69
285.595	92.69
285.826	70.69
286.057	98.69
286.288	100.69
286.52	83.69
286.751	92.69
286.982	96.69
287.213	86.69
287.444	75.69
287.675	83.69
287.906	75.69
288.138	88.69
288.369	102.69
288.6	88.69
288.831	85.69
289.062	91.69
289.293	85.69
289.524	77.69
289.755	86.69
289.986	99.69
290.217	75.69
290.448	87.69
290.679	86.69
290.91	86.69
291.141	87.69
291.371	84.69
291.602	89.69
291.833	92.69
292.064	91.69
292.295	94.69
292.526	92.69
292.757	84.69
292.987	89.69
293.218	88.69
293.449	102.69
293.68	88.69
293.91	96.69
294.141	95.69
294.372	89.69
294.603	84.69
294.833	92.69
295.064	79.69
295.295	90.69
295.525	90.69
295.756	104.69
295.987	121.69
296.217	121.69
296.448	128.69
296.679	96.69
296.909	94.69
297.14	108.69
297.37	109.69
297.601	92.69
297.831	92.69
298.062	87.69
298.292	88.69
298.523	102.69
298.753	97.69
298.984	88.69
299.214	97.69
299.445	104.69
299.675	94.69
299.905	98.69
300.136	100.69
300.366	90.69
300.597	90.69
300.827	101.69
301.057	89.69
301.288	95.69
301.518	96.69
301.748	98.69
301.979	93.69
302.209	80.69
302.439	92.69
302.669	83.69
302.9	84.69
303.13	98.69
303.36	97.69
303.59	110.69
303.82	102.69
304.051	68.69
304.281	88.69
304.511	80.69
304.741	94.69
304.971	71.69
305.201	85.69
305.431	99.69
305.661	87.69
305.891	96.69
306.121	98.69
306.352	100.69
306.582	111.69
306.812	88.69
307.042	98.69
307.272	90.69
307.502	92.69
307.731	96.69
307.961	91.69
308.191	81.69
308.421	87.69
308.651	96.69
308.881	94.69
309.111	99.69
309.341	99.69
309.571	112.69
309.8	86.69
310.03	92.69
310.26	83.69
310.49	86.69
310.72	94.69
310.949	92.69
311.179	100.69
311.409	96.69
311.639	91.69
311.868	112.69
312.098	90.69
312.328	78.69
312.557	102.69
312.787	110.69
313.017	107.69
313.246	87.69
313.476	84.69
313.706	90.69
313.935	103.69
314.165	95.69
314.394	100.69
314.624	106.69
314.853	96.69
315.083	84.69
315.312	92.69
315.542	101.69
315.771	102.69
316.001	90.69
316.23	90.69
316.46	82.69
316.689	101.69
316.919	99.69
317.148	95.69
317.377	97.69
317.607	93.69
317.836	75.69
318.065	96.69
318.295	92.69
318.524	108.69
318.753	91.69
318.983	100.69
319.212	100.69
319.441	106.69
319.67	100.69
319.9	93.69
320.129	97.69
320.358	103.69
320.587	89.69
320.816	94.69
321.046	87.69
321.275	82.69
321.504	103.69
321.733	96.69
321.962	88.69
322.191	100.69
322.42	114.69
322.649	107.69
322.878	88.69
323.108	103.69
323.337	104.69
323.566	135.69
323.795	151.69
324.024	193.69
324.253	363.69
324.482	756.69
324.71	1559.69
324.939	2059.69
325.168	735.69
325.397	234.69
325.626	148.69
325.855	118.69
326.084	107.69
326.313	127.69
326.542	152.69
326.77	226.69
326.999	422.69
327.228	858.69
327.457	1587.69
327.686	1268.69
327.914	358.69
328.143	201.69
328.372	149.69
328.6	113.69
328.829	107.69
329.058	123.69
329.287	121.69
329.515	109.69
329.744	91.69
329.972	100.69
330.201	116.69
330.43	115.69
330.658	123.69
330.887	124.69
331.115	124.69
331.344	104.69
331.572	118.69
331.801	114.69
332.03	114.69
332.258	85.69
332.486	94.69
332.715	94.69
332.943	99.69
333.172	98.69
333.4	94.69
333.629	86.69
333.857	106.69
334.085	96.69
334.314	99.69
334.542	108.69
334.771	107.69
334.999	101.69
335.227	89.69
335.455	87.69
335.684	97.69
335.912	94.69
336.14	96.69
336.369	104.69
336.597	98.69
336.825	86.69
337.053	96.69
337.281	98.69
337.51	95.69
337.738	102.69
337.966	88.69
338.194	100.69
338.422	100.69
338.65	87.69
338.878	84.69
339.106	86.69
339.334	83.69
339.562	92.69
339.79	99.69
340.018	94.69
340.246	104.69
340.474	98.69
340.702	92.69
340.93	85.69
341.158	90.69
341.386	94.69
341.614	99.69
341.842	94.69
342.07	88.69
342.298	97.69
342.526	94.69
342.754	97.69
342.981	90.69
343.209	100.69
343.437	86.69
343.665	99.69
343.893	100.69
344.12	75.69
344.348	71.69
344.576	95.69
344.804	92.69
345.031	87.69
345.259	94.69
345.487	101.69
345.714	87.69
345.942	92.69
346.17	88.69
346.397	90.69
346.625	93.69
346.853	86.69
347.08	70.69
347.308	103.69
347.535	103.69
347.763	97.69
347.99	96.69
348.218	90.69
348.445	100.69
348.673	110.69
348.9	111.69
349.128	109.69
349.355	97.69
349.583	102.69
349.81	85.69
350.037	106.69
350.265	90.69
350.492	97.69
350.72	99.69
350.947	113.69
351.174	84.69
351.402	104.69
351.629	114.69
351.856	103.69
352.083	100.69
352.311	104.69
352.538	111.69
352.765	103.69
352.992	98.69
353.22	102.69
353.447	101.69
353.674	120.69
353.901	108.69
354.128	94.69
354.355	102.69
354.583	102.69
354.81	95.69
355.037	86.69
355.264	95.69
355.491	86.69
355.718	91.69
355.945	103.69
356.172	111.69
356.399	100.69
356.626	81.69
356.853	82.69
357.08	85.69
357.307	99.69
357.534	94.69
357.761	87.69
357.988	87.69
358.215	100.69
358.441	99.69
358.668	80.69
358.895	94.69
359.122	99.69
359.349	100.69
359.576	112.69
359.802	104.69
360.029	101.69
360.256	106.69
360.483	88.69
360.709	85.69
360.936	90.69
361.163	99.69
361.39	92.69
361.616	99.69
361.843	102.69
362.07	89.69
362.296	92.69
362.523	99.69
362.749	92.69
362.976	85.69
363.203	84.69
363.429	73.69
363.656	98.69
363.882	96.69
364.109	89.69
364.335	109.69
364.562	91.69
364.788	106.69
365.015	91.69
365.241	88.69
365.468	106.69
365.694	100.69
365.92	98.69
366.147	89.69
366.373	82.69
366.599	95.69
366.826	88.69
367.052	103.69
367.278	95.69
367.505	94.69
367.731	94.69
367.957	97.69
368.184	95.69
368.41	100.69
368.636	112.69
368.862	105.69
369.089	82.69
369.315	94.69
369.541	90.69
369.767	87.69
369.993	79.69
370.219	75.69
370.445	69.69
370.672	99.69
370.898	76.69
371.124	87.69
371.35	82.69
371.576	90.69
371.802	96.69
372.028	98.69
372.254	92.69
372.48	85.69
372.706	96.69
372.932	98.69
373.158	91.69
373.384	95.69
373.61	100.69
373.835	97.69
374.061	90.69
374.287	90.69
374.513	88.69
374.739	82.69
374.965	89.69
375.191	87.69
375.416	80.69
375.642	96.69
375.868	86.69
376.094	97.69
376.319	94.69
376.545	75.69
376.771	85.69
376.997	88.69
377.222	77.69
377.448	88.69
377.674	97.69
377.899	81.69
378.125	88.69
378.35	89.69
378.576	82.69
378.802	84.69
379.027	94.69
379.253	84.69
379.478	93.69
379.704	89.69
379.929	98.69
380.155	98.69
380.38	98.69
380.606	89.69
380.831	84.69
381.057	98.69
381.282	92.69
381.507	98.69
381.733	98.69
381.958	99.69
382.184	94.69
382.409	99.69
382.634	94.69
382.86	93.69
383.085	93.69
383.31	106.69
383.535	93.69
383.761	90.69
383.986	99.69
384.211	98.69
384.436	95.69
384.662	98.69
384.887	110.69
385.112	88.69
385.337	103.69
385.562	91.69
385.787	95.69
386.013	98.69
386.238	99.69
386.463	103.69
386.688	96.69
386.913	107.69
387.138	94.69
387.363	94.69
387.588	104.69
387.813	102.69
388.038	104.69
388.263	111.69
388.488	119.69
388.713	113.69
388.938	102.69
389.163	100.69
389.387	96.69
389.612	85.69
389.837	90.69
390.062	101.69
390.287	101.69
390.512	90.69
390.736	83.69
390.961	95.69
391.186	85.69
391.411	95.69
391.636	94.69
391.86	91.69
392.085	96.69
392.31	81.69
392.534	80.69
392.759	84.69
392.984	102.69
393.208	86.69
393.433	98.69
393.658	85.69
393.882	79.69
394.107	92.69
394.331	89.69
394.556	84.69
394.78	92.69
395.005	87.69
395.229	96.69
395.454	87.69
395.678	76.69
395.903	100.69
396.127	87.69
396.352	83.69
396.576	81.69
396.801	86.69
397.025	82.69
397.249	87.69
397.474	93.69
397.698	86.69
397.922	88.69
398.147	98.69
398.371	75.69
398.595	84.69
398.82	75.69
399.044	79.69
399.268	88.69
399.492	80.69
399.717	86.69
399.941	98.69
400.165	95.69
400.389	94.69
400.613	73.69
400.837	90.69
401.062	78.69
401.286	75.69
401.51	87.69
401.734	82.69
401.958	103.69
402.182	107.69
402.406	157.69
402.63	105.69
402.854	89.69
403.078	91.69
403.302	83.69
403.526	102.69
403.75	103.69
403.974	89.69
404.198	86.69
404.422	84.69
404.645	71.69
404.869	96.69
405.093	87.69
405.317	99.69
405.541	102.69
405.765	96.69
405.988	112.69
406.212	163.69
406.436	215.69
406.66	139.69
406.883	100.69
407.107	88.69
407.331	107.69
407.555	98.69
407.778	97.69
408.002	100.69
408.226	83.69
408.449	92.69
408.673	67.69
408.896	79.69
409.12	95.69
409.344	92.69
409.567	84.69
409.791	91.69
410.014	91.69
410.238	85.69
410.461	87.69
410.685	82.69
410.908	91.69
411.132	114.69
411.355	96.69
411.578	90.69
411.802	88.69
412.025	97.69
412.249	82.69
412.472	94.69
412.695	92.69
412.919	86.69
413.142	88.69
413.365	97.69
413.589	85.69
413.812	96.69
414.035	79.69
414.258	73.69
414.482	102.69
414.705	92.69
414.928	86.69
415.151	90.69
415.374	108.69
415.597	102.69
415.821	86.69
416.044	79.69
416.267	73.69
416.49	94.69
416.713	91.69
416.936	74.69
417.159	78.69
417.382	87.69
417.605	96.69
417.828	100.69
418.051	81.69
418.274	89.69
418.497	76.69
418.72	93.69
418.943	83.69
419.166	75.69
419.389	91.69
419.611	86.69
419.834	87.69
420.057	87.69
420.28	95.69
420.503	89.69
420.726	82.69
420.948	102.69
421.171	90.69
421.394	82.69
421.617	90.69
421.839	102.69
422.062	86.69
422.285	87.69
422.507	107.69
422.73	102.69
422.953	91.69
423.175	91.69
423.398	87.69
423.621	88.69
423.843	89.69
424.066	76.69
424.288	102.69
424.511	90.69
424.733	103.69
424.956	94.69
425.178	109.69
425.401	107.69
425.623	89.69
425.846	99.69
426.068	91.69
426.291	92.69
426.513	103.69
426.735	90.69
426.958	97.69
427.18	110.69
427.402	122.69
427.625	150.69
427.847	139.69
428.069	94.69
428.292	82.69
428.514	102.69
428.736	78.69
428.958	76.69
429.181	94.69
429.403	92.69
429.625	90.69
429.847	88.69
430.069	85.69
430.292	80.69
430.514	75.69
430.736	83.69
430.958	86.69
431.18	100.69
431.402	89.69
431.624	79.69
431.846	90.69
432.068	90.69
432.29	87.69
432.512	78.69
432.734	84.69
432.956	97.69
433.178	104.69
433.4	94.69
433.622	83.69
433.844	79.69
434.066	86.69
434.287	93.69
434.509	91.69
434.731	82.69
434.953	87.69
435.175	99.69
435.397	96.69
435.618	95.69
435.84	97.69
436.062	115.69
436.284	117.69
436.505	97.69
436.727	90.69
436.949	88.69
437.17	82.69
437.392	95.69
437.614	92.69
437.835	112.69
438.057	126.69
438.278	108.69
438.5	105.69
438.721	136.69
438.943	98.69
439.165	94.69
439.386	94.69
439.608	100.69
439.829	90.69
440.05	113.69
440.272	133.69
440.493	97.69
440.715	100.69
440.936	90.69
441.158	85.69
441.379	71.69
441.6	101.69
441.822	84.69
442.043	102.69
442.264	103.69
442.486	86.69
442.707	85.69
442.928	96.69
443.149	127.69
443.371	130.69
443.592	114.69
443.813	102.69
444.034	99.69
444.255	82.69
444.476	84.69
444.698	96.69
444.919	87.69
445.14	132.69
445.361	126.69
445.582	123.69
445.803	127.69
446.024	129.69
446.245	122.69
446.466	118.69
446.687	96.69
446.908	82.69
447.129	94.69
447.35	96.69
447.571	99.69
447.792	91.69
448.013	96.69
448.234	108.69
448.455	104.69
448.675	119.69
448.896	108.69
449.117	98.69
449.338	117.69
449.559	135.69
449.779	119.69
450	99.69
450.221	94.69
450.442	86.69
450.662	87.69
450.883	116.69
451.104	113.69
451.324	93.69
451.545	73.69
451.766	64.69
451.986	94.69
452.207	94.69
452.428	97.69
452.648	113.69
452.869	114.69
453.089	104.69
453.31	121.69
453.53	84.69
453.751	91.69
453.971	92.69
454.192	116.69
454.412	101.69
454.633	91.69
454.853	99.69
455.073	101.69
455.294	100.69
455.514	102.69
455.734	85.69
455.955	105.69
456.175	90.69
456.395	78.69
456.616	76.69
456.836	77.69
457.056	91.69
457.276	87.69
457.497	100.69
457.717	90.69
457.937	82.69
458.157	102.69
458.377	84.69
458.598	105.69
458.818	131.69
459.038	144.69
459.258	107.69
459.478	95.69
459.698	88.69
459.918	88.69
460.138	84.69
460.358	97.69
460.578	97.69
460.798	87.69
461.018	80.69
461.238	84.69
461.458	80.69
461.678	77.69
461.898	86.69
462.118	77.69
462.338	87.69
462.558	104.69
462.777	90.69
462.997	82.69
463.217	103.69
463.437	90.69
463.657	86.69
463.876	99.69
464.096	96.69
464.316	87.69
464.536	102.69
464.755	106.69
464.975	102.69
465.195	162.69
465.414	134.69
465.634	85.69
465.854	85.69
466.073	92.69
466.293	98.69
466.512	84.69
466.732	99.69
466.951	91.69
467.171	94.69
467.391	104.69
467.61	105.69
467.829	93.69
468.049	79.69
468.268	88.69
468.488	80.69
468.707	101.69
468.927	96.69
469.146	75.69
469.365	91.69
469.585	72.69
469.804	88.69
470.023	98.69
470.243	98.69
470.462	93.69
470.681	111.69
470.901	88.69
471.12	98.69
471.339	98.69
471.558	86.69
471.777	85.69
471.997	85.69
472.216	92.69
472.435	105.69
472.654	82.69
472.873	88.69
473.092	83.69
473.311	85.69
473.53	86.69
473.749	93.69
473.968	96.69
474.187	114.69
474.406	85.69
474.625	84.69
474.844	96.69
475.063	84.69
475.282	94.69
475.501	92.69
475.72	89.69
475.939	86.69
476.158	95.69
476.377	98.69
476.596	90.69
476.814	95.69
477.033	91.69
477.252	88.69
477.471	73.69
477.69	84.69
477.908	89.69
478.127	93.69
478.346	85.69
478.564	92.69
478.783	95.69
479.002	89.69
479.22	84.69
479.439	109.69
479.658	103.69
479.876	91.69
480.095	99.69
480.313	91.69
480.532	87.69
480.751	88.69
480.969	105.69
481.188	108.69
481.406	113.69
481.624	93.69
481.843	89.69
482.061	80.69
482.28	89.69
482.498	92.69
482.717	72.69
482.935	94.69
483.153	91.69
483.372	106.69
483.59	98.69
483.808	80.69
484.027	94.69
484.245	103.69
484.463	94.69
484.681	97.69
484.9	104.69
485.118	98.69
485.336	99.69
485.554	98.69
485.772	107.69
485.99	113.69
486.209	113.69
486.427	110.69
486.645	107.69
486.863	119.69
487.081	91.69
487.299	112.69
487.517	92.69
487.735	99.69
487.953	99.69
488.171	99.69
488.389	91.69
488.607	105.69
488.825	100.69
489.043	87.69
489.261	96.69
489.479	112.69
489.696	85.69
489.914	81.69
490.132	96.69
490.35	98.69
490.568	94.69
490.786	92.69
491.003	93.69
491.221	78.69
491.439	101.69
491.657	98.69
491.874	74.69
492.092	86.69
492.31	82.69
492.527	87.69
492.745	92.69
492.963	98.69
493.18	102.69
493.398	89.69
493.615	88.69
493.833	103.69
494.05	106.69
494.268	78.69
494.485	88.69
494.703	86.69
494.92	99.69
495.138	92.69
495.355	74.69
495.573	88.69
495.79	101.69
496.008	92.69
496.225	92.69
496.442	94.69
496.66	94.69
496.877	99.69
497.094	91.69
497.312	83.69
497.529	85.69
497.746	97.69
497.963	102.69
498.181	94.69
498.398	94.69
498.615	96.69
498.832	107.69
499.049	91.69
499.267	104.69
499.484	99.69
499.701	86.69
499.918	94.69
500.135	90.69
500.352	82.69
500.569	89.69
500.786	89.69
501.003	104.69
501.22	90.69
501.437	103.69
501.654	104.69
501.871	101.69
502.088	86.69
502.305	96.69
502.522	93.69
502.739	80.69
502.956	90.69
503.172	92.69
503.389	98.69
503.606	104.69
503.823	98.69
504.04	88.69
504.256	104.69
504.473	89.69
504.69	82.69
504.907	86.69
505.123	92.69
505.34	96.69
505.557	94.69
505.773	91.69
505.99	83.69
506.207	101.69
506.423	95.69
506.64	100.69
506.856	95.69
507.073	89.69
507.289	101.69
507.506	95.69
507.722	104.69
507.939	96.69
508.155	91.69
508.372	90.69
508.588	100.69
508.805	96.69
509.021	82.69
509.238	104.69
509.454	101.69
509.67	101.69
509.887	118.69
510.103	134.69
510.319	187.69
510.536	707.69
510.752	2171.69
510.968	610.69
511.184	149.69
511.401	109.69
511.617	90.69
511.833	107.69
512.049	97.69
512.265	83.69
512.481	97.69
512.698	99.69
512.914	90.69
513.13	101.69
513.346	76.69
513.562	91.69
513.778	90.69
513.994	101.69
514.21	103.69
514.426	116.69
514.642	124.69
514.858	130.69
515.074	151.69
515.29	414.69
515.506	1352.69
