Data from Uncirc_1986_H10_HRD10591_00060.txt Node
Date: Wed Jan 03 12:14:38 EST 2024
User: Yrep
Spectrometer: HR+D1059
Trigger mode: 1
Integration Time (sec): 1.000000E-1
Scans to average: 1
Electric dark correction enabled: true
Nonlinearity correction enabled: false
Boxcar width: 0
XAxis mode: Wavelengths
Number of Pixels in Spectrum: 2048
>>>>>Begin Spectral Data<<<<<
223.165	-13
223.4	-13
223.635	-13
223.869	-30
224.104	-15
224.338	-4
224.573	-17
224.808	-10
225.042	8
225.277	-1
225.511	-9
225.746	-8
225.98	10
226.215	12
226.449	22
226.683	9
226.918	20
227.152	26
227.387	31
227.621	38
227.856	48
228.09	59
228.324	43
228.559	56
228.793	55
229.027	66
229.262	63
229.496	79
229.73	70
229.964	71
230.199	76
230.433	59
230.667	81
230.901	69
231.136	65
231.37	84
231.604	80
231.838	96
232.072	92
232.306	79
232.541	78
232.775	69
233.009	83
233.243	90
233.477	91
233.711	79
233.945	83
234.179	96
234.413	92
234.647	70
234.881	87
235.115	81
235.349	71
235.583	88
235.817	85
236.051	80
236.285	66
236.519	89
236.753	79
236.987	67
237.221	86
237.455	81
237.689	83
237.922	80
238.156	78
238.39	74
238.624	87
238.858	83
239.091	72
239.325	90
239.559	76
239.793	83
240.027	75
240.26	69
240.494	71
240.728	74
240.961	59
241.195	85
241.429	84
241.662	75
241.896	77
242.13	76
242.363	83
242.597	89
242.83	75
243.064	70
243.298	80
243.531	68
243.765	83
243.998	67
244.232	91
244.465	97
244.699	80
244.932	79
245.166	83
245.399	73
245.633	79
245.866	81
246.099	79
246.333	76
246.566	74
246.8	84
247.033	79
247.266	77
247.5	88
247.733	91
247.966	80
248.2	76
248.433	79
248.666	62
248.899	82
249.133	92
249.366	92
249.599	93
249.832	76
250.066	95
250.299	79
250.532	87
250.765	74
250.998	73
251.231	76
251.465	78
251.698	69
251.931	75
252.164	86
252.397	66
252.63	95
252.863	80
253.096	85
253.329	89
253.562	79
253.795	92
254.028	89
254.261	87
254.494	98
254.727	91
254.96	85
255.193	87
255.426	91
255.659	96
255.892	81
256.124	86
256.357	73
256.59	79
256.823	87
257.056	89
257.289	79
257.521	96
257.754	89
257.987	90
258.22	73
258.452	96
258.685	83
258.918	101
259.151	86
259.383	82
259.616	83
259.849	81
260.081	92
260.314	96
260.547	90
260.779	96
261.012	79
261.244	95
261.477	92
261.71	79
261.942	110
262.175	114
262.407	89
262.64	81
262.872	68
263.105	88
263.337	84
263.57	86
263.802	84
264.035	89
264.267	85
264.499	92
264.732	77
264.964	87
265.197	85
265.429	89
265.661	84
265.894	81
266.126	97
266.358	85
266.591	91
266.823	94
267.055	84
267.287	82
267.52	89
267.752	97
267.984	85
268.216	91
268.448	93
268.681	83
268.913	84
269.145	77
269.377	91
269.609	85
269.841	85
270.073	109
270.306	90
270.538	98
270.77	73
271.002	91
271.234	83
271.466	88
271.698	99
271.93	81
272.162	88
272.394	95
272.626	91
272.858	68
273.09	97
273.322	84
273.553	87
273.785	81
274.017	97
274.249	92
274.481	103
274.713	83
274.945	78
275.176	85
275.408	83
275.64	102
275.872	90
276.104	101
276.335	95
276.567	95
276.799	111
277.031	98
277.262	89
277.494	88
277.726	102
277.957	91
278.189	86
278.421	93
278.652	87
278.884	88
279.115	67
279.347	93
279.579	81
279.81	88
280.042	94
280.273	96
280.505	73
280.736	89
280.968	86
281.199	91
281.431	98
281.662	79
281.894	93
282.125	96
282.356	113
282.588	126
282.819	105
283.051	109
283.282	88
283.513	71
283.745	95
283.976	96
284.207	98
284.439	84
284.67	76
284.901	79
285.132	81
285.364	96
285.595	88
285.826	98
286.057	89
286.288	104
286.52	100
286.751	90
286.982	100
287.213	95
287.444	98
287.675	89
287.906	83
288.138	83
288.369	96
288.6	77
288.831	73
289.062	98
289.293	82
289.524	89
289.755	91
289.986	77
290.217	85
290.448	93
290.679	96
290.91	75
291.141	79
291.371	74
291.602	108
291.833	81
292.064	105
292.295	95
292.526	101
292.757	89
292.987	81
293.218	76
293.449	101
293.68	101
293.91	88
294.141	99
294.372	88
294.603	102
294.833	99
295.064	81
295.295	99
295.525	101
295.756	96
295.987	108
296.217	130
296.448	130
296.679	95
296.909	75
297.14	73
297.37	79
297.601	95
297.831	97
298.062	95
298.292	88
298.523	85
298.753	92
298.984	91
299.214	90
299.445	89
299.675	86
299.905	93
300.136	85
300.366	79
300.597	92
300.827	101
301.057	100
301.288	89
301.518	76
301.748	97
301.979	109
302.209	100
302.439	97
302.669	79
302.9	88
303.13	79
303.36	84
303.59	99
303.82	105
304.051	101
304.281	84
304.511	76
304.741	89
304.971	90
305.201	95
305.431	92
305.661	81
305.891	87
306.121	96
306.352	99
306.582	94
306.812	82
307.042	93
307.272	91
307.502	108
307.731	96
307.961	87
308.191	87
308.421	103
308.651	88
308.881	101
309.111	92
309.341	88
309.571	102
309.8	96
310.03	106
310.26	91
310.49	104
310.72	90
310.949	91
311.179	108
311.409	71
311.639	99
311.868	83
312.098	100
312.328	98
312.557	97
312.787	98
313.017	105
313.246	87
313.476	90
313.706	96
313.935	94
314.165	90
314.394	105
314.624	99
314.853	93
315.083	95
315.312	108
315.542	88
315.771	79
316.001	92
316.23	95
316.46	99
316.689	107
316.919	87
317.148	107
317.377	99
317.607	88
317.836	94
318.065	87
318.295	87
318.524	103
318.753	104
318.983	99
319.212	103
319.441	91
319.67	110
319.9	106
320.129	102
320.358	96
320.587	93
320.816	107
321.046	101
321.275	99
321.504	105
321.733	100
321.962	103
322.191	98
322.42	105
322.649	116
322.878	108
323.108	103
323.337	109
323.566	131
323.795	133
324.024	182
324.253	346
324.482	735
324.71	1471
324.939	1922
325.168	708
325.397	233
325.626	136
325.855	130
326.084	125
326.313	115
326.542	135
326.77	205
326.999	400
327.228	851
327.457	1527
327.686	1226
327.914	353
328.143	181
328.372	134
328.6	116
328.829	119
329.058	122
329.287	127
329.515	107
329.744	97
329.972	94
330.201	114
330.43	133
330.658	129
330.887	126
331.115	111
331.344	99
331.572	105
331.801	109
332.03	99
332.258	87
332.486	96
332.715	105
332.943	89
333.172	107
333.4	102
333.629	101
333.857	120
334.085	95
334.314	114
334.542	97
334.771	99
334.999	81
335.227	106
335.455	109
335.684	107
335.912	111
336.14	96
336.369	97
336.597	91
336.825	101
337.053	97
337.281	80
337.51	98
337.738	89
337.966	83
338.194	99
338.422	85
338.65	100
338.878	100
339.106	91
339.334	81
339.562	95
339.79	111
340.018	89
340.246	93
340.474	88
340.702	84
340.93	97
341.158	77
341.386	83
341.614	93
341.842	87
342.07	99
342.298	92
342.526	89
342.754	69
342.981	85
343.209	101
343.437	95
343.665	98
343.893	84
344.12	95
344.348	89
344.576	90
344.804	86
345.031	91
345.259	94
345.487	105
345.714	95
345.942	89
346.17	97
346.397	78
346.625	95
346.853	108
347.08	101
347.308	87
347.535	93
347.763	94
347.99	103
348.218	99
348.445	91
348.673	98
348.9	102
349.128	105
349.355	89
349.583	97
349.81	108
350.037	104
350.265	83
350.492	91
350.72	109
350.947	119
351.174	109
351.402	115
351.629	110
351.856	94
352.083	94
352.311	97
352.538	115
352.765	109
352.992	103
353.22	109
353.447	97
353.674	112
353.901	99
354.128	93
354.355	78
354.583	109
354.81	105
355.037	98
355.264	99
355.491	94
355.718	102
355.945	100
356.172	84
356.399	108
356.626	88
356.853	79
357.08	91
357.307	91
357.534	92
357.761	105
357.988	108
358.215	87
358.441	87
358.668	81
358.895	90
359.122	103
359.349	94
359.576	90
359.802	104
360.029	106
360.256	104
360.483	92
360.709	92
360.936	87
361.163	80
361.39	114
361.616	96
361.843	97
362.07	100
362.296	102
362.523	83
362.749	101
362.976	95
363.203	85
363.429	94
363.656	88
363.882	81
364.109	93
364.335	96
364.562	91
364.788	99
365.015	93
365.241	104
365.468	98
365.694	104
365.92	105
366.147	85
366.373	96
366.599	90
366.826	90
367.052	92
367.278	84
367.505	101
367.731	101
367.957	102
368.184	90
368.41	93
368.636	96
368.862	101
369.089	102
369.315	97
369.541	100
369.767	97
369.993	93
370.219	94
370.445	87
370.672	103
370.898	84
371.124	86
371.35	98
371.576	89
371.802	85
372.028	92
372.254	96
372.48	94
372.706	80
372.932	93
373.158	91
373.384	93
373.61	80
373.835	105
374.061	95
374.287	76
374.513	94
374.739	105
374.965	82
375.191	109
375.416	90
375.642	95
375.868	85
376.094	97
376.319	94
376.545	81
376.771	89
376.997	89
377.222	99
377.448	79
377.674	72
377.899	88
378.125	96
378.35	88
378.576	87
378.802	100
379.027	96
379.253	106
379.478	102
379.704	76
379.929	90
380.155	99
380.38	80
380.606	87
380.831	100
381.057	99
381.282	99
381.507	102
381.733	89
381.958	88
382.184	110
382.409	82
382.634	105
382.86	111
383.085	86
383.31	97
383.535	96
383.761	106
383.986	106
384.211	96
384.436	105
384.662	88
384.887	94
385.112	104
385.337	100
385.562	112
385.787	100
386.013	99
386.238	118
386.463	113
386.688	99
386.913	114
387.138	99
387.363	90
387.588	105
387.813	98
388.038	97
388.263	111
388.488	115
388.713	82
388.938	101
389.163	92
389.387	93
389.612	99
389.837	86
390.062	92
390.287	94
390.512	107
390.736	110
390.961	105
391.186	95
391.411	98
391.636	104
391.86	97
392.085	94
392.31	103
392.534	100
392.759	93
392.984	85
393.208	99
393.433	92
393.658	79
393.882	88
394.107	85
394.331	93
394.556	95
394.78	89
395.005	102
395.229	96
395.454	97
395.678	84
395.903	102
396.127	95
396.352	92
396.576	90
396.801	85
397.025	90
397.249	89
397.474	85
397.698	91
397.922	92
398.147	88
398.371	88
398.595	81
398.82	93
399.044	77
399.268	90
399.492	94
399.717	106
399.941	87
400.165	86
400.389	84
400.613	99
400.837	87
401.062	91
401.286	91
401.51	92
401.734	93
401.958	85
402.182	98
402.406	138
402.63	102
402.854	86
403.078	91
403.302	81
403.526	76
403.75	92
403.974	96
404.198	103
404.422	83
404.645	94
404.869	100
405.093	95
405.317	83
405.541	100
405.765	98
405.988	101
406.212	144
406.436	194
406.66	123
406.883	94
407.107	104
407.331	94
407.555	91
407.778	98
408.002	100
408.226	87
408.449	89
408.673	88
408.896	87
409.12	83
409.344	92
409.567	91
409.791	92
410.014	82
410.238	93
410.461	93
410.685	112
410.908	94
411.132	106
411.355	87
411.578	85
411.802	95
412.025	110
412.249	92
412.472	84
412.695	94
412.919	97
413.142	91
413.365	79
413.589	97
413.812	88
414.035	101
414.258	92
414.482	83
414.705	71
414.928	98
415.151	89
415.374	90
415.597	88
415.821	86
416.044	88
416.267	97
416.49	79
416.713	91
416.936	78
417.159	84
417.382	84
417.605	88
417.828	91
418.051	99
418.274	93
418.497	91
418.72	91
418.943	82
419.166	92
419.389	91
419.611	87
419.834	96
420.057	100
420.28	102
420.503	108
420.726	84
420.948	95
421.171	81
421.394	91
421.617	72
421.839	93
422.062	103
422.285	94
422.507	106
422.73	92
422.953	102
423.175	91
423.398	91
423.621	81
423.843	86
424.066	77
424.288	88
424.511	99
424.733	103
424.956	104
425.178	100
425.401	107
425.623	99
425.846	88
426.068	95
426.291	104
426.513	81
426.735	79
426.958	104
427.18	106
427.402	127
427.625	147
427.847	111
428.069	107
428.292	82
428.514	96
428.736	78
428.958	79
429.181	80
429.403	96
429.625	97
429.847	83
430.069	110
430.292	88
430.514	89
430.736	84
430.958	103
431.18	92
431.402	87
431.624	100
431.846	87
432.068	89
432.29	83
432.512	95
432.734	87
432.956	99
433.178	97
433.4	112
433.622	105
433.844	104
434.066	89
434.287	114
434.509	92
434.731	85
434.953	76
435.175	81
435.397	85
435.618	95
435.84	105
436.062	123
436.284	103
436.505	91
436.727	106
436.949	79
437.17	85
437.392	88
437.614	105
437.835	99
438.057	104
438.278	109
438.5	98
438.721	117
438.943	105
439.165	95
439.386	80
439.608	83
439.829	97
440.05	120
440.272	126
440.493	81
440.715	79
440.936	89
441.158	84
441.379	80
441.6	100
441.822	85
442.043	90
442.264	92
442.486	89
442.707	77
442.928	106
443.149	121
443.371	116
443.592	110
443.813	95
444.034	114
444.255	99
444.476	100
444.698	94
444.919	93
445.14	135
445.361	109
445.582	123
445.803	135
446.024	136
446.245	137
446.466	104
446.687	90
446.908	96
447.129	96
447.35	93
447.571	85
447.792	102
448.013	93
448.234	103
448.455	100
448.675	101
448.896	107
449.117	106
449.338	85
449.559	122
449.779	131
450	115
450.221	85
450.442	96
450.662	89
450.883	97
451.104	112
451.324	89
451.545	93
451.766	88
451.986	100
452.207	86
452.428	90
452.648	96
452.869	104
453.089	97
453.31	109
453.53	80
453.751	102
453.971	95
454.192	113
454.412	88
454.633	91
454.853	88
455.073	80
455.294	89
455.514	96
455.734	107
455.955	101
456.175	82
456.395	89
456.616	84
456.836	84
457.056	81
457.276	95
457.497	83
457.717	73
457.937	80
458.157	97
458.377	102
458.598	100
458.818	137
459.038	149
459.258	109
459.478	92
459.698	100
459.918	98
460.138	81
460.358	91
460.578	70
460.798	82
461.018	90
461.238	84
461.458	82
461.678	87
461.898	86
462.118	91
462.338	74
462.558	81
462.777	89
462.997	88
463.217	87
463.437	92
463.657	96
463.876	88
464.096	97
464.316	91
464.536	87
464.755	104
464.975	93
465.195	148
465.414	147
465.634	88
465.854	89
466.073	86
466.293	87
466.512	91
466.732	83
466.951	72
467.171	92
467.391	95
467.61	86
467.829	84
468.049	79
468.268	87
468.488	87
468.707	85
468.927	96
469.146	74
469.365	67
469.585	85
469.804	95
470.023	100
470.243	101
470.462	86
470.681	99
470.901	83
471.12	79
471.339	93
471.558	81
471.777	90
471.997	99
472.216	83
472.435	89
472.654	96
472.873	87
473.092	87
473.311	82
473.53	91
473.749	90
473.968	101
474.187	93
474.406	95
474.625	90
474.844	81
475.063	90
475.282	87
475.501	86
475.72	94
475.939	79
476.158	86
476.377	95
476.596	80
476.814	85
477.033	102
477.252	90
477.471	85
477.69	86
477.908	91
478.127	98
478.346	98
478.564	90
478.783	99
479.002	95
479.22	108
479.439	97
479.658	105
479.876	99
480.095	88
480.313	101
480.532	81
480.751	95
480.969	92
481.188	125
481.406	85
481.624	77
481.843	85
482.061	113
482.28	103
482.498	101
482.717	85
482.935	88
483.153	95
483.372	93
483.59	84
483.808	87
484.027	86
484.245	101
484.463	91
484.681	79
484.9	94
485.118	87
485.336	91
485.554	86
485.772	106
485.99	108
486.209	108
486.427	112
486.645	113
486.863	119
487.081	103
487.299	80
487.517	89
487.735	87
487.953	71
488.171	101
488.389	97
488.607	91
488.825	88
489.043	98
489.261	88
489.479	93
489.696	87
489.914	84
490.132	96
490.35	91
490.568	99
490.786	87
491.003	86
491.221	97
491.439	88
491.657	89
491.874	98
492.092	94
492.31	98
492.527	85
492.745	99
492.963	94
493.18	83
493.398	99
493.615	96
493.833	101
494.05	95
494.268	103
494.485	99
494.703	91
494.92	96
495.138	81
495.355	93
495.573	91
495.79	100
496.008	87
496.225	103
496.442	85
496.66	87
496.877	77
497.094	87
497.312	100
497.529	97
497.746	90
497.963	92
498.181	92
498.398	97
498.615	89
498.832	99
499.049	94
499.267	86
499.484	88
499.701	93
499.918	78
500.135	93
500.352	99
500.569	85
500.786	82
501.003	94
501.22	81
501.437	84
501.654	105
501.871	96
502.088	99
502.305	97
502.522	75
502.739	96
502.956	82
503.172	94
503.389	94
503.606	108
503.823	96
504.04	80
504.256	104
504.473	93
504.69	94
504.907	94
505.123	93
505.34	89
505.557	82
505.773	97
505.99	72
506.207	88
506.423	90
506.64	95
506.856	75
507.073	101
507.289	104
507.506	81
507.722	98
507.939	97
508.155	84
508.372	89
508.588	91
508.805	97
509.021	97
509.238	88
509.454	94
509.67	93
509.887	106
510.103	121
510.319	180
510.536	639
510.752	1930
510.968	551
511.184	151
511.401	106
511.617	98
511.833	82
512.049	108
512.265	97
512.481	85
512.698	105
512.914	92
513.13	90
513.346	87
513.562	99
513.778	104
513.994	96
514.21	84
514.426	124
514.642	124
514.858	130
515.074	141
515.29	362
515.506	1171
515.721	420
515.937	139
516.153	111
516.369	85
516.585	104
516.801	94
517.016	99
517.232	80
517.448	91
517.664	98
517.879	92
518.095	89
518.311	97
518.527	95
518.742	90
518.958	97
519.173	89
519.389	109
519.605	103
519.82	92
520.036	91
520.251	107
520.467	115
520.682	94
520.898	99
521.113	117
521.329	125
521.544	184
521.76	470
521.975	1937
522.19	1135
522.406	283
522.621	134
522.836	101
523.052	106
523.267	90
523.482	87
523.698	100
523.913	99
524.128	85
524.343	101
524.559	91
524.774	86
524.989	84
525.204	100
525.419	82
525.634	96
525.849	93
526.064	91
526.28	103
526.495	98
526.71	93
526.925	87
527.14	97
527.355	82
527.57	99
527.785	97
527.999	98
528.214	98
528.429	91
528.644	79
528.859	85
529.074	99
529.289	118
529.503	149
529.718	107
529.933	100
530.148	86
530.363	87
530.577	87
530.792	85
531.007	96
531.221	99
531.436	97
531.651	84
531.865	105
532.08	91
532.295	81
532.509	83
532.724	83
532.938	95
533.153	95
533.367	97
533.582	103
533.796	91
534.011	79
534.225	103
534.44	94
534.654	81
534.868	94
535.083	95
535.297	100
535.511	99
535.726	106
535.94	99
536.154	112
536.369	95
536.583	91
536.797	93
537.011	88
537.225	88
537.44	93
537.654	87
537.868	87
538.082	93
538.296	92
538.51	92
538.724	98
538.938	100
539.153	87
539.367	98
539.581	93
539.795	82
540.009	91
540.222	87
540.436	97
540.65	95
540.864	101
541.078	100
541.292	109
541.506	96
541.72	101
541.934	91
542.147	96
542.361	99
542.575	96
542.789	92
543.002	99
543.216	94
543.43	86
543.644	102
543.857	106
544.071	99
544.285	69
544.498	91
544.712	72
544.925	103
545.139	83
545.352	77
545.566	98
545.779	80
545.993	105
546.206	89
546.42	81
546.633	93
546.847	82
547.06	93
547.274	103
547.487	84
547.7	83
547.914	97
548.127	86
548.34	97
548.554	95
548.767	91
548.98	85
549.193	83
549.407	102
549.62	96
549.833	97
550.046	89
550.259	92
550.473	85
550.686	87
550.899	77
551.112	88
551.325	95
551.538	81
551.751	83
551.964	85
552.177	100
552.39	88
552.603	99
552.816	82
553.029	104
553.242	86
553.455	95
553.667	105
553.88	109
554.093	101
554.306	104
554.519	100
554.732	89
554.944	99
555.157	101
555.37	84
555.583	97
555.795	104
556.008	101
556.221	102
556.433	81
556.646	101
556.859	86
557.071	93
557.284	89
557.496	108
557.709	97
557.921	92
558.134	106
558.346	99
558.559	80
558.771	94
558.984	94
559.196	96
559.409	89
559.621	89
559.833	93
560.046	101
560.258	81
560.47	105
560.683	83
560.895	85
561.107	84
561.32	109
561.532	96
561.744	95
561.956	100
562.168	92
562.381	97
562.593	93
562.805	91
563.017	86
563.229	84
563.441	92
563.653	88
563.865	81
564.077	88
564.289	81
564.501	85
564.713	96
564.925	87
565.137	100
565.349	94
565.561	85
565.773	90
565.985	88
566.197	81
566.408	89
566.62	80
566.832	100
567.044	100
567.255	105
567.467	98
567.679	81
567.891	90
568.102	90
568.314	73
568.526	95
568.737	92
568.949	95
569.161	75
569.372	85
569.584	91
569.795	107
570.007	115
570.218	193
570.43	120
570.641	93
570.853	85
571.064	99
571.276	101
571.487	81
571.698	93
571.91	97
572.121	87
572.333	98
572.544	82
572.755	93
572.966	100
573.178	98
573.389	79
573.6	83
573.811	93
574.023	93
574.234	99
574.445	90
574.656	82
574.867	99
575.078	94
575.289	100
575.501	86
575.712	83
575.923	79
576.134	89
576.345	87
576.556	95
576.767	104
576.978	84
577.188	96
577.399	101
577.61	100
577.821	100
578.032	117
578.243	250
578.454	651
578.665	195
578.875	95
579.086	85
579.297	91
579.508	76
579.718	99
579.929	77
580.14	90
580.35	99
580.561	70
580.772	89
580.982	83
581.193	81
581.403	95
581.614	81
581.825	86
582.035	97
582.246	81
582.456	84
582.667	83
582.877	95
583.087	85
583.298	91
583.508	93
583.719	85
