Data from Uncirc_1986_H10_HRD10591_00078.txt Node
Date: Wed Jan 03 12:14:42 EST 2024
User: Yrep
Spectrometer: HR+D1059
Trigger mode: 1
Integration Time (sec): 1.000000E-1
Scans to average: 1
Electric dark correction enabled: true
Nonlinearity correction enabled: false
Boxcar width: 0
XAxis mode: Wavelengths
Number of Pixels in Spectrum: 2048
>>>>>Begin Spectral Data<<<<<
223.165	-3
223.4	-3
223.635	-3
223.869	-10
224.104	-33
224.338	-10
224.573	-26
224.808	-13
225.042	-9
225.277	-3
225.511	14
225.746	-2
225.98	14
226.215	9
226.449	-15
226.683	14
226.918	41
227.152	32
227.387	37
227.621	55
227.856	54
228.09	62
228.324	73
228.559	48
228.793	66
229.027	68
229.262	62
229.496	74
229.73	82
229.964	90
230.199	87
230.433	77
230.667	90
230.901	83
231.136	79
231.37	82
231.604	84
231.838	90
232.072	85
232.306	77
232.541	84
232.775	93
233.009	91
233.243	88
233.477	89
233.711	93
233.945	87
234.179	79
234.413	88
234.647	76
234.881	90
235.115	85
235.349	74
235.583	86
235.817	72
236.051	78
236.285	88
236.519	80
236.753	74
236.987	84
237.221	102
237.455	88
237.689	94
237.922	78
238.156	82
238.39	89
238.624	84
238.858	79
239.091	92
239.325	86
239.559	88
239.793	100
240.027	89
240.26	86
240.494	90
240.728	77
240.961	70
241.195	70
241.429	83
241.662	93
241.896	79
242.13	82
242.363	79
242.597	62
242.83	83
243.064	75
243.298	87
243.531	86
243.765	89
243.998	67
244.232	80
244.465	90
244.699	69
244.932	86
245.166	75
245.399	74
245.633	94
245.866	74
246.099	73
246.333	91
246.566	96
246.8	75
247.033	70
247.266	83
247.5	79
247.733	82
247.966	92
248.2	92
248.433	96
248.666	91
248.899	90
249.133	93
249.366	109
249.599	87
249.832	98
250.066	88
250.299	76
250.532	84
250.765	99
250.998	75
251.231	90
251.465	76
251.698	82
251.931	82
252.164	86
252.397	83
252.63	98
252.863	83
253.096	95
253.329	87
253.562	92
253.795	87
254.028	88
254.261	100
254.494	94
254.727	90
254.96	96
255.193	79
255.426	76
255.659	78
255.892	107
256.124	76
256.357	92
256.59	85
256.823	84
257.056	88
257.289	92
257.521	93
257.754	87
257.987	78
258.22	86
258.452	88
258.685	96
258.918	84
259.151	84
259.383	92
259.616	83
259.849	97
260.081	80
260.314	95
260.547	86
260.779	94
261.012	94
261.244	84
261.477	98
261.71	80
261.942	104
262.175	127
262.407	88
262.64	84
262.872	96
263.105	75
263.337	91
263.57	93
263.802	90
264.035	76
264.267	70
264.499	94
264.732	80
264.964	99
265.197	98
265.429	93
265.661	91
265.894	88
266.126	82
266.358	77
266.591	82
266.823	90
267.055	91
267.287	90
267.52	80
267.752	89
267.984	98
268.216	76
268.448	88
268.681	86
268.913	105
269.145	87
269.377	90
269.609	77
269.841	84
270.073	100
270.306	82
270.538	89
270.77	83
271.002	93
271.234	75
271.466	79
271.698	91
271.93	94
272.162	93
272.394	86
272.626	94
272.858	86
273.09	93
273.322	85
273.553	86
273.785	94
274.017	82
274.249	73
274.481	98
274.713	98
274.945	99
275.176	99
275.408	98
275.64	101
275.872	76
276.104	71
276.335	95
276.567	96
276.799	114
277.031	99
277.262	80
277.494	90
277.726	98
277.957	95
278.189	86
278.421	91
278.652	82
278.884	85
279.115	83
279.347	84
279.579	91
279.81	87
280.042	83
280.273	95
280.505	106
280.736	92
280.968	89
281.199	91
281.431	86
281.662	92
281.894	84
282.125	104
282.356	134
282.588	129
282.819	112
283.051	76
283.282	79
283.513	96
283.745	94
283.976	95
284.207	92
284.439	100
284.67	99
284.901	90
285.132	89
285.364	98
285.595	92
285.826	89
286.057	99
286.288	88
286.52	103
286.751	95
286.982	82
287.213	78
287.444	89
287.675	90
287.906	94
288.138	104
288.369	107
288.6	100
288.831	78
289.062	106
289.293	99
289.524	95
289.755	92
289.986	68
290.217	92
290.448	90
290.679	86
290.91	108
291.141	91
291.371	81
291.602	101
291.833	89
292.064	92
292.295	96
292.526	96
292.757	87
292.987	83
293.218	91
293.449	92
293.68	83
293.91	90
294.141	95
294.372	87
294.603	96
294.833	86
295.064	74
295.295	100
295.525	101
295.756	90
295.987	127
296.217	147
296.448	130
296.679	98
296.909	75
297.14	82
297.37	91
297.601	92
297.831	88
298.062	100
298.292	84
298.523	98
298.753	86
298.984	84
299.214	92
299.445	94
299.675	90
299.905	104
300.136	94
300.366	83
300.597	88
300.827	101
301.057	97
301.288	99
301.518	90
301.748	101
301.979	100
302.209	98
302.439	90
302.669	107
302.9	78
303.13	102
303.36	101
303.59	115
303.82	92
304.051	95
304.281	93
304.511	102
304.741	96
304.971	98
305.201	102
305.431	98
305.661	91
305.891	106
306.121	93
306.352	102
306.582	109
306.812	85
307.042	86
307.272	109
307.502	96
307.731	79
307.961	85
308.191	75
308.421	97
308.651	108
308.881	94
309.111	96
309.341	91
309.571	98
309.8	91
310.03	99
310.26	105
310.49	108
310.72	100
310.949	105
311.179	100
311.409	88
311.639	100
311.868	98
312.098	87
312.328	107
312.557	116
312.787	116
313.017	106
313.246	96
313.476	94
313.706	97
313.935	106
314.165	98
314.394	110
314.624	103
314.853	111
315.083	93
315.312	95
315.542	96
315.771	89
316.001	98
316.23	93
316.46	90
316.689	102
316.919	107
317.148	107
317.377	101
317.607	95
317.836	92
318.065	83
318.295	92
318.524	94
318.753	94
318.983	91
319.212	98
319.441	107
319.67	117
319.9	100
320.129	85
320.358	94
320.587	95
320.816	102
321.046	103
321.275	109
321.504	101
321.733	103
321.962	94
322.191	102
322.42	107
322.649	122
322.878	119
323.108	126
323.337	122
323.566	133
323.795	162
324.024	211
324.253	395
324.482	826
324.71	1687
324.939	2204
325.168	829
325.397	254
325.626	148
325.855	136
326.084	128
326.313	131
326.542	155
326.77	222
326.999	491
327.228	933
327.457	1707
327.686	1397
327.914	383
328.143	210
328.372	150
328.6	132
328.829	112
329.058	126
329.287	139
329.515	108
329.744	123
329.972	107
330.201	123
330.43	105
330.658	130
330.887	141
331.115	124
331.344	98
331.572	107
331.801	105
332.03	104
332.258	120
332.486	103
332.715	107
332.943	104
333.172	98
333.4	102
333.629	110
333.857	123
334.085	103
334.314	104
334.542	122
334.771	112
334.999	99
335.227	110
335.455	106
335.684	113
335.912	95
336.14	99
336.369	95
336.597	106
336.825	94
337.053	93
337.281	101
337.51	97
337.738	93
337.966	100
338.194	101
338.422	102
338.65	109
338.878	100
339.106	96
339.334	86
339.562	95
339.79	85
340.018	102
340.246	86
340.474	98
340.702	94
340.93	91
341.158	96
341.386	91
341.614	107
341.842	96
342.07	87
342.298	108
342.526	103
342.754	86
342.981	96
343.209	86
343.437	93
343.665	98
343.893	102
344.12	99
344.348	102
344.576	96
344.804	101
345.031	92
345.259	109
345.487	92
345.714	113
345.942	97
346.17	97
346.397	88
346.625	109
346.853	108
347.08	101
347.308	110
347.535	112
347.763	105
347.99	105
348.218	104
348.445	97
348.673	116
348.9	97
349.128	112
349.355	104
349.583	76
349.81	103
350.037	98
350.265	102
350.492	91
350.72	98
350.947	97
351.174	120
351.402	111
351.629	109
351.856	122
352.083	90
352.311	108
352.538	114
352.765	117
352.992	116
353.22	116
353.447	111
353.674	107
353.901	98
354.128	103
354.355	107
354.583	107
354.81	100
355.037	98
355.264	105
355.491	106
355.718	108
355.945	100
356.172	108
356.399	102
356.626	100
356.853	103
357.08	94
357.307	102
357.534	94
357.761	89
357.988	100
358.215	102
358.441	92
358.668	92
358.895	94
359.122	95
359.349	89
359.576	106
359.802	101
360.029	112
360.256	113
360.483	117
360.709	86
360.936	103
361.163	105
361.39	96
361.616	96
361.843	96
362.07	103
362.296	98
362.523	97
362.749	88
362.976	102
363.203	93
363.429	77
363.656	88
363.882	99
364.109	103
364.335	108
364.562	93
364.788	86
365.015	101
365.241	116
365.468	118
365.694	110
365.92	104
366.147	100
366.373	76
366.599	95
366.826	106
367.052	107
367.278	97
367.505	90
367.731	94
367.957	91
368.184	92
368.41	92
368.636	127
368.862	124
369.089	115
369.315	108
369.541	86
369.767	100
369.993	109
370.219	92
370.445	77
370.672	88
370.898	90
371.124	76
371.35	96
371.576	102
371.802	96
372.028	103
372.254	115
372.48	84
372.706	114
372.932	101
373.158	98
373.384	100
373.61	91
373.835	94
374.061	75
374.287	93
374.513	94
374.739	86
374.965	86
375.191	94
375.416	88
375.642	95
375.868	98
376.094	94
376.319	100
376.545	105
376.771	97
376.997	100
377.222	98
377.448	92
377.674	101
377.899	89
378.125	84
378.35	91
378.576	101
378.802	94
379.027	91
379.253	103
379.478	91
379.704	96
379.929	96
380.155	92
380.38	94
380.606	90
380.831	96
381.057	96
381.282	99
381.507	105
381.733	107
381.958	112
382.184	97
382.409	104
382.634	104
382.86	93
383.085	103
383.31	110
383.535	99
383.761	108
383.986	102
384.211	92
384.436	103
384.662	106
384.887	103
385.112	98
385.337	108
385.562	110
385.787	102
386.013	92
386.238	100
386.463	98
386.688	117
386.913	97
387.138	109
387.363	103
387.588	94
387.813	100
388.038	116
388.263	112
388.488	106
388.713	95
388.938	116
389.163	86
389.387	102
389.612	94
389.837	97
390.062	103
390.287	96
390.512	104
390.736	103
390.961	101
391.186	100
391.411	108
391.636	94
391.86	84
392.085	107
392.31	89
392.534	87
392.759	96
392.984	99
393.208	90
393.433	94
393.658	105
393.882	89
394.107	82
394.331	80
394.556	103
394.78	98
395.005	92
395.229	102
395.454	96
395.678	106
395.903	91
396.127	93
396.352	92
396.576	83
396.801	96
397.025	97
397.249	100
397.474	100
397.698	105
397.922	93
398.147	84
398.371	89
398.595	86
398.82	81
399.044	95
399.268	96
399.492	98
399.717	82
399.941	96
400.165	103
400.389	98
400.613	103
400.837	96
401.062	92
401.286	98
401.51	95
401.734	86
401.958	103
402.182	118
402.406	150
402.63	111
402.854	111
403.078	91
403.302	86
403.526	104
403.75	92
403.974	82
404.198	108
404.422	90
404.645	109
404.869	95
405.093	92
405.317	108
405.541	95
405.765	107
405.988	119
406.212	182
406.436	228
406.66	163
406.883	106
407.107	102
407.331	112
407.555	99
407.778	101
408.002	91
408.226	101
408.449	103
408.673	87
408.896	99
409.12	100
409.344	86
409.567	96
409.791	112
410.014	104
410.238	102
410.461	107
410.685	85
410.908	99
411.132	101
411.355	98
411.578	83
411.802	98
412.025	104
412.249	99
412.472	98
412.695	100
412.919	106
413.142	101
413.365	87
413.589	100
413.812	115
414.035	106
414.258	104
414.482	99
414.705	89
414.928	90
415.151	92
415.374	99
415.597	92
415.821	98
416.044	102
416.267	89
416.49	106
416.713	98
416.936	85
417.159	87
417.382	97
417.605	92
417.828	104
418.051	92
418.274	88
418.497	95
418.72	88
418.943	91
419.166	96
419.389	97
419.611	90
419.834	96
420.057	106
420.28	100
420.503	79
420.726	106
420.948	96
421.171	95
421.394	94
421.617	92
421.839	74
422.062	92
422.285	104
422.507	107
422.73	110
422.953	89
423.175	102
423.398	94
423.621	116
423.843	89
424.066	106
424.288	107
424.511	94
424.733	101
424.956	125
425.178	98
425.401	108
425.623	114
425.846	91
426.068	93
426.291	90
426.513	103
426.735	90
426.958	91
427.18	112
427.402	129
427.625	149
427.847	122
428.069	110
428.292	96
428.514	89
428.736	87
428.958	72
429.181	82
429.403	82
429.625	102
429.847	94
430.069	111
430.292	88
430.514	92
430.736	92
430.958	88
431.18	92
431.402	100
431.624	80
431.846	97
432.068	93
432.29	88
432.512	106
432.734	99
432.956	100
433.178	102
433.4	101
433.622	91
433.844	98
434.066	83
434.287	96
434.509	100
434.731	108
434.953	105
435.175	93
435.397	103
435.618	107
435.84	103
436.062	125
436.284	123
436.505	99
436.727	109
436.949	80
437.17	92
437.392	90
437.614	92
437.835	115
438.057	115
438.278	107
438.5	109
438.721	131
438.943	99
439.165	105
439.386	93
439.608	109
439.829	110
440.05	123
440.272	142
440.493	106
440.715	105
440.936	76
441.158	86
441.379	73
441.6	79
441.822	108
442.043	106
442.264	102
442.486	105
442.707	113
442.928	113
443.149	134
443.371	118
443.592	105
443.813	106
444.034	112
444.255	101
444.476	93
444.698	92
444.919	88
445.14	118
445.361	103
445.582	117
445.803	136
446.024	140
446.245	134
446.466	109
446.687	90
446.908	91
447.129	78
447.35	98
447.571	96
447.792	88
448.013	95
448.234	117
448.455	123
448.675	118
448.896	123
449.117	90
449.338	114
449.559	124
449.779	130
450	113
450.221	102
450.442	87
450.662	103
450.883	115
451.104	123
451.324	109
451.545	101
451.766	93
451.986	82
452.207	102
452.428	95
452.648	98
452.869	92
453.089	110
453.31	120
453.53	92
453.751	94
453.971	103
454.192	109
454.412	107
454.633	96
454.853	106
455.073	76
455.294	98
455.514	94
455.734	82
455.955	92
456.175	106
456.395	87
456.616	93
456.836	89
457.056	83
457.276	84
457.497	98
457.717	95
457.937	88
458.157	108
458.377	96
458.598	115
458.818	151
459.038	164
459.258	111
459.478	95
459.698	92
459.918	90
460.138	93
460.358	103
460.578	80
460.798	95
461.018	106
461.238	107
461.458	87
461.678	85
461.898	93
462.118	98
462.338	96
462.558	97
462.777	82
462.997	89
463.217	103
463.437	94
463.657	91
463.876	82
464.096	93
464.316	101
464.536	94
464.755	108
464.975	129
465.195	192
465.414	168
465.634	104
465.854	88
466.073	101
466.293	72
466.512	72
466.732	85
466.951	79
467.171	99
467.391	105
467.61	108
467.829	105
468.049	95
468.268	104
468.488	88
468.707	79
468.927	93
469.146	78
469.365	91
469.585	95
469.804	91
470.023	97
470.243	102
470.462	94
470.681	111
470.901	111
471.12	90
471.339	98
471.558	94
471.777	91
471.997	92
472.216	107
472.435	113
472.654	96
472.873	75
473.092	96
473.311	84
473.53	93
473.749	90
473.968	106
474.187	115
474.406	102
474.625	90
474.844	90
475.063	80
475.282	93
475.501	106
475.72	98
475.939	94
476.158	87
476.377	89
476.596	106
476.814	99
477.033	99
477.252	83
477.471	97
477.69	95
477.908	91
478.127	92
478.346	92
478.564	102
478.783	95
479.002	94
479.22	103
479.439	95
479.658	111
479.876	90
480.095	84
480.313	101
480.532	92
480.751	91
480.969	92
481.188	121
481.406	123
481.624	97
481.843	87
482.061	92
482.28	92
482.498	79
482.717	104
482.935	87
483.153	102
483.372	96
483.59	101
483.808	100
484.027	95
484.245	107
484.463	94
484.681	93
484.9	103
485.118	93
485.336	103
485.554	107
485.772	107
485.99	109
486.209	103
486.427	106
486.645	101
486.863	120
487.081	113
487.299	98
487.517	88
487.735	90
487.953	71
488.171	96
488.389	108
488.607	108
488.825	89
489.043	90
489.261	90
489.479	92
489.696	101
489.914	94
490.132	82
490.35	99
490.568	100
490.786	90
491.003	101
491.221	88
491.439	98
491.657	86
491.874	93
492.092	90
492.31	104
492.527	102
492.745	102
492.963	110
493.18	89
493.398	104
493.615	105
493.833	100
494.05	102
494.268	101
494.485	89
494.703	94
494.92	99
495.138	104
495.355	88
495.573	94
495.79	88
496.008	87
496.225	88
496.442	98
496.66	102
496.877	87
497.094	95
497.312	101
497.529	94
497.746	102
497.963	95
498.181	99
498.398	100
498.615	116
498.832	116
499.049	91
499.267	90
499.484	100
499.701	103
499.918	104
500.135	93
500.352	94
500.569	109
500.786	85
501.003	80
501.22	87
501.437	92
501.654	107
501.871	107
502.088	95
502.305	101
502.522	83
502.739	101
502.956	103
503.172	93
503.389	91
503.606	110
503.823	104
504.04	82
504.256	88
504.473	95
504.69	103
504.907	93
505.123	100
505.34	94
505.557	84
505.773	93
505.99	94
506.207	93
506.423	95
506.64	103
506.856	94
507.073	91
507.289	83
507.506	100
507.722	122
507.939	114
508.155	98
508.372	99
508.588	95
508.805	84
509.021	98
509.238	93
509.454	102
509.67	95
509.887	108
510.103	128
510.319	208
510.536	780
510.752	2429
510.968	674
511.184	157
511.401	120
511.617	95
511.833	94
512.049	97
512.265	82
512.481	110
512.698	102
512.914	104
513.13	88
513.346	89
513.562	109
513.778	106
513.994	103
514.21	111
514.426	129
514.642	136
514.858	121
515.074	182
515.29	477
515.506	1466
515.721	550
515.937	157
516.153	121
516.369	103
516.585	105
516.801	95
517.016	98
517.232	101
517.448	94
517.664	99
517.879	98
518.095	95
518.311	85
518.527	101
518.742	95
518.958	101
519.173	107
519.389	96
519.605	97
519.82	100
520.036	128
520.251	117
520.467	118
520.682	109
520.898	128
521.113	114
521.329	154
521.544	207
521.76	566
521.975	2474
522.19	1446
522.406	319
522.621	120
522.836	107
523.052	95
523.267	91
523.482	98
523.698	101
523.913	134
524.128	101
524.343	107
524.559	86
524.774	91
524.989	88
525.204	102
525.419	106
525.634	96
525.849	92
526.064	97
526.28	105
526.495	101
526.71	86
526.925	104
527.14	96
527.355	101
527.57	101
527.785	86
527.999	87
528.214	109
528.429	93
528.644	92
528.859	99
529.074	99
529.289	128
529.503	163
529.718	104
529.933	98
530.148	94
530.363	95
530.577	85
530.792	105
531.007	109
531.221	101
531.436	103
531.651	92
531.865	84
532.08	94
532.295	107
532.509	98
532.724	99
532.938	108
533.153	92
533.367	108
533.582	95
533.796	93
534.011	94
534.225	89
534.44	98
534.654	108
534.868	92
535.083	97
535.297	112
535.511	99
535.726	109
535.94	105
536.154	97
536.369	94
536.583	100
536.797	105
537.011	92
537.225	80
537.44	79
537.654	88
537.868	88
538.082	91
538.296	99
538.51	104
538.724	108
538.938	88
539.153	113
539.367	117
539.581	87
539.795	103
540.009	100
540.222	99
540.436	98
540.65	94
540.864	102
541.078	90
541.292	100
541.506	96
541.72	97
541.934	86
542.147	102
542.361	95
542.575	89
542.789	95
543.002	107
543.216	98
543.43	86
543.644	100
543.857	91
544.071	82
544.285	86
544.498	93
544.712	80
544.925	89
545.139	93
545.352	86
545.566	86
545.779	108
545.993	92
546.206	86
546.42	97
546.633	91
546.847	93
547.06	106
547.274	103
547.487	98
547.7	90
547.914	90
548.127	98
548.34	86
548.554	105
548.767	87
548.98	99
549.193	90
549.407	102
549.62	98
549.833	100
550.046	90
550.259	100
550.473	97
550.686	89
550.899	83
551.112	99
551.325	102
551.538	108
551.751	87
551.964	75
552.177	98
552.39	87
552.603	84
552.816	97
553.029	102
553.242	107
553.455	115
553.667	110
553.88	104
554.093	93
554.306	86
554.519	94
554.732	84
554.944	93
555.157	91
555.37	95
555.583	95
555.795	94
556.008	97
556.221	103
556.433	98
556.646	88
556.859	92
557.071	91
557.284	98
557.496	103
557.709	98
557.921	84
558.134	87
558.346	84
558.559	103
558.771	94
558.984	102
559.196	101
559.409	90
559.621	105
559.833	81
560.046	89
560.258	80
560.47	96
560.683	106
560.895	95
561.107	90
561.32	80
561.532	88
561.744	103
561.956	100
562.168	93
562.381	101
562.593	92
562.805	92
563.017	98
563.229	99
563.441	71
563.653	93
563.865	92
564.077	89
564.289	91
564.501	98
564.713	74
564.925	95
565.137	114
565.349	102
565.561	100
565.773	95
565.985	91
566.197	81
566.408	88
566.62	87
566.832	98
567.044	107
567.255	85
567.467	99
567.679	88
567.891	91
568.102	100
568.314	104
568.526	100
568.737	87
568.949	94
569.161	84
569.372	82
569.584	104
569.795	91
570.007	121
570.218	261
570.43	148
570.641	87
570.853	100
571.064	76
571.276	87
571.487	94
571.698	92
571.91	85
572.121	93
572.333	105
572.544	90
572.755	87
572.966	78
573.178	102
573.389	95
573.6	86
573.811	89
574.023	89
574.234	90
574.445	89
574.656	87
574.867	82
575.078	86
575.289	111
575.501	99
575.712	82
575.923	102
576.134	114
576.345	99
576.556	101
576.767	76
576.978	97
577.188	109
577.399	91
577.61	85
577.821	111
578.032	122
578.243	290
578.454	792
578.665	233
578.875	110
579.086	98
579.297	87
579.508	91
579.718	88
579.929	96
580.14	92
