Data from Uncirc_1986_H10_HRD10591_00041.txt Node
Date: Wed Jan 03 12:14:34 EST 2024
User: Yrep
Spectrometer: HR+D1059
Trigger mode: 1
Integration Time (sec): 1.000000E-1
Scans to average: 1
Electric dark correction enabled: true
Nonlinearity correction enabled: false
Boxcar width: 0
XAxis mode: Wavelengths
Number of Pixels in Spectrum: 2048
>>>>>Begin Spectral Data<<<<<
223.165	-4.56
223.4	-4.56
223.635	-4.56
223.869	-8.56
224.104	-21.56
224.338	-0.56
224.573	-16.56
224.808	-16.56
225.042	-15.56
225.277	-3.56
225.511	5.44
225.746	-4.56
225.98	-2.56
226.215	8.44
226.449	7.44
226.683	16.44
226.918	29.44
227.152	27.44
227.387	38.44
227.621	43.44
227.856	32.44
228.09	45.44
228.324	47.44
228.559	54.44
228.793	46.44
229.027	57.44
229.262	62.44
229.496	75.44
229.73	72.44
229.964	83.44
230.199	71.44
230.433	63.44
230.667	53.44
230.901	78.44
231.136	67.44
231.37	70.44
231.604	66.44
231.838	83.44
232.072	77.44
232.306	66.44
232.541	76.44
232.775	77.44
233.009	81.44
233.243	79.44
233.477	81.44
233.711	84.44
233.945	80.44
234.179	81.44
234.413	77.44
234.647	78.44
234.881	81.44
235.115	78.44
235.349	72.44
235.583	79.44
235.817	78.44
236.051	80.44
236.285	71.44
236.519	81.44
236.753	81.44
236.987	69.44
237.221	71.44
237.455	80.44
237.689	75.44
237.922	76.44
238.156	77.44
238.39	68.44
238.624	71.44
238.858	76.44
239.091	68.44
239.325	89.44
239.559	77.44
239.793	80.44
240.027	70.44
240.26	79.44
240.494	70.44
240.728	70.44
240.961	86.44
241.195	75.44
241.429	72.44
241.662	85.44
241.896	69.44
242.13	62.44
242.363	63.44
242.597	77.44
242.83	58.44
243.064	64.44
243.298	71.44
243.531	70.44
243.765	66.44
243.998	86.44
244.232	78.44
244.465	100.44
244.699	64.44
244.932	75.44
245.166	83.44
245.399	81.44
245.633	71.44
245.866	70.44
246.099	81.44
246.333	80.44
246.566	79.44
246.8	79.44
247.033	87.44
247.266	72.44
247.5	67.44
247.733	76.44
247.966	71.44
248.2	75.44
248.433	71.44
248.666	62.44
248.899	75.44
249.133	92.44
249.366	93.44
249.599	95.44
249.832	85.44
250.066	65.44
250.299	81.44
250.532	85.44
250.765	87.44
250.998	77.44
251.231	87.44
251.465	76.44
251.698	78.44
251.931	84.44
252.164	62.44
252.397	83.44
252.63	75.44
252.863	78.44
253.096	76.44
253.329	70.44
253.562	72.44
253.795	85.44
254.028	80.44
254.261	72.44
254.494	64.44
254.727	64.44
254.96	71.44
255.193	81.44
255.426	73.44
255.659	79.44
255.892	77.44
256.124	71.44
256.357	72.44
256.59	74.44
256.823	82.44
257.056	72.44
257.289	73.44
257.521	63.44
257.754	63.44
257.987	76.44
258.22	72.44
258.452	71.44
258.685	88.44
258.918	88.44
259.151	81.44
259.383	72.44
259.616	73.44
259.849	88.44
260.081	82.44
260.314	83.44
260.547	85.44
260.779	73.44
261.012	77.44
261.244	72.44
261.477	79.44
261.71	86.44
261.942	103.44
262.175	98.44
262.407	95.44
262.64	85.44
262.872	66.44
263.105	81.44
263.337	81.44
263.57	72.44
263.802	77.44
264.035	84.44
264.267	77.44
264.499	79.44
264.732	84.44
264.964	79.44
265.197	77.44
265.429	83.44
265.661	76.44
265.894	92.44
266.126	79.44
266.358	88.44
266.591	75.44
266.823	83.44
267.055	76.44
267.287	76.44
267.52	71.44
267.752	73.44
267.984	79.44
268.216	87.44
268.448	78.44
268.681	79.44
268.913	81.44
269.145	68.44
269.377	81.44
269.609	91.44
269.841	88.44
270.073	87.44
270.306	79.44
270.538	85.44
270.77	89.44
271.002	84.44
271.234	77.44
271.466	82.44
271.698	109.44
271.93	83.44
272.162	70.44
272.394	77.44
272.626	81.44
272.858	99.44
273.09	91.44
273.322	86.44
273.553	83.44
273.785	78.44
274.017	76.44
274.249	68.44
274.481	79.44
274.713	72.44
274.945	91.44
275.176	92.44
275.408	86.44
275.64	88.44
275.872	82.44
276.104	71.44
276.335	82.44
276.567	79.44
276.799	92.44
277.031	94.44
277.262	90.44
277.494	71.44
277.726	87.44
277.957	92.44
278.189	94.44
278.421	86.44
278.652	83.44
278.884	77.44
279.115	79.44
279.347	84.44
279.579	82.44
279.81	92.44
280.042	84.44
280.273	95.44
280.505	77.44
280.736	93.44
280.968	80.44
281.199	74.44
281.431	89.44
281.662	89.44
281.894	90.44
282.125	101.44
282.356	115.44
282.588	125.44
282.819	101.44
283.051	97.44
283.282	79.44
283.513	81.44
283.745	89.44
283.976	88.44
284.207	94.44
284.439	75.44
284.67	83.44
284.901	88.44
285.132	89.44
285.364	54.44
285.595	80.44
285.826	73.44
286.057	77.44
286.288	85.44
286.52	86.44
286.751	79.44
286.982	84.44
287.213	81.44
287.444	84.44
287.675	91.44
287.906	79.44
288.138	79.44
288.369	92.44
288.6	81.44
288.831	77.44
289.062	79.44
289.293	69.44
289.524	77.44
289.755	65.44
289.986	83.44
290.217	94.44
290.448	83.44
290.679	93.44
290.91	80.44
291.141	79.44
291.371	84.44
291.602	80.44
291.833	88.44
292.064	69.44
292.295	85.44
292.526	84.44
292.757	78.44
292.987	91.44
293.218	83.44
293.449	89.44
293.68	80.44
293.91	85.44
294.141	87.44
294.372	86.44
294.603	89.44
294.833	92.44
295.064	82.44
295.295	85.44
295.525	84.44
295.756	88.44
295.987	110.44
296.217	126.44
296.448	122.44
296.679	86.44
296.909	102.44
297.14	80.44
297.37	72.44
297.601	67.44
297.831	87.44
298.062	85.44
298.292	94.44
298.523	83.44
298.753	87.44
298.984	90.44
299.214	95.44
299.445	88.44
299.675	91.44
299.905	93.44
300.136	80.44
300.366	84.44
300.597	85.44
300.827	75.44
301.057	93.44
301.288	86.44
301.518	88.44
301.748	90.44
301.979	95.44
302.209	100.44
302.439	85.44
302.669	99.44
302.9	97.44
303.13	102.44
303.36	87.44
303.59	93.44
303.82	110.44
304.051	91.44
304.281	86.44
304.511	98.44
304.741	94.44
304.971	70.44
305.201	91.44
305.431	83.44
305.661	93.44
305.891	95.44
306.121	82.44
306.352	84.44
306.582	89.44
306.812	95.44
307.042	90.44
307.272	89.44
307.502	83.44
307.731	76.44
307.961	95.44
308.191	82.44
308.421	99.44
308.651	88.44
308.881	93.44
309.111	92.44
309.341	82.44
309.571	102.44
309.8	92.44
310.03	103.44
310.26	82.44
310.49	92.44
310.72	95.44
310.949	112.44
311.179	92.44
311.409	76.44
311.639	89.44
311.868	85.44
312.098	96.44
312.328	71.44
312.557	95.44
312.787	98.44
313.017	95.44
313.246	82.44
313.476	83.44
313.706	87.44
313.935	88.44
314.165	101.44
314.394	93.44
314.624	110.44
314.853	93.44
315.083	98.44
315.312	116.44
315.542	94.44
315.771	98.44
316.001	98.44
316.23	94.44
316.46	81.44
316.689	81.44
316.919	85.44
317.148	97.44
317.377	87.44
317.607	92.44
317.836	96.44
318.065	92.44
318.295	93.44
318.524	83.44
318.753	85.44
318.983	95.44
319.212	96.44
319.441	100.44
319.67	108.44
319.9	91.44
320.129	91.44
320.358	92.44
320.587	98.44
320.816	101.44
321.046	100.44
321.275	104.44
321.504	81.44
321.733	76.44
321.962	95.44
322.191	104.44
322.42	105.44
322.649	110.44
322.878	108.44
323.108	103.44
323.337	120.44
323.566	126.44
323.795	141.44
324.024	199.44
324.253	349.44
324.482	744.44
324.71	1547.44
324.939	2077.44
325.168	751.44
325.397	235.44
325.626	141.44
325.855	122.44
326.084	112.44
326.313	119.44
326.542	140.44
326.77	211.44
326.999	390.44
327.228	871.44
327.457	1615.44
327.686	1343.44
327.914	336.44
328.143	173.44
328.372	127.44
328.6	125.44
328.829	129.44
329.058	117.44
329.287	115.44
329.515	93.44
329.744	96.44
329.972	92.44
330.201	96.44
330.43	83.44
330.658	115.44
330.887	139.44
331.115	119.44
331.344	100.44
331.572	104.44
331.801	94.44
332.03	99.44
332.258	95.44
332.486	87.44
332.715	84.44
332.943	102.44
333.172	91.44
333.4	107.44
333.629	98.44
333.857	103.44
334.085	104.44
334.314	100.44
334.542	93.44
334.771	91.44
334.999	99.44
335.227	84.44
335.455	97.44
335.684	92.44
335.912	88.44
336.14	84.44
336.369	96.44
336.597	97.44
336.825	83.44
337.053	85.44
337.281	104.44
337.51	98.44
337.738	85.44
337.966	98.44
338.194	88.44
338.422	93.44
338.65	100.44
338.878	87.44
339.106	102.44
339.334	88.44
339.562	93.44
339.79	88.44
340.018	84.44
340.246	86.44
340.474	95.44
340.702	78.44
340.93	88.44
341.158	94.44
341.386	108.44
341.614	100.44
341.842	99.44
342.07	76.44
342.298	77.44
342.526	76.44
342.754	90.44
342.981	85.44
343.209	94.44
343.437	89.44
343.665	85.44
343.893	108.44
344.12	88.44
344.348	88.44
344.576	86.44
344.804	88.44
345.031	86.44
345.259	90.44
345.487	98.44
345.714	80.44
345.942	100.44
346.17	86.44
346.397	85.44
346.625	89.44
346.853	80.44
347.08	85.44
347.308	95.44
347.535	95.44
347.763	99.44
347.99	85.44
348.218	98.44
348.445	78.44
348.673	105.44
348.9	91.44
349.128	89.44
349.355	93.44
349.583	94.44
349.81	79.44
350.037	100.44
350.265	99.44
350.492	97.44
350.72	83.44
350.947	96.44
351.174	107.44
351.402	104.44
351.629	105.44
351.856	109.44
352.083	77.44
352.311	104.44
352.538	100.44
352.765	102.44
352.992	118.44
353.22	105.44
353.447	93.44
353.674	103.44
353.901	95.44
354.128	94.44
354.355	79.44
354.583	92.44
354.81	92.44
355.037	94.44
355.264	102.44
355.491	87.44
355.718	99.44
355.945	89.44
356.172	103.44
356.399	88.44
356.626	88.44
356.853	100.44
357.08	94.44
357.307	88.44
357.534	81.44
357.761	83.44
357.988	103.44
358.215	88.44
358.441	84.44
358.668	96.44
358.895	83.44
359.122	85.44
359.349	78.44
359.576	87.44
359.802	89.44
360.029	114.44
360.256	113.44
360.483	70.44
360.709	99.44
360.936	91.44
361.163	86.44
361.39	96.44
361.616	80.44
361.843	99.44
362.07	88.44
362.296	93.44
362.523	93.44
362.749	99.44
362.976	76.44
363.203	89.44
363.429	96.44
363.656	89.44
363.882	89.44
364.109	72.44
364.335	87.44
364.562	91.44
364.788	71.44
365.015	81.44
365.241	93.44
365.468	77.44
365.694	99.44
365.92	83.44
366.147	84.44
366.373	81.44
366.599	84.44
366.826	79.44
367.052	85.44
367.278	80.44
367.505	89.44
367.731	91.44
367.957	81.44
368.184	86.44
368.41	80.44
368.636	102.44
368.862	119.44
369.089	95.44
369.315	93.44
369.541	92.44
369.767	92.44
369.993	81.44
370.219	95.44
370.445	83.44
370.672	82.44
370.898	85.44
371.124	101.44
371.35	93.44
371.576	96.44
371.802	83.44
372.028	79.44
372.254	87.44
372.48	95.44
372.706	83.44
372.932	88.44
373.158	89.44
373.384	85.44
373.61	93.44
373.835	95.44
374.061	68.44
374.287	84.44
374.513	91.44
374.739	91.44
374.965	82.44
375.191	84.44
375.416	72.44
375.642	91.44
375.868	95.44
376.094	83.44
376.319	78.44
376.545	93.44
376.771	79.44
376.997	101.44
377.222	87.44
377.448	93.44
377.674	84.44
377.899	89.44
378.125	72.44
378.35	90.44
378.576	86.44
378.802	96.44
379.027	89.44
379.253	80.44
379.478	83.44
379.704	87.44
379.929	87.44
380.155	105.44
380.38	91.44
380.606	89.44
380.831	93.44
381.057	88.44
381.282	101.44
381.507	98.44
381.733	86.44
381.958	90.44
382.184	109.44
382.409	87.44
382.634	102.44
382.86	107.44
383.085	105.44
383.31	97.44
383.535	94.44
383.761	87.44
383.986	75.44
384.211	97.44
384.436	89.44
384.662	91.44
384.887	102.44
385.112	109.44
385.337	108.44
385.562	109.44
385.787	94.44
386.013	119.44
386.238	108.44
386.463	87.44
386.688	92.44
386.913	93.44
387.138	92.44
387.363	86.44
387.588	114.44
387.813	108.44
388.038	87.44
388.263	103.44
388.488	91.44
388.713	88.44
388.938	85.44
389.163	83.44
389.387	77.44
389.612	96.44
389.837	79.44
390.062	85.44
390.287	84.44
390.512	83.44
390.736	101.44
390.961	92.44
391.186	83.44
391.411	91.44
391.636	87.44
391.86	83.44
392.085	87.44
392.31	82.44
392.534	79.44
392.759	88.44
392.984	92.44
393.208	84.44
393.433	85.44
393.658	95.44
393.882	76.44
394.107	85.44
394.331	87.44
394.556	84.44
394.78	84.44
395.005	99.44
395.229	93.44
395.454	90.44
395.678	84.44
395.903	62.44
396.127	98.44
396.352	89.44
396.576	100.44
396.801	94.44
397.025	86.44
397.249	90.44
397.474	91.44
397.698	78.44
397.922	91.44
398.147	83.44
398.371	88.44
398.595	96.44
398.82	91.44
399.044	92.44
399.268	96.44
399.492	78.44
399.717	88.44
399.941	100.44
400.165	93.44
400.389	99.44
400.613	75.44
400.837	96.44
401.062	100.44
401.286	90.44
401.51	84.44
401.734	100.44
401.958	79.44
402.182	113.44
402.406	141.44
402.63	105.44
402.854	105.44
403.078	94.44
403.302	70.44
403.526	79.44
403.75	88.44
403.974	81.44
404.198	77.44
404.422	79.44
404.645	92.44
404.869	89.44
405.093	103.44
405.317	100.44
405.541	83.44
405.765	96.44
405.988	109.44
406.212	149.44
406.436	198.44
406.66	132.44
406.883	83.44
407.107	95.44
407.331	100.44
407.555	115.44
407.778	97.44
408.002	87.44
408.226	75.44
408.449	96.44
408.673	93.44
408.896	76.44
409.12	93.44
409.344	77.44
409.567	87.44
409.791	84.44
410.014	100.44
410.238	101.44
410.461	86.44
410.685	87.44
410.908	93.44
411.132	93.44
411.355	84.44
411.578	91.44
411.802	89.44
412.025	94.44
412.249	81.44
412.472	92.44
412.695	89.44
412.919	95.44
413.142	74.44
413.365	75.44
413.589	80.44
413.812	89.44
414.035	87.44
414.258	91.44
414.482	75.44
414.705	86.44
414.928	90.44
415.151	96.44
415.374	101.44
415.597	84.44
415.821	82.44
416.044	84.44
416.267	94.44
416.49	70.44
416.713	90.44
416.936	72.44
417.159	82.44
417.382	71.44
417.605	97.44
417.828	107.44
418.051	95.44
418.274	91.44
418.497	81.44
418.72	66.44
418.943	91.44
419.166	84.44
419.389	87.44
419.611	87.44
419.834	77.44
420.057	106.44
420.28	79.44
420.503	92.44
420.726	75.44
420.948	90.44
421.171	85.44
421.394	79.44
421.617	96.44
421.839	92.44
422.062	93.44
422.285	88.44
422.507	93.44
422.73	102.44
422.953	82.44
423.175	96.44
423.398	82.44
423.621	84.44
423.843	91.44
424.066	75.44
424.288	86.44
424.511	92.44
424.733	105.44
424.956	95.44
425.178	94.44
425.401	101.44
425.623	97.44
425.846	98.44
426.068	103.44
426.291	88.44
426.513	76.44
426.735	80.44
426.958	84.44
427.18	103.44
427.402	139.44
427.625	160.44
427.847	106.44
428.069	93.44
428.292	88.44
428.514	94.44
428.736	83.44
428.958	71.44
429.181	77.44
429.403	75.44
429.625	95.44
429.847	84.44
430.069	102.44
430.292	89.44
430.514	83.44
430.736	97.44
430.958	70.44
431.18	84.44
431.402	76.44
431.624	77.44
431.846	87.44
432.068	84.44
432.29	75.44
432.512	88.44
432.734	75.44
432.956	91.44
433.178	94.44
433.4	84.44
433.622	95.44
433.844	78.44
434.066	90.44
434.287	95.44
434.509	80.44
434.731	90.44
434.953	85.44
435.175	79.44
435.397	84.44
435.618	91.44
435.84	103.44
436.062	120.44
436.284	120.44
436.505	97.44
436.727	94.44
436.949	85.44
437.17	81.44
437.392	104.44
437.614	97.44
437.835	106.44
438.057	123.44
438.278	104.44
438.5	113.44
438.721	116.44
438.943	101.44
439.165	81.44
439.386	78.44
439.608	84.44
439.829	98.44
440.05	119.44
440.272	144.44
440.493	92.44
440.715	87.44
440.936	92.44
441.158	81.44
441.379	83.44
441.6	84.44
441.822	87.44
442.043	103.44
442.264	106.44
442.486	91.44
442.707	95.44
442.928	110.44
443.149	119.44
443.371	112.44
443.592	108.44
443.813	116.44
444.034	102.44
444.255	92.44
444.476	86.44
444.698	87.44
444.919	87.44
445.14	126.44
445.361	132.44
445.582	110.44
445.803	136.44
446.024	113.44
446.245	129.44
446.466	115.44
446.687	80.44
446.908	94.44
447.129	87.44
447.35	81.44
447.571	83.44
447.792	89.44
448.013	97.44
448.234	110.44
448.455	100.44
448.675	111.44
448.896	113.44
449.117	96.44
449.338	93.44
449.559	114.44
449.779	119.44
450	103.44
450.221	89.44
450.442	86.44
450.662	87.44
450.883	104.44
451.104	111.44
451.324	89.44
451.545	84.44
451.766	75.44
451.986	93.44
452.207	86.44
452.428	83.44
452.648	109.44
452.869	96.44
453.089	97.44
453.31	92.44
453.53	87.44
453.751	91.44
453.971	94.44
454.192	102.44
454.412	82.44
454.633	79.44
454.853	87.44
455.073	87.44
455.294	83.44
455.514	87.44
455.734	79.44
455.955	92.44
456.175	88.44
456.395	81.44
456.616	69.44
456.836	81.44
457.056	77.44
457.276	80.44
457.497	87.44
457.717	75.44
457.937	83.44
458.157	96.44
458.377	93.44
458.598	101.44
458.818	121.44
459.038	148.44
459.258	115.44
459.478	88.44
459.698	84.44
459.918	85.44
460.138	78.44
460.358	91.44
460.578	75.44
460.798	79.44
461.018	83.44
461.238	80.44
461.458	79.44
461.678	90.44
461.898	78.44
462.118	89.44
462.338	80.44
462.558	82.44
462.777	96.44
462.997	93.44
463.217	88.44
463.437	86.44
463.657	83.44
463.876	80.44
464.096	82.44
464.316	72.44
464.536	105.44
464.755	83.44
464.975	100.44
465.195	143.44
465.414	151.44
465.634	89.44
465.854	95.44
466.073	94.44
466.293	92.44
466.512	75.44
466.732	96.44
466.951	79.44
467.171	92.44
467.391	80.44
467.61	99.44
467.829	93.44
468.049	98.44
468.268	81.44
468.488	77.44
468.707	82.44
468.927	79.44
469.146	80.44
469.365	83.44
469.585	97.44
469.804	105.44
470.023	81.44
470.243	85.44
470.462	98.44
470.681	103.44
470.901	88.44
471.12	102.44
471.339	79.44
471.558	80.44
471.777	81.44
471.997	81.44
472.216	93.44
472.435	85.44
472.654	93.44
472.873	113.44
473.092	73.44
473.311	91.44
473.53	86.44
473.749	70.44
473.968	105.44
474.187	101.44
474.406	102.44
474.625	92.44
474.844	93.44
475.063	83.44
475.282	77.44
475.501	81.44
475.72	78.44
475.939	68.44
476.158	83.44
476.377	81.44
476.596	87.44
476.814	81.44
477.033	86.44
477.252	91.44
477.471	85.44
477.69	91.44
477.908	72.44
478.127	86.44
478.346	86.44
478.564	70.44
478.783	86.44
479.002	89.44
479.22	91.44
479.439	88.44
479.658	88.44
479.876	97.44
480.095	81.44
480.313	88.44
480.532	85.44
480.751	91.44
480.969	83.44
481.188	96.44
481.406	79.44
481.624	85.44
481.843	72.44
482.061	77.44
482.28	92.44
482.498	94.44
482.717	96.44
482.935	85.44
483.153	89.44
483.372	90.44
483.59	80.44
483.808	73.44
484.027	82.44
484.245	85.44
484.463	81.44
484.681	95.44
484.9	93.44
485.118	103.44
485.336	86.44
485.554	89.44
485.772	110.44
485.99	87.44
486.209	108.44
486.427	103.44
486.645	101.44
486.863	99.44
487.081	87.44
487.299	89.44
487.517	108.44
487.735	88.44
487.953	96.44
488.171	95.44
488.389	87.44
488.607	87.44
488.825	82.44
489.043	75.44
489.261	72.44
489.479	91.44
489.696	88.44
489.914	100.44
490.132	89.44
490.35	71.44
490.568	79.44
490.786	89.44
491.003	77.44
491.221	81.44
491.439	94.44
491.657	101.44
491.874	83.44
492.092	84.44
492.31	83.44
492.527	96.44
492.745	97.44
492.963	82.44
493.18	89.44
493.398	79.44
493.615	86.44
493.833	113.44
494.05	87.44
494.268	82.44
494.485	96.44
494.703	83.44
494.92	83.44
495.138	85.44
495.355	81.44
495.573	89.44
495.79	95.44
496.008	86.44
496.225	82.44
496.442	79.44
496.66	89.44
496.877	87.44
497.094	94.44
497.312	94.44
497.529	92.44
497.746	84.44
497.963	81.44
498.181	95.44
498.398	95.44
498.615	94.44
498.832	87.44
499.049	82.44
499.267	84.44
499.484	97.44
499.701	102.44
499.918	97.44
500.135	84.44
500.352	88.44
500.569	92.44
500.786	91.44
501.003	80.44
501.22	85.44
501.437	77.44
501.654	83.44
501.871	98.44
502.088	93.44
502.305	93.44
502.522	94.44
502.739	82.44
502.956	85.44
503.172	82.44
503.389	70.44
503.606	108.44
503.823	86.44
504.04	96.44
504.256	95.44
504.473	79.44
504.69	84.44
504.907	89.44
505.123	82.44
505.34	84.44
505.557	78.44
505.773	88.44
505.99	87.44
506.207	94.44
506.423	84.44
506.64	84.44
506.856	90.44
507.073	85.44
507.289	97.44
507.506	84.44
507.722	96.44
507.939	99.44
508.155	87.44
508.372	94.44
508.588	84.44
508.805	87.44
509.021	91.44
509.238	87.44
509.454	94.44
509.67	92.44
509.887	110.44
510.103	123.44
510.319	196.44
510.536	672.44
510.752	2051.44
510.968	575.44
511.184	148.44
511.401	102.44
511.617	97.44
511.833	78.44
512.049	88.44
512.265	81.44
512.481	87.44
512.698	77.44
512.914	89.44
513.13	97.44
513.346	77.44
513.562	91.44
513.778	98.44
513.994	88.44
514.21	93.44
514.426	106.44
514.642	122.44
514.858	120.44
515.074	161.44
515.29	376.44
515.506	1264.44
515.721	469.44
515.937	131.44
516.153	90.44
516.369	96.44
516.585	96.44
516.801	100.44
517.016	93.44
