Data from Uncirc_1986_H10_HRD10591_00037.txt Node
Date: Wed Jan 03 12:14:33 EST 2024
User: Yrep
Spectrometer: HR+D1059
Trigger mode: 1
Integration Time (sec): 1.000000E-1
Scans to average: 1
Electric dark correction enabled: true
Nonlinearity correction enabled: false
Boxcar width: 0
XAxis mode: Wavelengths
Number of Pixels in Spectrum: 2048
>>>>>Begin Spectral Data<<<<<
223.165	-4.38
223.4	-4.38
223.635	-4.38
223.869	-1.38
224.104	-30.38
224.338	-1.38
224.573	-18.38
224.808	-11.38
225.042	-12.38
225.277	-9.38
225.511	-5.38
225.746	-10.38
225.98	-5.38
226.215	14.62
226.449	18.62
226.683	14.62
226.918	31.62
227.152	30.62
227.387	41.62
227.621	51.62
227.856	52.62
228.09	44.62
228.324	45.62
228.559	66.62
228.793	58.62
229.027	65.62
229.262	76.62
229.496	74.62
229.73	90.62
229.964	98.62
230.199	95.62
230.433	79.62
230.667	77.62
230.901	78.62
231.136	76.62
231.37	91.62
231.604	81.62
231.838	97.62
232.072	79.62
232.306	85.62
232.541	85.62
232.775	83.62
233.009	71.62
233.243	77.62
233.477	76.62
233.711	71.62
233.945	79.62
234.179	82.62
234.413	76.62
234.647	87.62
234.881	84.62
235.115	74.62
235.349	81.62
235.583	87.62
235.817	75.62
236.051	84.62
236.285	100.62
236.519	74.62
236.753	70.62
236.987	91.62
237.221	86.62
237.455	79.62
237.689	89.62
237.922	79.62
238.156	82.62
238.39	69.62
238.624	73.62
238.858	89.62
239.091	77.62
239.325	90.62
239.559	86.62
239.793	84.62
240.027	95.62
240.26	76.62
240.494	67.62
240.728	72.62
240.961	76.62
241.195	82.62
241.429	81.62
241.662	84.62
241.896	92.62
242.13	77.62
242.363	81.62
242.597	94.62
242.83	84.62
243.064	93.62
243.298	85.62
243.531	82.62
243.765	88.62
243.998	104.62
244.232	71.62
244.465	79.62
244.699	73.62
244.932	80.62
245.166	79.62
245.399	81.62
245.633	88.62
245.866	77.62
246.099	72.62
246.333	90.62
246.566	86.62
246.8	83.62
247.033	88.62
247.266	81.62
247.5	95.62
247.733	86.62
247.966	87.62
248.2	84.62
248.433	99.62
248.666	74.62
248.899	93.62
249.133	87.62
249.366	110.62
249.599	90.62
249.832	94.62
250.066	86.62
250.299	78.62
250.532	86.62
250.765	73.62
250.998	70.62
251.231	91.62
251.465	90.62
251.698	77.62
251.931	89.62
252.164	82.62
252.397	89.62
252.63	93.62
252.863	88.62
253.096	85.62
253.329	79.62
253.562	87.62
253.795	85.62
254.028	88.62
254.261	92.62
254.494	77.62
254.727	84.62
254.96	84.62
255.193	79.62
255.426	85.62
255.659	86.62
255.892	85.62
256.124	85.62
256.357	71.62
256.59	84.62
256.823	81.62
257.056	90.62
257.289	75.62
257.521	81.62
257.754	86.62
257.987	91.62
258.22	93.62
258.452	92.62
258.685	93.62
258.918	83.62
259.151	86.62
259.383	81.62
259.616	90.62
259.849	70.62
260.081	86.62
260.314	83.62
260.547	82.62
260.779	85.62
261.012	82.62
261.244	86.62
261.477	99.62
261.71	100.62
261.942	102.62
262.175	114.62
262.407	87.62
262.64	84.62
262.872	89.62
263.105	89.62
263.337	78.62
263.57	98.62
263.802	74.62
264.035	90.62
264.267	76.62
264.499	85.62
264.732	76.62
264.964	85.62
265.197	79.62
265.429	88.62
265.661	100.62
265.894	75.62
266.126	97.62
266.358	86.62
266.591	89.62
266.823	91.62
267.055	78.62
267.287	95.62
267.52	89.62
267.752	92.62
267.984	73.62
268.216	79.62
268.448	95.62
268.681	88.62
268.913	84.62
269.145	85.62
269.377	79.62
269.609	88.62
269.841	83.62
270.073	78.62
270.306	91.62
270.538	92.62
270.77	83.62
271.002	102.62
271.234	95.62
271.466	87.62
271.698	82.62
271.93	82.62
272.162	82.62
272.394	96.62
272.626	78.62
272.858	90.62
273.09	89.62
273.322	79.62
273.553	83.62
273.785	85.62
274.017	83.62
274.249	97.62
274.481	89.62
274.713	89.62
274.945	79.62
275.176	69.62
275.408	72.62
275.64	89.62
275.872	93.62
276.104	73.62
276.335	90.62
276.567	81.62
276.799	93.62
277.031	91.62
277.262	102.62
277.494	102.62
277.726	87.62
277.957	90.62
278.189	93.62
278.421	85.62
278.652	86.62
278.884	90.62
279.115	111.62
279.347	98.62
279.579	84.62
279.81	85.62
280.042	98.62
280.273	88.62
280.505	85.62
280.736	100.62
280.968	92.62
281.199	82.62
281.431	92.62
281.662	77.62
281.894	91.62
282.125	90.62
282.356	126.62
282.588	124.62
282.819	117.62
283.051	94.62
283.282	79.62
283.513	100.62
283.745	87.62
283.976	91.62
284.207	83.62
284.439	100.62
284.67	93.62
284.901	89.62
285.132	81.62
285.364	77.62
285.595	93.62
285.826	82.62
286.057	102.62
286.288	95.62
286.52	93.62
286.751	85.62
286.982	91.62
287.213	90.62
287.444	88.62
287.675	83.62
287.906	79.62
288.138	95.62
288.369	93.62
288.6	83.62
288.831	92.62
289.062	93.62
289.293	84.62
289.524	93.62
289.755	91.62
289.986	74.62
290.217	81.62
290.448	95.62
290.679	107.62
290.91	81.62
291.141	88.62
291.371	96.62
291.602	103.62
291.833	92.62
292.064	88.62
292.295	101.62
292.526	93.62
292.757	95.62
292.987	98.62
293.218	92.62
293.449	88.62
293.68	86.62
293.91	100.62
294.141	81.62
294.372	90.62
294.603	94.62
294.833	103.62
295.064	89.62
295.295	93.62
295.525	93.62
295.756	106.62
295.987	107.62
296.217	141.62
296.448	119.62
296.679	111.62
296.909	113.62
297.14	85.62
297.37	98.62
297.601	102.62
297.831	91.62
298.062	92.62
298.292	85.62
298.523	91.62
298.753	97.62
298.984	86.62
299.214	85.62
299.445	85.62
299.675	99.62
299.905	89.62
300.136	92.62
300.366	92.62
300.597	93.62
300.827	83.62
301.057	97.62
301.288	105.62
301.518	95.62
301.748	106.62
301.979	108.62
302.209	89.62
302.439	88.62
302.669	86.62
302.9	109.62
303.13	92.62
303.36	97.62
303.59	96.62
303.82	104.62
304.051	105.62
304.281	93.62
304.511	100.62
304.741	97.62
304.971	93.62
305.201	93.62
305.431	99.62
305.661	94.62
305.891	95.62
306.121	102.62
306.352	103.62
306.582	94.62
306.812	96.62
307.042	92.62
307.272	97.62
307.502	87.62
307.731	79.62
307.961	103.62
308.191	84.62
308.421	89.62
308.651	105.62
308.881	94.62
309.111	93.62
309.341	112.62
309.571	91.62
309.8	88.62
310.03	114.62
310.26	100.62
310.49	75.62
310.72	95.62
310.949	103.62
311.179	98.62
311.409	105.62
311.639	106.62
311.868	97.62
312.098	93.62
312.328	99.62
312.557	104.62
312.787	87.62
313.017	117.62
313.246	101.62
313.476	97.62
313.706	103.62
313.935	89.62
314.165	100.62
314.394	109.62
314.624	107.62
314.853	93.62
315.083	100.62
315.312	98.62
315.542	82.62
315.771	105.62
316.001	111.62
316.23	101.62
316.46	99.62
316.689	98.62
316.919	95.62
317.148	97.62
317.377	107.62
317.607	90.62
317.836	107.62
318.065	78.62
318.295	86.62
318.524	96.62
318.753	94.62
318.983	96.62
319.212	97.62
319.441	110.62
319.67	100.62
319.9	93.62
320.129	94.62
320.358	107.62
320.587	112.62
320.816	103.62
321.046	106.62
321.275	108.62
321.504	83.62
321.733	89.62
321.962	91.62
322.191	112.62
322.42	103.62
322.649	122.62
322.878	117.62
323.108	122.62
323.337	119.62
323.566	130.62
323.795	153.62
324.024	203.62
324.253	355.62
324.482	705.62
324.71	1495.62
324.939	1956.62
325.168	735.62
325.397	220.62
325.626	152.62
325.855	114.62
326.084	128.62
326.313	118.62
326.542	153.62
326.77	229.62
326.999	418.62
327.228	864.62
327.457	1553.62
327.686	1215.62
327.914	349.62
328.143	182.62
328.372	161.62
328.6	118.62
328.829	117.62
329.058	126.62
329.287	118.62
329.515	103.62
329.744	107.62
329.972	77.62
330.201	95.62
330.43	97.62
330.658	110.62
330.887	129.62
331.115	123.62
331.344	105.62
331.572	109.62
331.801	100.62
332.03	105.62
332.258	98.62
332.486	94.62
332.715	90.62
332.943	103.62
333.172	105.62
333.4	106.62
333.629	105.62
333.857	99.62
334.085	99.62
334.314	100.62
334.542	99.62
334.771	105.62
334.999	110.62
335.227	109.62
335.455	85.62
335.684	93.62
335.912	94.62
336.14	101.62
336.369	111.62
336.597	101.62
336.825	102.62
337.053	86.62
337.281	101.62
337.51	97.62
337.738	97.62
337.966	101.62
338.194	103.62
338.422	107.62
338.65	98.62
338.878	99.62
339.106	86.62
339.334	106.62
339.562	101.62
339.79	94.62
340.018	87.62
340.246	87.62
340.474	89.62
340.702	88.62
340.93	83.62
341.158	97.62
341.386	100.62
341.614	105.62
341.842	86.62
342.07	91.62
342.298	87.62
342.526	98.62
342.754	107.62
342.981	91.62
343.209	93.62
343.437	98.62
343.665	99.62
343.893	75.62
344.12	99.62
344.348	102.62
344.576	95.62
344.804	101.62
345.031	99.62
345.259	113.62
345.487	105.62
345.714	85.62
345.942	95.62
346.17	101.62
346.397	91.62
346.625	96.62
346.853	103.62
347.08	87.62
347.308	114.62
347.535	97.62
347.763	94.62
347.99	105.62
348.218	115.62
348.445	109.62
348.673	98.62
348.9	107.62
349.128	95.62
349.355	93.62
349.583	97.62
349.81	90.62
350.037	89.62
350.265	106.62
350.492	99.62
350.72	83.62
350.947	100.62
351.174	117.62
351.402	100.62
351.629	108.62
351.856	101.62
352.083	81.62
352.311	105.62
352.538	99.62
352.765	103.62
352.992	109.62
353.22	116.62
353.447	97.62
353.674	110.62
353.901	105.62
354.128	97.62
354.355	97.62
354.583	101.62
354.81	97.62
355.037	99.62
355.264	101.62
355.491	95.62
355.718	78.62
355.945	103.62
356.172	98.62
356.399	90.62
356.626	104.62
356.853	111.62
357.08	96.62
357.307	95.62
357.534	84.62
357.761	105.62
357.988	92.62
358.215	102.62
358.441	101.62
358.668	89.62
358.895	105.62
359.122	89.62
359.349	106.62
359.576	113.62
359.802	92.62
360.029	115.62
360.256	111.62
360.483	105.62
360.709	93.62
360.936	107.62
361.163	91.62
361.39	100.62
361.616	97.62
361.843	88.62
362.07	96.62
362.296	108.62
362.523	102.62
362.749	95.62
362.976	92.62
363.203	86.62
363.429	88.62
363.656	104.62
363.882	102.62
364.109	82.62
364.335	96.62
364.562	86.62
364.788	91.62
365.015	106.62
365.241	87.62
365.468	110.62
365.694	111.62
365.92	102.62
366.147	99.62
366.373	97.62
366.599	93.62
366.826	87.62
367.052	99.62
367.278	98.62
367.505	86.62
367.731	114.62
367.957	91.62
368.184	88.62
368.41	93.62
368.636	106.62
368.862	113.62
369.089	104.62
369.315	88.62
369.541	91.62
369.767	90.62
369.993	107.62
370.219	105.62
370.445	96.62
370.672	88.62
370.898	94.62
371.124	104.62
371.35	85.62
371.576	93.62
371.802	98.62
372.028	94.62
372.254	92.62
372.48	103.62
372.706	96.62
372.932	93.62
373.158	89.62
373.384	107.62
373.61	91.62
373.835	98.62
374.061	92.62
374.287	89.62
374.513	86.62
374.739	92.62
374.965	103.62
375.191	105.62
375.416	69.62
375.642	95.62
375.868	99.62
376.094	87.62
376.319	99.62
376.545	106.62
376.771	95.62
376.997	81.62
377.222	91.62
377.448	97.62
377.674	92.62
377.899	102.62
378.125	104.62
378.35	97.62
378.576	91.62
378.802	101.62
379.027	93.62
379.253	107.62
379.478	103.62
379.704	78.62
379.929	82.62
380.155	94.62
380.38	95.62
380.606	98.62
380.831	95.62
381.057	111.62
381.282	101.62
381.507	94.62
381.733	116.62
381.958	101.62
382.184	92.62
382.409	97.62
382.634	95.62
382.86	101.62
383.085	104.62
383.31	113.62
383.535	98.62
383.761	81.62
383.986	98.62
384.211	93.62
384.436	95.62
384.662	104.62
384.887	99.62
385.112	110.62
385.337	123.62
385.562	100.62
385.787	101.62
386.013	106.62
386.238	99.62
386.463	97.62
386.688	107.62
386.913	121.62
387.138	99.62
387.363	103.62
387.588	107.62
387.813	91.62
388.038	99.62
388.263	104.62
388.488	106.62
388.713	100.62
388.938	99.62
389.163	91.62
389.387	103.62
389.612	111.62
389.837	104.62
390.062	108.62
390.287	93.62
390.512	83.62
390.736	95.62
390.961	92.62
391.186	113.62
391.411	100.62
391.636	91.62
391.86	97.62
392.085	85.62
392.31	94.62
392.534	94.62
392.759	95.62
392.984	99.62
393.208	99.62
393.433	95.62
393.658	94.62
393.882	94.62
394.107	105.62
394.331	83.62
394.556	69.62
394.78	100.62
395.005	95.62
395.229	91.62
395.454	90.62
395.678	84.62
395.903	89.62
396.127	80.62
396.352	96.62
396.576	89.62
396.801	89.62
397.025	101.62
397.249	94.62
397.474	83.62
397.698	76.62
397.922	91.62
398.147	93.62
398.371	77.62
398.595	92.62
398.82	94.62
399.044	77.62
399.268	85.62
399.492	97.62
399.717	83.62
399.941	85.62
400.165	99.62
400.389	103.62
400.613	107.62
400.837	98.62
401.062	87.62
401.286	91.62
401.51	79.62
401.734	100.62
401.958	110.62
402.182	121.62
402.406	153.62
402.63	121.62
402.854	105.62
403.078	93.62
403.302	88.62
403.526	86.62
403.75	89.62
403.974	87.62
404.198	96.62
404.422	88.62
404.645	95.62
404.869	94.62
405.093	88.62
405.317	99.62
405.541	106.62
405.765	99.62
405.988	113.62
406.212	157.62
406.436	209.62
406.66	131.62
406.883	98.62
407.107	107.62
407.331	91.62
407.555	95.62
407.778	98.62
408.002	99.62
408.226	91.62
408.449	68.62
408.673	100.62
408.896	81.62
409.12	83.62
409.344	92.62
409.567	108.62
409.791	89.62
410.014	78.62
410.238	105.62
410.461	91.62
410.685	91.62
410.908	102.62
411.132	101.62
411.355	94.62
411.578	82.62
411.802	88.62
412.025	85.62
412.249	75.62
412.472	93.62
412.695	94.62
412.919	92.62
413.142	98.62
413.365	90.62
413.589	102.62
413.812	93.62
414.035	90.62
414.258	95.62
414.482	98.62
414.705	99.62
414.928	86.62
415.151	101.62
415.374	98.62
415.597	97.62
415.821	90.62
416.044	97.62
416.267	100.62
416.49	74.62
416.713	104.62
416.936	93.62
417.159	78.62
417.382	77.62
417.605	87.62
417.828	97.62
418.051	109.62
418.274	88.62
418.497	83.62
418.72	84.62
418.943	102.62
419.166	98.62
419.389	93.62
419.611	93.62
419.834	97.62
420.057	91.62
420.28	106.62
420.503	87.62
420.726	102.62
420.948	76.62
421.171	85.62
421.394	98.62
421.617	100.62
421.839	85.62
422.062	95.62
422.285	97.62
422.507	104.62
422.73	105.62
422.953	98.62
423.175	85.62
423.398	83.62
423.621	90.62
423.843	99.62
424.066	95.62
424.288	95.62
424.511	97.62
424.733	97.62
424.956	98.62
425.178	100.62
425.401	98.62
425.623	111.62
425.846	105.62
426.068	84.62
426.291	89.62
426.513	97.62
426.735	90.62
426.958	89.62
427.18	102.62
427.402	146.62
427.625	146.62
427.847	112.62
428.069	103.62
428.292	91.62
428.514	91.62
428.736	86.62
428.958	93.62
429.181	83.62
429.403	87.62
429.625	97.62
429.847	97.62
430.069	89.62
430.292	76.62
430.514	91.62
430.736	85.62
430.958	99.62
431.18	79.62
431.402	87.62
431.624	97.62
431.846	94.62
432.068	101.62
432.29	93.62
432.512	97.62
432.734	97.62
432.956	94.62
433.178	99.62
433.4	106.62
433.622	98.62
433.844	93.62
434.066	81.62
434.287	104.62
434.509	95.62
434.731	102.62
434.953	92.62
435.175	83.62
435.397	87.62
435.618	99.62
435.84	115.62
436.062	110.62
436.284	119.62
436.505	109.62
436.727	99.62
436.949	99.62
437.17	89.62
437.392	86.62
437.614	94.62
437.835	109.62
438.057	106.62
438.278	116.62
438.5	105.62
438.721	115.62
438.943	94.62
439.165	103.62
439.386	86.62
439.608	97.62
439.829	101.62
440.05	110.62
440.272	123.62
440.493	96.62
440.715	98.62
440.936	86.62
441.158	85.62
441.379	89.62
441.6	100.62
441.822	79.62
442.043	105.62
442.264	94.62
442.486	99.62
442.707	97.62
442.928	110.62
443.149	118.62
443.371	126.62
443.592	105.62
443.813	114.62
444.034	103.62
444.255	98.62
444.476	94.62
444.698	76.62
444.919	91.62
445.14	123.62
445.361	124.62
445.582	110.62
445.803	119.62
446.024	123.62
446.245	114.62
446.466	112.62
446.687	93.62
446.908	99.62
447.129	98.62
447.35	93.62
447.571	99.62
447.792	83.62
448.013	104.62
448.234	106.62
448.455	102.62
448.675	109.62
448.896	118.62
449.117	93.62
449.338	95.62
449.559	133.62
449.779	138.62
450	85.62
450.221	97.62
450.442	95.62
450.662	93.62
450.883	105.62
451.104	106.62
451.324	91.62
451.545	95.62
451.766	95.62
451.986	81.62
452.207	98.62
452.428	105.62
452.648	95.62
452.869	98.62
453.089	105.62
453.31	109.62
453.53	105.62
453.751	90.62
453.971	93.62
454.192	105.62
454.412	94.62
454.633	99.62
454.853	89.62
455.073	95.62
455.294	102.62
455.514	90.62
455.734	96.62
455.955	93.62
456.175	88.62
456.395	91.62
456.616	87.62
456.836	83.62
457.056	93.62
457.276	72.62
457.497	87.62
457.717	83.62
457.937	97.62
458.157	86.62
458.377	86.62
458.598	97.62
458.818	140.62
459.038	165.62
459.258	118.62
459.478	90.62
459.698	91.62
459.918	89.62
460.138	75.62
460.358	86.62
460.578	95.62
460.798	83.62
461.018	93.62
461.238	93.62
461.458	94.62
461.678	95.62
461.898	93.62
462.118	92.62
462.338	100.62
462.558	93.62
462.777	80.62
462.997	101.62
463.217	82.62
463.437	85.62
463.657	86.62
463.876	81.62
464.096	91.62
464.316	95.62
464.536	105.62
464.755	97.62
464.975	112.62
465.195	153.62
465.414	141.62
465.634	109.62
465.854	99.62
466.073	81.62
466.293	75.62
466.512	91.62
466.732	92.62
466.951	100.62
467.171	94.62
467.391	85.62
467.61	98.62
467.829	99.62
468.049	84.62
468.268	96.62
468.488	91.62
468.707	91.62
468.927	88.62
469.146	84.62
469.365	87.62
469.585	79.62
469.804	85.62
470.023	106.62
470.243	92.62
470.462	110.62
470.681	99.62
470.901	88.62
471.12	79.62
471.339	81.62
471.558	100.62
471.777	89.62
471.997	96.62
472.216	92.62
472.435	91.62
472.654	79.62
472.873	102.62
473.092	100.62
473.311	95.62
473.53	93.62
473.749	94.62
473.968	105.62
474.187	100.62
474.406	92.62
474.625	101.62
474.844	89.62
475.063	93.62
475.282	88.62
475.501	87.62
475.72	78.62
475.939	84.62
476.158	93.62
476.377	102.62
476.596	93.62
476.814	79.62
477.033	90.62
477.252	76.62
477.471	91.62
477.69	102.62
477.908	79.62
478.127	93.62
478.346	104.62
478.564	114.62
478.783	88.62
479.002	111.62
479.22	88.62
479.439	118.62
479.658	102.62
479.876	97.62
480.095	91.62
480.313	99.62
480.532	104.62
480.751	84.62
480.969	90.62
481.188	102.62
481.406	100.62
481.624	91.62
481.843	96.62
482.061	94.62
482.28	92.62
482.498	88.62
482.717	83.62
482.935	78.62
483.153	93.62
483.372	79.62
483.59	93.62
483.808	100.62
484.027	100.62
484.245	92.62
484.463	85.62
484.681	117.62
484.9	98.62
485.118	102.62
485.336	101.62
485.554	106.62
485.772	108.62
485.99	103.62
486.209	110.62
486.427	106.62
486.645	117.62
486.863	108.62
487.081	90.62
487.299	94.62
487.517	97.62
487.735	108.62
487.953	91.62
488.171	101.62
488.389	103.62
488.607	100.62
488.825	94.62
489.043	96.62
489.261	107.62
489.479	88.62
489.696	94.62
489.914	90.62
490.132	89.62
490.35	97.62
490.568	87.62
490.786	90.62
491.003	87.62
491.221	99.62
491.439	108.62
491.657	95.62
491.874	106.62
492.092	94.62
492.31	97.62
492.527	91.62
492.745	101.62
492.963	96.62
493.18	87.62
493.398	103.62
493.615	94.62
493.833	102.62
494.05	84.62
494.268	94.62
494.485	95.62
494.703	74.62
494.92	95.62
495.138	85.62
495.355	94.62
495.573	99.62
495.79	110.62
496.008	99.62
496.225	93.62
496.442	94.62
496.66	87.62
496.877	76.62
497.094	91.62
497.312	93.62
497.529	91.62
497.746	102.62
497.963	91.62
498.181	87.62
498.398	100.62
498.615	109.62
498.832	115.62
499.049	105.62
499.267	101.62
499.484	99.62
499.701	104.62
499.918	107.62
500.135	83.62
500.352	106.62
500.569	77.62
500.786	92.62
501.003	100.62
501.22	93.62
501.437	87.62
501.654	102.62
501.871	109.62
502.088	105.62
502.305	98.62
502.522	93.62
502.739	93.62
502.956	98.62
503.172	91.62
503.389	85.62
503.606	110.62
503.823	90.62
504.04	99.62
504.256	103.62
504.473	101.62
504.69	108.62
504.907	76.62
505.123	87.62
505.34	98.62
505.557	92.62
505.773	101.62
505.99	81.62
506.207	87.62
506.423	106.62
506.64	94.62
506.856	87.62
507.073	93.62
507.289	91.62
507.506	101.62
507.722	109.62
507.939	107.62
508.155	98.62
508.372	90.62
508.588	97.62
508.805	101.62
509.021	104.62
509.238	109.62
509.454	97.62
509.67	102.62
509.887	111.62
510.103	125.62
510.319	213.62
510.536	685.62
510.752	2079.62
510.968	580.62
511.184	157.62
511.401	108.62
511.617	107.62
511.833	106.62
512.049	86.62
512.265	116.62
512.481	91.62
512.698	107.62
512.914	102.62
513.13	97.62
513.346	109.62
513.562	108.62
513.778	92.62
513.994	104.62
514.21	110.62
