Data from Uncirc_1986_H10_HRD10591_00049.txt Node
Date: Wed Jan 03 12:14:36 EST 2024
User: Yrep
Spectrometer: HR+D1059
Trigger mode: 1
Integration Time (sec): 1.000000E-1
Scans to average: 1
Electric dark correction enabled: true
Nonlinearity correction enabled: false
Boxcar width: 0
XAxis mode: Wavelengths
Number of Pixels in Spectrum: 2048
>>>>>Begin Spectral Data<<<<<
223.165	-14.25
223.4	-14.25
223.635	-14.25
223.869	-31.25
224.104	-10.25
224.338	-11.25
224.573	-22.25
224.808	-0.25
225.042	-10.25
225.277	-11.25
225.511	3.75
225.746	-8.25
225.98	8.75
226.215	17.75
226.449	18.75
226.683	19.75
226.918	25.75
227.152	24.75
227.387	33.75
227.621	24.75
227.856	54.75
228.09	46.75
228.324	32.75
228.559	61.75
228.793	54.75
229.027	53.75
229.262	78.75
229.496	66.75
229.73	85.75
229.964	89.75
230.199	60.75
230.433	72.75
230.667	92.75
230.901	83.75
231.136	84.75
231.37	81.75
231.604	78.75
231.838	84.75
232.072	85.75
232.306	81.75
232.541	89.75
232.775	71.75
233.009	81.75
233.243	90.75
233.477	68.75
233.711	80.75
233.945	85.75
234.179	71.75
234.413	73.75
234.647	64.75
234.881	84.75
235.115	80.75
235.349	67.75
235.583	83.75
235.817	86.75
236.051	86.75
236.285	85.75
236.519	76.75
236.753	88.75
236.987	83.75
237.221	84.75
237.455	81.75
237.689	85.75
237.922	66.75
238.156	88.75
238.39	74.75
238.624	72.75
238.858	83.75
239.091	90.75
239.325	77.75
239.559	81.75
239.793	79.75
240.027	70.75
240.26	78.75
240.494	85.75
240.728	80.75
240.961	85.75
241.195	80.75
241.429	81.75
241.662	77.75
241.896	85.75
242.13	84.75
242.363	67.75
242.597	81.75
242.83	69.75
243.064	81.75
243.298	86.75
243.531	82.75
243.765	60.75
243.998	77.75
244.232	65.75
244.465	78.75
244.699	80.75
244.932	76.75
245.166	63.75
245.399	81.75
245.633	80.75
245.866	70.75
246.099	73.75
246.333	63.75
246.566	89.75
246.8	64.75
247.033	82.75
247.266	72.75
247.5	75.75
247.733	76.75
247.966	81.75
248.2	91.75
248.433	71.75
248.666	76.75
248.899	82.75
249.133	81.75
249.366	84.75
249.599	100.75
249.832	72.75
250.066	82.75
250.299	80.75
250.532	78.75
250.765	89.75
250.998	67.75
251.231	84.75
251.465	97.75
251.698	84.75
251.931	82.75
252.164	71.75
252.397	70.75
252.63	62.75
252.863	80.75
253.096	70.75
253.329	84.75
253.562	76.75
253.795	80.75
254.028	85.75
254.261	80.75
254.494	81.75
254.727	70.75
254.96	73.75
255.193	78.75
255.426	90.75
255.659	86.75
255.892	96.75
256.124	84.75
256.357	84.75
256.59	99.75
256.823	83.75
257.056	77.75
257.289	73.75
257.521	88.75
257.754	68.75
257.987	76.75
258.22	78.75
258.452	85.75
258.685	86.75
258.918	72.75
259.151	68.75
259.383	79.75
259.616	73.75
259.849	78.75
260.081	84.75
260.314	76.75
260.547	80.75
260.779	73.75
261.012	86.75
261.244	79.75
261.477	93.75
261.71	89.75
261.942	117.75
262.175	99.75
262.407	84.75
262.64	94.75
262.872	102.75
263.105	86.75
263.337	64.75
263.57	84.75
263.802	91.75
264.035	83.75
264.267	81.75
264.499	95.75
264.732	86.75
264.964	87.75
265.197	84.75
265.429	80.75
265.661	73.75
265.894	97.75
266.126	67.75
266.358	73.75
266.591	69.75
266.823	73.75
267.055	72.75
267.287	84.75
267.52	84.75
267.752	80.75
267.984	76.75
268.216	90.75
268.448	69.75
268.681	85.75
268.913	89.75
269.145	76.75
269.377	80.75
269.609	72.75
269.841	83.75
270.073	80.75
270.306	78.75
270.538	70.75
270.77	86.75
271.002	81.75
271.234	88.75
271.466	83.75
271.698	82.75
271.93	85.75
272.162	81.75
272.394	90.75
272.626	76.75
272.858	86.75
273.09	87.75
273.322	90.75
273.553	76.75
273.785	98.75
274.017	96.75
274.249	93.75
274.481	66.75
274.713	106.75
274.945	100.75
275.176	90.75
275.408	80.75
275.64	89.75
275.872	80.75
276.104	83.75
276.335	97.75
276.567	109.75
276.799	99.75
277.031	95.75
277.262	81.75
277.494	81.75
277.726	85.75
277.957	90.75
278.189	101.75
278.421	91.75
278.652	96.75
278.884	87.75
279.115	68.75
279.347	87.75
279.579	94.75
279.81	87.75
280.042	95.75
280.273	91.75
280.505	71.75
280.736	88.75
280.968	86.75
281.199	70.75
281.431	93.75
281.662	100.75
281.894	91.75
282.125	94.75
282.356	99.75
282.588	123.75
282.819	120.75
283.051	84.75
283.282	85.75
283.513	101.75
283.745	84.75
283.976	96.75
284.207	95.75
284.439	86.75
284.67	83.75
284.901	84.75
285.132	79.75
285.364	80.75
285.595	83.75
285.826	92.75
286.057	72.75
286.288	76.75
286.52	80.75
286.751	81.75
286.982	90.75
287.213	76.75
287.444	85.75
287.675	90.75
287.906	81.75
288.138	84.75
288.369	97.75
288.6	100.75
288.831	64.75
289.062	80.75
289.293	85.75
289.524	86.75
289.755	87.75
289.986	92.75
290.217	83.75
290.448	88.75
290.679	92.75
290.91	103.75
291.141	98.75
291.371	89.75
291.602	94.75
291.833	89.75
292.064	91.75
292.295	88.75
292.526	89.75
292.757	75.75
292.987	84.75
293.218	99.75
293.449	82.75
293.68	91.75
293.91	73.75
294.141	79.75
294.372	70.75
294.603	73.75
294.833	84.75
295.064	103.75
295.295	63.75
295.525	88.75
295.756	112.75
295.987	117.75
296.217	127.75
296.448	117.75
296.679	95.75
296.909	79.75
297.14	84.75
297.37	94.75
297.601	72.75
297.831	92.75
298.062	98.75
298.292	79.75
298.523	73.75
298.753	84.75
298.984	78.75
299.214	90.75
299.445	102.75
299.675	100.75
299.905	77.75
300.136	94.75
300.366	102.75
300.597	86.75
300.827	90.75
301.057	96.75
301.288	88.75
301.518	100.75
301.748	100.75
301.979	95.75
302.209	80.75
302.439	92.75
302.669	88.75
302.9	79.75
303.13	90.75
303.36	89.75
303.59	93.75
303.82	114.75
304.051	100.75
304.281	96.75
304.511	93.75
304.741	80.75
304.971	85.75
305.201	87.75
305.431	88.75
305.661	95.75
305.891	100.75
306.121	83.75
306.352	94.75
306.582	97.75
306.812	83.75
307.042	93.75
307.272	94.75
307.502	92.75
307.731	89.75
307.961	84.75
308.191	59.75
308.421	74.75
308.651	94.75
308.881	109.75
309.111	91.75
309.341	96.75
309.571	90.75
309.8	100.75
310.03	108.75
310.26	85.75
310.49	96.75
310.72	100.75
310.949	97.75
311.179	89.75
311.409	89.75
311.639	89.75
311.868	101.75
312.098	84.75
312.328	94.75
312.557	110.75
312.787	112.75
313.017	84.75
313.246	83.75
313.476	80.75
313.706	87.75
313.935	78.75
314.165	106.75
314.394	110.75
314.624	114.75
314.853	97.75
315.083	106.75
315.312	87.75
315.542	87.75
315.771	101.75
316.001	90.75
316.23	88.75
316.46	96.75
316.689	94.75
316.919	88.75
317.148	97.75
317.377	101.75
317.607	89.75
317.836	104.75
318.065	96.75
318.295	93.75
318.524	88.75
318.753	86.75
318.983	93.75
319.212	99.75
319.441	98.75
319.67	88.75
319.9	89.75
320.129	86.75
320.358	94.75
320.587	89.75
320.816	98.75
321.046	108.75
321.275	96.75
321.504	93.75
321.733	90.75
321.962	101.75
322.191	88.75
322.42	104.75
322.649	102.75
322.878	107.75
323.108	109.75
323.337	129.75
323.566	128.75
323.795	148.75
324.024	188.75
324.253	384.75
324.482	802.75
324.71	1637.75
324.939	2236.75
325.168	830.75
325.397	254.75
325.626	157.75
325.855	130.75
326.084	113.75
326.313	111.75
326.542	138.75
326.77	197.75
326.999	429.75
327.228	933.75
327.457	1719.75
327.686	1372.75
327.914	382.75
328.143	192.75
328.372	152.75
328.6	128.75
328.829	137.75
329.058	132.75
329.287	116.75
329.515	93.75
329.744	99.75
329.972	105.75
330.201	103.75
330.43	107.75
330.658	122.75
330.887	127.75
331.115	120.75
331.344	100.75
331.572	105.75
331.801	98.75
332.03	90.75
332.258	93.75
332.486	78.75
332.715	103.75
332.943	106.75
333.172	84.75
333.4	87.75
333.629	99.75
333.857	102.75
334.085	105.75
334.314	88.75
334.542	97.75
334.771	85.75
334.999	112.75
335.227	87.75
335.455	105.75
335.684	94.75
335.912	87.75
336.14	97.75
336.369	94.75
336.597	111.75
336.825	101.75
337.053	86.75
337.281	87.75
337.51	90.75
337.738	88.75
337.966	102.75
338.194	105.75
338.422	83.75
338.65	87.75
338.878	100.75
339.106	83.75
339.334	89.75
339.562	89.75
339.79	90.75
340.018	104.75
340.246	96.75
340.474	87.75
340.702	90.75
340.93	80.75
341.158	86.75
341.386	97.75
341.614	95.75
341.842	79.75
342.07	92.75
342.298	92.75
342.526	88.75
342.754	89.75
342.981	92.75
343.209	70.75
343.437	95.75
343.665	74.75
343.893	90.75
344.12	95.75
344.348	98.75
344.576	84.75
344.804	88.75
345.031	86.75
345.259	89.75
345.487	95.75
345.714	98.75
345.942	95.75
346.17	98.75
346.397	85.75
346.625	95.75
346.853	84.75
347.08	83.75
347.308	102.75
347.535	90.75
347.763	101.75
347.99	105.75
348.218	87.75
348.445	97.75
348.673	90.75
348.9	86.75
349.128	81.75
349.355	85.75
349.583	96.75
349.81	93.75
350.037	80.75
350.265	90.75
350.492	94.75
350.72	97.75
350.947	105.75
351.174	113.75
351.402	103.75
351.629	107.75
351.856	94.75
352.083	102.75
352.311	104.75
352.538	123.75
352.765	102.75
352.992	116.75
353.22	121.75
353.447	89.75
353.674	103.75
353.901	98.75
354.128	84.75
354.355	88.75
354.583	92.75
354.81	87.75
355.037	97.75
355.264	86.75
355.491	82.75
355.718	96.75
355.945	87.75
356.172	99.75
356.399	99.75
356.626	87.75
356.853	90.75
357.08	97.75
357.307	87.75
357.534	103.75
357.761	96.75
357.988	85.75
358.215	78.75
358.441	76.75
358.668	74.75
358.895	90.75
359.122	77.75
359.349	81.75
359.576	95.75
359.802	94.75
360.029	100.75
360.256	106.75
360.483	87.75
360.709	95.75
360.936	81.75
361.163	87.75
361.39	96.75
361.616	90.75
361.843	84.75
362.07	97.75
362.296	96.75
362.523	89.75
362.749	90.75
362.976	93.75
363.203	89.75
363.429	89.75
363.656	84.75
363.882	72.75
364.109	88.75
364.335	99.75
364.562	84.75
364.788	93.75
365.015	96.75
365.241	106.75
365.468	104.75
365.694	97.75
365.92	100.75
366.147	93.75
366.373	76.75
366.599	86.75
366.826	95.75
367.052	98.75
367.278	77.75
367.505	84.75
367.731	94.75
367.957	88.75
368.184	90.75
368.41	102.75
368.636	114.75
368.862	110.75
369.089	99.75
369.315	90.75
369.541	111.75
369.767	94.75
369.993	94.75
370.219	93.75
370.445	92.75
370.672	81.75
370.898	84.75
371.124	83.75
371.35	86.75
371.576	78.75
371.802	78.75
372.028	90.75
372.254	85.75
372.48	83.75
372.706	89.75
372.932	92.75
373.158	86.75
373.384	73.75
373.61	96.75
373.835	98.75
374.061	100.75
374.287	97.75
374.513	98.75
374.739	88.75
374.965	101.75
375.191	106.75
375.416	91.75
375.642	89.75
375.868	97.75
376.094	103.75
376.319	96.75
376.545	89.75
376.771	95.75
376.997	91.75
377.222	98.75
377.448	87.75
377.674	92.75
377.899	86.75
378.125	94.75
378.35	81.75
378.576	88.75
378.802	88.75
379.027	88.75
379.253	74.75
379.478	86.75
379.704	103.75
379.929	102.75
380.155	91.75
380.38	89.75
380.606	99.75
380.831	88.75
381.057	102.75
381.282	80.75
381.507	80.75
381.733	88.75
381.958	82.75
382.184	88.75
382.409	94.75
382.634	104.75
382.86	92.75
383.085	94.75
383.31	102.75
383.535	98.75
383.761	88.75
383.986	93.75
384.211	97.75
384.436	93.75
384.662	90.75
384.887	101.75
385.112	89.75
385.337	95.75
385.562	95.75
385.787	101.75
386.013	107.75
386.238	104.75
386.463	103.75
386.688	110.75
386.913	102.75
387.138	96.75
387.363	94.75
387.588	83.75
387.813	99.75
388.038	108.75
388.263	106.75
388.488	99.75
388.713	94.75
388.938	87.75
389.163	95.75
389.387	106.75
389.612	87.75
389.837	97.75
390.062	107.75
390.287	96.75
390.512	102.75
390.736	88.75
390.961	95.75
391.186	98.75
391.411	84.75
391.636	77.75
391.86	75.75
392.085	89.75
392.31	72.75
392.534	78.75
392.759	89.75
392.984	84.75
393.208	94.75
393.433	82.75
393.658	89.75
393.882	93.75
394.107	76.75
394.331	88.75
394.556	86.75
394.78	83.75
395.005	89.75
395.229	68.75
395.454	97.75
395.678	87.75
395.903	98.75
396.127	95.75
396.352	79.75
396.576	82.75
396.801	87.75
397.025	86.75
397.249	89.75
397.474	87.75
397.698	95.75
397.922	80.75
398.147	85.75
398.371	72.75
398.595	95.75
398.82	80.75
399.044	85.75
399.268	87.75
399.492	93.75
399.717	86.75
399.941	89.75
400.165	85.75
400.389	87.75
400.613	75.75
400.837	86.75
401.062	96.75
401.286	79.75
401.51	93.75
401.734	71.75
401.958	102.75
402.182	125.75
402.406	155.75
402.63	114.75
402.854	88.75
403.078	92.75
403.302	85.75
403.526	85.75
403.75	85.75
403.974	80.75
404.198	77.75
404.422	88.75
404.645	79.75
404.869	78.75
405.093	94.75
405.317	93.75
405.541	101.75
405.765	110.75
405.988	119.75
406.212	165.75
406.436	233.75
406.66	138.75
406.883	106.75
407.107	89.75
407.331	90.75
407.555	103.75
407.778	100.75
408.002	84.75
408.226	83.75
408.449	90.75
408.673	76.75
408.896	81.75
409.12	84.75
409.344	86.75
409.567	86.75
409.791	104.75
410.014	100.75
410.238	95.75
410.461	89.75
410.685	98.75
410.908	85.75
411.132	98.75
411.355	88.75
411.578	95.75
411.802	101.75
412.025	85.75
412.249	103.75
412.472	96.75
412.695	89.75
412.919	96.75
413.142	79.75
413.365	98.75
413.589	90.75
413.812	84.75
414.035	81.75
414.258	84.75
414.482	91.75
414.705	92.75
414.928	99.75
415.151	93.75
415.374	99.75
415.597	82.75
415.821	79.75
416.044	93.75
416.267	88.75
416.49	84.75
416.713	82.75
416.936	85.75
417.159	88.75
417.382	89.75
417.605	87.75
417.828	83.75
418.051	86.75
418.274	94.75
418.497	98.75
418.72	82.75
418.943	84.75
419.166	86.75
419.389	80.75
419.611	86.75
419.834	84.75
420.057	89.75
420.28	87.75
420.503	81.75
420.726	81.75
420.948	77.75
421.171	85.75
421.394	90.75
421.617	86.75
421.839	106.75
422.062	95.75
422.285	94.75
422.507	93.75
422.73	109.75
422.953	89.75
423.175	109.75
423.398	88.75
423.621	80.75
423.843	77.75
424.066	78.75
424.288	81.75
424.511	79.75
424.733	100.75
424.956	92.75
425.178	89.75
425.401	102.75
425.623	94.75
425.846	96.75
426.068	94.75
426.291	106.75
426.513	101.75
426.735	92.75
426.958	81.75
427.18	100.75
427.402	145.75
427.625	170.75
427.847	116.75
428.069	100.75
428.292	97.75
428.514	91.75
428.736	80.75
428.958	95.75
429.181	76.75
429.403	94.75
429.625	85.75
429.847	86.75
430.069	94.75
430.292	90.75
430.514	86.75
430.736	90.75
430.958	74.75
431.18	80.75
431.402	81.75
431.624	80.75
431.846	89.75
432.068	67.75
432.29	91.75
432.512	86.75
432.734	92.75
432.956	81.75
433.178	98.75
433.4	89.75
433.622	90.75
433.844	100.75
434.066	88.75
434.287	96.75
434.509	77.75
434.731	89.75
434.953	97.75
435.175	83.75
435.397	93.75
435.618	95.75
435.84	99.75
436.062	134.75
436.284	122.75
436.505	98.75
436.727	91.75
436.949	97.75
437.17	102.75
437.392	88.75
437.614	94.75
437.835	100.75
438.057	107.75
438.278	96.75
438.5	106.75
438.721	119.75
438.943	84.75
439.165	98.75
439.386	90.75
439.608	102.75
439.829	104.75
440.05	121.75
440.272	150.75
440.493	98.75
440.715	80.75
440.936	79.75
441.158	80.75
441.379	92.75
441.6	105.75
441.822	92.75
442.043	87.75
442.264	106.75
442.486	109.75
442.707	89.75
442.928	90.75
443.149	133.75
443.371	128.75
443.592	108.75
443.813	113.75
444.034	108.75
444.255	96.75
444.476	96.75
444.698	66.75
444.919	81.75
445.14	125.75
445.361	110.75
445.582	115.75
445.803	131.75
446.024	136.75
446.245	132.75
446.466	107.75
446.687	89.75
446.908	92.75
447.129	86.75
447.35	93.75
447.571	88.75
447.792	93.75
448.013	100.75
448.234	116.75
448.455	91.75
448.675	112.75
448.896	125.75
449.117	105.75
449.338	110.75
449.559	135.75
449.779	132.75
450	108.75
450.221	82.75
450.442	97.75
450.662	85.75
450.883	110.75
451.104	99.75
451.324	88.75
451.545	87.75
451.766	98.75
451.986	79.75
452.207	84.75
452.428	100.75
452.648	104.75
452.869	108.75
453.089	99.75
453.31	108.75
453.53	88.75
453.751	103.75
453.971	102.75
454.192	107.75
454.412	88.75
454.633	80.75
454.853	90.75
455.073	90.75
455.294	92.75
455.514	94.75
455.734	94.75
455.955	84.75
456.175	88.75
456.395	85.75
456.616	96.75
456.836	94.75
457.056	80.75
457.276	72.75
457.497	94.75
457.717	80.75
457.937	96.75
458.157	86.75
458.377	88.75
458.598	107.75
458.818	132.75
459.038	158.75
459.258	117.75
459.478	92.75
459.698	80.75
459.918	74.75
460.138	69.75
460.358	80.75
460.578	86.75
460.798	94.75
461.018	96.75
461.238	82.75
461.458	80.75
461.678	80.75
461.898	83.75
462.118	87.75
462.338	67.75
462.558	87.75
462.777	87.75
462.997	90.75
463.217	74.75
463.437	90.75
463.657	86.75
463.876	95.75
464.096	85.75
464.316	92.75
464.536	88.75
464.755	92.75
464.975	105.75
465.195	176.75
465.414	152.75
465.634	96.75
465.854	79.75
466.073	97.75
466.293	76.75
466.512	69.75
466.732	85.75
466.951	94.75
467.171	81.75
467.391	85.75
467.61	92.75
467.829	98.75
468.049	89.75
468.268	95.75
468.488	88.75
468.707	100.75
468.927	88.75
469.146	90.75
469.365	65.75
469.585	97.75
469.804	107.75
470.023	84.75
470.243	84.75
470.462	95.75
470.681	109.75
470.901	92.75
471.12	91.75
471.339	82.75
471.558	96.75
471.777	86.75
471.997	93.75
472.216	82.75
472.435	95.75
472.654	96.75
472.873	99.75
473.092	72.75
473.311	82.75
473.53	86.75
473.749	84.75
473.968	100.75
474.187	116.75
474.406	96.75
474.625	95.75
474.844	93.75
475.063	81.75
475.282	103.75
475.501	88.75
475.72	91.75
475.939	86.75
476.158	92.75
476.377	79.75
476.596	81.75
476.814	89.75
477.033	95.75
477.252	82.75
477.471	82.75
477.69	85.75
477.908	86.75
478.127	96.75
478.346	90.75
478.564	88.75
478.783	91.75
479.002	86.75
479.22	77.75
479.439	101.75
479.658	90.75
479.876	96.75
480.095	96.75
480.313	90.75
480.532	80.75
480.751	84.75
480.969	96.75
481.188	112.75
481.406	106.75
481.624	95.75
481.843	90.75
482.061	85.75
482.28	83.75
482.498	81.75
482.717	86.75
482.935	76.75
483.153	83.75
483.372	80.75
483.59	83.75
483.808	78.75
484.027	94.75
484.245	91.75
484.463	106.75
484.681	96.75
484.9	93.75
485.118	95.75
485.336	94.75
485.554	85.75
485.772	102.75
485.99	104.75
486.209	101.75
486.427	104.75
486.645	99.75
486.863	98.75
487.081	89.75
487.299	93.75
487.517	100.75
487.735	78.75
487.953	87.75
488.171	86.75
488.389	92.75
488.607	94.75
488.825	91.75
489.043	87.75
489.261	74.75
489.479	83.75
489.696	85.75
489.914	106.75
490.132	82.75
490.35	77.75
490.568	91.75
490.786	99.75
491.003	102.75
491.221	81.75
491.439	74.75
491.657	97.75
491.874	88.75
492.092	84.75
492.31	94.75
492.527	85.75
492.745	88.75
492.963	102.75
493.18	76.75
493.398	93.75
493.615	97.75
493.833	88.75
494.05	89.75
494.268	79.75
494.485	81.75
494.703	97.75
494.92	86.75
495.138	94.75
495.355	97.75
495.573	93.75
495.79	73.75
496.008	78.75
496.225	94.75
496.442	96.75
496.66	85.75
496.877	106.75
497.094	89.75
497.312	97.75
497.529	97.75
497.746	91.75
497.963	87.75
498.181	82.75
498.398	90.75
498.615	114.75
498.832	103.75
499.049	90.75
499.267	93.75
499.484	98.75
499.701	94.75
499.918	95.75
500.135	107.75
500.352	89.75
500.569	80.75
500.786	98.75
501.003	88.75
501.22	100.75
501.437	85.75
501.654	98.75
501.871	100.75
502.088	94.75
502.305	98.75
502.522	90.75
502.739	80.75
502.956	90.75
503.172	88.75
503.389	103.75
503.606	91.75
503.823	94.75
504.04	86.75
504.256	93.75
504.473	88.75
504.69	72.75
504.907	78.75
505.123	92.75
505.34	86.75
505.557	88.75
505.773	85.75
505.99	84.75
506.207	83.75
506.423	98.75
506.64	89.75
506.856	89.75
507.073	81.75
507.289	110.75
507.506	90.75
507.722	105.75
507.939	112.75
508.155	86.75
508.372	109.75
508.588	96.75
508.805	90.75
509.021	96.75
509.238	92.75
509.454	107.75
509.67	101.75
509.887	104.75
510.103	124.75
510.319	209.75
510.536	760.75
510.752	2442.75
510.968	652.75
511.184	156.75
511.401	111.75
511.617	104.75
511.833	80.75
512.049	86.75
512.265	96.75
512.481	87.75
512.698	80.75
512.914	103.75
513.13	76.75
513.346	96.75
513.562	81.75
513.778	90.75
513.994	96.75
514.21	112.75
514.426	126.75
514.642	125.75
514.858	126.75
515.074	168.75
515.29	470.75
515.506	1522.75
515.721	583.75
515.937	156.75
516.153	115.75
