Data from Uncirc_1986_H10_HRD10591_00091.txt Node
Date: Wed Jan 03 12:14:44 EST 2024
User: Yrep
Spectrometer: HR+D1059
Trigger mode: 1
Integration Time (sec): 1.000000E-1
Scans to average: 1
Electric dark correction enabled: true
Nonlinearity correction enabled: false
Boxcar width: 0
XAxis mode: Wavelengths
Number of Pixels in Spectrum: 2048
>>>>>Begin Spectral Data<<<<<
223.165	-19.19
223.4	-19.19
223.635	-19.19
223.869	-26.19
224.104	-41.19
224.338	-29.19
224.573	-10.19
224.808	-8.19
225.042	-14.19
225.277	-17.19
225.511	6.81
225.746	-3.19
225.98	12.81
226.215	29.81
226.449	19.81
226.683	34.81
226.918	35.81
227.152	28.81
227.387	22.81
227.621	44.81
227.856	41.81
228.09	50.81
228.324	65.81
228.559	52.81
228.793	150.81
229.027	475.81
229.262	550.81
229.496	659.81
229.73	811.81
229.964	858.81
230.199	565.81
230.433	525.81
230.667	465.81
230.901	497.81
231.136	459.81
231.37	479.81
231.604	456.81
231.838	480.81
232.072	480.81
232.306	477.81
232.541	470.81
232.775	482.81
233.009	480.81
233.243	482.81
233.477	499.81
233.711	524.81
233.945	517.81
234.179	551.81
234.413	525.81
234.647	533.81
234.881	533.81
235.115	551.81
235.349	561.81
235.583	541.81
235.817	599.81
236.051	664.81
236.285	655.81
236.519	637.81
236.753	737.81
236.987	929.81
237.221	1460.81
237.455	1596.81
237.689	953.81
237.922	775.81
238.156	756.81
238.39	703.81
238.624	656.81
238.858	679.81
239.091	667.81
239.325	705.81
239.559	708.81
239.793	733.81
240.027	790.81
240.26	940.81
240.494	1006.81
240.728	992.81
240.961	951.81
241.195	831.81
241.429	818.81
241.662	801.81
241.896	771.81
242.13	791.81
242.363	799.81
242.597	808.81
242.83	863.81
243.064	873.81
243.298	856.81
243.531	859.81
243.765	855.81
243.998	852.81
244.232	873.81
244.465	896.81
244.699	925.81
244.932	947.81
245.166	938.81
245.399	954.81
245.633	937.81
245.866	963.81
246.099	962.81
246.333	997.81
246.566	980.81
246.8	1019.81
247.033	1045.81
247.266	1097.81
247.5	1183.81
247.733	1209.81
247.966	1179.81
248.2	1188.81
248.433	1215.81
248.666	1280.81
248.899	1383.81
249.133	1512.81
249.366	1501.81
249.599	1363.81
249.832	1268.81
250.066	1267.81
250.299	1300.81
250.532	1403.81
250.765	1558.81
250.998	1792.81
251.231	1741.81
251.465	1551.81
251.698	1492.81
251.931	1426.81
252.164	1443.81
252.397	1469.81
252.63	1528.81
252.863	1607.81
253.096	1789.81
253.329	1816.81
253.562	1715.81
253.795	1654.81
254.028	1621.81
254.261	1667.81
254.494	1885.81
254.727	2259.81
254.96	2353.81
255.193	2046.81
255.426	1787.81
255.659	1687.81
255.892	1651.81
256.124	1645.81
256.357	1631.81
256.59	1594.81
256.823	1554.81
257.056	1514.81
257.289	1537.81
257.521	1646.81
257.754	1620.81
257.987	1563.81
258.22	1550.81
258.452	1605.81
258.685	1585.81
258.918	1622.81
259.151	1672.81
259.383	1745.81
259.616	1746.81
259.849	1842.81
260.081	2031.81
260.314	2153.81
260.547	2093.81
260.779	1948.81
261.012	1863.81
261.244	1801.81
261.477	1780.81
261.71	1757.81
261.942	1803.81
262.175	1815.81
262.407	1769.81
262.64	1669.81
262.872	1713.81
263.105	1700.81
263.337	1719.81
263.57	1717.81
263.802	1749.81
264.035	1725.81
264.267	1745.81
264.499	1719.81
264.732	1752.81
264.964	1767.81
265.197	1727.81
265.429	1742.81
265.661	1739.81
265.894	1776.81
266.126	1789.81
266.358	1831.81
266.591	1812.81
266.823	1928.81
267.055	1921.81
267.287	1960.81
267.52	1893.81
267.752	1928.81
267.984	1906.81
268.216	1954.81
268.448	1956.81
268.681	2018.81
268.913	2179.81
269.145	2435.81
269.377	2459.81
269.609	2415.81
269.841	2325.81
270.073	2469.81
270.306	2739.81
270.538	2941.81
270.77	2811.81
271.002	2630.81
271.234	2606.81
271.466	2740.81
271.698	2813.81
271.93	2884.81
272.162	2848.81
272.394	2787.81
272.626	2621.81
272.858	2453.81
273.09	2391.81
273.322	2331.81
273.553	2293.81
273.785	2302.81
274.017	2307.81
274.249	2306.81
274.481	2350.81
274.713	2321.81
274.945	2371.81
275.176	2416.81
275.408	2324.81
275.64	2345.81
275.872	2337.81
276.104	2298.81
276.335	2379.81
276.567	2486.81
276.799	2635.81
277.031	2893.81
277.262	3029.81
277.494	2914.81
277.726	2614.81
277.957	2613.81
278.189	2533.81
278.421	2456.81
278.652	2481.81
278.884	2421.81
279.115	2438.81
279.347	2416.81
279.579	2438.81
279.81	2433.81
280.042	2382.81
280.273	2438.81
280.505	2475.81
280.736	2422.81
280.968	2490.81
281.199	2520.81
281.431	2529.81
281.662	2477.81
281.894	2563.81
282.125	2582.81
282.356	2756.81
282.588	2884.81
282.819	2777.81
283.051	2591.81
283.282	2600.81
283.513	2590.81
283.745	2658.81
283.976	2736.81
284.207	2765.81
284.439	2670.81
284.67	2677.81
284.901	2682.81
285.132	2626.81
285.364	2668.81
285.595	2679.81
285.826	2675.81
286.057	2734.81
286.288	2725.81
286.52	2768.81
286.751	2710.81
286.982	2780.81
287.213	2743.81
287.444	2822.81
287.675	2860.81
287.906	2977.81
288.138	3035.81
288.369	2946.81
288.6	2974.81
288.831	2922.81
289.062	2880.81
289.293	2916.81
289.524	2865.81
289.755	2852.81
289.986	2887.81
290.217	2848.81
290.448	2839.81
290.679	2871.81
290.91	2881.81
291.141	2849.81
291.371	2943.81
291.602	2868.81
291.833	2893.81
292.064	2935.81
292.295	2921.81
292.526	2852.81
292.757	2871.81
292.987	2867.81
293.218	2828.81
293.449	2926.81
293.68	2892.81
293.91	2868.81
294.141	2904.81
294.372	2891.81
294.603	2901.81
294.833	2959.81
295.064	2979.81
295.295	2952.81
295.525	2981.81
295.756	2984.81
295.987	3058.81
296.217	3254.81
296.448	3185.81
296.679	2980.81
296.909	3029.81
297.14	3056.81
297.37	3054.81
297.601	3070.81
297.831	3103.81
298.062	3097.81
298.292	3136.81
298.523	3191.81
298.753	3214.81
298.984	3183.81
299.214	3179.81
299.445	3140.81
299.675	3172.81
299.905	3221.81
300.136	3202.81
300.366	3166.81
300.597	3265.81
300.827	3343.81
301.057	3428.81
301.288	3421.81
301.518	3397.81
301.748	3388.81
301.979	3475.81
302.209	3459.81
302.439	3482.81
302.669	3413.81
302.9	3383.81
303.13	3354.81
303.36	3380.81
303.59	3431.81
303.82	3423.81
304.051	3428.81
304.281	3427.81
304.511	3306.81
304.741	3373.81
304.971	3321.81
305.201	3311.81
305.431	3390.81
305.661	3319.81
305.891	3299.81
306.121	3324.81
306.352	3387.81
306.582	3361.81
306.812	3283.81
307.042	3370.81
307.272	3320.81
307.502	3335.81
307.731	3309.81
307.961	3308.81
308.191	3305.81
308.421	3336.81
308.651	3410.81
308.881	3358.81
309.111	3415.81
309.341	3473.81
309.571	3543.81
309.8	3606.81
310.03	3686.81
310.26	3689.81
310.49	3614.81
310.72	3784.81
310.949	3880.81
311.179	3851.81
311.409	3696.81
311.639	3771.81
311.868	3759.81
312.098	3723.81
312.328	3809.81
312.557	4003.81
312.787	4102.81
313.017	3964.81
313.246	3891.81
313.476	3808.81
313.706	3887.81
313.935	3934.81
314.165	4057.81
314.394	4073.81
314.624	4023.81
314.853	3903.81
315.083	3841.81
315.312	3832.81
315.542	3824.81
315.771	3745.81
316.001	3749.81
316.23	3761.81
316.46	3801.81
316.689	3848.81
316.919	3825.81
317.148	3885.81
317.377	3875.81
317.607	3854.81
317.836	3805.81
318.065	3734.81
318.295	3759.81
318.524	3704.81
318.753	3759.81
318.983	3755.81
319.212	3705.81
319.441	3803.81
319.67	3844.81
319.9	3754.81
320.129	3776.81
320.358	3784.81
320.587	3848.81
320.816	3900.81
321.046	3933.81
321.275	3851.81
321.504	3904.81
321.733	3942.81
321.962	4005.81
322.191	4101.81
322.42	4209.81
322.649	4298.81
322.878	4352.81
323.108	4379.81
323.337	4664.81
323.566	4828.81
323.795	5059.81
324.024	5705.81
324.253	7475.81
324.482	11218.81
324.71	15464.81
324.939	15625.81
325.168	13601.81
325.397	6884.81
325.626	5400.81
325.855	4992.81
326.084	4852.81
326.313	4870.81
326.542	5057.81
326.77	5725.81
326.999	7179.81
327.228	10557.81
327.457	14665.81
327.686	14110.81
327.914	7610.81
328.143	5984.81
328.372	5604.81
328.6	5331.81
328.829	5347.81
329.058	5491.81
329.287	5399.81
329.515	5070.81
329.744	4845.81
329.972	4860.81
330.201	5069.81
330.43	5282.81
330.658	5602.81
330.887	5855.81
331.115	5491.81
331.344	5067.81
331.572	4943.81
331.801	5115.81
332.03	5098.81
332.258	5029.81
332.486	5080.81
332.715	5103.81
332.943	5244.81
333.172	5384.81
333.4	5579.81
333.629	5624.81
333.857	5701.81
334.085	5677.81
334.314	5633.81
334.542	5559.81
334.771	5517.81
334.999	5349.81
335.227	5301.81
335.455	5187.81
335.684	5091.81
335.912	5043.81
336.14	5047.81
336.369	4986.81
336.597	5083.81
336.825	5045.81
337.053	4924.81
337.281	4866.81
337.51	4788.81
337.738	4778.81
337.966	4801.81
338.194	4787.81
338.422	4687.81
338.65	4683.81
338.878	4660.81
339.106	4593.81
339.334	4557.81
339.562	4523.81
339.79	4462.81
340.018	4451.81
340.246	4530.81
340.474	4461.81
340.702	4505.81
340.93	4468.81
341.158	4470.81
341.386	4510.81
341.614	4497.81
341.842	4449.81
342.07	4431.81
342.298	4385.81
342.526	4354.81
342.754	4287.81
342.981	4364.81
343.209	4470.81
343.437	4727.81
343.665	4922.81
343.893	5266.81
344.12	5301.81
344.348	5081.81
344.576	4864.81
344.804	4814.81
345.031	4663.81
345.259	4653.81
345.487	4531.81
345.714	4461.81
345.942	4362.81
346.17	4269.81
346.397	4323.81
346.625	4288.81
346.853	4295.81
347.08	4276.81
347.308	4342.81
347.535	4436.81
347.763	4427.81
347.99	4357.81
348.218	4393.81
348.445	4441.81
348.673	4350.81
348.9	4254.81
349.128	4201.81
349.355	4120.81
349.583	4096.81
349.81	4107.81
350.037	4119.81
350.265	4151.81
350.492	4105.81
350.72	4124.81
350.947	4180.81
351.174	4209.81
351.402	4259.81
351.629	4253.81
351.856	4210.81
352.083	4277.81
352.311	4308.81
352.538	4339.81
352.765	4228.81
352.992	4238.81
353.22	4159.81
353.447	4166.81
353.674	4100.81
353.901	4064.81
354.128	4073.81
354.355	4054.81
354.583	3979.81
354.81	4034.81
355.037	4070.81
355.264	3983.81
355.491	3983.81
355.718	4022.81
355.945	4004.81
356.172	4051.81
356.399	4024.81
356.626	4003.81
356.853	3965.81
357.08	3936.81
357.307	4028.81
357.534	3976.81
357.761	4002.81
357.988	4046.81
358.215	4076.81
358.441	4097.81
358.668	4072.81
358.895	4102.81
359.122	4143.81
359.349	4226.81
359.576	4347.81
359.802	4552.81
360.029	4658.81
360.256	4625.81
360.483	4498.81
360.709	4299.81
360.936	4272.81
361.163	4245.81
361.39	4293.81
361.616	4222.81
361.843	4237.81
362.07	4262.81
362.296	4296.81
362.523	4320.81
362.749	4206.81
362.976	4185.81
363.203	4163.81
363.429	4050.81
363.656	4152.81
363.882	4115.81
364.109	4142.81
364.335	4063.81
364.562	4075.81
364.788	4138.81
365.015	4095.81
365.241	4113.81
365.468	4171.81
365.694	4178.81
365.92	4147.81
366.147	4121.81
366.373	4144.81
366.599	4113.81
366.826	4096.81
367.052	4071.81
367.278	4144.81
367.505	4123.81
367.731	4183.81
367.957	4163.81
368.184	4119.81
368.41	4249.81
368.636	4311.81
368.862	4316.81
369.089	4200.81
369.315	4220.81
369.541	4184.81
369.767	4230.81
369.993	4230.81
370.219	4236.81
370.445	4219.81
370.672	4275.81
370.898	4284.81
371.124	4323.81
371.35	4412.81
371.576	4381.81
371.802	4323.81
372.028	4344.81
372.254	4327.81
372.48	4414.81
372.706	4462.81
372.932	4528.81
373.158	4464.81
373.384	4419.81
373.61	4327.81
373.835	4391.81
374.061	4409.81
374.287	4511.81
374.513	4591.81
374.739	4771.81
374.965	4859.81
375.191	4749.81
375.416	4748.81
375.642	4651.81
375.868	4577.81
376.094	4563.81
376.319	4495.81
376.545	4453.81
376.771	4439.81
376.997	4393.81
377.222	4461.81
377.448	4393.81
377.674	4338.81
377.899	4364.81
378.125	4354.81
378.35	4321.81
378.576	4358.81
378.802	4331.81
379.027	4312.81
379.253	4339.81
379.478	4311.81
379.704	4294.81
379.929	4404.81
380.155	4373.81
380.38	4379.81
380.606	4409.81
380.831	4397.81
381.057	4467.81
381.282	4375.81
381.507	4456.81
381.733	4446.81
381.958	4413.81
382.184	4509.81
382.409	4563.81
382.634	4561.81
382.86	4647.81
383.085	4621.81
383.31	4788.81
383.535	4816.81
383.761	4849.81
383.986	4879.81
384.211	4972.81
384.436	5060.81
384.662	5142.81
384.887	5174.81
385.112	5174.81
385.337	5253.81
385.562	5191.81
385.787	5257.81
386.013	5398.81
386.238	5408.81
386.463	5327.81
386.688	5346.81
386.913	5151.81
387.138	5174.81
387.363	5161.81
387.588	5115.81
387.813	5227.81
388.038	5265.81
388.263	5250.81
388.488	5251.81
388.713	5207.81
388.938	5107.81
389.163	5111.81
389.387	5174.81
389.612	5119.81
389.837	5155.81
390.062	5134.81
390.287	5115.81
390.512	5140.81
390.736	5183.81
390.961	5363.81
391.186	5319.81
391.411	5541.81
391.636	5644.81
391.86	5876.81
392.085	5895.81
392.31	5725.81
392.534	5632.81
392.759	5562.81
392.984	5509.81
393.208	5341.81
393.433	5443.81
393.658	5432.81
393.882	5460.81
394.107	5494.81
394.331	5541.81
394.556	5530.81
394.78	5585.81
395.005	5563.81
395.229	5562.81
395.454	5684.81
395.678	5820.81
395.903	5942.81
396.127	5943.81
396.352	5816.81
396.576	5557.81
396.801	5523.81
397.025	5647.81
397.249	5705.81
397.474	5875.81
397.698	5904.81
397.922	6103.81
398.147	6147.81
398.371	6200.81
398.595	6299.81
398.82	6701.81
399.044	7182.81
399.268	7976.81
399.492	9082.81
399.717	9634.81
399.941	9460.81
400.165	8781.81
400.389	8126.81
400.613	7333.81
400.837	6888.81
401.062	6670.81
401.286	6660.81
401.51	6577.81
401.734	6541.81
401.958	6678.81
402.182	6887.81
402.406	6877.81
402.63	6911.81
402.854	7041.81
403.078	7069.81
403.302	7230.81
403.526	7349.81
403.75	7394.81
403.974	7459.81
404.198	7459.81
404.422	7575.81
404.645	7533.81
404.869	7445.81
405.093	7533.81
405.317	7742.81
405.541	7823.81
405.765	7393.81
405.988	7277.81
406.212	7439.81
406.436	7675.81
406.66	7838.81
406.883	7818.81
407.107	8520.81
407.331	9091.81
407.555	9506.81
407.778	9215.81
408.002	8361.81
408.226	8067.81
408.449	7839.81
408.673	7782.81
408.896	7981.81
409.12	8093.81
409.344	7622.81
409.567	7292.81
409.791	7208.81
410.014	7127.81
410.238	7101.81
410.461	6987.81
410.685	7121.81
410.908	7221.81
411.132	7491.81
411.355	7554.81
411.578	7072.81
411.802	6879.81
412.025	6786.81
412.249	6965.81
412.472	6934.81
412.695	6946.81
412.919	6585.81
413.142	6591.81
413.365	6515.81
413.589	6537.81
413.812	6428.81
414.035	6321.81
414.258	6471.81
414.482	6437.81
414.705	6574.81
414.928	6399.81
415.151	6521.81
415.374	6430.81
415.597	6394.81
415.821	6322.81
416.044	6288.81
416.267	6380.81
416.49	6288.81
416.713	6231.81
416.936	6384.81
417.159	6366.81
417.382	6343.81
417.605	6445.81
417.828	6552.81
418.051	6726.81
418.274	6557.81
418.497	6489.81
418.72	6640.81
418.943	6524.81
419.166	6947.81
419.389	7332.81
419.611	7260.81
419.834	6960.81
420.057	6739.81
420.28	6647.81
420.503	6433.81
420.726	6460.81
420.948	6688.81
421.171	7093.81
421.394	7158.81
421.617	6660.81
421.839	6603.81
422.062	6747.81
422.285	6841.81
422.507	7558.81
422.73	8159.81
422.953	7493.81
423.175	7066.81
423.398	7111.81
423.621	7099.81
423.843	7419.81
424.066	7372.81
424.288	7201.81
424.511	7480.81
424.733	7955.81
424.956	8443.81
425.178	7951.81
425.401	8108.81
425.623	7898.81
425.846	6927.81
426.068	6699.81
426.291	6623.81
426.513	6645.81
426.735	6756.81
426.958	7245.81
427.18	8113.81
427.402	9360.81
427.625	9381.81
427.847	7882.81
428.069	7049.81
428.292	6523.81
428.514	6193.81
428.736	6065.81
428.958	6084.81
429.181	5893.81
429.403	5892.81
429.625	6131.81
429.847	6457.81
430.069	7100.81
430.292	6507.81
430.514	5921.81
430.736	5955.81
430.958	5791.81
431.18	5824.81
431.402	5874.81
431.624	5717.81
431.846	5897.81
432.068	5818.81
432.29	5975.81
432.512	5763.81
432.734	5990.81
432.956	5904.81
433.178	6030.81
433.4	5995.81
433.622	5813.81
433.844	5905.81
434.066	5926.81
434.287	6027.81
434.509	6206.81
434.731	6421.81
434.953	6543.81
435.175	6699.81
435.397	6760.81
435.618	6756.81
435.84	7232.81
436.062	8214.81
436.284	8049.81
436.505	6739.81
436.727	6464.81
436.949	6075.81
437.17	5958.81
437.392	5926.81
437.614	6196.81
437.835	6525.81
438.057	7650.81
438.278	8302.81
438.5	8168.81
438.721	9109.81
438.943	7890.81
439.165	6571.81
439.386	6327.81
439.608	6489.81
439.829	6517.81
440.05	6925.81
440.272	7268.81
440.493	6679.81
440.715	6283.81
440.936	6167.81
441.158	6290.81
441.379	6399.81
441.6	6750.81
441.822	6974.81
442.043	7432.81
442.264	8285.81
442.486	8063.81
442.707	7103.81
442.928	6911.81
443.149	7096.81
443.371	7334.81
443.592	7904.81
443.813	9003.81
444.034	8959.81
444.255	7687.81
444.476	7482.81
444.698	7677.81
444.919	7714.81
445.14	7402.81
445.361	7393.81
445.582	7639.81
445.803	8319.81
446.024	9071.81
446.245	8641.81
446.466	7674.81
446.687	6654.81
446.908	6294.81
447.129	5951.81
447.35	5846.81
447.571	5765.81
447.792	5636.81
448.013	5802.81
448.234	6051.81
448.455	6753.81
448.675	8081.81
448.896	8531.81
449.117	7011.81
449.338	7236.81
449.559	8605.81
449.779	8830.81
450	6603.81
450.221	5960.81
450.442	5718.81
450.662	5603.81
450.883	5631.81
451.104	5751.81
451.324	5686.81
451.545	5500.81
451.766	5372.81
451.986	5213.81
452.207	5155.81
452.428	5159.81
452.648	5122.81
452.869	5160.81
453.089	5341.81
453.31	5413.81
453.53	5216.81
453.751	5151.81
453.971	5152.81
454.192	5284.81
454.412	5082.81
454.633	4983.81
454.853	4997.81
455.073	5072.81
455.294	5469.81
455.514	6093.81
455.734	5542.81
455.955	4987.81
456.175	4783.81
456.395	4750.81
456.616	4732.81
456.836	4758.81
457.056	4755.81
457.276	4632.81
457.497	4870.81
457.717	4810.81
457.937	4868.81
458.157	4915.81
458.377	5101.81
458.598	5426.81
458.818	6133.81
459.038	6936.81
459.258	6886.81
459.478	6096.81
459.698	5923.81
459.918	6033.81
460.138	6095.81
460.358	6331.81
460.578	6440.81
460.798	6471.81
461.018	6461.81
461.238	6287.81
461.458	6243.81
461.678	6198.81
461.898	6419.81
462.118	6429.81
462.338	6853.81
462.558	6951.81
462.777	7205.81
462.997	7793.81
463.217	8099.81
463.437	7876.81
463.657	7304.81
463.876	7192.81
464.096	7262.81
464.316	7260.81
464.536	7350.81
464.755	7083.81
464.975	6933.81
465.195	7107.81
465.414	7112.81
465.634	6267.81
465.854	6045.81
466.073	5731.81
466.293	5539.81
466.512	5489.81
466.732	5307.81
466.951	5295.81
467.171	5207.81
467.391	5364.81
467.61	5442.81
467.829	5400.81
468.049	5311.81
468.268	5141.81
468.488	5095.81
468.707	5069.81
468.927	4995.81
469.146	4951.81
469.365	5143.81
469.585	5151.81
469.804	5360.81
470.023	5549.81
470.243	5500.81
470.462	5597.81
470.681	5670.81
470.901	5597.81
471.12	5399.81
471.339	5455.81
471.558	5372.81
471.777	5266.81
471.997	5201.81
472.216	5150.81
472.435	5150.81
472.654	5070.81
472.873	4953.81
473.092	4974.81
473.311	5010.81
473.53	5124.81
473.749	5277.81
473.968	5754.81
474.187	6962.81
474.406	6412.81
474.625	5471.81
474.844	5086.81
475.063	5089.81
475.282	5021.81
475.501	5155.81
475.72	5205.81
475.939	5171.81
476.158	5234.81
476.377	5225.81
476.596	5278.81
476.814	5461.81
477.033	5429.81
477.252	5518.81
477.471	5654.81
477.69	5713.81
477.908	5814.81
478.127	5907.81
478.346	6014.81
478.564	6125.81
478.783	6229.81
479.002	6366.81
479.22	6363.81
479.439	6453.81
479.658	6641.81
479.876	6741.81
480.095	6863.81
480.313	7341.81
480.532	7158.81
480.751	7024.81
480.969	6883.81
481.188	6896.81
481.406	6655.81
481.624	6344.81
481.843	6166.81
482.061	6141.81
482.28	6070.81
482.498	6000.81
482.717	5966.81
482.935	5936.81
483.153	5975.81
483.372	5821.81
483.59	5917.81
483.808	5924.81
484.027	5986.81
484.245	5963.81
484.463	5992.81
484.681	6091.81
484.9	6206.81
485.118	6259.81
485.336	6260.81
485.554	6319.81
485.772	6385.81
485.99	6350.81
486.209	6403.81
486.427	6408.81
486.645	6397.81
486.863	6636.81
487.081	6515.81
487.299	6497.81
487.517	6427.81
487.735	6356.81
