Data from Uncirc_1986_H10_HRD10591_00018.txt Node
Date: Wed Jan 03 12:14:30 EST 2024
User: Yrep
Spectrometer: HR+D1059
Trigger mode: 1
Integration Time (sec): 1.000000E-1
Scans to average: 1
Electric dark correction enabled: true
Nonlinearity correction enabled: false
Boxcar width: 0
XAxis mode: Wavelengths
Number of Pixels in Spectrum: 2048
>>>>>Begin Spectral Data<<<<<
223.165	-23.19
223.4	-23.19
223.635	-23.19
223.869	-22.19
224.104	-29.19
224.338	-15.19
224.573	-4.19
224.808	-8.19
225.042	-8.19
225.277	12.81
225.511	-1.19
225.746	-8.19
225.98	9.81
226.215	0.81
226.449	17.81
226.683	26.81
226.918	32.81
227.152	18.81
227.387	33.81
227.621	29.81
227.856	44.81
228.09	37.81
228.324	41.81
228.559	61.81
228.793	67.81
229.027	67.81
229.262	65.81
229.496	68.81
229.73	84.81
229.964	86.81
230.199	79.81
230.433	82.81
230.667	70.81
230.901	71.81
231.136	83.81
231.37	90.81
231.604	79.81
231.838	76.81
232.072	74.81
232.306	84.81
232.541	75.81
232.775	82.81
233.009	80.81
233.243	86.81
233.477	95.81
233.711	86.81
233.945	83.81
234.179	76.81
234.413	71.81
234.647	70.81
234.881	98.81
235.115	86.81
235.349	82.81
235.583	78.81
235.817	84.81
236.051	82.81
236.285	69.81
236.519	68.81
236.753	70.81
236.987	79.81
237.221	80.81
237.455	93.81
237.689	89.81
237.922	97.81
238.156	80.81
238.39	78.81
238.624	77.81
238.858	62.81
239.091	71.81
239.325	80.81
239.559	81.81
239.793	83.81
240.027	81.81
240.26	77.81
240.494	71.81
240.728	60.81
240.961	59.81
241.195	92.81
241.429	81.81
241.662	83.81
241.896	67.81
242.13	68.81
242.363	74.81
242.597	71.81
242.83	79.81
243.064	71.81
243.298	66.81
243.531	70.81
243.765	82.81
243.998	68.81
244.232	65.81
244.465	74.81
244.699	79.81
244.932	72.81
245.166	73.81
245.399	83.81
245.633	80.81
245.866	78.81
246.099	88.81
246.333	85.81
246.566	83.81
246.8	71.81
247.033	80.81
247.266	84.81
247.5	72.81
247.733	81.81
247.966	82.81
248.2	89.81
248.433	81.81
248.666	90.81
248.899	89.81
249.133	86.81
249.366	82.81
249.599	95.81
249.832	95.81
250.066	90.81
250.299	73.81
250.532	80.81
250.765	65.81
250.998	80.81
251.231	58.81
251.465	73.81
251.698	79.81
251.931	80.81
252.164	74.81
252.397	82.81
252.63	54.81
252.863	75.81
253.096	82.81
253.329	86.81
253.562	67.81
253.795	78.81
254.028	86.81
254.261	71.81
254.494	62.81
254.727	68.81
254.96	69.81
255.193	76.81
255.426	68.81
255.659	78.81
255.892	101.81
256.124	83.81
256.357	66.81
256.59	80.81
256.823	62.81
257.056	71.81
257.289	85.81
257.521	79.81
257.754	74.81
257.987	86.81
258.22	80.81
258.452	78.81
258.685	91.81
258.918	79.81
259.151	86.81
259.383	86.81
259.616	86.81
259.849	84.81
260.081	67.81
260.314	89.81
260.547	66.81
260.779	79.81
261.012	70.81
261.244	89.81
261.477	82.81
261.71	97.81
261.942	103.81
262.175	113.81
262.407	98.81
262.64	77.81
262.872	84.81
263.105	84.81
263.337	92.81
263.57	86.81
263.802	85.81
264.035	80.81
264.267	90.81
264.499	85.81
264.732	90.81
264.964	94.81
265.197	88.81
265.429	87.81
265.661	73.81
265.894	80.81
266.126	80.81
266.358	88.81
266.591	79.81
266.823	81.81
267.055	83.81
267.287	92.81
267.52	74.81
267.752	81.81
267.984	86.81
268.216	90.81
268.448	100.81
268.681	98.81
268.913	89.81
269.145	99.81
269.377	92.81
269.609	84.81
269.841	102.81
270.073	73.81
270.306	95.81
270.538	78.81
270.77	83.81
271.002	90.81
271.234	95.81
271.466	82.81
271.698	85.81
271.93	102.81
272.162	88.81
272.394	69.81
272.626	82.81
272.858	84.81
273.09	90.81
273.322	76.81
273.553	89.81
273.785	85.81
274.017	91.81
274.249	94.81
274.481	77.81
274.713	70.81
274.945	91.81
275.176	70.81
275.408	92.81
275.64	87.81
275.872	111.81
276.104	94.81
276.335	98.81
276.567	88.81
276.799	97.81
277.031	90.81
277.262	81.81
277.494	90.81
277.726	85.81
277.957	83.81
278.189	91.81
278.421	100.81
278.652	98.81
278.884	85.81
279.115	92.81
279.347	76.81
279.579	92.81
279.81	95.81
280.042	78.81
280.273	91.81
280.505	93.81
280.736	76.81
280.968	97.81
281.199	98.81
281.431	79.81
281.662	91.81
281.894	81.81
282.125	86.81
282.356	100.81
282.588	135.81
282.819	105.81
283.051	95.81
283.282	87.81
283.513	86.81
283.745	82.81
283.976	78.81
284.207	96.81
284.439	103.81
284.67	72.81
284.901	80.81
285.132	87.81
285.364	84.81
285.595	88.81
285.826	90.81
286.057	104.81
286.288	86.81
286.52	94.81
286.751	87.81
286.982	93.81
287.213	89.81
287.444	82.81
287.675	78.81
287.906	95.81
288.138	81.81
288.369	101.81
288.6	95.81
288.831	98.81
289.062	98.81
289.293	81.81
289.524	94.81
289.755	75.81
289.986	95.81
290.217	102.81
290.448	86.81
290.679	77.81
290.91	87.81
291.141	83.81
291.371	78.81
291.602	72.81
291.833	82.81
292.064	78.81
292.295	106.81
292.526	95.81
292.757	78.81
292.987	75.81
293.218	80.81
293.449	67.81
293.68	70.81
293.91	82.81
294.141	79.81
294.372	80.81
294.603	82.81
294.833	83.81
295.064	80.81
295.295	87.81
295.525	96.81
295.756	91.81
295.987	121.81
296.217	133.81
296.448	129.81
296.679	82.81
296.909	98.81
297.14	83.81
297.37	88.81
297.601	82.81
297.831	84.81
298.062	90.81
298.292	95.81
298.523	82.81
298.753	99.81
298.984	82.81
299.214	86.81
299.445	96.81
299.675	96.81
299.905	97.81
300.136	94.81
300.366	92.81
300.597	90.81
300.827	91.81
301.057	100.81
301.288	97.81
301.518	91.81
301.748	87.81
301.979	110.81
302.209	90.81
302.439	91.81
302.669	99.81
302.9	99.81
303.13	96.81
303.36	100.81
303.59	102.81
303.82	107.81
304.051	76.81
304.281	85.81
304.511	94.81
304.741	99.81
304.971	93.81
305.201	98.81
305.431	98.81
305.661	84.81
305.891	86.81
306.121	103.81
306.352	98.81
306.582	108.81
306.812	96.81
307.042	96.81
307.272	90.81
307.502	89.81
307.731	94.81
307.961	85.81
308.191	82.81
308.421	94.81
308.651	88.81
308.881	83.81
309.111	88.81
309.341	109.81
309.571	90.81
309.8	105.81
310.03	90.81
310.26	82.81
310.49	103.81
310.72	78.81
310.949	104.81
311.179	102.81
311.409	92.81
311.639	82.81
311.868	106.81
312.098	88.81
312.328	98.81
312.557	103.81
312.787	106.81
313.017	109.81
313.246	110.81
313.476	94.81
313.706	86.81
313.935	84.81
314.165	92.81
314.394	95.81
314.624	98.81
314.853	96.81
315.083	114.81
315.312	100.81
315.542	82.81
315.771	84.81
316.001	104.81
316.23	88.81
316.46	94.81
316.689	85.81
316.919	81.81
317.148	103.81
317.377	103.81
317.607	104.81
317.836	87.81
318.065	90.81
318.295	92.81
318.524	86.81
318.753	97.81
318.983	81.81
319.212	101.81
319.441	104.81
319.67	103.81
319.9	84.81
320.129	95.81
320.358	69.81
320.587	98.81
320.816	91.81
321.046	104.81
321.275	100.81
321.504	82.81
321.733	105.81
321.962	93.81
322.191	100.81
322.42	100.81
322.649	102.81
322.878	104.81
323.108	129.81
323.337	115.81
323.566	124.81
323.795	139.81
324.024	183.81
324.253	350.81
324.482	745.81
324.71	1444.81
324.939	1956.81
325.168	731.81
325.397	214.81
325.626	145.81
325.855	135.81
326.084	119.81
326.313	135.81
326.542	139.81
326.77	208.81
326.999	411.81
327.228	846.81
327.457	1500.81
327.686	1228.81
327.914	339.81
328.143	182.81
328.372	122.81
328.6	144.81
328.829	128.81
329.058	123.81
329.287	119.81
329.515	96.81
329.744	99.81
329.972	99.81
330.201	84.81
330.43	106.81
330.658	105.81
330.887	126.81
331.115	120.81
331.344	119.81
331.572	96.81
331.801	89.81
332.03	102.81
332.258	104.81
332.486	90.81
332.715	108.81
332.943	87.81
333.172	114.81
333.4	101.81
333.629	98.81
333.857	98.81
334.085	99.81
334.314	99.81
334.542	98.81
334.771	117.81
334.999	82.81
335.227	86.81
335.455	76.81
335.684	100.81
335.912	99.81
336.14	103.81
336.369	92.81
336.597	96.81
336.825	99.81
337.053	79.81
337.281	97.81
337.51	105.81
337.738	107.81
337.966	90.81
338.194	91.81
338.422	86.81
338.65	90.81
338.878	95.81
339.106	93.81
339.334	100.81
339.562	95.81
339.79	107.81
340.018	87.81
340.246	99.81
340.474	102.81
340.702	87.81
340.93	84.81
341.158	103.81
341.386	100.81
341.614	89.81
341.842	101.81
342.07	87.81
342.298	87.81
342.526	84.81
342.754	89.81
342.981	88.81
343.209	98.81
343.437	100.81
343.665	84.81
343.893	98.81
344.12	84.81
344.348	102.81
344.576	97.81
344.804	92.81
345.031	97.81
345.259	91.81
345.487	98.81
345.714	98.81
345.942	99.81
346.17	86.81
346.397	89.81
346.625	104.81
346.853	94.81
347.08	88.81
347.308	89.81
347.535	107.81
347.763	98.81
347.99	96.81
348.218	96.81
348.445	103.81
348.673	94.81
348.9	94.81
349.128	91.81
349.355	103.81
349.583	95.81
349.81	90.81
350.037	103.81
350.265	97.81
350.492	98.81
350.72	82.81
350.947	98.81
351.174	118.81
351.402	106.81
351.629	112.81
351.856	92.81
352.083	96.81
352.311	104.81
352.538	103.81
352.765	108.81
352.992	108.81
353.22	98.81
353.447	115.81
353.674	103.81
353.901	97.81
354.128	87.81
354.355	83.81
354.583	105.81
354.81	94.81
355.037	81.81
355.264	103.81
355.491	99.81
355.718	105.81
355.945	96.81
356.172	99.81
356.399	92.81
356.626	90.81
356.853	102.81
357.08	90.81
357.307	96.81
357.534	93.81
357.761	86.81
357.988	94.81
358.215	95.81
358.441	88.81
358.668	92.81
358.895	84.81
359.122	104.81
359.349	100.81
359.576	95.81
359.802	98.81
360.029	105.81
360.256	109.81
360.483	75.81
360.709	78.81
360.936	90.81
361.163	88.81
361.39	98.81
361.616	94.81
361.843	80.81
362.07	89.81
362.296	89.81
362.523	78.81
362.749	81.81
362.976	90.81
363.203	97.81
363.429	93.81
363.656	104.81
363.882	95.81
364.109	85.81
364.335	109.81
364.562	90.81
364.788	90.81
365.015	97.81
365.241	85.81
365.468	101.81
365.694	95.81
365.92	93.81
366.147	85.81
366.373	84.81
366.599	91.81
366.826	86.81
367.052	92.81
367.278	88.81
367.505	93.81
367.731	97.81
367.957	92.81
368.184	98.81
368.41	94.81
368.636	115.81
368.862	125.81
369.089	108.81
369.315	99.81
369.541	100.81
369.767	94.81
369.993	83.81
370.219	89.81
370.445	93.81
370.672	101.81
370.898	82.81
371.124	98.81
371.35	82.81
371.576	92.81
371.802	98.81
372.028	89.81
372.254	95.81
372.48	82.81
372.706	80.81
372.932	80.81
373.158	86.81
373.384	102.81
373.61	103.81
373.835	96.81
374.061	84.81
374.287	103.81
374.513	94.81
374.739	94.81
374.965	99.81
375.191	85.81
375.416	88.81
375.642	102.81
375.868	94.81
376.094	89.81
376.319	92.81
376.545	88.81
376.771	82.81
376.997	85.81
377.222	94.81
377.448	95.81
377.674	90.81
377.899	85.81
378.125	87.81
378.35	97.81
378.576	89.81
378.802	84.81
379.027	93.81
379.253	80.81
379.478	94.81
379.704	98.81
379.929	80.81
380.155	88.81
380.38	96.81
380.606	101.81
380.831	84.81
381.057	82.81
381.282	72.81
381.507	81.81
381.733	98.81
381.958	86.81
382.184	104.81
382.409	108.81
382.634	103.81
382.86	96.81
383.085	100.81
383.31	91.81
383.535	108.81
383.761	91.81
383.986	105.81
384.211	84.81
384.436	105.81
384.662	108.81
384.887	112.81
385.112	95.81
385.337	89.81
385.562	94.81
385.787	107.81
386.013	104.81
386.238	115.81
386.463	107.81
386.688	104.81
386.913	93.81
387.138	102.81
387.363	102.81
387.588	106.81
387.813	107.81
388.038	111.81
388.263	98.81
388.488	120.81
388.713	93.81
388.938	104.81
389.163	94.81
389.387	102.81
389.612	96.81
389.837	83.81
390.062	80.81
390.287	78.81
390.512	84.81
390.736	104.81
390.961	99.81
391.186	94.81
391.411	90.81
391.636	104.81
391.86	85.81
392.085	88.81
392.31	97.81
392.534	86.81
392.759	65.81
392.984	89.81
393.208	97.81
393.433	105.81
393.658	99.81
393.882	97.81
394.107	84.81
394.331	90.81
394.556	92.81
394.78	85.81
395.005	87.81
395.229	93.81
395.454	85.81
395.678	70.81
395.903	100.81
396.127	93.81
396.352	79.81
396.576	80.81
396.801	103.81
397.025	75.81
397.249	91.81
397.474	86.81
397.698	74.81
397.922	105.81
398.147	98.81
398.371	94.81
398.595	95.81
398.82	95.81
399.044	92.81
399.268	94.81
399.492	88.81
399.717	72.81
399.941	108.81
400.165	98.81
400.389	92.81
400.613	82.81
400.837	93.81
401.062	86.81
401.286	86.81
401.51	83.81
401.734	94.81
401.958	110.81
402.182	123.81
402.406	159.81
402.63	107.81
402.854	99.81
403.078	97.81
403.302	75.81
403.526	85.81
403.75	85.81
403.974	90.81
404.198	78.81
404.422	89.81
404.645	74.81
404.869	102.81
405.093	80.81
405.317	85.81
405.541	100.81
405.765	99.81
405.988	92.81
406.212	164.81
406.436	212.81
406.66	127.81
406.883	96.81
407.107	79.81
407.331	85.81
407.555	104.81
407.778	99.81
408.002	92.81
408.226	97.81
408.449	86.81
408.673	92.81
408.896	89.81
409.12	87.81
409.344	91.81
409.567	98.81
409.791	97.81
410.014	95.81
410.238	103.81
410.461	82.81
410.685	88.81
410.908	94.81
411.132	109.81
411.355	102.81
411.578	82.81
411.802	86.81
412.025	77.81
412.249	99.81
412.472	91.81
412.695	92.81
412.919	100.81
413.142	89.81
413.365	73.81
413.589	81.81
413.812	90.81
414.035	95.81
414.258	93.81
414.482	91.81
414.705	79.81
414.928	85.81
415.151	88.81
415.374	104.81
415.597	85.81
415.821	90.81
416.044	89.81
416.267	86.81
416.49	89.81
416.713	98.81
416.936	86.81
417.159	83.81
417.382	79.81
417.605	83.81
417.828	102.81
418.051	90.81
418.274	88.81
418.497	85.81
418.72	81.81
418.943	96.81
419.166	67.81
419.389	75.81
419.611	100.81
419.834	89.81
420.057	70.81
420.28	72.81
420.503	89.81
420.726	99.81
420.948	92.81
421.171	99.81
421.394	79.81
421.617	92.81
421.839	93.81
422.062	92.81
422.285	96.81
422.507	105.81
422.73	103.81
422.953	93.81
423.175	97.81
423.398	93.81
423.621	79.81
423.843	100.81
424.066	104.81
424.288	84.81
424.511	100.81
424.733	107.81
424.956	104.81
425.178	98.81
425.401	108.81
425.623	103.81
425.846	95.81
426.068	83.81
426.291	87.81
426.513	82.81
426.735	78.81
426.958	96.81
427.18	107.81
427.402	131.81
427.625	143.81
427.847	128.81
428.069	121.81
428.292	86.81
428.514	94.81
428.736	89.81
428.958	71.81
429.181	95.81
429.403	88.81
429.625	85.81
429.847	90.81
430.069	95.81
430.292	102.81
430.514	88.81
430.736	74.81
430.958	88.81
431.18	89.81
431.402	99.81
431.624	93.81
431.846	92.81
432.068	93.81
432.29	77.81
432.512	100.81
432.734	75.81
432.956	80.81
433.178	109.81
433.4	94.81
433.622	111.81
433.844	92.81
434.066	95.81
434.287	91.81
434.509	94.81
434.731	95.81
434.953	89.81
435.175	101.81
435.397	91.81
435.618	90.81
435.84	90.81
436.062	114.81
436.284	112.81
436.505	114.81
436.727	104.81
436.949	99.81
437.17	103.81
437.392	90.81
437.614	88.81
437.835	97.81
438.057	116.81
438.278	109.81
438.5	107.81
438.721	124.81
438.943	104.81
439.165	75.81
439.386	107.81
439.608	88.81
439.829	99.81
440.05	126.81
440.272	121.81
440.493	106.81
440.715	88.81
440.936	84.81
441.158	87.81
441.379	88.81
441.6	86.81
441.822	97.81
442.043	99.81
442.264	107.81
442.486	89.81
442.707	84.81
442.928	103.81
443.149	123.81
443.371	121.81
443.592	112.81
443.813	115.81
444.034	116.81
444.255	99.81
444.476	103.81
444.698	87.81
444.919	95.81
445.14	128.81
445.361	125.81
445.582	114.81
445.803	130.81
446.024	137.81
446.245	126.81
446.466	108.81
446.687	76.81
446.908	90.81
447.129	104.81
447.35	85.81
447.571	97.81
447.792	88.81
448.013	84.81
448.234	110.81
448.455	102.81
448.675	100.81
448.896	113.81
449.117	104.81
449.338	103.81
449.559	128.81
449.779	129.81
450	98.81
450.221	78.81
450.442	80.81
450.662	90.81
450.883	107.81
451.104	112.81
451.324	93.81
451.545	88.81
451.766	95.81
451.986	90.81
452.207	90.81
452.428	89.81
452.648	83.81
452.869	91.81
453.089	115.81
453.31	107.81
453.53	96.81
453.751	90.81
453.971	108.81
454.192	102.81
454.412	72.81
454.633	76.81
454.853	91.81
455.073	99.81
455.294	108.81
455.514	89.81
455.734	82.81
455.955	102.81
456.175	101.81
456.395	78.81
456.616	83.81
456.836	75.81
457.056	88.81
457.276	89.81
457.497	92.81
457.717	85.81
457.937	85.81
458.157	94.81
458.377	92.81
458.598	112.81
458.818	130.81
459.038	155.81
459.258	114.81
459.478	90.81
459.698	75.81
459.918	87.81
460.138	95.81
460.358	74.81
460.578	70.81
460.798	79.81
461.018	97.81
461.238	70.81
461.458	88.81
461.678	85.81
461.898	80.81
462.118	103.81
462.338	86.81
462.558	87.81
462.777	90.81
462.997	98.81
463.217	72.81
463.437	75.81
463.657	96.81
463.876	86.81
464.096	76.81
464.316	78.81
464.536	80.81
464.755	92.81
464.975	104.81
465.195	133.81
465.414	135.81
465.634	105.81
465.854	105.81
466.073	95.81
466.293	84.81
466.512	106.81
466.732	83.81
466.951	89.81
467.171	103.81
467.391	100.81
467.61	96.81
467.829	107.81
468.049	98.81
468.268	98.81
468.488	90.81
468.707	90.81
468.927	82.81
469.146	94.81
469.365	87.81
469.585	81.81
469.804	101.81
470.023	87.81
470.243	95.81
470.462	108.81
470.681	112.81
470.901	95.81
471.12	91.81
471.339	111.81
471.558	90.81
471.777	113.81
471.997	94.81
472.216	79.81
472.435	95.81
472.654	85.81
472.873	78.81
473.092	84.81
473.311	80.81
473.53	85.81
473.749	86.81
473.968	104.81
474.187	100.81
474.406	102.81
474.625	95.81
474.844	87.81
475.063	84.81
475.282	88.81
475.501	100.81
475.72	105.81
475.939	84.81
476.158	89.81
476.377	84.81
476.596	89.81
476.814	92.81
477.033	96.81
477.252	96.81
477.471	89.81
477.69	87.81
477.908	83.81
478.127	89.81
478.346	71.81
478.564	81.81
478.783	105.81
479.002	74.81
479.22	80.81
479.439	96.81
479.658	93.81
479.876	79.81
480.095	97.81
480.313	99.81
480.532	99.81
480.751	80.81
480.969	97.81
481.188	112.81
481.406	105.81
481.624	73.81
481.843	96.81
482.061	78.81
482.28	74.81
482.498	94.81
482.717	105.81
482.935	97.81
483.153	95.81
483.372	94.81
483.59	90.81
483.808	107.81
484.027	92.81
484.245	86.81
484.463	98.81
484.681	100.81
484.9	108.81
485.118	91.81
485.336	98.81
485.554	88.81
485.772	101.81
485.99	98.81
486.209	102.81
486.427	119.81
486.645	114.81
486.863	112.81
487.081	90.81
487.299	95.81
487.517	103.81
487.735	101.81
487.953	90.81
488.171	101.81
488.389	105.81
488.607	104.81
488.825	89.81
489.043	83.81
489.261	99.81
489.479	91.81
489.696	93.81
489.914	81.81
490.132	98.81
490.35	98.81
490.568	98.81
490.786	97.81
491.003	90.81
491.221	92.81
491.439	92.81
491.657	103.81
491.874	93.81
492.092	90.81
492.31	94.81
492.527	104.81
492.745	96.81
492.963	99.81
493.18	95.81
493.398	92.81
493.615	80.81
493.833	103.81
494.05	103.81
494.268	82.81
494.485	96.81
494.703	83.81
494.92	82.81
495.138	83.81
495.355	76.81
495.573	104.81
495.79	119.81
496.008	95.81
496.225	89.81
496.442	81.81
496.66	81.81
496.877	74.81
497.094	100.81
497.312	93.81
497.529	94.81
497.746	100.81
497.963	98.81
498.181	96.81
498.398	97.81
498.615	112.81
498.832	100.81
499.049	80.81
499.267	92.81
499.484	90.81
499.701	99.81
499.918	92.81
500.135	84.81
500.352	86.81
500.569	74.81
500.786	89.81
501.003	99.81
501.22	79.81
501.437	91.81
501.654	79.81
501.871	104.81
502.088	111.81
502.305	97.81
502.522	95.81
502.739	92.81
502.956	83.81
503.172	86.81
503.389	88.81
503.606	94.81
503.823	107.81
504.04	82.81
504.256	99.81
504.473	70.81
504.69	81.81
504.907	107.81
505.123	109.81
505.34	81.81
505.557	96.81
505.773	92.81
505.99	88.81
506.207	89.81
506.423	105.81
506.64	89.81
506.856	88.81
507.073	90.81
507.289	107.81
507.506	106.81
507.722	121.81
507.939	106.81
508.155	94.81
508.372	100.81
508.588	91.81
508.805	91.81
509.021	99.81
509.238	97.81
509.454	98.81
509.67	97.81
509.887	103.81
510.103	141.81
510.319	202.81
510.536	705.81
510.752	2193.81
510.968	583.81
511.184	143.81
511.401	116.81
511.617	93.81
511.833	86.81
512.049	87.81
512.265	97.81
512.481	92.81
512.698	93.81
512.914	87.81
513.13	95.81
513.346	108.81
513.562	82.81
513.778	100.81
513.994	93.81
514.21	96.81
514.426	115.81
514.642	118.81
514.858	129.81
515.074	162.81
515.29	402.81
515.506	1324.81
