Data from Uncirc_1986_H10_HRD10591_00077.txt Node
Date: Wed Jan 03 12:14:41 EST 2024
User: Yrep
Spectrometer: HR+D1059
Trigger mode: 1
Integration Time (sec): 1.000000E-1
Scans to average: 1
Electric dark correction enabled: true
Nonlinearity correction enabled: false
Boxcar width: 0
XAxis mode: Wavelengths
Number of Pixels in Spectrum: 2048
>>>>>Begin Spectral Data<<<<<
223.165	-5.56
223.4	-5.56
223.635	-5.56
223.869	-22.56
224.104	-17.56
224.338	-13.56
224.573	-13.56
224.808	-4.56
225.042	-9.56
225.277	-12.56
225.511	5.44
225.746	-3.56
225.98	-2.56
226.215	15.44
226.449	9.44
226.683	19.44
226.918	18.44
227.152	37.44
227.387	34.44
227.621	38.44
227.856	40.44
228.09	34.44
228.324	42.44
228.559	49.44
228.793	47.44
229.027	61.44
229.262	67.44
229.496	73.44
229.73	86.44
229.964	73.44
230.199	56.44
230.433	68.44
230.667	70.44
230.901	76.44
231.136	66.44
231.37	90.44
231.604	82.44
231.838	80.44
232.072	78.44
232.306	79.44
232.541	73.44
232.775	70.44
233.009	84.44
233.243	84.44
233.477	82.44
233.711	74.44
233.945	84.44
234.179	80.44
234.413	85.44
234.647	82.44
234.881	78.44
235.115	64.44
235.349	78.44
235.583	73.44
235.817	80.44
236.051	75.44
236.285	69.44
236.519	78.44
236.753	61.44
236.987	92.44
237.221	76.44
237.455	68.44
237.689	78.44
237.922	70.44
238.156	80.44
238.39	55.44
238.624	65.44
238.858	83.44
239.091	74.44
239.325	71.44
239.559	78.44
239.793	83.44
240.027	78.44
240.26	84.44
240.494	62.44
240.728	63.44
240.961	78.44
241.195	76.44
241.429	76.44
241.662	76.44
241.896	68.44
242.13	69.44
242.363	85.44
242.597	71.44
242.83	87.44
243.064	84.44
243.298	76.44
243.531	59.44
243.765	75.44
243.998	81.44
244.232	84.44
244.465	67.44
244.699	91.44
244.932	80.44
245.166	82.44
245.399	82.44
245.633	81.44
245.866	88.44
246.099	77.44
246.333	76.44
246.566	62.44
246.8	73.44
247.033	72.44
247.266	83.44
247.5	81.44
247.733	73.44
247.966	65.44
248.2	92.44
248.433	69.44
248.666	80.44
248.899	88.44
249.133	72.44
249.366	98.44
249.599	85.44
249.832	80.44
250.066	86.44
250.299	86.44
250.532	69.44
250.765	83.44
250.998	67.44
251.231	78.44
251.465	81.44
251.698	84.44
251.931	65.44
252.164	94.44
252.397	86.44
252.63	80.44
252.863	81.44
253.096	77.44
253.329	85.44
253.562	81.44
253.795	68.44
254.028	84.44
254.261	69.44
254.494	92.44
254.727	78.44
254.96	69.44
255.193	76.44
255.426	76.44
255.659	86.44
255.892	92.44
256.124	65.44
256.357	79.44
256.59	78.44
256.823	69.44
257.056	78.44
257.289	73.44
257.521	94.44
257.754	80.44
257.987	92.44
258.22	70.44
258.452	83.44
258.685	78.44
258.918	74.44
259.151	81.44
259.383	81.44
259.616	85.44
259.849	74.44
260.081	90.44
260.314	84.44
260.547	74.44
260.779	87.44
261.012	82.44
261.244	90.44
261.477	98.44
261.71	91.44
261.942	93.44
262.175	98.44
262.407	81.44
262.64	88.44
262.872	81.44
263.105	77.44
263.337	101.44
263.57	75.44
263.802	90.44
264.035	90.44
264.267	84.44
264.499	78.44
264.732	79.44
264.964	67.44
265.197	74.44
265.429	89.44
265.661	88.44
265.894	83.44
266.126	82.44
266.358	84.44
266.591	79.44
266.823	73.44
267.055	76.44
267.287	68.44
267.52	80.44
267.752	100.44
267.984	89.44
268.216	81.44
268.448	78.44
268.681	82.44
268.913	81.44
269.145	90.44
269.377	82.44
269.609	87.44
269.841	67.44
270.073	84.44
270.306	80.44
270.538	82.44
270.77	89.44
271.002	77.44
271.234	97.44
271.466	79.44
271.698	85.44
271.93	87.44
272.162	89.44
272.394	74.44
272.626	80.44
272.858	85.44
273.09	94.44
273.322	76.44
273.553	72.44
273.785	91.44
274.017	82.44
274.249	73.44
274.481	84.44
274.713	82.44
274.945	94.44
275.176	81.44
275.408	86.44
275.64	83.44
275.872	92.44
276.104	78.44
276.335	86.44
276.567	97.44
276.799	100.44
277.031	103.44
277.262	86.44
277.494	86.44
277.726	88.44
277.957	82.44
278.189	99.44
278.421	86.44
278.652	72.44
278.884	91.44
279.115	77.44
279.347	81.44
279.579	72.44
279.81	88.44
280.042	80.44
280.273	78.44
280.505	83.44
280.736	82.44
280.968	80.44
281.199	84.44
281.431	72.44
281.662	84.44
281.894	75.44
282.125	80.44
282.356	94.44
282.588	127.44
282.819	108.44
283.051	88.44
283.282	85.44
283.513	81.44
283.745	89.44
283.976	88.44
284.207	91.44
284.439	89.44
284.67	82.44
284.901	87.44
285.132	67.44
285.364	96.44
285.595	70.44
285.826	77.44
286.057	85.44
286.288	99.44
286.52	91.44
286.751	82.44
286.982	88.44
287.213	64.44
287.444	88.44
287.675	80.44
287.906	85.44
288.138	73.44
288.369	98.44
288.6	101.44
288.831	90.44
289.062	87.44
289.293	75.44
289.524	78.44
289.755	88.44
289.986	88.44
290.217	77.44
290.448	70.44
290.679	93.44
290.91	79.44
291.141	78.44
291.371	81.44
291.602	80.44
291.833	78.44
292.064	84.44
292.295	92.44
292.526	85.44
292.757	97.44
292.987	92.44
293.218	76.44
293.449	73.44
293.68	82.44
293.91	84.44
294.141	78.44
294.372	93.44
294.603	83.44
294.833	107.44
295.064	73.44
295.295	85.44
295.525	86.44
295.756	93.44
295.987	114.44
296.217	126.44
296.448	115.44
296.679	99.44
296.909	86.44
297.14	73.44
297.37	97.44
297.601	79.44
297.831	85.44
298.062	81.44
298.292	85.44
298.523	79.44
298.753	96.44
298.984	84.44
299.214	73.44
299.445	80.44
299.675	92.44
299.905	103.44
300.136	80.44
300.366	93.44
300.597	81.44
300.827	100.44
301.057	103.44
301.288	99.44
301.518	87.44
301.748	85.44
301.979	82.44
302.209	83.44
302.439	84.44
302.669	73.44
302.9	86.44
303.13	83.44
303.36	74.44
303.59	100.44
303.82	119.44
304.051	94.44
304.281	99.44
304.511	83.44
304.741	77.44
304.971	92.44
305.201	76.44
305.431	84.44
305.661	85.44
305.891	90.44
306.121	90.44
306.352	96.44
306.582	105.44
306.812	87.44
307.042	95.44
307.272	88.44
307.502	82.44
307.731	115.44
307.961	82.44
308.191	87.44
308.421	84.44
308.651	87.44
308.881	82.44
309.111	93.44
309.341	89.44
309.571	84.44
309.8	88.44
310.03	96.44
310.26	97.44
310.49	87.44
310.72	88.44
310.949	95.44
311.179	109.44
311.409	96.44
311.639	95.44
311.868	94.44
312.098	80.44
312.328	93.44
312.557	92.44
312.787	94.44
313.017	96.44
313.246	93.44
313.476	101.44
313.706	93.44
313.935	96.44
314.165	89.44
314.394	108.44
314.624	101.44
314.853	94.44
315.083	87.44
315.312	85.44
315.542	83.44
315.771	81.44
316.001	99.44
316.23	92.44
316.46	91.44
316.689	76.44
316.919	88.44
317.148	93.44
317.377	102.44
317.607	104.44
317.836	89.44
318.065	83.44
318.295	97.44
318.524	88.44
318.753	101.44
318.983	101.44
319.212	101.44
319.441	104.44
319.67	97.44
319.9	98.44
320.129	95.44
320.358	89.44
320.587	92.44
320.816	90.44
321.046	102.44
321.275	99.44
321.504	95.44
321.733	111.44
321.962	88.44
322.191	93.44
322.42	96.44
322.649	100.44
322.878	105.44
323.108	100.44
323.337	104.44
323.566	121.44
323.795	154.44
324.024	189.44
324.253	308.44
324.482	660.44
324.71	1411.44
324.939	1842.44
325.168	687.44
325.397	211.44
325.626	134.44
325.855	129.44
326.084	111.44
326.313	126.44
326.542	151.44
326.77	204.44
326.999	384.44
327.228	804.44
327.457	1490.44
327.686	1126.44
327.914	324.44
328.143	159.44
328.372	143.44
328.6	119.44
328.829	124.44
329.058	124.44
329.287	124.44
329.515	103.44
329.744	97.44
329.972	94.44
330.201	111.44
330.43	108.44
330.658	111.44
330.887	123.44
331.115	115.44
331.344	98.44
331.572	88.44
331.801	102.44
332.03	97.44
332.258	94.44
332.486	93.44
332.715	98.44
332.943	91.44
333.172	85.44
333.4	102.44
333.629	97.44
333.857	106.44
334.085	123.44
334.314	95.44
334.542	108.44
334.771	85.44
334.999	106.44
335.227	100.44
335.455	77.44
335.684	100.44
335.912	101.44
336.14	102.44
336.369	88.44
336.597	103.44
336.825	109.44
337.053	88.44
337.281	88.44
337.51	103.44
337.738	91.44
337.966	92.44
338.194	85.44
338.422	84.44
338.65	86.44
338.878	101.44
339.106	83.44
339.334	76.44
339.562	97.44
339.79	76.44
340.018	79.44
340.246	89.44
340.474	101.44
340.702	92.44
340.93	103.44
341.158	90.44
341.386	101.44
341.614	90.44
341.842	92.44
342.07	92.44
342.298	92.44
342.526	93.44
342.754	76.44
342.981	82.44
343.209	99.44
343.437	97.44
343.665	66.44
343.893	84.44
344.12	81.44
344.348	89.44
344.576	93.44
344.804	99.44
345.031	100.44
345.259	94.44
345.487	97.44
345.714	96.44
345.942	89.44
346.17	90.44
346.397	73.44
346.625	88.44
346.853	86.44
347.08	87.44
347.308	90.44
347.535	76.44
347.763	97.44
347.99	92.44
348.218	97.44
348.445	88.44
348.673	82.44
348.9	102.44
349.128	93.44
349.355	98.44
349.583	97.44
349.81	99.44
350.037	102.44
350.265	86.44
350.492	70.44
350.72	114.44
350.947	96.44
351.174	119.44
351.402	112.44
351.629	98.44
351.856	86.44
352.083	76.44
352.311	99.44
352.538	98.44
352.765	100.44
352.992	91.44
353.22	103.44
353.447	93.44
353.674	96.44
353.901	79.44
354.128	92.44
354.355	90.44
354.583	85.44
354.81	106.44
355.037	96.44
355.264	93.44
355.491	76.44
355.718	85.44
355.945	106.44
356.172	85.44
356.399	102.44
356.626	93.44
356.853	106.44
357.08	80.44
357.307	97.44
357.534	96.44
357.761	88.44
357.988	83.44
358.215	77.44
358.441	80.44
358.668	80.44
358.895	98.44
359.122	96.44
359.349	73.44
359.576	67.44
359.802	90.44
360.029	101.44
360.256	93.44
360.483	85.44
360.709	98.44
360.936	84.44
361.163	88.44
361.39	90.44
361.616	85.44
361.843	89.44
362.07	112.44
362.296	76.44
362.523	93.44
362.749	77.44
362.976	81.44
363.203	102.44
363.429	76.44
363.656	99.44
363.882	81.44
364.109	87.44
364.335	88.44
364.562	94.44
364.788	96.44
365.015	92.44
365.241	110.44
365.468	107.44
365.694	95.44
365.92	101.44
366.147	100.44
366.373	82.44
366.599	85.44
366.826	88.44
367.052	86.44
367.278	96.44
367.505	86.44
367.731	82.44
367.957	93.44
368.184	84.44
368.41	98.44
368.636	114.44
368.862	95.44
369.089	92.44
369.315	83.44
369.541	73.44
369.767	94.44
369.993	78.44
370.219	84.44
370.445	87.44
370.672	99.44
370.898	92.44
371.124	86.44
371.35	84.44
371.576	81.44
371.802	76.44
372.028	93.44
372.254	73.44
372.48	94.44
372.706	95.44
372.932	89.44
373.158	80.44
373.384	88.44
373.61	80.44
373.835	86.44
374.061	85.44
374.287	79.44
374.513	79.44
374.739	88.44
374.965	91.44
375.191	86.44
375.416	70.44
375.642	95.44
375.868	93.44
376.094	101.44
376.319	76.44
376.545	97.44
376.771	81.44
376.997	87.44
377.222	94.44
377.448	92.44
377.674	87.44
377.899	88.44
378.125	95.44
378.35	92.44
378.576	76.44
378.802	88.44
379.027	93.44
379.253	84.44
379.478	84.44
379.704	85.44
379.929	82.44
380.155	97.44
380.38	86.44
380.606	91.44
380.831	93.44
381.057	93.44
381.282	87.44
381.507	83.44
381.733	92.44
381.958	97.44
382.184	104.44
382.409	93.44
382.634	98.44
382.86	96.44
383.085	97.44
383.31	93.44
383.535	103.44
383.761	102.44
383.986	93.44
384.211	98.44
384.436	92.44
384.662	94.44
384.887	84.44
385.112	88.44
385.337	98.44
385.562	106.44
385.787	102.44
386.013	94.44
386.238	102.44
386.463	104.44
386.688	107.44
386.913	84.44
387.138	109.44
387.363	106.44
387.588	94.44
387.813	84.44
388.038	98.44
388.263	112.44
388.488	100.44
388.713	106.44
388.938	96.44
389.163	100.44
389.387	88.44
389.612	89.44
389.837	86.44
390.062	69.44
390.287	97.44
390.512	84.44
390.736	88.44
390.961	85.44
391.186	93.44
391.411	93.44
391.636	84.44
391.86	81.44
392.085	65.44
392.31	72.44
392.534	69.44
392.759	79.44
392.984	94.44
393.208	105.44
393.433	85.44
393.658	70.44
393.882	87.44
394.107	91.44
394.331	92.44
394.556	90.44
394.78	77.44
395.005	94.44
395.229	87.44
395.454	94.44
395.678	72.44
395.903	92.44
396.127	104.44
396.352	85.44
396.576	78.44
396.801	87.44
397.025	90.44
397.249	93.44
397.474	73.44
397.698	91.44
397.922	94.44
398.147	88.44
398.371	72.44
398.595	80.44
398.82	96.44
399.044	92.44
399.268	79.44
399.492	86.44
399.717	77.44
399.941	84.44
400.165	88.44
400.389	81.44
400.613	81.44
400.837	73.44
401.062	70.44
401.286	92.44
401.51	93.44
401.734	97.44
401.958	94.44
402.182	112.44
402.406	150.44
402.63	109.44
402.854	78.44
403.078	94.44
403.302	74.44
403.526	101.44
403.75	94.44
403.974	68.44
404.198	84.44
404.422	90.44
404.645	73.44
404.869	87.44
405.093	80.44
405.317	92.44
405.541	95.44
405.765	93.44
405.988	117.44
406.212	144.44
406.436	188.44
406.66	127.44
406.883	96.44
407.107	94.44
407.331	88.44
407.555	99.44
407.778	101.44
408.002	95.44
408.226	92.44
408.449	94.44
408.673	91.44
408.896	80.44
409.12	97.44
409.344	82.44
409.567	93.44
409.791	97.44
410.014	79.44
410.238	97.44
410.461	90.44
410.685	91.44
410.908	103.44
411.132	97.44
411.355	96.44
411.578	93.44
411.802	74.44
412.025	81.44
412.249	72.44
412.472	81.44
412.695	99.44
412.919	97.44
413.142	86.44
413.365	90.44
413.589	96.44
413.812	94.44
414.035	79.44
414.258	89.44
414.482	88.44
414.705	87.44
414.928	76.44
415.151	91.44
415.374	65.44
415.597	88.44
415.821	81.44
416.044	82.44
416.267	94.44
416.49	79.44
416.713	96.44
416.936	82.44
417.159	85.44
417.382	79.44
417.605	80.44
417.828	90.44
418.051	100.44
418.274	77.44
418.497	82.44
418.72	98.44
418.943	79.44
419.166	85.44
419.389	85.44
419.611	97.44
419.834	79.44
420.057	87.44
420.28	88.44
420.503	93.44
420.726	92.44
420.948	79.44
421.171	87.44
421.394	86.44
421.617	94.44
421.839	94.44
422.062	82.44
422.285	87.44
422.507	92.44
422.73	84.44
422.953	82.44
423.175	92.44
423.398	95.44
423.621	93.44
423.843	87.44
424.066	93.44
424.288	85.44
424.511	97.44
424.733	100.44
424.956	95.44
425.178	92.44
425.401	99.44
425.623	77.44
425.846	88.44
426.068	95.44
426.291	78.44
426.513	87.44
426.735	82.44
426.958	106.44
427.18	89.44
427.402	123.44
427.625	128.44
427.847	126.44
428.069	102.44
428.292	78.44
428.514	90.44
428.736	76.44
428.958	78.44
429.181	82.44
429.403	84.44
429.625	90.44
429.847	91.44
430.069	99.44
430.292	92.44
430.514	102.44
430.736	90.44
430.958	96.44
431.18	85.44
431.402	76.44
431.624	87.44
431.846	96.44
432.068	96.44
432.29	95.44
432.512	94.44
432.734	83.44
432.956	73.44
433.178	95.44
433.4	102.44
433.622	94.44
433.844	92.44
434.066	94.44
434.287	81.44
434.509	83.44
434.731	85.44
434.953	89.44
435.175	83.44
435.397	85.44
435.618	73.44
435.84	101.44
436.062	111.44
436.284	101.44
436.505	98.44
436.727	96.44
436.949	88.44
437.17	84.44
437.392	87.44
437.614	90.44
437.835	92.44
438.057	104.44
438.278	98.44
438.5	99.44
438.721	121.44
438.943	94.44
439.165	88.44
439.386	79.44
439.608	83.44
439.829	85.44
440.05	105.44
440.272	123.44
440.493	108.44
440.715	106.44
440.936	82.44
441.158	85.44
441.379	90.44
441.6	73.44
441.822	84.44
442.043	73.44
442.264	96.44
442.486	91.44
442.707	109.44
442.928	92.44
443.149	128.44
443.371	129.44
443.592	98.44
443.813	109.44
444.034	109.44
444.255	84.44
444.476	86.44
444.698	102.44
444.919	103.44
445.14	126.44
445.361	128.44
445.582	106.44
445.803	129.44
446.024	121.44
446.245	127.44
446.466	100.44
446.687	71.44
446.908	84.44
447.129	72.44
447.35	94.44
447.571	94.44
447.792	94.44
448.013	88.44
448.234	115.44
448.455	100.44
448.675	93.44
448.896	104.44
449.117	91.44
449.338	98.44
449.559	133.44
449.779	122.44
450	105.44
450.221	88.44
450.442	89.44
450.662	96.44
450.883	87.44
451.104	102.44
451.324	86.44
451.545	76.44
451.766	82.44
451.986	79.44
452.207	82.44
452.428	86.44
452.648	89.44
452.869	102.44
453.089	118.44
453.31	111.44
453.53	107.44
453.751	83.44
453.971	103.44
454.192	118.44
454.412	80.44
454.633	97.44
454.853	81.44
455.073	85.44
455.294	86.44
455.514	105.44
455.734	86.44
455.955	91.44
456.175	86.44
456.395	87.44
456.616	88.44
456.836	95.44
457.056	82.44
457.276	89.44
457.497	74.44
457.717	80.44
457.937	81.44
458.157	86.44
458.377	74.44
458.598	111.44
458.818	134.44
459.038	155.44
459.258	104.44
459.478	100.44
459.698	97.44
459.918	92.44
460.138	88.44
460.358	94.44
460.578	81.44
460.798	88.44
461.018	71.44
461.238	74.44
461.458	81.44
461.678	92.44
461.898	94.44
462.118	83.44
462.338	76.44
462.558	88.44
462.777	88.44
462.997	76.44
463.217	83.44
463.437	88.44
463.657	76.44
463.876	81.44
464.096	93.44
464.316	70.44
464.536	86.44
464.755	92.44
464.975	109.44
465.195	155.44
465.414	142.44
465.634	80.44
465.854	92.44
466.073	98.44
466.293	98.44
466.512	90.44
466.732	89.44
466.951	91.44
467.171	103.44
467.391	97.44
467.61	88.44
467.829	76.44
468.049	72.44
468.268	87.44
468.488	95.44
468.707	76.44
468.927	78.44
469.146	90.44
469.365	99.44
469.585	91.44
469.804	89.44
470.023	88.44
470.243	90.44
470.462	92.44
470.681	97.44
470.901	88.44
471.12	90.44
471.339	82.44
471.558	79.44
471.777	83.44
471.997	89.44
472.216	86.44
472.435	89.44
472.654	80.44
472.873	86.44
473.092	82.44
473.311	91.44
473.53	71.44
473.749	79.44
473.968	82.44
474.187	97.44
474.406	95.44
474.625	96.44
474.844	87.44
475.063	94.44
475.282	84.44
475.501	89.44
475.72	91.44
475.939	84.44
476.158	77.44
476.377	80.44
476.596	96.44
476.814	97.44
477.033	81.44
477.252	72.44
477.471	88.44
477.69	105.44
477.908	95.44
478.127	85.44
478.346	74.44
478.564	90.44
478.783	100.44
479.002	99.44
479.22	87.44
479.439	95.44
479.658	87.44
479.876	82.44
480.095	80.44
480.313	97.44
480.532	86.44
480.751	95.44
480.969	88.44
481.188	117.44
481.406	109.44
481.624	87.44
481.843	86.44
482.061	77.44
482.28	89.44
482.498	80.44
482.717	98.44
482.935	84.44
483.153	90.44
483.372	76.44
483.59	84.44
483.808	74.44
484.027	89.44
484.245	88.44
484.463	83.44
484.681	95.44
484.9	101.44
485.118	88.44
485.336	110.44
485.554	105.44
485.772	93.44
485.99	99.44
486.209	113.44
486.427	104.44
486.645	115.44
486.863	98.44
487.081	96.44
487.299	85.44
487.517	94.44
487.735	74.44
487.953	89.44
488.171	94.44
488.389	86.44
488.607	98.44
488.825	101.44
489.043	78.44
489.261	95.44
489.479	92.44
489.696	92.44
489.914	72.44
490.132	93.44
490.35	89.44
490.568	93.44
490.786	81.44
491.003	78.44
491.221	80.44
491.439	82.44
491.657	77.44
491.874	88.44
492.092	97.44
492.31	77.44
492.527	95.44
492.745	87.44
492.963	90.44
493.18	84.44
493.398	87.44
493.615	94.44
493.833	97.44
494.05	88.44
494.268	74.44
494.485	78.44
494.703	92.44
494.92	83.44
495.138	91.44
495.355	96.44
495.573	91.44
495.79	76.44
496.008	97.44
496.225	77.44
496.442	88.44
496.66	88.44
496.877	86.44
497.094	92.44
497.312	85.44
497.529	82.44
497.746	90.44
497.963	103.44
498.181	91.44
498.398	84.44
498.615	84.44
498.832	96.44
499.049	80.44
499.267	90.44
499.484	87.44
499.701	89.44
499.918	81.44
500.135	100.44
500.352	89.44
500.569	90.44
500.786	89.44
501.003	96.44
501.22	87.44
501.437	79.44
501.654	88.44
501.871	108.44
502.088	96.44
502.305	82.44
502.522	86.44
502.739	89.44
502.956	88.44
503.172	77.44
503.389	86.44
503.606	104.44
503.823	88.44
504.04	106.44
504.256	95.44
504.473	98.44
504.69	78.44
504.907	80.44
505.123	79.44
505.34	80.44
505.557	73.44
505.773	96.44
505.99	100.44
506.207	97.44
506.423	84.44
506.64	87.44
506.856	73.44
507.073	81.44
507.289	95.44
507.506	92.44
507.722	110.44
507.939	114.44
508.155	86.44
508.372	88.44
508.588	96.44
508.805	81.44
509.021	90.44
509.238	100.44
509.454	98.44
509.67	109.44
509.887	116.44
510.103	106.44
510.319	206.44
510.536	638.44
510.752	1993.44
510.968	556.44
511.184	134.44
511.401	115.44
511.617	102.44
511.833	88.44
512.049	96.44
512.265	83.44
512.481	89.44
512.698	89.44
512.914	95.44
513.13	96.44
513.346	85.44
513.562	100.44
513.778	96.44
513.994	89.44
514.21	98.44
514.426	113.44
514.642	119.44
514.858	116.44
515.074	141.44
515.29	369.44
515.506	1177.44
515.721	432.44
515.937	136.44
516.153	113.44
516.369	89.44
516.585	101.44
516.801	88.44
