Data from Uncirc_1986_H10_HRD10591_00095.txt Node
Date: Wed Jan 03 12:14:45 EST 2024
User: Yrep
Spectrometer: HR+D1059
Trigger mode: 1
Integration Time (sec): 1.000000E-1
Scans to average: 1
Electric dark correction enabled: true
Nonlinearity correction enabled: false
Boxcar width: 0
XAxis mode: Wavelengths
Number of Pixels in Spectrum: 2048
>>>>>Begin Spectral Data<<<<<
223.165	-6.31
223.4	-6.31
223.635	-6.31
223.869	-22.31
224.104	-21.31
224.338	-14.31
224.573	-30.31
224.808	-18.31
225.042	-21.31
225.277	0.69
225.511	13.69
225.746	2.69
225.98	6.69
226.215	12.69
226.449	22.69
226.683	19.69
226.918	14.69
227.152	40.69
227.387	16.69
227.621	34.69
227.856	37.69
228.09	26.69
228.324	36.69
228.559	54.69
228.793	52.69
229.027	54.69
229.262	78.69
229.496	69.69
229.73	84.69
229.964	76.69
230.199	56.69
230.433	79.69
230.667	76.69
230.901	72.69
231.136	80.69
231.37	85.69
231.604	71.69
231.838	69.69
232.072	70.69
232.306	66.69
232.541	86.69
232.775	79.69
233.009	63.69
233.243	72.69
233.477	78.69
233.711	78.69
233.945	72.69
234.179	77.69
234.413	76.69
234.647	82.69
234.881	70.69
235.115	91.69
235.349	77.69
235.583	79.69
235.817	87.69
236.051	70.69
236.285	70.69
236.519	71.69
236.753	68.69
236.987	65.69
237.221	83.69
237.455	94.69
237.689	72.69
237.922	65.69
238.156	78.69
238.39	80.69
238.624	75.69
238.858	68.69
239.091	70.69
239.325	62.69
239.559	76.69
239.793	76.69
240.027	74.69
240.26	80.69
240.494	82.69
240.728	83.69
240.961	89.69
241.195	74.69
241.429	69.69
241.662	80.69
241.896	67.69
242.13	79.69
242.363	76.69
242.597	71.69
242.83	59.69
243.064	59.69
243.298	67.69
243.531	78.69
243.765	66.69
243.998	72.69
244.232	64.69
244.465	62.69
244.699	78.69
244.932	69.69
245.166	79.69
245.399	76.69
245.633	72.69
245.866	66.69
246.099	72.69
246.333	58.69
246.566	64.69
246.8	83.69
247.033	80.69
247.266	91.69
247.5	75.69
247.733	78.69
247.966	82.69
248.2	76.69
248.433	76.69
248.666	57.69
248.899	72.69
249.133	90.69
249.366	89.69
249.599	96.69
249.832	84.69
250.066	79.69
250.299	75.69
250.532	77.69
250.765	72.69
250.998	70.69
251.231	70.69
251.465	72.69
251.698	62.69
251.931	77.69
252.164	75.69
252.397	64.69
252.63	70.69
252.863	69.69
253.096	82.69
253.329	72.69
253.562	82.69
253.795	70.69
254.028	88.69
254.261	71.69
254.494	87.69
254.727	83.69
254.96	81.69
255.193	82.69
255.426	85.69
255.659	78.69
255.892	83.69
256.124	72.69
256.357	71.69
256.59	79.69
256.823	84.69
257.056	78.69
257.289	74.69
257.521	68.69
257.754	81.69
257.987	80.69
258.22	74.69
258.452	78.69
258.685	80.69
258.918	75.69
259.151	96.69
259.383	86.69
259.616	74.69
259.849	77.69
260.081	89.69
260.314	77.69
260.547	88.69
260.779	73.69
261.012	75.69
261.244	84.69
261.477	75.69
261.71	91.69
261.942	108.69
262.175	121.69
262.407	81.69
262.64	69.69
262.872	78.69
263.105	79.69
263.337	90.69
263.57	82.69
263.802	66.69
264.035	82.69
264.267	64.69
264.499	93.69
264.732	94.69
264.964	69.69
265.197	82.69
265.429	82.69
265.661	74.69
265.894	88.69
266.126	81.69
266.358	68.69
266.591	76.69
266.823	80.69
267.055	68.69
267.287	57.69
267.52	79.69
267.752	72.69
267.984	87.69
268.216	69.69
268.448	87.69
268.681	86.69
268.913	80.69
269.145	79.69
269.377	68.69
269.609	78.69
269.841	81.69
270.073	80.69
270.306	77.69
270.538	70.69
270.77	66.69
271.002	86.69
271.234	84.69
271.466	85.69
271.698	81.69
271.93	78.69
272.162	80.69
272.394	84.69
272.626	75.69
272.858	93.69
273.09	88.69
273.322	84.69
273.553	79.69
273.785	75.69
274.017	83.69
274.249	74.69
274.481	74.69
274.713	79.69
274.945	80.69
275.176	85.69
275.408	72.69
275.64	78.69
275.872	89.69
276.104	81.69
276.335	77.69
276.567	89.69
276.799	108.69
277.031	85.69
277.262	86.69
277.494	75.69
277.726	90.69
277.957	87.69
278.189	76.69
278.421	78.69
278.652	98.69
278.884	78.69
279.115	77.69
279.347	86.69
279.579	86.69
279.81	83.69
280.042	86.69
280.273	98.69
280.505	72.69
280.736	69.69
280.968	83.69
281.199	88.69
281.431	80.69
281.662	87.69
281.894	93.69
282.125	84.69
282.356	104.69
282.588	122.69
282.819	118.69
283.051	97.69
283.282	81.69
283.513	94.69
283.745	88.69
283.976	79.69
284.207	87.69
284.439	79.69
284.67	91.69
284.901	91.69
285.132	96.69
285.364	105.69
285.595	86.69
285.826	80.69
286.057	82.69
286.288	92.69
286.52	92.69
286.751	78.69
286.982	89.69
287.213	88.69
287.444	85.69
287.675	95.69
287.906	86.69
288.138	79.69
288.369	89.69
288.6	89.69
288.831	80.69
289.062	100.69
289.293	88.69
289.524	83.69
289.755	78.69
289.986	92.69
290.217	84.69
290.448	87.69
290.679	90.69
290.91	83.69
291.141	78.69
291.371	92.69
291.602	68.69
291.833	77.69
292.064	90.69
292.295	101.69
292.526	76.69
292.757	80.69
292.987	89.69
293.218	83.69
293.449	91.69
293.68	80.69
293.91	71.69
294.141	90.69
294.372	94.69
294.603	89.69
294.833	86.69
295.064	86.69
295.295	90.69
295.525	101.69
295.756	98.69
295.987	114.69
296.217	143.69
296.448	107.69
296.679	101.69
296.909	83.69
297.14	85.69
297.37	88.69
297.601	101.69
297.831	87.69
298.062	89.69
298.292	86.69
298.523	91.69
298.753	90.69
298.984	96.69
299.214	83.69
299.445	86.69
299.675	96.69
299.905	102.69
300.136	82.69
300.366	76.69
300.597	86.69
300.827	98.69
301.057	97.69
301.288	104.69
301.518	94.69
301.748	87.69
301.979	89.69
302.209	70.69
302.439	87.69
302.669	96.69
302.9	96.69
303.13	98.69
303.36	97.69
303.59	102.69
303.82	97.69
304.051	77.69
304.281	79.69
304.511	77.69
304.741	106.69
304.971	85.69
305.201	90.69
305.431	103.69
305.661	76.69
305.891	87.69
306.121	97.69
306.352	92.69
306.582	109.69
306.812	86.69
307.042	92.69
307.272	102.69
307.502	96.69
307.731	88.69
307.961	81.69
308.191	80.69
308.421	104.69
308.651	95.69
308.881	90.69
309.111	79.69
309.341	84.69
309.571	92.69
309.8	93.69
310.03	96.69
310.26	87.69
310.49	85.69
310.72	82.69
310.949	95.69
311.179	87.69
311.409	87.69
311.639	90.69
311.868	94.69
312.098	78.69
312.328	100.69
312.557	98.69
312.787	104.69
313.017	103.69
313.246	84.69
313.476	79.69
313.706	83.69
313.935	86.69
314.165	106.69
314.394	94.69
314.624	90.69
314.853	96.69
315.083	90.69
315.312	89.69
315.542	86.69
315.771	94.69
316.001	75.69
316.23	83.69
316.46	85.69
316.689	98.69
316.919	93.69
317.148	102.69
317.377	95.69
317.607	82.69
317.836	83.69
318.065	100.69
318.295	98.69
318.524	95.69
318.753	82.69
318.983	94.69
319.212	96.69
319.441	101.69
319.67	100.69
319.9	70.69
320.129	82.69
320.358	83.69
320.587	78.69
320.816	87.69
321.046	96.69
321.275	107.69
321.504	93.69
321.733	94.69
321.962	105.69
322.191	96.69
322.42	97.69
322.649	107.69
322.878	101.69
323.108	126.69
323.337	142.69
323.566	124.69
323.795	148.69
324.024	206.69
324.253	365.69
324.482	797.69
324.71	1654.69
324.939	2223.69
325.168	804.69
325.397	255.69
325.626	154.69
325.855	114.69
326.084	117.69
326.313	132.69
326.542	146.69
326.77	218.69
326.999	440.69
327.228	867.69
327.457	1676.69
327.686	1328.69
327.914	370.69
328.143	186.69
328.372	144.69
328.6	130.69
328.829	113.69
329.058	110.69
329.287	126.69
329.515	90.69
329.744	113.69
329.972	102.69
330.201	103.69
330.43	108.69
330.658	100.69
330.887	131.69
331.115	122.69
331.344	105.69
331.572	104.69
331.801	100.69
332.03	98.69
332.258	96.69
332.486	99.69
332.715	91.69
332.943	108.69
333.172	100.69
333.4	91.69
333.629	96.69
333.857	111.69
334.085	92.69
334.314	96.69
334.542	107.69
334.771	115.69
334.999	84.69
335.227	97.69
335.455	84.69
335.684	93.69
335.912	84.69
336.14	99.69
336.369	101.69
336.597	80.69
336.825	83.69
337.053	88.69
337.281	83.69
337.51	85.69
337.738	88.69
337.966	76.69
338.194	85.69
338.422	81.69
338.65	83.69
338.878	95.69
339.106	86.69
339.334	101.69
339.562	93.69
339.79	87.69
340.018	95.69
340.246	85.69
340.474	85.69
340.702	87.69
340.93	95.69
341.158	93.69
341.386	92.69
341.614	86.69
341.842	94.69
342.07	93.69
342.298	95.69
342.526	93.69
342.754	89.69
342.981	84.69
343.209	97.69
343.437	100.69
343.665	91.69
343.893	84.69
344.12	90.69
344.348	88.69
344.576	105.69
344.804	88.69
345.031	97.69
345.259	92.69
345.487	94.69
345.714	92.69
345.942	84.69
346.17	95.69
346.397	92.69
346.625	90.69
346.853	94.69
347.08	85.69
347.308	99.69
347.535	94.69
347.763	106.69
347.99	95.69
348.218	107.69
348.445	108.69
348.673	99.69
348.9	95.69
349.128	93.69
349.355	86.69
349.583	98.69
349.81	82.69
350.037	79.69
350.265	83.69
350.492	85.69
350.72	93.69
350.947	102.69
351.174	104.69
351.402	103.69
351.629	102.69
351.856	98.69
352.083	86.69
352.311	98.69
352.538	100.69
352.765	91.69
352.992	92.69
353.22	111.69
353.447	90.69
353.674	103.69
353.901	93.69
354.128	88.69
354.355	86.69
354.583	95.69
354.81	84.69
355.037	87.69
355.264	84.69
355.491	87.69
355.718	96.69
355.945	85.69
356.172	89.69
356.399	92.69
356.626	83.69
356.853	88.69
357.08	100.69
357.307	86.69
357.534	93.69
357.761	89.69
357.988	77.69
358.215	92.69
358.441	90.69
358.668	78.69
358.895	88.69
359.122	95.69
359.349	85.69
359.576	80.69
359.802	76.69
360.029	112.69
360.256	112.69
360.483	99.69
360.709	90.69
360.936	88.69
361.163	79.69
361.39	91.69
361.616	95.69
361.843	88.69
362.07	82.69
362.296	94.69
362.523	83.69
362.749	98.69
362.976	95.69
363.203	93.69
363.429	91.69
363.656	95.69
363.882	86.69
364.109	84.69
364.335	98.69
364.562	80.69
364.788	79.69
365.015	100.69
365.241	98.69
365.468	118.69
365.694	112.69
365.92	95.69
366.147	84.69
366.373	95.69
366.599	96.69
366.826	93.69
367.052	95.69
367.278	82.69
367.505	76.69
367.731	72.69
367.957	93.69
368.184	90.69
368.41	94.69
368.636	107.69
368.862	117.69
369.089	93.69
369.315	96.69
369.541	101.69
369.767	107.69
369.993	87.69
370.219	88.69
370.445	90.69
370.672	92.69
370.898	90.69
371.124	96.69
371.35	79.69
371.576	73.69
371.802	88.69
372.028	67.69
372.254	88.69
372.48	88.69
372.706	86.69
372.932	70.69
373.158	93.69
373.384	71.69
373.61	76.69
373.835	99.69
374.061	90.69
374.287	84.69
374.513	81.69
374.739	95.69
374.965	87.69
375.191	88.69
375.416	83.69
375.642	82.69
375.868	70.69
376.094	69.69
376.319	75.69
376.545	87.69
376.771	98.69
376.997	83.69
377.222	92.69
377.448	88.69
377.674	86.69
377.899	81.69
378.125	76.69
378.35	83.69
378.576	82.69
378.802	78.69
379.027	93.69
379.253	93.69
379.478	103.69
379.704	76.69
379.929	92.69
380.155	90.69
380.38	90.69
380.606	87.69
380.831	94.69
381.057	92.69
381.282	87.69
381.507	91.69
381.733	101.69
381.958	94.69
382.184	99.69
382.409	91.69
382.634	94.69
382.86	97.69
383.085	85.69
383.31	96.69
383.535	92.69
383.761	102.69
383.986	102.69
384.211	84.69
384.436	83.69
384.662	106.69
384.887	109.69
385.112	94.69
385.337	103.69
385.562	100.69
385.787	101.69
386.013	108.69
386.238	104.69
386.463	90.69
386.688	91.69
386.913	93.69
387.138	93.69
387.363	104.69
387.588	90.69
387.813	101.69
388.038	96.69
388.263	111.69
388.488	100.69
388.713	96.69
388.938	101.69
389.163	93.69
389.387	102.69
389.612	83.69
389.837	86.69
390.062	86.69
390.287	83.69
390.512	79.69
390.736	77.69
390.961	104.69
391.186	97.69
391.411	102.69
391.636	96.69
391.86	59.69
392.085	94.69
392.31	92.69
392.534	78.69
392.759	78.69
392.984	84.69
393.208	87.69
393.433	88.69
393.658	77.69
393.882	83.69
394.107	74.69
394.331	78.69
394.556	77.69
394.78	92.69
395.005	89.69
395.229	83.69
395.454	91.69
395.678	82.69
395.903	84.69
396.127	79.69
396.352	84.69
396.576	75.69
396.801	70.69
397.025	75.69
397.249	84.69
397.474	97.69
397.698	88.69
397.922	92.69
398.147	97.69
398.371	88.69
398.595	102.69
398.82	89.69
399.044	82.69
399.268	87.69
399.492	78.69
399.717	83.69
399.941	82.69
400.165	81.69
400.389	77.69
400.613	79.69
400.837	91.69
401.062	84.69
401.286	70.69
401.51	69.69
401.734	87.69
401.958	94.69
402.182	119.69
402.406	138.69
402.63	119.69
402.854	86.69
403.078	71.69
403.302	84.69
403.526	83.69
403.75	88.69
403.974	90.69
404.198	95.69
404.422	90.69
404.645	98.69
404.869	95.69
405.093	94.69
405.317	94.69
405.541	100.69
405.765	82.69
405.988	104.69
406.212	164.69
406.436	234.69
406.66	126.69
406.883	99.69
407.107	94.69
407.331	91.69
407.555	91.69
407.778	107.69
408.002	101.69
408.226	83.69
408.449	98.69
408.673	95.69
408.896	85.69
409.12	86.69
409.344	93.69
409.567	85.69
409.791	91.69
410.014	97.69
410.238	104.69
410.461	71.69
410.685	79.69
410.908	89.69
411.132	103.69
411.355	91.69
411.578	85.69
411.802	81.69
412.025	90.69
412.249	79.69
412.472	86.69
412.695	90.69
412.919	80.69
413.142	78.69
413.365	88.69
413.589	73.69
413.812	65.69
414.035	80.69
414.258	82.69
414.482	101.69
414.705	90.69
414.928	83.69
415.151	84.69
415.374	82.69
415.597	69.69
415.821	83.69
416.044	84.69
416.267	85.69
416.49	103.69
416.713	90.69
416.936	77.69
417.159	84.69
417.382	84.69
417.605	85.69
417.828	90.69
418.051	87.69
418.274	95.69
418.497	84.69
418.72	73.69
418.943	81.69
419.166	83.69
419.389	82.69
419.611	79.69
419.834	89.69
420.057	87.69
420.28	76.69
420.503	87.69
420.726	91.69
420.948	104.69
421.171	99.69
421.394	89.69
421.617	94.69
421.839	84.69
422.062	85.69
422.285	83.69
422.507	100.69
422.73	82.69
422.953	87.69
423.175	84.69
423.398	80.69
423.621	91.69
423.843	95.69
424.066	77.69
424.288	88.69
424.511	86.69
424.733	84.69
424.956	112.69
425.178	96.69
425.401	102.69
425.623	105.69
425.846	94.69
426.068	97.69
426.291	95.69
426.513	76.69
426.735	98.69
426.958	84.69
427.18	82.69
427.402	136.69
427.625	135.69
427.847	127.69
428.069	101.69
428.292	80.69
428.514	78.69
428.736	76.69
428.958	85.69
429.181	70.69
429.403	96.69
429.625	89.69
429.847	83.69
430.069	97.69
430.292	83.69
430.514	77.69
430.736	67.69
430.958	80.69
431.18	66.69
431.402	82.69
431.624	64.69
431.846	84.69
432.068	86.69
432.29	92.69
432.512	69.69
432.734	92.69
432.956	92.69
433.178	85.69
433.4	97.69
433.622	85.69
433.844	74.69
434.066	91.69
434.287	84.69
434.509	78.69
434.731	77.69
434.953	93.69
435.175	80.69
435.397	72.69
435.618	89.69
435.84	105.69
436.062	113.69
436.284	122.69
436.505	103.69
436.727	93.69
436.949	105.69
437.17	80.69
437.392	92.69
437.614	82.69
437.835	109.69
438.057	111.69
438.278	105.69
438.5	103.69
438.721	105.69
438.943	86.69
439.165	77.69
439.386	91.69
439.608	90.69
439.829	85.69
440.05	116.69
440.272	141.69
440.493	84.69
440.715	81.69
440.936	78.69
441.158	70.69
441.379	78.69
441.6	100.69
441.822	82.69
442.043	84.69
442.264	90.69
442.486	91.69
442.707	99.69
442.928	93.69
443.149	118.69
443.371	120.69
443.592	99.69
443.813	104.69
444.034	106.69
444.255	95.69
444.476	95.69
444.698	81.69
444.919	83.69
445.14	120.69
445.361	107.69
445.582	106.69
445.803	131.69
446.024	125.69
446.245	130.69
446.466	113.69
446.687	92.69
446.908	92.69
447.129	86.69
447.35	86.69
447.571	87.69
447.792	90.69
448.013	95.69
448.234	99.69
448.455	102.69
448.675	93.69
448.896	111.69
449.117	89.69
449.338	112.69
449.559	112.69
449.779	120.69
450	87.69
450.221	91.69
450.442	84.69
450.662	93.69
450.883	103.69
451.104	83.69
451.324	100.69
451.545	83.69
451.766	86.69
451.986	82.69
452.207	77.69
452.428	79.69
452.648	75.69
452.869	95.69
453.089	106.69
453.31	111.69
453.53	112.69
453.751	97.69
453.971	90.69
454.192	90.69
454.412	85.69
454.633	88.69
454.853	74.69
455.073	88.69
455.294	87.69
455.514	99.69
455.734	89.69
455.955	79.69
456.175	86.69
456.395	81.69
456.616	76.69
456.836	78.69
457.056	78.69
457.276	82.69
457.497	79.69
457.717	95.69
457.937	84.69
458.157	82.69
458.377	91.69
458.598	91.69
458.818	148.69
459.038	153.69
459.258	107.69
459.478	71.69
459.698	87.69
459.918	86.69
460.138	94.69
460.358	83.69
460.578	84.69
460.798	78.69
461.018	73.69
461.238	86.69
461.458	79.69
461.678	82.69
461.898	85.69
462.118	84.69
462.338	85.69
462.558	82.69
462.777	82.69
462.997	86.69
463.217	83.69
463.437	84.69
463.657	99.69
463.876	83.69
464.096	92.69
464.316	93.69
464.536	107.69
464.755	100.69
464.975	99.69
465.195	135.69
465.414	158.69
465.634	85.69
465.854	80.69
466.073	84.69
466.293	90.69
466.512	86.69
466.732	78.69
466.951	75.69
467.171	92.69
467.391	82.69
467.61	94.69
467.829	102.69
468.049	78.69
468.268	85.69
468.488	67.69
468.707	80.69
468.927	91.69
469.146	92.69
469.365	86.69
469.585	90.69
469.804	83.69
470.023	88.69
470.243	98.69
470.462	100.69
470.681	95.69
470.901	81.69
471.12	87.69
471.339	85.69
471.558	79.69
471.777	87.69
471.997	80.69
472.216	92.69
472.435	111.69
472.654	86.69
472.873	93.69
473.092	85.69
473.311	78.69
473.53	83.69
473.749	78.69
473.968	86.69
474.187	100.69
474.406	99.69
474.625	81.69
474.844	90.69
475.063	81.69
475.282	92.69
475.501	87.69
475.72	86.69
475.939	78.69
476.158	70.69
476.377	76.69
476.596	86.69
476.814	90.69
477.033	95.69
477.252	92.69
477.471	77.69
477.69	88.69
477.908	89.69
478.127	82.69
478.346	86.69
478.564	82.69
478.783	83.69
479.002	82.69
479.22	86.69
479.439	92.69
479.658	98.69
479.876	99.69
480.095	84.69
480.313	85.69
480.532	87.69
480.751	70.69
480.969	90.69
481.188	132.69
481.406	108.69
481.624	100.69
481.843	99.69
482.061	93.69
482.28	70.69
482.498	87.69
482.717	87.69
482.935	85.69
483.153	88.69
483.372	91.69
483.59	84.69
483.808	75.69
484.027	91.69
484.245	90.69
484.463	92.69
484.681	97.69
484.9	82.69
485.118	97.69
485.336	68.69
485.554	103.69
485.772	94.69
485.99	90.69
486.209	93.69
486.427	104.69
486.645	92.69
486.863	112.69
487.081	101.69
487.299	89.69
487.517	78.69
487.735	81.69
487.953	84.69
488.171	103.69
488.389	97.69
488.607	84.69
488.825	86.69
489.043	90.69
489.261	97.69
489.479	80.69
489.696	78.69
489.914	90.69
490.132	84.69
490.35	87.69
490.568	84.69
490.786	80.69
491.003	86.69
491.221	78.69
491.439	78.69
491.657	88.69
491.874	83.69
492.092	91.69
492.31	90.69
492.527	83.69
492.745	83.69
492.963	87.69
493.18	84.69
493.398	84.69
493.615	97.69
493.833	91.69
494.05	80.69
494.268	74.69
494.485	87.69
494.703	78.69
494.92	86.69
495.138	92.69
495.355	92.69
495.573	93.69
495.79	84.69
496.008	76.69
496.225	86.69
496.442	86.69
496.66	89.69
496.877	85.69
497.094	85.69
497.312	86.69
497.529	87.69
497.746	83.69
497.963	83.69
498.181	85.69
498.398	82.69
498.615	93.69
498.832	97.69
499.049	83.69
499.267	87.69
499.484	82.69
499.701	88.69
499.918	75.69
500.135	99.69
500.352	83.69
500.569	94.69
500.786	86.69
501.003	82.69
501.22	84.69
501.437	87.69
501.654	108.69
501.871	101.69
502.088	84.69
502.305	75.69
502.522	87.69
502.739	78.69
502.956	88.69
503.172	84.69
503.389	98.69
503.606	95.69
503.823	97.69
504.04	88.69
504.256	80.69
504.473	83.69
504.69	79.69
504.907	80.69
505.123	94.69
505.34	86.69
505.557	89.69
505.773	71.69
505.99	78.69
506.207	88.69
506.423	80.69
506.64	94.69
506.856	91.69
507.073	79.69
507.289	97.69
507.506	82.69
507.722	101.69
507.939	107.69
508.155	87.69
508.372	90.69
508.588	84.69
508.805	75.69
509.021	94.69
509.238	88.69
509.454	92.69
509.67	102.69
509.887	104.69
510.103	129.69
510.319	212.69
510.536	756.69
510.752	2321.69
510.968	640.69
511.184	158.69
511.401	112.69
511.617	95.69
511.833	104.69
512.049	84.69
512.265	71.69
512.481	88.69
512.698	84.69
512.914	96.69
513.13	78.69
513.346	92.69
513.562	91.69
513.778	87.69
513.994	101.69
514.21	95.69
514.426	117.69
514.642	132.69
514.858	119.69
515.074	151.69
515.29	440.69
515.506	1442.69
515.721	535.69
515.937	172.69
516.153	111.69
516.369	101.69
516.585	95.69
516.801	102.69
517.016	97.69
