Data from Uncirc_1986_H10_HRD10591_00092.txt Node
Date: Wed Jan 03 12:14:44 EST 2024
User: Yrep
Spectrometer: HR+D1059
Trigger mode: 1
Integration Time (sec): 1.000000E-1
Scans to average: 1
Electric dark correction enabled: true
Nonlinearity correction enabled: false
Boxcar width: 0
XAxis mode: Wavelengths
Number of Pixels in Spectrum: 2048
>>>>>Begin Spectral Data<<<<<
223.165	-22.19
223.4	-22.19
223.635	-22.19
223.869	-26.19
224.104	-17.19
224.338	-3.19
224.573	-14.19
224.808	-10.19
225.042	-5.19
225.277	-3.19
225.511	-13.19
225.746	-2.19
225.98	-0.19
226.215	12.81
226.449	16.81
226.683	27.81
226.918	22.81
227.152	36.81
227.387	27.81
227.621	41.81
227.856	54.81
228.09	33.81
228.324	51.81
228.559	42.81
228.793	50.81
229.027	55.81
229.262	68.81
229.496	82.81
229.73	71.81
229.964	82.81
230.199	79.81
230.433	67.81
230.667	78.81
230.901	77.81
231.136	63.81
231.37	79.81
231.604	92.81
231.838	63.81
232.072	63.81
232.306	82.81
232.541	72.81
232.775	79.81
233.009	73.81
233.243	82.81
233.477	90.81
233.711	68.81
233.945	78.81
234.179	71.81
234.413	76.81
234.647	95.81
234.881	87.81
235.115	76.81
235.349	87.81
235.583	81.81
235.817	71.81
236.051	74.81
236.285	76.81
236.519	73.81
236.753	78.81
236.987	81.81
237.221	85.81
237.455	87.81
237.689	80.81
237.922	81.81
238.156	80.81
238.39	83.81
238.624	77.81
238.858	69.81
239.091	71.81
239.325	78.81
239.559	72.81
239.793	71.81
240.027	79.81
240.26	68.81
240.494	83.81
240.728	63.81
240.961	79.81
241.195	76.81
241.429	85.81
241.662	59.81
241.896	77.81
242.13	89.81
242.363	76.81
242.597	67.81
242.83	69.81
243.064	77.81
243.298	81.81
243.531	79.81
243.765	75.81
243.998	101.81
244.232	72.81
244.465	64.81
244.699	76.81
244.932	76.81
245.166	82.81
245.399	73.81
245.633	82.81
245.866	73.81
246.099	70.81
246.333	68.81
246.566	69.81
246.8	84.81
247.033	86.81
247.266	77.81
247.5	77.81
247.733	81.81
247.966	83.81
248.2	77.81
248.433	79.81
248.666	75.81
248.899	82.81
249.133	102.81
249.366	104.81
249.599	98.81
249.832	84.81
250.066	73.81
250.299	83.81
250.532	68.81
250.765	61.81
250.998	72.81
251.231	81.81
251.465	86.81
251.698	83.81
251.931	85.81
252.164	75.81
252.397	67.81
252.63	76.81
252.863	75.81
253.096	92.81
253.329	80.81
253.562	84.81
253.795	74.81
254.028	95.81
254.261	84.81
254.494	84.81
254.727	85.81
254.96	80.81
255.193	85.81
255.426	75.81
255.659	85.81
255.892	74.81
256.124	73.81
256.357	59.81
256.59	84.81
256.823	83.81
257.056	83.81
257.289	91.81
257.521	85.81
257.754	73.81
257.987	90.81
258.22	86.81
258.452	83.81
258.685	74.81
258.918	88.81
259.151	75.81
259.383	75.81
259.616	89.81
259.849	82.81
260.081	90.81
260.314	89.81
260.547	73.81
260.779	73.81
261.012	82.81
261.244	93.81
261.477	101.81
261.71	91.81
261.942	107.81
262.175	112.81
262.407	89.81
262.64	74.81
262.872	93.81
263.105	92.81
263.337	75.81
263.57	93.81
263.802	84.81
264.035	88.81
264.267	79.81
264.499	99.81
264.732	75.81
264.964	74.81
265.197	72.81
265.429	76.81
265.661	70.81
265.894	88.81
266.126	101.81
266.358	109.81
266.591	88.81
266.823	82.81
267.055	89.81
267.287	83.81
267.52	96.81
267.752	89.81
267.984	93.81
268.216	80.81
268.448	91.81
268.681	82.81
268.913	73.81
269.145	97.81
269.377	79.81
269.609	87.81
269.841	89.81
270.073	85.81
270.306	85.81
270.538	76.81
270.77	89.81
271.002	98.81
271.234	84.81
271.466	73.81
271.698	92.81
271.93	81.81
272.162	86.81
272.394	95.81
272.626	100.81
272.858	89.81
273.09	89.81
273.322	74.81
273.553	99.81
273.785	95.81
274.017	78.81
274.249	83.81
274.481	85.81
274.713	89.81
274.945	84.81
275.176	88.81
275.408	90.81
275.64	77.81
275.872	86.81
276.104	87.81
276.335	95.81
276.567	105.81
276.799	108.81
277.031	101.81
277.262	100.81
277.494	82.81
277.726	93.81
277.957	84.81
278.189	85.81
278.421	89.81
278.652	85.81
278.884	95.81
279.115	81.81
279.347	89.81
279.579	84.81
279.81	85.81
280.042	85.81
280.273	87.81
280.505	95.81
280.736	75.81
280.968	90.81
281.199	65.81
281.431	101.81
281.662	70.81
281.894	81.81
282.125	87.81
282.356	119.81
282.588	120.81
282.819	120.81
283.051	88.81
283.282	83.81
283.513	95.81
283.745	87.81
283.976	95.81
284.207	82.81
284.439	92.81
284.67	96.81
284.901	103.81
285.132	88.81
285.364	81.81
285.595	92.81
285.826	87.81
286.057	87.81
286.288	95.81
286.52	84.81
286.751	89.81
286.982	87.81
287.213	84.81
287.444	103.81
287.675	97.81
287.906	108.81
288.138	96.81
288.369	91.81
288.6	82.81
288.831	81.81
289.062	89.81
289.293	87.81
289.524	80.81
289.755	92.81
289.986	84.81
290.217	83.81
290.448	77.81
290.679	81.81
290.91	89.81
291.141	84.81
291.371	96.81
291.602	73.81
291.833	98.81
292.064	96.81
292.295	103.81
292.526	92.81
292.757	81.81
292.987	84.81
293.218	90.81
293.449	92.81
293.68	80.81
293.91	90.81
294.141	97.81
294.372	88.81
294.603	80.81
294.833	97.81
295.064	96.81
295.295	93.81
295.525	87.81
295.756	93.81
295.987	117.81
296.217	129.81
296.448	107.81
296.679	83.81
296.909	100.81
297.14	99.81
297.37	87.81
297.601	91.81
297.831	96.81
298.062	101.81
298.292	92.81
298.523	95.81
298.753	101.81
298.984	99.81
299.214	75.81
299.445	75.81
299.675	105.81
299.905	111.81
300.136	103.81
300.366	82.81
300.597	87.81
300.827	86.81
301.057	92.81
301.288	91.81
301.518	98.81
301.748	81.81
301.979	96.81
302.209	88.81
302.439	97.81
302.669	84.81
302.9	93.81
303.13	82.81
303.36	99.81
303.59	98.81
303.82	94.81
304.051	81.81
304.281	95.81
304.511	89.81
304.741	95.81
304.971	81.81
305.201	101.81
305.431	95.81
305.661	79.81
305.891	88.81
306.121	95.81
306.352	95.81
306.582	99.81
306.812	85.81
307.042	90.81
307.272	96.81
307.502	99.81
307.731	90.81
307.961	74.81
308.191	85.81
308.421	91.81
308.651	89.81
308.881	75.81
309.111	104.81
309.341	111.81
309.571	113.81
309.8	93.81
310.03	103.81
310.26	97.81
310.49	115.81
310.72	97.81
310.949	98.81
311.179	99.81
311.409	96.81
311.639	92.81
311.868	89.81
312.098	96.81
312.328	95.81
312.557	100.81
312.787	105.81
313.017	85.81
313.246	95.81
313.476	75.81
313.706	89.81
313.935	98.81
314.165	103.81
314.394	111.81
314.624	93.81
314.853	86.81
315.083	83.81
315.312	84.81
315.542	92.81
315.771	114.81
316.001	90.81
316.23	103.81
316.46	90.81
316.689	96.81
316.919	83.81
317.148	95.81
317.377	87.81
317.607	83.81
317.836	96.81
318.065	88.81
318.295	89.81
318.524	101.81
318.753	101.81
318.983	92.81
319.212	99.81
319.441	100.81
319.67	91.81
319.9	85.81
320.129	97.81
320.358	92.81
320.587	98.81
320.816	91.81
321.046	101.81
321.275	92.81
321.504	100.81
321.733	91.81
321.962	105.81
322.191	88.81
322.42	91.81
322.649	97.81
322.878	103.81
323.108	96.81
323.337	123.81
323.566	123.81
323.795	145.81
324.024	185.81
324.253	358.81
324.482	725.81
324.71	1525.81
324.939	2039.81
325.168	721.81
325.397	215.81
325.626	141.81
325.855	126.81
326.084	123.81
326.313	130.81
326.542	151.81
326.77	223.81
326.999	433.81
327.228	854.81
327.457	1557.81
327.686	1260.81
327.914	341.81
328.143	183.81
328.372	143.81
328.6	123.81
328.829	119.81
329.058	112.81
329.287	127.81
329.515	109.81
329.744	107.81
329.972	85.81
330.201	113.81
330.43	123.81
330.658	119.81
330.887	130.81
331.115	116.81
331.344	96.81
331.572	102.81
331.801	97.81
332.03	110.81
332.258	79.81
332.486	86.81
332.715	103.81
332.943	103.81
333.172	101.81
333.4	93.81
333.629	94.81
333.857	105.81
334.085	102.81
334.314	97.81
334.542	106.81
334.771	116.81
334.999	121.81
335.227	108.81
335.455	86.81
335.684	104.81
335.912	104.81
336.14	117.81
336.369	99.81
336.597	101.81
336.825	90.81
337.053	110.81
337.281	89.81
337.51	86.81
337.738	99.81
337.966	88.81
338.194	92.81
338.422	106.81
338.65	94.81
338.878	95.81
339.106	97.81
339.334	103.81
339.562	79.81
339.79	84.81
340.018	85.81
340.246	101.81
340.474	95.81
340.702	95.81
340.93	96.81
341.158	86.81
341.386	93.81
341.614	92.81
341.842	98.81
342.07	82.81
342.298	96.81
342.526	86.81
342.754	102.81
342.981	90.81
343.209	91.81
343.437	97.81
343.665	87.81
343.893	89.81
344.12	89.81
344.348	87.81
344.576	86.81
344.804	96.81
345.031	101.81
345.259	79.81
345.487	83.81
345.714	86.81
345.942	94.81
346.17	87.81
346.397	85.81
346.625	101.81
346.853	108.81
347.08	103.81
347.308	93.81
347.535	110.81
347.763	95.81
347.99	102.81
348.218	104.81
348.445	98.81
348.673	99.81
348.9	101.81
349.128	90.81
349.355	83.81
349.583	102.81
349.81	90.81
350.037	90.81
350.265	97.81
350.492	107.81
350.72	83.81
350.947	114.81
351.174	112.81
351.402	108.81
351.629	104.81
351.856	96.81
352.083	84.81
352.311	104.81
352.538	95.81
352.765	92.81
352.992	111.81
353.22	116.81
353.447	106.81
353.674	119.81
353.901	111.81
354.128	94.81
354.355	94.81
354.583	96.81
354.81	103.81
355.037	103.81
355.264	97.81
355.491	103.81
355.718	89.81
355.945	98.81
356.172	87.81
356.399	81.81
356.626	100.81
356.853	111.81
357.08	94.81
357.307	101.81
357.534	91.81
357.761	94.81
357.988	91.81
358.215	95.81
358.441	85.81
358.668	78.81
358.895	85.81
359.122	81.81
359.349	102.81
359.576	99.81
359.802	96.81
360.029	115.81
360.256	112.81
360.483	93.81
360.709	99.81
360.936	97.81
361.163	98.81
361.39	90.81
361.616	104.81
361.843	86.81
362.07	99.81
362.296	89.81
362.523	104.81
362.749	89.81
362.976	92.81
363.203	92.81
363.429	80.81
363.656	93.81
363.882	95.81
364.109	93.81
364.335	107.81
364.562	99.81
364.788	85.81
365.015	99.81
365.241	98.81
365.468	93.81
365.694	90.81
365.92	97.81
366.147	87.81
366.373	87.81
366.599	100.81
366.826	85.81
367.052	99.81
367.278	92.81
367.505	89.81
367.731	97.81
367.957	103.81
368.184	106.81
368.41	96.81
368.636	114.81
368.862	118.81
369.089	116.81
369.315	86.81
369.541	87.81
369.767	87.81
369.993	71.81
370.219	96.81
370.445	99.81
370.672	87.81
370.898	92.81
371.124	86.81
371.35	84.81
371.576	87.81
371.802	93.81
372.028	98.81
372.254	88.81
372.48	77.81
372.706	100.81
372.932	85.81
373.158	94.81
373.384	99.81
373.61	99.81
373.835	82.81
374.061	91.81
374.287	95.81
374.513	89.81
374.739	85.81
374.965	101.81
375.191	104.81
375.416	93.81
375.642	87.81
375.868	86.81
376.094	101.81
376.319	100.81
376.545	97.81
376.771	82.81
376.997	95.81
377.222	81.81
377.448	85.81
377.674	85.81
377.899	95.81
378.125	90.81
378.35	79.81
378.576	99.81
378.802	82.81
379.027	86.81
379.253	97.81
379.478	99.81
379.704	92.81
379.929	107.81
380.155	97.81
380.38	93.81
380.606	83.81
380.831	86.81
381.057	111.81
381.282	88.81
381.507	96.81
381.733	88.81
381.958	89.81
382.184	88.81
382.409	89.81
382.634	90.81
382.86	100.81
383.085	86.81
383.31	102.81
383.535	102.81
383.761	92.81
383.986	97.81
384.211	89.81
384.436	96.81
384.662	91.81
384.887	101.81
385.112	108.81
385.337	107.81
385.562	93.81
385.787	90.81
386.013	93.81
386.238	113.81
386.463	111.81
386.688	113.81
386.913	91.81
387.138	99.81
387.363	104.81
387.588	97.81
387.813	99.81
388.038	95.81
388.263	88.81
388.488	93.81
388.713	99.81
388.938	98.81
389.163	98.81
389.387	103.81
389.612	95.81
389.837	96.81
390.062	93.81
390.287	98.81
390.512	90.81
390.736	105.81
390.961	97.81
391.186	108.81
391.411	113.81
391.636	106.81
391.86	69.81
392.085	91.81
392.31	101.81
392.534	83.81
392.759	100.81
392.984	97.81
393.208	100.81
393.433	93.81
393.658	110.81
393.882	91.81
394.107	73.81
394.331	83.81
394.556	76.81
394.78	95.81
395.005	104.81
395.229	88.81
395.454	85.81
395.678	83.81
395.903	83.81
396.127	98.81
396.352	83.81
396.576	100.81
396.801	90.81
397.025	97.81
397.249	93.81
397.474	83.81
397.698	72.81
397.922	82.81
398.147	91.81
398.371	91.81
398.595	97.81
398.82	89.81
399.044	98.81
399.268	98.81
399.492	100.81
399.717	92.81
399.941	92.81
400.165	83.81
400.389	93.81
400.613	98.81
400.837	111.81
401.062	96.81
401.286	88.81
401.51	99.81
401.734	89.81
401.958	96.81
402.182	128.81
402.406	163.81
402.63	118.81
402.854	79.81
403.078	95.81
403.302	85.81
403.526	90.81
403.75	92.81
403.974	88.81
404.198	88.81
404.422	89.81
404.645	84.81
404.869	89.81
405.093	107.81
405.317	100.81
405.541	83.81
405.765	96.81
405.988	119.81
406.212	162.81
406.436	212.81
406.66	133.81
406.883	97.81
407.107	103.81
407.331	96.81
407.555	94.81
407.778	99.81
408.002	95.81
408.226	81.81
408.449	84.81
408.673	84.81
408.896	104.81
409.12	87.81
409.344	88.81
409.567	98.81
409.791	94.81
410.014	108.81
410.238	83.81
410.461	94.81
410.685	102.81
410.908	92.81
411.132	98.81
411.355	97.81
411.578	102.81
411.802	88.81
412.025	89.81
412.249	88.81
412.472	105.81
412.695	112.81
412.919	101.81
413.142	88.81
413.365	88.81
413.589	88.81
413.812	70.81
414.035	95.81
414.258	96.81
414.482	84.81
414.705	103.81
414.928	90.81
415.151	68.81
415.374	99.81
415.597	95.81
415.821	90.81
416.044	97.81
416.267	112.81
416.49	91.81
416.713	83.81
416.936	99.81
417.159	76.81
417.382	105.81
417.605	75.81
417.828	105.81
418.051	87.81
418.274	89.81
418.497	77.81
418.72	81.81
418.943	97.81
419.166	82.81
419.389	83.81
419.611	88.81
419.834	106.81
420.057	91.81
420.28	88.81
420.503	96.81
420.726	84.81
420.948	96.81
421.171	89.81
421.394	89.81
421.617	89.81
421.839	100.81
422.062	103.81
422.285	85.81
422.507	105.81
422.73	106.81
422.953	96.81
423.175	97.81
423.398	87.81
423.621	91.81
423.843	91.81
424.066	80.81
424.288	83.81
424.511	85.81
424.733	104.81
424.956	99.81
425.178	100.81
425.401	95.81
425.623	103.81
425.846	96.81
426.068	96.81
426.291	105.81
426.513	96.81
426.735	96.81
426.958	83.81
427.18	121.81
427.402	112.81
427.625	146.81
427.847	131.81
428.069	99.81
428.292	97.81
428.514	97.81
428.736	86.81
428.958	85.81
429.181	105.81
429.403	96.81
429.625	89.81
429.847	102.81
430.069	97.81
430.292	102.81
430.514	95.81
430.736	95.81
430.958	91.81
431.18	71.81
431.402	77.81
431.624	99.81
431.846	80.81
432.068	75.81
432.29	81.81
432.512	95.81
432.734	97.81
432.956	92.81
433.178	84.81
433.4	104.81
433.622	100.81
433.844	104.81
434.066	89.81
434.287	76.81
434.509	102.81
434.731	87.81
434.953	93.81
435.175	94.81
435.397	80.81
435.618	91.81
435.84	92.81
436.062	108.81
436.284	107.81
436.505	90.81
436.727	94.81
436.949	87.81
437.17	83.81
437.392	84.81
437.614	99.81
437.835	100.81
438.057	118.81
438.278	104.81
438.5	103.81
438.721	121.81
438.943	105.81
439.165	72.81
439.386	86.81
439.608	91.81
439.829	88.81
440.05	113.81
440.272	125.81
440.493	88.81
440.715	84.81
440.936	89.81
441.158	98.81
441.379	94.81
441.6	80.81
441.822	107.81
442.043	107.81
442.264	89.81
442.486	93.81
442.707	96.81
442.928	101.81
443.149	101.81
443.371	115.81
443.592	103.81
443.813	119.81
444.034	101.81
444.255	98.81
444.476	92.81
444.698	87.81
444.919	90.81
445.14	128.81
445.361	123.81
445.582	106.81
445.803	124.81
446.024	117.81
446.245	142.81
446.466	103.81
446.687	89.81
446.908	103.81
447.129	90.81
447.35	86.81
447.571	95.81
447.792	106.81
448.013	92.81
448.234	105.81
448.455	114.81
448.675	101.81
448.896	123.81
449.117	93.81
449.338	94.81
449.559	119.81
449.779	137.81
450	92.81
450.221	90.81
450.442	87.81
450.662	109.81
450.883	97.81
451.104	109.81
451.324	97.81
451.545	92.81
451.766	87.81
451.986	93.81
452.207	99.81
452.428	93.81
452.648	72.81
452.869	113.81
453.089	108.81
453.31	100.81
453.53	103.81
453.751	102.81
453.971	93.81
454.192	108.81
454.412	113.81
454.633	105.81
454.853	76.81
455.073	84.81
455.294	95.81
455.514	92.81
455.734	85.81
455.955	105.81
456.175	91.81
456.395	95.81
456.616	83.81
456.836	84.81
457.056	100.81
457.276	68.81
457.497	80.81
457.717	89.81
457.937	99.81
458.157	79.81
458.377	98.81
458.598	106.81
458.818	120.81
459.038	144.81
459.258	99.81
459.478	88.81
459.698	89.81
459.918	87.81
460.138	90.81
460.358	76.81
460.578	89.81
460.798	83.81
461.018	93.81
461.238	87.81
461.458	95.81
461.678	91.81
461.898	89.81
462.118	92.81
462.338	89.81
462.558	85.81
462.777	83.81
462.997	80.81
463.217	86.81
463.437	84.81
463.657	70.81
463.876	68.81
464.096	89.81
464.316	94.81
464.536	89.81
464.755	85.81
464.975	97.81
465.195	141.81
465.414	130.81
465.634	89.81
465.854	85.81
466.073	79.81
466.293	85.81
466.512	95.81
466.732	100.81
466.951	99.81
467.171	86.81
467.391	93.81
467.61	100.81
467.829	106.81
468.049	100.81
468.268	105.81
468.488	93.81
468.707	88.81
468.927	94.81
469.146	85.81
469.365	86.81
469.585	88.81
469.804	91.81
470.023	94.81
470.243	87.81
470.462	93.81
470.681	111.81
470.901	103.81
471.12	83.81
471.339	92.81
471.558	83.81
471.777	96.81
471.997	104.81
472.216	91.81
472.435	111.81
472.654	90.81
472.873	80.81
473.092	103.81
473.311	88.81
473.53	97.81
473.749	89.81
473.968	83.81
474.187	96.81
474.406	82.81
474.625	87.81
474.844	91.81
475.063	92.81
475.282	80.81
475.501	66.81
475.72	107.81
475.939	80.81
476.158	87.81
476.377	94.81
476.596	86.81
476.814	91.81
477.033	99.81
477.252	88.81
477.471	95.81
477.69	95.81
477.908	90.81
478.127	81.81
478.346	85.81
478.564	89.81
478.783	86.81
479.002	95.81
479.22	76.81
479.439	92.81
479.658	101.81
479.876	107.81
480.095	102.81
480.313	100.81
480.532	87.81
480.751	83.81
480.969	93.81
481.188	145.81
481.406	112.81
481.624	89.81
481.843	90.81
482.061	87.81
482.28	86.81
482.498	97.81
482.717	98.81
482.935	92.81
483.153	89.81
483.372	91.81
483.59	79.81
483.808	88.81
484.027	96.81
484.245	88.81
484.463	113.81
484.681	100.81
484.9	97.81
485.118	99.81
485.336	89.81
485.554	119.81
485.772	109.81
485.99	102.81
486.209	116.81
486.427	110.81
486.645	99.81
486.863	109.81
487.081	92.81
487.299	98.81
487.517	97.81
487.735	88.81
487.953	88.81
488.171	103.81
488.389	106.81
488.607	99.81
488.825	83.81
489.043	106.81
489.261	75.81
489.479	92.81
489.696	90.81
489.914	83.81
490.132	90.81
490.35	101.81
490.568	97.81
490.786	102.81
491.003	90.81
491.221	86.81
491.439	79.81
491.657	98.81
491.874	92.81
492.092	82.81
492.31	99.81
492.527	81.81
492.745	88.81
492.963	89.81
493.18	86.81
493.398	91.81
493.615	94.81
493.833	103.81
494.05	96.81
494.268	83.81
494.485	92.81
494.703	91.81
494.92	88.81
495.138	85.81
495.355	95.81
495.573	88.81
495.79	82.81
496.008	99.81
496.225	89.81
496.442	86.81
496.66	104.81
496.877	88.81
497.094	74.81
497.312	85.81
497.529	73.81
497.746	102.81
497.963	92.81
498.181	101.81
498.398	92.81
498.615	95.81
498.832	97.81
499.049	98.81
499.267	87.81
499.484	84.81
499.701	97.81
499.918	90.81
500.135	92.81
500.352	91.81
500.569	101.81
500.786	99.81
501.003	91.81
501.22	93.81
501.437	91.81
501.654	91.81
501.871	113.81
502.088	98.81
502.305	81.81
502.522	90.81
502.739	89.81
502.956	85.81
503.172	79.81
503.389	95.81
503.606	114.81
503.823	98.81
504.04	90.81
504.256	83.81
504.473	88.81
504.69	85.81
504.907	100.81
505.123	93.81
505.34	81.81
505.557	100.81
505.773	101.81
505.99	90.81
506.207	88.81
506.423	101.81
506.64	105.81
506.856	84.81
507.073	93.81
507.289	95.81
507.506	92.81
507.722	104.81
507.939	114.81
508.155	91.81
508.372	86.81
508.588	82.81
508.805	97.81
509.021	101.81
509.238	95.81
509.454	97.81
509.67	107.81
509.887	110.81
510.103	120.81
510.319	211.81
510.536	685.81
510.752	2087.81
510.968	564.81
511.184	152.81
511.401	124.81
511.617	105.81
511.833	86.81
512.049	97.81
512.265	88.81
512.481	103.81
512.698	100.81
512.914	97.81
513.13	81.81
513.346	97.81
513.562	90.81
513.778	89.81
513.994	103.81
514.21	102.81
514.426	119.81
514.642	122.81
514.858	116.81
515.074	147.81
515.29	393.81
