Data from Uncirc_1986_H10_HRD10591_00039.txt Node
Date: Wed Jan 03 12:14:34 EST 2024
User: Yrep
Spectrometer: HR+D1059
Trigger mode: 1
Integration Time (sec): 1.000000E-1
Scans to average: 1
Electric dark correction enabled: true
Nonlinearity correction enabled: false
Boxcar width: 0
XAxis mode: Wavelengths
Number of Pixels in Spectrum: 2048
>>>>>Begin Spectral Data<<<<<
223.165	-14.25
223.4	-14.25
223.635	-14.25
223.869	-20.25
224.104	-18.25
224.338	-16.25
224.573	-16.25
224.808	-15.25
225.042	-13.25
225.277	-8.25
225.511	-3.25
225.746	-2.25
225.98	12.75
226.215	17.75
226.449	21.75
226.683	28.75
226.918	11.75
227.152	34.75
227.387	33.75
227.621	33.75
227.856	42.75
228.09	52.75
228.324	55.75
228.559	49.75
228.793	61.75
229.027	51.75
229.262	66.75
229.496	80.75
229.73	90.75
229.964	80.75
230.199	61.75
230.433	70.75
230.667	89.75
230.901	85.75
231.136	71.75
231.37	68.75
231.604	92.75
231.838	87.75
232.072	81.75
232.306	84.75
232.541	103.75
232.775	71.75
233.009	69.75
233.243	86.75
233.477	85.75
233.711	89.75
233.945	91.75
234.179	83.75
234.413	97.75
234.647	80.75
234.881	79.75
235.115	74.75
235.349	76.75
235.583	81.75
235.817	89.75
236.051	87.75
236.285	87.75
236.519	89.75
236.753	88.75
236.987	83.75
237.221	87.75
237.455	89.75
237.689	86.75
237.922	82.75
238.156	73.75
238.39	67.75
238.624	75.75
238.858	84.75
239.091	67.75
239.325	81.75
239.559	87.75
239.793	95.75
240.027	87.75
240.26	79.75
240.494	79.75
240.728	76.75
240.961	86.75
241.195	58.75
241.429	74.75
241.662	76.75
241.896	68.75
242.13	60.75
242.363	72.75
242.597	71.75
242.83	79.75
243.064	78.75
243.298	70.75
243.531	77.75
243.765	86.75
243.998	93.75
244.232	84.75
244.465	87.75
244.699	79.75
244.932	77.75
245.166	86.75
245.399	70.75
245.633	65.75
245.866	81.75
246.099	59.75
246.333	79.75
246.566	84.75
246.8	82.75
247.033	87.75
247.266	70.75
247.5	74.75
247.733	68.75
247.966	88.75
248.2	79.75
248.433	89.75
248.666	86.75
248.899	88.75
249.133	91.75
249.366	87.75
249.599	85.75
249.832	99.75
250.066	68.75
250.299	76.75
250.532	97.75
250.765	88.75
250.998	85.75
251.231	76.75
251.465	79.75
251.698	71.75
251.931	81.75
252.164	85.75
252.397	81.75
252.63	76.75
252.863	70.75
253.096	87.75
253.329	98.75
253.562	92.75
253.795	74.75
254.028	84.75
254.261	85.75
254.494	70.75
254.727	87.75
254.96	76.75
255.193	73.75
255.426	83.75
255.659	83.75
255.892	74.75
256.124	89.75
256.357	86.75
256.59	73.75
256.823	67.75
257.056	75.75
257.289	84.75
257.521	79.75
257.754	95.75
257.987	82.75
258.22	88.75
258.452	83.75
258.685	88.75
258.918	70.75
259.151	103.75
259.383	88.75
259.616	79.75
259.849	71.75
260.081	97.75
260.314	89.75
260.547	73.75
260.779	79.75
261.012	82.75
261.244	83.75
261.477	72.75
261.71	81.75
261.942	115.75
262.175	108.75
262.407	105.75
262.64	106.75
262.872	87.75
263.105	83.75
263.337	87.75
263.57	87.75
263.802	89.75
264.035	86.75
264.267	82.75
264.499	84.75
264.732	83.75
264.964	84.75
265.197	84.75
265.429	82.75
265.661	92.75
265.894	92.75
266.126	100.75
266.358	99.75
266.591	81.75
266.823	77.75
267.055	65.75
267.287	101.75
267.52	92.75
267.752	87.75
267.984	79.75
268.216	87.75
268.448	99.75
268.681	83.75
268.913	89.75
269.145	86.75
269.377	84.75
269.609	74.75
269.841	92.75
270.073	88.75
270.306	86.75
270.538	75.75
270.77	90.75
271.002	75.75
271.234	87.75
271.466	91.75
271.698	94.75
271.93	83.75
272.162	88.75
272.394	94.75
272.626	84.75
272.858	81.75
273.09	96.75
273.322	90.75
273.553	81.75
273.785	95.75
274.017	84.75
274.249	88.75
274.481	90.75
274.713	89.75
274.945	74.75
275.176	84.75
275.408	86.75
275.64	73.75
275.872	84.75
276.104	83.75
276.335	92.75
276.567	93.75
276.799	99.75
277.031	89.75
277.262	83.75
277.494	95.75
277.726	95.75
277.957	81.75
278.189	82.75
278.421	86.75
278.652	96.75
278.884	90.75
279.115	99.75
279.347	86.75
279.579	92.75
279.81	88.75
280.042	93.75
280.273	64.75
280.505	85.75
280.736	83.75
280.968	90.75
281.199	99.75
281.431	103.75
281.662	106.75
281.894	96.75
282.125	100.75
282.356	114.75
282.588	131.75
282.819	107.75
283.051	81.75
283.282	81.75
283.513	97.75
283.745	87.75
283.976	94.75
284.207	79.75
284.439	91.75
284.67	92.75
284.901	84.75
285.132	97.75
285.364	90.75
285.595	103.75
285.826	93.75
286.057	87.75
286.288	83.75
286.52	100.75
286.751	85.75
286.982	98.75
287.213	87.75
287.444	96.75
287.675	83.75
287.906	91.75
288.138	93.75
288.369	90.75
288.6	90.75
288.831	88.75
289.062	89.75
289.293	89.75
289.524	96.75
289.755	99.75
289.986	89.75
290.217	90.75
290.448	83.75
290.679	104.75
290.91	90.75
291.141	90.75
291.371	80.75
291.602	89.75
291.833	98.75
292.064	93.75
292.295	88.75
292.526	103.75
292.757	86.75
292.987	91.75
293.218	68.75
293.449	83.75
293.68	96.75
293.91	93.75
294.141	81.75
294.372	86.75
294.603	80.75
294.833	96.75
295.064	102.75
295.295	92.75
295.525	109.75
295.756	105.75
295.987	111.75
296.217	130.75
296.448	134.75
296.679	93.75
296.909	91.75
297.14	82.75
297.37	107.75
297.601	93.75
297.831	76.75
298.062	95.75
298.292	85.75
298.523	95.75
298.753	99.75
298.984	97.75
299.214	90.75
299.445	109.75
299.675	107.75
299.905	106.75
300.136	90.75
300.366	104.75
300.597	76.75
300.827	107.75
301.057	111.75
301.288	102.75
301.518	100.75
301.748	96.75
301.979	101.75
302.209	82.75
302.439	96.75
302.669	97.75
302.9	91.75
303.13	100.75
303.36	93.75
303.59	100.75
303.82	111.75
304.051	97.75
304.281	91.75
304.511	91.75
304.741	73.75
304.971	95.75
305.201	87.75
305.431	84.75
305.661	83.75
305.891	88.75
306.121	90.75
306.352	107.75
306.582	99.75
306.812	93.75
307.042	102.75
307.272	101.75
307.502	89.75
307.731	105.75
307.961	86.75
308.191	118.75
308.421	108.75
308.651	87.75
308.881	90.75
309.111	112.75
309.341	98.75
309.571	96.75
309.8	96.75
310.03	92.75
310.26	95.75
310.49	103.75
310.72	114.75
310.949	101.75
311.179	108.75
311.409	90.75
311.639	89.75
311.868	91.75
312.098	90.75
312.328	96.75
312.557	112.75
312.787	84.75
313.017	91.75
313.246	81.75
313.476	91.75
313.706	103.75
313.935	113.75
314.165	95.75
314.394	105.75
314.624	104.75
314.853	71.75
315.083	80.75
315.312	96.75
315.542	91.75
315.771	100.75
316.001	75.75
316.23	91.75
316.46	90.75
316.689	105.75
316.919	88.75
317.148	82.75
317.377	91.75
317.607	91.75
317.836	95.75
318.065	93.75
318.295	98.75
318.524	100.75
318.753	106.75
318.983	95.75
319.212	102.75
319.441	102.75
319.67	107.75
319.9	98.75
320.129	92.75
320.358	89.75
320.587	95.75
320.816	106.75
321.046	98.75
321.275	106.75
321.504	101.75
321.733	94.75
321.962	95.75
322.191	91.75
322.42	99.75
322.649	109.75
322.878	111.75
323.108	108.75
323.337	122.75
323.566	135.75
323.795	139.75
324.024	197.75
324.253	367.75
324.482	756.75
324.71	1542.75
324.939	1979.75
325.168	743.75
325.397	229.75
325.626	142.75
325.855	123.75
326.084	109.75
326.313	122.75
326.542	161.75
326.77	223.75
326.999	420.75
327.228	839.75
327.457	1575.75
327.686	1212.75
327.914	355.75
328.143	184.75
328.372	145.75
328.6	122.75
328.829	114.75
329.058	123.75
329.287	115.75
329.515	115.75
329.744	100.75
329.972	105.75
330.201	84.75
330.43	100.75
330.658	125.75
330.887	119.75
331.115	120.75
331.344	95.75
331.572	113.75
331.801	98.75
332.03	105.75
332.258	96.75
332.486	108.75
332.715	103.75
332.943	96.75
333.172	96.75
333.4	97.75
333.629	92.75
333.857	101.75
334.085	103.75
334.314	98.75
334.542	81.75
334.771	97.75
334.999	115.75
335.227	88.75
335.455	95.75
335.684	93.75
335.912	96.75
336.14	84.75
336.369	102.75
336.597	111.75
336.825	85.75
337.053	84.75
337.281	95.75
337.51	95.75
337.738	93.75
337.966	93.75
338.194	88.75
338.422	98.75
338.65	88.75
338.878	96.75
339.106	99.75
339.334	111.75
339.562	96.75
339.79	103.75
340.018	100.75
340.246	101.75
340.474	88.75
340.702	103.75
340.93	86.75
341.158	97.75
341.386	100.75
341.614	92.75
341.842	92.75
342.07	87.75
342.298	97.75
342.526	90.75
342.754	82.75
342.981	84.75
343.209	90.75
343.437	98.75
343.665	76.75
343.893	96.75
344.12	97.75
344.348	97.75
344.576	84.75
344.804	81.75
345.031	84.75
345.259	85.75
345.487	92.75
345.714	95.75
345.942	85.75
346.17	98.75
346.397	103.75
346.625	98.75
346.853	74.75
347.08	94.75
347.308	93.75
347.535	92.75
347.763	96.75
347.99	104.75
348.218	101.75
348.445	97.75
348.673	94.75
348.9	91.75
349.128	98.75
349.355	98.75
349.583	90.75
349.81	97.75
350.037	91.75
350.265	103.75
350.492	85.75
350.72	94.75
350.947	86.75
351.174	113.75
351.402	121.75
351.629	100.75
351.856	106.75
352.083	106.75
352.311	87.75
352.538	96.75
352.765	108.75
352.992	106.75
353.22	106.75
353.447	112.75
353.674	110.75
353.901	101.75
354.128	93.75
354.355	101.75
354.583	105.75
354.81	92.75
355.037	97.75
355.264	106.75
355.491	112.75
355.718	92.75
355.945	94.75
356.172	107.75
356.399	96.75
356.626	100.75
356.853	96.75
357.08	89.75
357.307	95.75
357.534	94.75
357.761	91.75
357.988	105.75
358.215	111.75
358.441	97.75
358.668	85.75
358.895	94.75
359.122	102.75
359.349	106.75
359.576	94.75
359.802	88.75
360.029	84.75
360.256	96.75
360.483	92.75
360.709	76.75
360.936	105.75
361.163	96.75
361.39	94.75
361.616	81.75
361.843	94.75
362.07	93.75
362.296	96.75
362.523	85.75
362.749	84.75
362.976	88.75
363.203	101.75
363.429	95.75
363.656	85.75
363.882	92.75
364.109	90.75
364.335	95.75
364.562	99.75
364.788	99.75
365.015	101.75
365.241	99.75
365.468	103.75
365.694	113.75
365.92	113.75
366.147	84.75
366.373	96.75
366.599	107.75
366.826	74.75
367.052	98.75
367.278	105.75
367.505	97.75
367.731	94.75
367.957	96.75
368.184	99.75
368.41	108.75
368.636	104.75
368.862	121.75
369.089	118.75
369.315	96.75
369.541	86.75
369.767	88.75
369.993	87.75
370.219	89.75
370.445	99.75
370.672	81.75
370.898	79.75
371.124	97.75
371.35	83.75
371.576	87.75
371.802	96.75
372.028	85.75
372.254	97.75
372.48	91.75
372.706	96.75
372.932	82.75
373.158	76.75
373.384	90.75
373.61	93.75
373.835	100.75
374.061	99.75
374.287	92.75
374.513	92.75
374.739	88.75
374.965	80.75
375.191	97.75
375.416	93.75
375.642	98.75
375.868	92.75
376.094	98.75
376.319	99.75
376.545	86.75
376.771	93.75
376.997	88.75
377.222	85.75
377.448	93.75
377.674	88.75
377.899	87.75
378.125	92.75
378.35	83.75
378.576	90.75
378.802	102.75
379.027	85.75
379.253	86.75
379.478	93.75
379.704	95.75
379.929	92.75
380.155	91.75
380.38	96.75
380.606	87.75
380.831	91.75
381.057	90.75
381.282	88.75
381.507	92.75
381.733	97.75
381.958	99.75
382.184	103.75
382.409	99.75
382.634	98.75
382.86	81.75
383.085	98.75
383.31	115.75
383.535	96.75
383.761	103.75
383.986	104.75
384.211	101.75
384.436	98.75
384.662	91.75
384.887	102.75
385.112	101.75
385.337	103.75
385.562	111.75
385.787	106.75
386.013	112.75
386.238	110.75
386.463	94.75
386.688	119.75
386.913	91.75
387.138	107.75
387.363	97.75
387.588	106.75
387.813	96.75
388.038	103.75
388.263	112.75
388.488	87.75
388.713	104.75
388.938	97.75
389.163	91.75
389.387	96.75
389.612	101.75
389.837	97.75
390.062	84.75
390.287	99.75
390.512	100.75
390.736	98.75
390.961	101.75
391.186	108.75
391.411	99.75
391.636	99.75
391.86	104.75
392.085	85.75
392.31	79.75
392.534	69.75
392.759	89.75
392.984	103.75
393.208	88.75
393.433	97.75
393.658	99.75
393.882	79.75
394.107	92.75
394.331	92.75
394.556	95.75
394.78	96.75
395.005	89.75
395.229	87.75
395.454	83.75
395.678	101.75
395.903	83.75
396.127	92.75
396.352	79.75
396.576	81.75
396.801	75.75
397.025	77.75
397.249	93.75
397.474	94.75
397.698	95.75
397.922	88.75
398.147	69.75
398.371	83.75
398.595	92.75
398.82	92.75
399.044	99.75
399.268	93.75
399.492	71.75
399.717	104.75
399.941	97.75
400.165	100.75
400.389	99.75
400.613	91.75
400.837	86.75
401.062	91.75
401.286	89.75
401.51	94.75
401.734	92.75
401.958	103.75
402.182	129.75
402.406	140.75
402.63	117.75
402.854	83.75
403.078	74.75
403.302	91.75
403.526	72.75
403.75	88.75
403.974	90.75
404.198	99.75
404.422	93.75
404.645	78.75
404.869	86.75
405.093	96.75
405.317	105.75
405.541	84.75
405.765	95.75
405.988	112.75
406.212	165.75
406.436	215.75
406.66	143.75
406.883	112.75
407.107	94.75
407.331	76.75
407.555	90.75
407.778	89.75
408.002	98.75
408.226	76.75
408.449	72.75
408.673	79.75
408.896	88.75
409.12	83.75
409.344	92.75
409.567	71.75
409.791	88.75
410.014	92.75
410.238	93.75
410.461	85.75
410.685	98.75
410.908	96.75
411.132	104.75
411.355	97.75
411.578	96.75
411.802	88.75
412.025	89.75
412.249	91.75
412.472	109.75
412.695	69.75
412.919	91.75
413.142	81.75
413.365	97.75
413.589	81.75
413.812	101.75
414.035	101.75
414.258	92.75
414.482	93.75
414.705	101.75
414.928	91.75
415.151	94.75
415.374	103.75
415.597	102.75
415.821	69.75
416.044	90.75
416.267	99.75
416.49	86.75
416.713	105.75
416.936	96.75
417.159	104.75
417.382	81.75
417.605	83.75
417.828	107.75
418.051	81.75
418.274	73.75
418.497	84.75
418.72	81.75
418.943	91.75
419.166	95.75
419.389	92.75
419.611	94.75
419.834	93.75
420.057	93.75
420.28	105.75
420.503	88.75
420.726	80.75
420.948	86.75
421.171	85.75
421.394	88.75
421.617	98.75
421.839	105.75
422.062	102.75
422.285	90.75
422.507	96.75
422.73	93.75
422.953	96.75
423.175	96.75
423.398	96.75
423.621	92.75
423.843	96.75
424.066	74.75
424.288	94.75
424.511	98.75
424.733	103.75
424.956	113.75
425.178	98.75
425.401	95.75
425.623	115.75
425.846	109.75
426.068	79.75
426.291	88.75
426.513	77.75
426.735	89.75
426.958	97.75
427.18	96.75
427.402	127.75
427.625	136.75
427.847	124.75
428.069	106.75
428.292	85.75
428.514	97.75
428.736	97.75
428.958	80.75
429.181	90.75
429.403	89.75
429.625	91.75
429.847	89.75
430.069	116.75
430.292	93.75
430.514	71.75
430.736	91.75
430.958	103.75
431.18	74.75
431.402	90.75
431.624	93.75
431.846	88.75
432.068	96.75
432.29	79.75
432.512	92.75
432.734	81.75
432.956	96.75
433.178	99.75
433.4	92.75
433.622	78.75
433.844	97.75
434.066	95.75
434.287	83.75
434.509	85.75
434.731	87.75
434.953	81.75
435.175	91.75
435.397	88.75
435.618	106.75
435.84	107.75
436.062	104.75
436.284	112.75
436.505	115.75
436.727	104.75
436.949	104.75
437.17	96.75
437.392	92.75
437.614	105.75
437.835	100.75
438.057	113.75
438.278	104.75
438.5	101.75
438.721	110.75
438.943	107.75
439.165	95.75
439.386	84.75
439.608	88.75
439.829	102.75
440.05	94.75
440.272	122.75
440.493	99.75
440.715	85.75
440.936	93.75
441.158	93.75
441.379	95.75
441.6	91.75
441.822	90.75
442.043	93.75
442.264	113.75
442.486	110.75
442.707	109.75
442.928	101.75
443.149	127.75
443.371	136.75
443.592	112.75
443.813	103.75
444.034	115.75
444.255	96.75
444.476	79.75
444.698	89.75
444.919	92.75
445.14	119.75
445.361	115.75
445.582	112.75
445.803	138.75
446.024	118.75
446.245	134.75
446.466	127.75
446.687	94.75
446.908	82.75
447.129	73.75
447.35	89.75
447.571	84.75
447.792	109.75
448.013	113.75
448.234	93.75
448.455	98.75
448.675	113.75
448.896	120.75
449.117	105.75
449.338	99.75
449.559	112.75
449.779	131.75
450	97.75
450.221	77.75
450.442	95.75
450.662	107.75
450.883	91.75
451.104	115.75
451.324	96.75
451.545	81.75
451.766	83.75
451.986	80.75
452.207	77.75
452.428	102.75
452.648	90.75
452.869	93.75
453.089	106.75
453.31	114.75
453.53	98.75
453.751	87.75
453.971	87.75
454.192	111.75
454.412	92.75
454.633	80.75
454.853	79.75
455.073	95.75
455.294	88.75
455.514	97.75
455.734	92.75
455.955	85.75
456.175	71.75
456.395	91.75
456.616	77.75
456.836	93.75
457.056	85.75
457.276	84.75
457.497	86.75
457.717	91.75
457.937	87.75
458.157	94.75
458.377	97.75
458.598	107.75
458.818	140.75
459.038	152.75
459.258	112.75
459.478	85.75
459.698	72.75
459.918	91.75
460.138	86.75
460.358	91.75
460.578	96.75
460.798	101.75
461.018	84.75
461.238	97.75
461.458	70.75
461.678	87.75
461.898	102.75
462.118	75.75
462.338	85.75
462.558	77.75
462.777	95.75
462.997	95.75
463.217	97.75
463.437	95.75
463.657	85.75
463.876	84.75
464.096	96.75
464.316	88.75
464.536	93.75
464.755	83.75
464.975	113.75
465.195	161.75
465.414	153.75
465.634	90.75
465.854	93.75
466.073	86.75
466.293	97.75
466.512	87.75
466.732	71.75
466.951	76.75
467.171	90.75
467.391	91.75
467.61	92.75
467.829	89.75
468.049	80.75
468.268	105.75
468.488	88.75
468.707	99.75
468.927	83.75
469.146	82.75
469.365	103.75
469.585	104.75
469.804	99.75
470.023	87.75
470.243	96.75
470.462	110.75
470.681	97.75
470.901	82.75
471.12	85.75
471.339	87.75
471.558	89.75
471.777	108.75
471.997	92.75
472.216	88.75
472.435	103.75
472.654	93.75
472.873	91.75
473.092	84.75
473.311	86.75
473.53	89.75
473.749	88.75
473.968	90.75
474.187	97.75
474.406	111.75
474.625	95.75
474.844	96.75
475.063	85.75
475.282	88.75
475.501	95.75
475.72	101.75
475.939	83.75
476.158	89.75
476.377	82.75
476.596	84.75
476.814	93.75
477.033	105.75
477.252	101.75
477.471	92.75
477.69	93.75
477.908	84.75
478.127	92.75
478.346	90.75
478.564	90.75
478.783	89.75
479.002	87.75
479.22	99.75
479.439	90.75
479.658	102.75
479.876	106.75
480.095	79.75
480.313	91.75
480.532	98.75
480.751	101.75
480.969	88.75
481.188	107.75
481.406	105.75
481.624	92.75
481.843	94.75
482.061	90.75
482.28	97.75
482.498	81.75
482.717	84.75
482.935	97.75
483.153	89.75
483.372	101.75
483.59	103.75
483.808	91.75
484.027	82.75
484.245	91.75
484.463	90.75
484.681	95.75
484.9	103.75
485.118	104.75
485.336	96.75
485.554	101.75
485.772	103.75
485.99	106.75
486.209	98.75
486.427	100.75
486.645	106.75
486.863	107.75
487.081	107.75
487.299	104.75
487.517	84.75
487.735	100.75
487.953	109.75
488.171	88.75
488.389	81.75
488.607	104.75
488.825	96.75
489.043	84.75
489.261	97.75
489.479	95.75
489.696	87.75
489.914	85.75
490.132	91.75
490.35	92.75
490.568	84.75
490.786	98.75
491.003	101.75
491.221	89.75
491.439	93.75
491.657	91.75
491.874	98.75
492.092	76.75
492.31	103.75
492.527	92.75
492.745	79.75
492.963	93.75
493.18	92.75
493.398	92.75
493.615	106.75
493.833	76.75
494.05	86.75
494.268	75.75
494.485	87.75
494.703	99.75
494.92	87.75
495.138	80.75
495.355	100.75
495.573	107.75
495.79	90.75
496.008	93.75
496.225	94.75
496.442	108.75
496.66	74.75
496.877	93.75
497.094	98.75
497.312	91.75
497.529	102.75
497.746	110.75
497.963	91.75
498.181	98.75
498.398	96.75
498.615	101.75
498.832	111.75
499.049	91.75
499.267	92.75
499.484	102.75
499.701	86.75
499.918	90.75
500.135	82.75
500.352	98.75
500.569	90.75
500.786	88.75
501.003	83.75
501.22	88.75
501.437	95.75
501.654	95.75
501.871	106.75
502.088	103.75
502.305	104.75
502.522	85.75
502.739	89.75
502.956	104.75
503.172	94.75
503.389	92.75
503.606	106.75
503.823	106.75
504.04	89.75
504.256	91.75
504.473	99.75
504.69	90.75
504.907	108.75
505.123	100.75
505.34	83.75
505.557	88.75
505.773	79.75
505.99	105.75
506.207	96.75
506.423	88.75
506.64	91.75
506.856	97.75
507.073	83.75
507.289	96.75
507.506	104.75
507.722	103.75
507.939	112.75
508.155	110.75
508.372	91.75
508.588	92.75
508.805	91.75
509.021	88.75
509.238	86.75
509.454	100.75
509.67	100.75
509.887	105.75
510.103	139.75
510.319	215.75
510.536	736.75
510.752	2303.75
510.968	620.75
511.184	150.75
511.401	103.75
511.617	104.75
511.833	88.75
512.049	103.75
512.265	103.75
512.481	89.75
512.698	103.75
512.914	90.75
513.13	85.75
513.346	95.75
513.562	86.75
513.778	108.75
513.994	100.75
514.21	106.75
514.426	106.75
514.642	137.75
514.858	130.75
515.074	161.75
