Data from Uncirc_1986_H10_HRD10591_00046.txt Node
Date: Wed Jan 03 12:14:35 EST 2024
User: Yrep
Spectrometer: HR+D1059
Trigger mode: 1
Integration Time (sec): 1.000000E-1
Scans to average: 1
Electric dark correction enabled: true
Nonlinearity correction enabled: false
Boxcar width: 0
XAxis mode: Wavelengths
Number of Pixels in Spectrum: 2048
>>>>>Begin Spectral Data<<<<<
223.165	-15.12
223.4	-15.12
223.635	-15.12
223.869	-27.12
224.104	-15.12
224.338	-28.12
224.573	-24.12
224.808	-2.12
225.042	-11.12
225.277	-11.12
225.511	-2.12
225.746	3.88
225.98	0.88
226.215	16.88
226.449	11.88
226.683	41.88
226.918	18.88
227.152	41.88
227.387	27.88
227.621	34.88
227.856	45.88
228.09	55.88
228.324	55.88
228.559	56.88
228.793	53.88
229.027	64.88
229.262	86.88
229.496	70.88
229.73	78.88
229.964	78.88
230.199	69.88
230.433	65.88
230.667	83.88
230.901	83.88
231.136	79.88
231.37	89.88
231.604	70.88
231.838	77.88
232.072	76.88
232.306	80.88
232.541	68.88
232.775	90.88
233.009	97.88
233.243	74.88
233.477	68.88
233.711	86.88
233.945	77.88
234.179	69.88
234.413	85.88
234.647	73.88
234.881	79.88
235.115	67.88
235.349	70.88
235.583	92.88
235.817	84.88
236.051	70.88
236.285	82.88
236.519	70.88
236.753	70.88
236.987	73.88
237.221	83.88
237.455	82.88
237.689	74.88
237.922	81.88
238.156	74.88
238.39	70.88
238.624	80.88
238.858	95.88
239.091	79.88
239.325	74.88
239.559	79.88
239.793	76.88
240.027	68.88
240.26	77.88
240.494	83.88
240.728	88.88
240.961	78.88
241.195	74.88
241.429	82.88
241.662	72.88
241.896	83.88
242.13	79.88
242.363	79.88
242.597	63.88
242.83	82.88
243.064	70.88
243.298	78.88
243.531	67.88
243.765	72.88
243.998	77.88
244.232	85.88
244.465	71.88
244.699	89.88
244.932	71.88
245.166	79.88
245.399	84.88
245.633	88.88
245.866	74.88
246.099	72.88
246.333	82.88
246.566	77.88
246.8	77.88
247.033	86.88
247.266	65.88
247.5	77.88
247.733	79.88
247.966	89.88
248.2	77.88
248.433	88.88
248.666	81.88
248.899	93.88
249.133	73.88
249.366	96.88
249.599	96.88
249.832	94.88
250.066	94.88
250.299	66.88
250.532	74.88
250.765	81.88
250.998	78.88
251.231	80.88
251.465	71.88
251.698	85.88
251.931	69.88
252.164	65.88
252.397	74.88
252.63	83.88
252.863	76.88
253.096	74.88
253.329	83.88
253.562	88.88
253.795	72.88
254.028	83.88
254.261	75.88
254.494	88.88
254.727	87.88
254.96	84.88
255.193	69.88
255.426	73.88
255.659	82.88
255.892	65.88
256.124	75.88
256.357	86.88
256.59	68.88
256.823	70.88
257.056	69.88
257.289	74.88
257.521	83.88
257.754	82.88
257.987	81.88
258.22	83.88
258.452	90.88
258.685	71.88
258.918	83.88
259.151	80.88
259.383	78.88
259.616	74.88
259.849	83.88
260.081	87.88
260.314	78.88
260.547	93.88
260.779	86.88
261.012	71.88
261.244	85.88
261.477	90.88
261.71	91.88
261.942	102.88
262.175	103.88
262.407	71.88
262.64	89.88
262.872	73.88
263.105	77.88
263.337	76.88
263.57	85.88
263.802	78.88
264.035	82.88
264.267	98.88
264.499	85.88
264.732	72.88
264.964	81.88
265.197	87.88
265.429	85.88
265.661	89.88
265.894	66.88
266.126	90.88
266.358	77.88
266.591	93.88
266.823	83.88
267.055	77.88
267.287	102.88
267.52	81.88
267.752	81.88
267.984	78.88
268.216	71.88
268.448	70.88
268.681	73.88
268.913	87.88
269.145	84.88
269.377	77.88
269.609	73.88
269.841	86.88
270.073	83.88
270.306	80.88
270.538	100.88
270.77	89.88
271.002	72.88
271.234	75.88
271.466	74.88
271.698	84.88
271.93	74.88
272.162	87.88
272.394	93.88
272.626	92.88
272.858	90.88
273.09	99.88
273.322	104.88
273.553	77.88
273.785	81.88
274.017	86.88
274.249	89.88
274.481	97.88
274.713	74.88
274.945	86.88
275.176	87.88
275.408	82.88
275.64	80.88
275.872	85.88
276.104	83.88
276.335	74.88
276.567	88.88
276.799	97.88
277.031	82.88
277.262	112.88
277.494	93.88
277.726	87.88
277.957	90.88
278.189	99.88
278.421	86.88
278.652	102.88
278.884	81.88
279.115	70.88
279.347	86.88
279.579	99.88
279.81	90.88
280.042	79.88
280.273	87.88
280.505	67.88
280.736	84.88
280.968	87.88
281.199	97.88
281.431	100.88
281.662	100.88
281.894	96.88
282.125	90.88
282.356	112.88
282.588	127.88
282.819	117.88
283.051	81.88
283.282	99.88
283.513	98.88
283.745	83.88
283.976	81.88
284.207	82.88
284.439	78.88
284.67	82.88
284.901	78.88
285.132	88.88
285.364	85.88
285.595	98.88
285.826	85.88
286.057	93.88
286.288	81.88
286.52	84.88
286.751	81.88
286.982	83.88
287.213	75.88
287.444	74.88
287.675	85.88
287.906	90.88
288.138	95.88
288.369	105.88
288.6	100.88
288.831	102.88
289.062	89.88
289.293	82.88
289.524	88.88
289.755	90.88
289.986	76.88
290.217	99.88
290.448	87.88
290.679	85.88
290.91	88.88
291.141	82.88
291.371	88.88
291.602	97.88
291.833	100.88
292.064	95.88
292.295	78.88
292.526	96.88
292.757	95.88
292.987	86.88
293.218	80.88
293.449	80.88
293.68	93.88
293.91	88.88
294.141	102.88
294.372	91.88
294.603	86.88
294.833	100.88
295.064	98.88
295.295	91.88
295.525	90.88
295.756	83.88
295.987	89.88
296.217	114.88
296.448	112.88
296.679	99.88
296.909	89.88
297.14	86.88
297.37	87.88
297.601	82.88
297.831	82.88
298.062	87.88
298.292	101.88
298.523	89.88
298.753	78.88
298.984	96.88
299.214	95.88
299.445	75.88
299.675	99.88
299.905	94.88
300.136	93.88
300.366	86.88
300.597	84.88
300.827	103.88
301.057	108.88
301.288	94.88
301.518	97.88
301.748	85.88
301.979	102.88
302.209	81.88
302.439	97.88
302.669	93.88
302.9	86.88
303.13	79.88
303.36	83.88
303.59	99.88
303.82	106.88
304.051	94.88
304.281	83.88
304.511	100.88
304.741	86.88
304.971	73.88
305.201	83.88
305.431	84.88
305.661	71.88
305.891	90.88
306.121	89.88
306.352	81.88
306.582	95.88
306.812	95.88
307.042	89.88
307.272	85.88
307.502	94.88
307.731	87.88
307.961	78.88
308.191	94.88
308.421	87.88
308.651	88.88
308.881	92.88
309.111	99.88
309.341	94.88
309.571	97.88
309.8	89.88
310.03	98.88
310.26	87.88
310.49	99.88
310.72	95.88
310.949	94.88
311.179	79.88
311.409	78.88
311.639	91.88
311.868	81.88
312.098	84.88
312.328	91.88
312.557	103.88
312.787	98.88
313.017	106.88
313.246	97.88
313.476	99.88
313.706	91.88
313.935	96.88
314.165	93.88
314.394	98.88
314.624	97.88
314.853	100.88
315.083	97.88
315.312	95.88
315.542	93.88
315.771	87.88
316.001	89.88
316.23	101.88
316.46	90.88
316.689	90.88
316.919	83.88
317.148	82.88
317.377	73.88
317.607	93.88
317.836	95.88
318.065	79.88
318.295	82.88
318.524	100.88
318.753	91.88
318.983	94.88
319.212	93.88
319.441	86.88
319.67	110.88
319.9	97.88
320.129	87.88
320.358	99.88
320.587	98.88
320.816	87.88
321.046	96.88
321.275	102.88
321.504	107.88
321.733	99.88
321.962	98.88
322.191	89.88
322.42	90.88
322.649	108.88
322.878	119.88
323.108	113.88
323.337	117.88
323.566	110.88
323.795	130.88
324.024	166.88
324.253	317.88
324.482	685.88
324.71	1364.88
324.939	1822.88
325.168	692.88
325.397	225.88
325.626	135.88
325.855	117.88
326.084	113.88
326.313	127.88
326.542	143.88
326.77	198.88
326.999	388.88
327.228	790.88
327.457	1417.88
327.686	1139.88
327.914	322.88
328.143	171.88
328.372	127.88
328.6	113.88
328.829	109.88
329.058	115.88
329.287	115.88
329.515	114.88
329.744	101.88
329.972	97.88
330.201	94.88
330.43	106.88
330.658	106.88
330.887	118.88
331.115	101.88
331.344	103.88
331.572	97.88
331.801	99.88
332.03	93.88
332.258	93.88
332.486	93.88
332.715	99.88
332.943	99.88
333.172	97.88
333.4	92.88
333.629	76.88
333.857	107.88
334.085	101.88
334.314	97.88
334.542	102.88
334.771	94.88
334.999	89.88
335.227	93.88
335.455	88.88
335.684	100.88
335.912	105.88
336.14	102.88
336.369	84.88
336.597	98.88
336.825	95.88
337.053	95.88
337.281	102.88
337.51	97.88
337.738	110.88
337.966	81.88
338.194	91.88
338.422	78.88
338.65	89.88
338.878	94.88
339.106	91.88
339.334	97.88
339.562	93.88
339.79	78.88
340.018	85.88
340.246	94.88
340.474	98.88
340.702	100.88
340.93	81.88
341.158	98.88
341.386	90.88
341.614	94.88
341.842	85.88
342.07	107.88
342.298	93.88
342.526	92.88
342.754	85.88
342.981	98.88
343.209	99.88
343.437	103.88
343.665	75.88
343.893	87.88
344.12	88.88
344.348	86.88
344.576	95.88
344.804	79.88
345.031	107.88
345.259	105.88
345.487	88.88
345.714	98.88
345.942	78.88
346.17	98.88
346.397	99.88
346.625	99.88
346.853	95.88
347.08	90.88
347.308	95.88
347.535	92.88
347.763	107.88
347.99	86.88
348.218	101.88
348.445	103.88
348.673	103.88
348.9	93.88
349.128	109.88
349.355	100.88
349.583	100.88
349.81	94.88
350.037	92.88
350.265	105.88
350.492	102.88
350.72	99.88
350.947	95.88
351.174	113.88
351.402	92.88
351.629	81.88
351.856	96.88
352.083	96.88
352.311	102.88
352.538	116.88
352.765	105.88
352.992	113.88
353.22	110.88
353.447	94.88
353.674	94.88
353.901	91.88
354.128	92.88
354.355	92.88
354.583	77.88
354.81	87.88
355.037	102.88
355.264	98.88
355.491	105.88
355.718	83.88
355.945	85.88
356.172	90.88
356.399	101.88
356.626	95.88
356.853	88.88
357.08	85.88
357.307	91.88
357.534	83.88
357.761	93.88
357.988	94.88
358.215	92.88
358.441	105.88
358.668	86.88
358.895	99.88
359.122	96.88
359.349	73.88
359.576	82.88
359.802	95.88
360.029	98.88
360.256	101.88
360.483	90.88
360.709	93.88
360.936	88.88
361.163	86.88
361.39	99.88
361.616	95.88
361.843	91.88
362.07	97.88
362.296	86.88
362.523	86.88
362.749	95.88
362.976	87.88
363.203	94.88
363.429	101.88
363.656	88.88
363.882	67.88
364.109	92.88
364.335	87.88
364.562	101.88
364.788	93.88
365.015	92.88
365.241	96.88
365.468	114.88
365.694	104.88
365.92	93.88
366.147	93.88
366.373	90.88
366.599	87.88
366.826	74.88
367.052	90.88
367.278	87.88
367.505	83.88
367.731	88.88
367.957	84.88
368.184	85.88
368.41	117.88
368.636	124.88
368.862	115.88
369.089	111.88
369.315	96.88
369.541	83.88
369.767	99.88
369.993	111.88
370.219	93.88
370.445	77.88
370.672	89.88
370.898	72.88
371.124	87.88
371.35	81.88
371.576	66.88
371.802	73.88
372.028	83.88
372.254	93.88
372.48	66.88
372.706	81.88
372.932	93.88
373.158	91.88
373.384	90.88
373.61	89.88
373.835	91.88
374.061	81.88
374.287	92.88
374.513	82.88
374.739	82.88
374.965	81.88
375.191	92.88
375.416	88.88
375.642	96.88
375.868	85.88
376.094	104.88
376.319	94.88
376.545	81.88
376.771	96.88
376.997	94.88
377.222	77.88
377.448	84.88
377.674	87.88
377.899	82.88
378.125	93.88
378.35	90.88
378.576	99.88
378.802	70.88
379.027	83.88
379.253	96.88
379.478	80.88
379.704	102.88
379.929	98.88
380.155	92.88
380.38	79.88
380.606	98.88
380.831	98.88
381.057	106.88
381.282	108.88
381.507	89.88
381.733	98.88
381.958	86.88
382.184	102.88
382.409	94.88
382.634	94.88
382.86	95.88
383.085	100.88
383.31	95.88
383.535	108.88
383.761	82.88
383.986	80.88
384.211	103.88
384.436	85.88
384.662	95.88
384.887	91.88
385.112	111.88
385.337	100.88
385.562	99.88
385.787	84.88
386.013	107.88
386.238	103.88
386.463	96.88
386.688	103.88
386.913	105.88
387.138	97.88
387.363	101.88
387.588	91.88
387.813	97.88
388.038	94.88
388.263	90.88
388.488	100.88
388.713	96.88
388.938	97.88
389.163	94.88
389.387	98.88
389.612	77.88
389.837	94.88
390.062	93.88
390.287	85.88
390.512	86.88
390.736	101.88
390.961	93.88
391.186	98.88
391.411	104.88
391.636	94.88
391.86	70.88
392.085	88.88
392.31	85.88
392.534	85.88
392.759	92.88
392.984	104.88
393.208	72.88
393.433	90.88
393.658	97.88
393.882	90.88
394.107	87.88
394.331	84.88
394.556	85.88
394.78	94.88
395.005	84.88
395.229	86.88
395.454	82.88
395.678	85.88
395.903	97.88
396.127	83.88
396.352	89.88
396.576	102.88
396.801	94.88
397.025	89.88
397.249	93.88
397.474	94.88
397.698	95.88
397.922	92.88
398.147	77.88
398.371	82.88
398.595	74.88
398.82	94.88
399.044	97.88
399.268	107.88
399.492	90.88
399.717	77.88
399.941	90.88
400.165	97.88
400.389	87.88
400.613	86.88
400.837	80.88
401.062	90.88
401.286	97.88
401.51	88.88
401.734	97.88
401.958	97.88
402.182	120.88
402.406	142.88
402.63	107.88
402.854	92.88
403.078	92.88
403.302	93.88
403.526	94.88
403.75	84.88
403.974	85.88
404.198	85.88
404.422	97.88
404.645	91.88
404.869	83.88
405.093	95.88
405.317	90.88
405.541	95.88
405.765	94.88
405.988	112.88
406.212	148.88
406.436	199.88
406.66	126.88
406.883	96.88
407.107	91.88
407.331	90.88
407.555	95.88
407.778	94.88
408.002	94.88
408.226	91.88
408.449	87.88
408.673	91.88
408.896	85.88
409.12	87.88
409.344	85.88
409.567	78.88
409.791	87.88
410.014	96.88
410.238	88.88
410.461	93.88
410.685	89.88
410.908	104.88
411.132	83.88
411.355	99.88
411.578	88.88
411.802	83.88
412.025	79.88
412.249	88.88
412.472	100.88
412.695	95.88
412.919	79.88
413.142	102.88
413.365	93.88
413.589	100.88
413.812	94.88
414.035	94.88
414.258	84.88
414.482	104.88
414.705	83.88
414.928	81.88
415.151	88.88
415.374	89.88
415.597	88.88
415.821	87.88
416.044	93.88
416.267	97.88
416.49	82.88
416.713	97.88
416.936	87.88
417.159	86.88
417.382	78.88
417.605	105.88
417.828	103.88
418.051	98.88
418.274	81.88
418.497	87.88
418.72	95.88
418.943	86.88
419.166	88.88
419.389	74.88
419.611	98.88
419.834	83.88
420.057	102.88
420.28	98.88
420.503	96.88
420.726	80.88
420.948	73.88
421.171	78.88
421.394	92.88
421.617	74.88
421.839	88.88
422.062	87.88
422.285	86.88
422.507	96.88
422.73	97.88
422.953	94.88
423.175	82.88
423.398	93.88
423.621	83.88
423.843	89.88
424.066	74.88
424.288	85.88
424.511	95.88
424.733	107.88
424.956	97.88
425.178	106.88
425.401	89.88
425.623	90.88
425.846	82.88
426.068	99.88
426.291	86.88
426.513	85.88
426.735	77.88
426.958	89.88
427.18	104.88
427.402	115.88
427.625	147.88
427.847	102.88
428.069	98.88
428.292	84.88
428.514	95.88
428.736	77.88
428.958	79.88
429.181	87.88
429.403	84.88
429.625	81.88
429.847	98.88
430.069	102.88
430.292	100.88
430.514	88.88
430.736	89.88
430.958	78.88
431.18	86.88
431.402	77.88
431.624	66.88
431.846	79.88
432.068	86.88
432.29	92.88
432.512	89.88
432.734	99.88
432.956	80.88
433.178	86.88
433.4	82.88
433.622	82.88
433.844	103.88
434.066	79.88
434.287	93.88
434.509	87.88
434.731	88.88
434.953	93.88
435.175	96.88
435.397	97.88
435.618	86.88
435.84	97.88
436.062	106.88
436.284	103.88
436.505	101.88
436.727	93.88
436.949	88.88
437.17	98.88
437.392	71.88
437.614	88.88
437.835	101.88
438.057	103.88
438.278	118.88
438.5	112.88
438.721	111.88
438.943	113.88
439.165	78.88
439.386	85.88
439.608	100.88
439.829	83.88
440.05	103.88
440.272	128.88
440.493	107.88
440.715	82.88
440.936	94.88
441.158	89.88
441.379	81.88
441.6	98.88
441.822	86.88
442.043	71.88
442.264	96.88
442.486	91.88
442.707	70.88
442.928	91.88
443.149	121.88
443.371	102.88
443.592	104.88
443.813	101.88
444.034	108.88
444.255	78.88
444.476	82.88
444.698	88.88
444.919	87.88
445.14	119.88
445.361	119.88
445.582	107.88
445.803	124.88
446.024	113.88
446.245	115.88
446.466	112.88
446.687	82.88
446.908	84.88
447.129	87.88
447.35	77.88
447.571	98.88
447.792	86.88
448.013	90.88
448.234	123.88
448.455	96.88
448.675	106.88
448.896	119.88
449.117	103.88
449.338	98.88
449.559	127.88
449.779	122.88
450	95.88
450.221	94.88
450.442	89.88
450.662	77.88
450.883	83.88
451.104	102.88
451.324	98.88
451.545	83.88
451.766	83.88
451.986	90.88
452.207	82.88
452.428	79.88
452.648	86.88
452.869	96.88
453.089	91.88
453.31	103.88
453.53	102.88
453.751	101.88
453.971	95.88
454.192	98.88
454.412	80.88
454.633	75.88
454.853	77.88
455.073	83.88
455.294	91.88
455.514	90.88
455.734	93.88
455.955	93.88
456.175	81.88
456.395	78.88
456.616	74.88
456.836	87.88
457.056	87.88
457.276	65.88
457.497	82.88
457.717	101.88
457.937	85.88
458.157	84.88
458.377	89.88
458.598	106.88
458.818	129.88
459.038	126.88
459.258	101.88
459.478	95.88
459.698	95.88
459.918	81.88
460.138	83.88
460.358	72.88
460.578	87.88
460.798	87.88
461.018	79.88
461.238	89.88
461.458	87.88
461.678	81.88
461.898	91.88
462.118	86.88
462.338	84.88
462.558	92.88
462.777	81.88
462.997	77.88
463.217	80.88
463.437	94.88
463.657	87.88
463.876	93.88
464.096	78.88
464.316	83.88
464.536	89.88
464.755	98.88
464.975	88.88
465.195	142.88
465.414	142.88
465.634	79.88
465.854	88.88
466.073	86.88
466.293	86.88
466.512	83.88
466.732	81.88
466.951	93.88
467.171	82.88
467.391	95.88
467.61	90.88
467.829	93.88
468.049	79.88
468.268	83.88
468.488	93.88
468.707	86.88
468.927	87.88
469.146	88.88
469.365	87.88
469.585	82.88
469.804	90.88
470.023	94.88
470.243	83.88
470.462	97.88
470.681	97.88
470.901	87.88
471.12	82.88
471.339	105.88
471.558	85.88
471.777	90.88
471.997	98.88
472.216	96.88
472.435	103.88
472.654	78.88
472.873	90.88
473.092	102.88
473.311	83.88
473.53	82.88
473.749	94.88
473.968	83.88
474.187	98.88
474.406	100.88
474.625	87.88
474.844	91.88
475.063	74.88
475.282	97.88
475.501	84.88
475.72	104.88
475.939	97.88
476.158	87.88
476.377	93.88
476.596	83.88
476.814	90.88
477.033	94.88
477.252	97.88
477.471	70.88
477.69	89.88
477.908	100.88
478.127	89.88
478.346	87.88
478.564	88.88
478.783	93.88
479.002	106.88
479.22	105.88
479.439	89.88
479.658	91.88
479.876	78.88
480.095	97.88
480.313	86.88
480.532	80.88
480.751	80.88
480.969	94.88
481.188	95.88
481.406	92.88
481.624	84.88
481.843	98.88
482.061	93.88
482.28	96.88
482.498	81.88
482.717	99.88
482.935	83.88
483.153	92.88
483.372	81.88
483.59	94.88
483.808	105.88
484.027	93.88
484.245	96.88
484.463	94.88
484.681	99.88
484.9	88.88
485.118	107.88
485.336	83.88
485.554	100.88
485.772	122.88
485.99	99.88
486.209	124.88
486.427	101.88
486.645	104.88
486.863	112.88
487.081	105.88
487.299	93.88
487.517	83.88
487.735	88.88
487.953	93.88
488.171	94.88
488.389	106.88
488.607	105.88
488.825	81.88
489.043	82.88
489.261	104.88
489.479	93.88
489.696	89.88
489.914	86.88
490.132	81.88
490.35	90.88
490.568	85.88
490.786	81.88
491.003	86.88
491.221	87.88
491.439	98.88
491.657	83.88
491.874	92.88
492.092	98.88
492.31	96.88
492.527	84.88
492.745	101.88
492.963	95.88
493.18	95.88
493.398	85.88
493.615	82.88
493.833	109.88
494.05	101.88
494.268	94.88
494.485	74.88
494.703	84.88
494.92	90.88
495.138	84.88
495.355	86.88
495.573	94.88
495.79	95.88
496.008	86.88
496.225	81.88
496.442	90.88
496.66	101.88
496.877	97.88
497.094	94.88
497.312	95.88
497.529	97.88
497.746	69.88
497.963	91.88
498.181	87.88
498.398	88.88
498.615	113.88
498.832	105.88
499.049	93.88
499.267	84.88
499.484	85.88
499.701	90.88
499.918	98.88
500.135	101.88
500.352	96.88
500.569	80.88
500.786	89.88
501.003	89.88
501.22	88.88
501.437	93.88
501.654	95.88
501.871	100.88
502.088	101.88
502.305	82.88
502.522	93.88
502.739	85.88
502.956	80.88
503.172	89.88
503.389	91.88
503.606	106.88
503.823	78.88
504.04	83.88
504.256	102.88
504.473	99.88
504.69	88.88
504.907	97.88
505.123	81.88
505.34	75.88
505.557	93.88
505.773	88.88
505.99	87.88
506.207	71.88
506.423	90.88
506.64	74.88
506.856	88.88
507.073	83.88
507.289	103.88
507.506	99.88
507.722	108.88
507.939	96.88
508.155	107.88
508.372	94.88
508.588	85.88
508.805	99.88
509.021	95.88
509.238	102.88
509.454	112.88
509.67	103.88
509.887	108.88
510.103	117.88
510.319	208.88
510.536	656.88
510.752	2013.88
510.968	565.88
511.184	142.88
511.401	109.88
511.617	93.88
511.833	79.88
512.049	95.88
512.265	87.88
512.481	98.88
512.698	95.88
512.914	85.88
513.13	73.88
513.346	95.88
513.562	101.88
513.778	93.88
513.994	99.88
514.21	119.88
514.426	109.88
514.642	130.88
514.858	125.88
515.074	140.88
515.29	383.88
515.506	1157.88
515.721	424.88
515.937	141.88
516.153	83.88
516.369	102.88
