Data from Uncirc_1986_H10_HRD10591_00086.txt Node
Date: Wed Jan 03 12:14:43 EST 2024
User: Yrep
Spectrometer: HR+D1059
Trigger mode: 1
Integration Time (sec): 1.000000E-1
Scans to average: 1
Electric dark correction enabled: true
Nonlinearity correction enabled: false
Boxcar width: 0
XAxis mode: Wavelengths
Number of Pixels in Spectrum: 2048
>>>>>Begin Spectral Data<<<<<
223.165	-18.44
223.4	-18.44
223.635	-18.44
223.869	-16.44
224.104	-27.44
224.338	0.56
224.573	-3.44
224.808	-12.44
225.042	-9.44
225.277	-4.44
225.511	-10.44
225.746	-3.44
225.98	16.56
226.215	15.56
226.449	5.56
226.683	13.56
226.918	23.56
227.152	30.56
227.387	42.56
227.621	30.56
227.856	40.56
228.09	39.56
228.324	53.56
228.559	55.56
228.793	166.56
229.027	454.56
229.262	507.56
229.496	612.56
229.73	798.56
229.964	834.56
230.199	551.56
230.433	479.56
230.667	471.56
230.901	452.56
231.136	448.56
231.37	447.56
231.604	437.56
231.838	469.56
232.072	461.56
232.306	456.56
232.541	470.56
232.775	464.56
233.009	478.56
233.243	479.56
233.477	463.56
233.711	483.56
233.945	513.56
234.179	519.56
234.413	515.56
234.647	512.56
234.881	533.56
235.115	531.56
235.349	553.56
235.583	549.56
235.817	579.56
236.051	647.56
236.285	606.56
236.519	632.56
236.753	702.56
236.987	907.56
237.221	1376.56
237.455	1539.56
237.689	894.56
237.922	741.56
238.156	715.56
238.39	678.56
238.624	632.56
238.858	635.56
239.091	667.56
239.325	646.56
239.559	681.56
239.793	712.56
240.027	767.56
240.26	895.56
240.494	958.56
240.728	928.56
240.961	897.56
241.195	821.56
241.429	813.56
241.662	766.56
241.896	772.56
242.13	767.56
242.363	751.56
242.597	816.56
242.83	811.56
243.064	810.56
243.298	808.56
243.531	829.56
243.765	858.56
243.998	840.56
244.232	845.56
244.465	902.56
244.699	893.56
244.932	917.56
245.166	892.56
245.399	881.56
245.633	933.56
245.866	909.56
246.099	936.56
246.333	961.56
246.566	932.56
246.8	1000.56
247.033	1013.56
247.266	1062.56
247.5	1098.56
247.733	1144.56
247.966	1128.56
248.2	1136.56
248.433	1175.56
248.666	1227.56
248.899	1333.56
249.133	1446.56
249.366	1446.56
249.599	1311.56
249.832	1243.56
250.066	1229.56
250.299	1254.56
250.532	1329.56
250.765	1557.56
250.998	1734.56
251.231	1647.56
251.465	1484.56
251.698	1441.56
251.931	1396.56
252.164	1397.56
252.397	1433.56
252.63	1505.56
252.863	1545.56
253.096	1685.56
253.329	1761.56
253.562	1670.56
253.795	1540.56
254.028	1551.56
254.261	1613.56
254.494	1811.56
254.727	2125.56
254.96	2264.56
255.193	1985.56
255.426	1795.56
255.659	1637.56
255.892	1615.56
256.124	1564.56
256.357	1594.56
256.59	1542.56
256.823	1500.56
257.056	1487.56
257.289	1514.56
257.521	1551.56
257.754	1548.56
257.987	1539.56
258.22	1528.56
258.452	1534.56
258.685	1577.56
258.918	1556.56
259.151	1616.56
259.383	1701.56
259.616	1696.56
259.849	1805.56
260.081	1931.56
260.314	2152.56
260.547	2014.56
260.779	1843.56
261.012	1764.56
261.244	1733.56
261.477	1661.56
261.71	1680.56
261.942	1755.56
262.175	1776.56
262.407	1701.56
262.64	1634.56
262.872	1643.56
263.105	1679.56
263.337	1662.56
263.57	1652.56
263.802	1652.56
264.035	1668.56
264.267	1693.56
264.499	1683.56
264.732	1693.56
264.964	1676.56
265.197	1675.56
265.429	1701.56
265.661	1697.56
265.894	1695.56
266.126	1726.56
266.358	1736.56
266.591	1789.56
266.823	1872.56
267.055	1844.56
267.287	1850.56
267.52	1816.56
267.752	1826.56
267.984	1834.56
268.216	1870.56
268.448	1915.56
268.681	2040.56
268.913	2127.56
269.145	2309.56
269.377	2385.56
269.609	2292.56
269.841	2279.56
270.073	2391.56
270.306	2652.56
270.538	2807.56
270.77	2696.56
271.002	2545.56
271.234	2447.56
271.466	2619.56
271.698	2793.56
271.93	2763.56
272.162	2748.56
272.394	2695.56
272.626	2552.56
272.858	2374.56
273.09	2295.56
273.322	2253.56
273.553	2252.56
273.785	2222.56
274.017	2231.56
274.249	2221.56
274.481	2247.56
274.713	2259.56
274.945	2310.56
275.176	2276.56
275.408	2250.56
275.64	2209.56
275.872	2239.56
276.104	2285.56
276.335	2288.56
276.567	2410.56
276.799	2576.56
277.031	2796.56
277.262	2880.56
277.494	2767.56
277.726	2611.56
277.957	2486.56
278.189	2455.56
278.421	2400.56
278.652	2390.56
278.884	2315.56
279.115	2300.56
279.347	2334.56
279.579	2363.56
279.81	2359.56
280.042	2326.56
280.273	2363.56
280.505	2369.56
280.736	2356.56
280.968	2415.56
281.199	2430.56
281.431	2412.56
281.662	2402.56
281.894	2441.56
282.125	2516.56
282.356	2625.56
282.588	2744.56
282.819	2632.56
283.051	2525.56
283.282	2531.56
283.513	2535.56
283.745	2544.56
283.976	2638.56
284.207	2648.56
284.439	2583.56
284.67	2652.56
284.901	2599.56
285.132	2585.56
285.364	2608.56
285.595	2612.56
285.826	2600.56
286.057	2657.56
286.288	2628.56
286.52	2731.56
286.751	2625.56
286.982	2683.56
287.213	2686.56
287.444	2699.56
287.675	2769.56
287.906	2846.56
288.138	2923.56
288.369	2865.56
288.6	2850.56
288.831	2847.56
289.062	2793.56
289.293	2773.56
289.524	2777.56
289.755	2786.56
289.986	2751.56
290.217	2765.56
290.448	2765.56
290.679	2780.56
290.91	2800.56
291.141	2780.56
291.371	2814.56
291.602	2816.56
291.833	2749.56
292.064	2809.56
292.295	2782.56
292.526	2756.56
292.757	2779.56
292.987	2822.56
293.218	2788.56
293.449	2846.56
293.68	2824.56
293.91	2814.56
294.141	2804.56
294.372	2805.56
294.603	2819.56
294.833	2825.56
295.064	2850.56
295.295	2859.56
295.525	2856.56
295.756	2913.56
295.987	2946.56
296.217	3176.56
296.448	3073.56
296.679	2955.56
296.909	2926.56
297.14	2923.56
297.37	2971.56
297.601	2987.56
297.831	2996.56
298.062	3059.56
298.292	3029.56
298.523	3070.56
298.753	3107.56
298.984	3105.56
299.214	3061.56
299.445	3081.56
299.675	3046.56
299.905	3132.56
300.136	3076.56
300.366	3077.56
300.597	3179.56
300.827	3239.56
301.057	3312.56
301.288	3345.56
301.518	3303.56
301.748	3297.56
301.979	3349.56
302.209	3391.56
302.439	3314.56
302.669	3247.56
302.9	3263.56
303.13	3265.56
303.36	3235.56
303.59	3299.56
303.82	3364.56
304.051	3296.56
304.281	3285.56
304.511	3211.56
304.741	3234.56
304.971	3272.56
305.201	3158.56
305.431	3176.56
305.661	3261.56
305.891	3230.56
306.121	3223.56
306.352	3292.56
306.582	3272.56
306.812	3207.56
307.042	3221.56
307.272	3227.56
307.502	3214.56
307.731	3267.56
307.961	3210.56
308.191	3259.56
308.421	3227.56
308.651	3173.56
308.881	3214.56
309.111	3312.56
309.341	3376.56
309.571	3432.56
309.8	3521.56
310.03	3514.56
310.26	3548.56
310.49	3507.56
310.72	3629.56
310.949	3730.56
311.179	3695.56
311.409	3597.56
311.639	3559.56
311.868	3540.56
312.098	3608.56
312.328	3735.56
312.557	3880.56
312.787	3871.56
313.017	3788.56
313.246	3701.56
313.476	3665.56
313.706	3741.56
313.935	3780.56
314.165	3910.56
314.394	3915.56
314.624	3889.56
314.853	3713.56
315.083	3724.56
315.312	3701.56
315.542	3686.56
315.771	3627.56
316.001	3657.56
316.23	3628.56
316.46	3621.56
316.689	3635.56
316.919	3747.56
317.148	3815.56
317.377	3740.56
317.607	3672.56
317.836	3634.56
318.065	3612.56
318.295	3633.56
318.524	3621.56
318.753	3577.56
318.983	3635.56
319.212	3617.56
319.441	3708.56
319.67	3715.56
319.9	3635.56
320.129	3645.56
320.358	3695.56
320.587	3682.56
320.816	3754.56
321.046	3783.56
321.275	3743.56
321.504	3779.56
321.733	3796.56
321.962	3840.56
322.191	3969.56
322.42	4058.56
322.649	4072.56
322.878	4181.56
323.108	4228.56
323.337	4471.56
323.566	4626.56
323.795	4926.56
324.024	5493.56
324.253	7163.56
324.482	10819.56
324.71	15156.56
324.939	15625.56
325.168	12918.56
325.397	6501.56
325.626	5210.56
325.855	4855.56
326.084	4689.56
326.313	4696.56
326.542	4817.56
326.77	5411.56
326.999	6889.56
327.228	10095.56
327.457	14214.56
327.686	13511.56
327.914	7215.56
328.143	5740.56
328.372	5343.56
328.6	5073.56
328.829	5125.56
329.058	5279.56
329.287	5169.56
329.515	4891.56
329.744	4637.56
329.972	4740.56
330.201	4863.56
330.43	5097.56
330.658	5338.56
330.887	5604.56
331.115	5216.56
331.344	4881.56
331.572	4802.56
331.801	4916.56
332.03	4872.56
332.258	4837.56
332.486	4887.56
332.715	4930.56
332.943	5124.56
333.172	5162.56
333.4	5355.56
333.629	5396.56
333.857	5478.56
334.085	5321.56
334.314	5354.56
334.542	5363.56
334.771	5371.56
334.999	5159.56
335.227	5154.56
335.455	5073.56
335.684	4935.56
335.912	4878.56
336.14	4834.56
336.369	4816.56
336.597	4966.56
336.825	4904.56
337.053	4827.56
337.281	4703.56
337.51	4687.56
337.738	4671.56
337.966	4622.56
338.194	4637.56
338.422	4573.56
338.65	4438.56
338.878	4526.56
339.106	4429.56
339.334	4467.56
339.562	4432.56
339.79	4293.56
340.018	4327.56
340.246	4403.56
340.474	4383.56
340.702	4332.56
340.93	4346.56
341.158	4369.56
341.386	4326.56
341.614	4353.56
341.842	4259.56
342.07	4221.56
342.298	4239.56
342.526	4210.56
342.754	4240.56
342.981	4237.56
343.209	4400.56
343.437	4570.56
343.665	4829.56
343.893	5059.56
344.12	5080.56
344.348	4869.56
344.576	4742.56
344.804	4595.56
345.031	4532.56
345.259	4536.56
345.487	4375.56
345.714	4302.56
345.942	4165.56
346.17	4175.56
346.397	4129.56
346.625	4144.56
346.853	4055.56
347.08	4058.56
347.308	4206.56
347.535	4216.56
347.763	4203.56
347.99	4251.56
348.218	4219.56
348.445	4235.56
348.673	4215.56
348.9	4123.56
349.128	4055.56
349.355	3964.56
349.583	3983.56
349.81	3975.56
350.037	3914.56
350.265	3969.56
350.492	3986.56
350.72	4006.56
350.947	4080.56
351.174	4077.56
351.402	4140.56
351.629	4079.56
351.856	4097.56
352.083	4120.56
352.311	4141.56
352.538	4162.56
352.765	4126.56
352.992	4091.56
353.22	4036.56
353.447	4010.56
353.674	3946.56
353.901	3898.56
354.128	3901.56
354.355	3873.56
354.583	3973.56
354.81	3853.56
355.037	3877.56
355.264	3875.56
355.491	3906.56
355.718	3917.56
355.945	3867.56
356.172	3863.56
356.399	3865.56
356.626	3936.56
356.853	3892.56
357.08	3874.56
357.307	3848.56
357.534	3858.56
357.761	3891.56
357.988	3940.56
358.215	3869.56
358.441	3927.56
358.668	3932.56
358.895	3984.56
359.122	4016.56
359.349	4078.56
359.576	4193.56
359.802	4414.56
360.029	4499.56
360.256	4456.56
360.483	4327.56
360.709	4137.56
360.936	4142.56
361.163	4088.56
361.39	4123.56
361.616	4159.56
361.843	4126.56
362.07	4176.56
362.296	4148.56
362.523	4114.56
362.749	4113.56
362.976	4014.56
363.203	3991.56
363.429	3963.56
363.656	3957.56
363.882	3965.56
364.109	3953.56
364.335	3948.56
364.562	3930.56
364.788	3920.56
365.015	3989.56
365.241	3923.56
365.468	4009.56
365.694	4039.56
365.92	4001.56
366.147	3935.56
366.373	3940.56
366.599	3946.56
366.826	3929.56
367.052	4025.56
367.278	3996.56
367.505	3956.56
367.731	4006.56
367.957	3959.56
368.184	4046.56
368.41	4090.56
368.636	4123.56
368.862	4229.56
369.089	4058.56
369.315	4057.56
369.541	4079.56
369.767	4092.56
369.993	4066.56
370.219	4135.56
370.445	4089.56
370.672	4193.56
370.898	4173.56
371.124	4221.56
371.35	4289.56
371.576	4265.56
371.802	4226.56
372.028	4173.56
372.254	4134.56
372.48	4191.56
372.706	4288.56
372.932	4361.56
373.158	4387.56
373.384	4344.56
373.61	4216.56
373.835	4346.56
374.061	4279.56
374.287	4375.56
374.513	4377.56
374.739	4530.56
374.965	4601.56
375.191	4675.56
375.416	4595.56
375.642	4372.56
375.868	4387.56
376.094	4379.56
376.319	4327.56
376.545	4288.56
376.771	4283.56
376.997	4248.56
377.222	4243.56
377.448	4248.56
377.674	4244.56
377.899	4212.56
378.125	4173.56
378.35	4145.56
378.576	4209.56
378.802	4161.56
379.027	4223.56
379.253	4217.56
379.478	4184.56
379.704	4209.56
379.929	4177.56
380.155	4207.56
380.38	4199.56
380.606	4225.56
380.831	4174.56
381.057	4274.56
381.282	4253.56
381.507	4224.56
381.733	4323.56
381.958	4359.56
382.184	4378.56
382.409	4450.56
382.634	4460.56
382.86	4460.56
383.085	4561.56
383.31	4563.56
383.535	4663.56
383.761	4655.56
383.986	4753.56
384.211	4841.56
384.436	4915.56
384.662	4981.56
384.887	5063.56
385.112	5044.56
385.337	5116.56
385.562	5073.56
385.787	5133.56
386.013	5212.56
386.238	5210.56
386.463	5172.56
386.688	5172.56
386.913	5057.56
387.138	5094.56
387.363	4984.56
387.588	5011.56
387.813	5063.56
388.038	5044.56
388.263	5073.56
388.488	5079.56
388.713	5022.56
388.938	5030.56
389.163	5076.56
389.387	5061.56
389.612	4957.56
389.837	5046.56
390.062	4917.56
390.287	4974.56
390.512	4985.56
390.736	5037.56
390.961	5182.56
391.186	5233.56
391.411	5359.56
391.636	5457.56
391.86	5661.56
392.085	5779.56
392.31	5615.56
392.534	5436.56
392.759	5353.56
392.984	5325.56
393.208	5238.56
393.433	5284.56
393.658	5223.56
393.882	5298.56
394.107	5279.56
394.331	5352.56
394.556	5340.56
394.78	5391.56
395.005	5423.56
395.229	5419.56
395.454	5663.56
395.678	5739.56
395.903	5733.56
396.127	5726.56
396.352	5520.56
396.576	5330.56
396.801	5358.56
397.025	5440.56
397.249	5540.56
397.474	5705.56
397.698	5704.56
397.922	5811.56
398.147	5885.56
398.371	5995.56
398.595	6175.56
398.82	6512.56
399.044	6959.56
399.268	7721.56
399.492	8744.56
399.717	9467.56
399.941	9213.56
400.165	8609.56
400.389	7965.56
400.613	7156.56
400.837	6711.56
401.062	6424.56
401.286	6397.56
401.51	6402.56
401.734	6343.56
401.958	6548.56
402.182	6541.56
402.406	6677.56
402.63	6663.56
402.854	6860.56
403.078	6950.56
403.302	7091.56
403.526	7121.56
403.75	7204.56
403.974	7271.56
404.198	7189.56
404.422	7309.56
404.645	7235.56
404.869	7099.56
405.093	7339.56
405.317	7542.56
405.541	7506.56
405.765	7086.56
405.988	7062.56
406.212	7210.56
406.436	7386.56
406.66	7500.56
406.883	7597.56
407.107	8126.56
407.331	8723.56
407.555	9169.56
407.778	8887.56
408.002	8063.56
408.226	7673.56
408.449	7577.56
408.673	7539.56
408.896	7855.56
409.12	7972.56
409.344	7365.56
409.567	7042.56
409.791	7069.56
410.014	6869.56
410.238	6911.56
410.461	6842.56
410.685	6874.56
410.908	6955.56
411.132	7275.56
411.355	7302.56
411.578	6890.56
411.802	6643.56
412.025	6629.56
412.249	6702.56
412.472	6737.56
412.695	6654.56
412.919	6459.56
413.142	6411.56
413.365	6309.56
413.589	6430.56
413.812	6273.56
414.035	6176.56
414.258	6225.56
414.482	6235.56
414.705	6282.56
414.928	6288.56
415.151	6212.56
415.374	6234.56
415.597	6187.56
415.821	6102.56
416.044	6111.56
416.267	6140.56
416.49	6149.56
416.713	6146.56
416.936	6230.56
417.159	6069.56
417.382	6212.56
417.605	6188.56
417.828	6352.56
418.051	6520.56
418.274	6388.56
418.497	6291.56
418.72	6422.56
418.943	6356.56
419.166	6820.56
419.389	7112.56
419.611	6976.56
419.834	6713.56
420.057	6686.56
420.28	6470.56
420.503	6266.56
420.726	6258.56
420.948	6538.56
421.171	7004.56
421.394	6934.56
421.617	6431.56
421.839	6355.56
422.062	6489.56
422.285	6596.56
422.507	7412.56
422.73	7887.56
422.953	7251.56
423.175	6847.56
423.398	6945.56
423.621	6880.56
423.843	7160.56
424.066	6990.56
424.288	6932.56
424.511	7219.56
424.733	7691.56
424.956	8152.56
425.178	7627.56
425.401	7822.56
425.623	7703.56
425.846	6713.56
426.068	6526.56
426.291	6496.56
426.513	6398.56
426.735	6603.56
426.958	6985.56
427.18	7920.56
427.402	9090.56
427.625	8975.56
427.847	7531.56
428.069	6723.56
428.292	6355.56
428.514	6088.56
428.736	5885.56
428.958	5892.56
429.181	5697.56
429.403	5703.56
429.625	5958.56
429.847	6232.56
430.069	6866.56
430.292	6299.56
430.514	5755.56
430.736	5703.56
430.958	5660.56
431.18	5570.56
431.402	5567.56
431.624	5542.56
431.846	5696.56
432.068	5651.56
432.29	5764.56
432.512	5684.56
432.734	5794.56
432.956	5735.56
433.178	5765.56
433.4	5737.56
433.622	5663.56
433.844	5732.56
434.066	5653.56
434.287	5720.56
434.509	5999.56
434.731	6231.56
434.953	6363.56
435.175	6518.56
435.397	6681.56
435.618	6564.56
435.84	6954.56
436.062	7780.56
436.284	7766.56
436.505	6477.56
436.727	6150.56
436.949	5878.56
437.17	5800.56
437.392	5679.56
437.614	5956.56
437.835	6271.56
438.057	7301.56
438.278	8020.56
438.5	7918.56
438.721	8770.56
438.943	7666.56
439.165	6391.56
439.386	6194.56
439.608	6195.56
439.829	6309.56
440.05	6673.56
440.272	7008.56
440.493	6287.56
440.715	6156.56
440.936	6030.56
441.158	6093.56
441.379	6195.56
441.6	6463.56
441.822	6819.56
442.043	7190.56
442.264	8059.56
442.486	7729.56
442.707	6884.56
442.928	6615.56
443.149	6854.56
443.371	7081.56
443.592	7645.56
443.813	8635.56
444.034	8513.56
444.255	7506.56
444.476	7265.56
444.698	7494.56
444.919	7392.56
445.14	7267.56
445.361	7129.56
445.582	7382.56
445.803	7909.56
446.024	8611.56
446.245	8229.56
446.466	7351.56
446.687	6380.56
446.908	6109.56
447.129	5852.56
447.35	5623.56
447.571	5614.56
447.792	5517.56
448.013	5540.56
448.234	5788.56
448.455	6449.56
448.675	7709.56
448.896	8171.56
449.117	6683.56
449.338	6938.56
449.559	8318.56
449.779	8514.56
450	6469.56
450.221	5736.56
450.442	5506.56
450.662	5407.56
450.883	5443.56
451.104	5617.56
451.324	5430.56
451.545	5279.56
451.766	5164.56
451.986	5005.56
452.207	4978.56
452.428	4960.56
452.648	5067.56
452.869	5023.56
453.089	5037.56
453.31	5215.56
453.53	5024.56
453.751	4958.56
453.971	5024.56
454.192	5108.56
454.412	4931.56
454.633	4902.56
454.853	4914.56
455.073	4840.56
455.294	5298.56
455.514	5796.56
455.734	5335.56
455.955	4737.56
456.175	4734.56
456.395	4581.56
456.616	4552.56
456.836	4588.56
457.056	4599.56
457.276	4529.56
457.497	4677.56
457.717	4605.56
457.937	4747.56
458.157	4767.56
458.377	4898.56
458.598	5262.56
458.818	5943.56
459.038	6646.56
459.258	6612.56
459.478	5864.56
459.698	5768.56
459.918	5771.56
460.138	5983.56
460.358	6210.56
460.578	6234.56
460.798	6289.56
461.018	6235.56
461.238	6011.56
461.458	6053.56
461.678	6072.56
461.898	6193.56
462.118	6270.56
462.338	6590.56
462.558	6651.56
462.777	6935.56
462.997	7511.56
463.217	7977.56
463.437	7667.56
463.657	7158.56
463.876	7054.56
464.096	7024.56
464.316	7016.56
464.536	7052.56
464.755	6829.56
464.975	6763.56
465.195	6946.56
465.414	6861.56
465.634	6117.56
465.854	5750.56
466.073	5545.56
466.293	5402.56
466.512	5256.56
466.732	5116.56
466.951	5163.56
467.171	5184.56
467.391	5199.56
467.61	5223.56
467.829	5188.56
468.049	5136.56
468.268	4964.56
468.488	4966.56
468.707	4923.56
468.927	4915.56
469.146	4848.56
469.365	4985.56
469.585	4964.56
469.804	5209.56
470.023	5331.56
470.243	5326.56
470.462	5312.56
470.681	5479.56
470.901	5347.56
471.12	5247.56
471.339	5257.56
471.558	5199.56
471.777	5114.56
471.997	4965.56
472.216	4950.56
472.435	5030.56
472.654	4968.56
472.873	4893.56
473.092	4907.56
473.311	4909.56
473.53	4979.56
473.749	5062.56
473.968	5613.56
474.187	6701.56
474.406	6167.56
474.625	5237.56
474.844	4976.56
475.063	4894.56
475.282	4936.56
475.501	4988.56
475.72	5076.56
475.939	5078.56
476.158	5145.56
476.377	5040.56
476.596	5112.56
476.814	5308.56
477.033	5309.56
477.252	5315.56
477.471	5433.56
477.69	5590.56
477.908	5640.56
478.127	5812.56
478.346	5867.56
478.564	5948.56
478.783	6066.56
479.002	6109.56
479.22	6203.56
479.439	6251.56
479.658	6301.56
479.876	6383.56
480.095	6629.56
480.313	7020.56
480.532	6851.56
480.751	6707.56
480.969	6667.56
481.188	6693.56
481.406	6432.56
481.624	6168.56
481.843	6078.56
482.061	5918.56
482.28	5905.56
482.498	5760.56
482.717	5830.56
482.935	5779.56
483.153	5793.56
483.372	5799.56
483.59	5694.56
483.808	5792.56
484.027	5685.56
484.245	5744.56
484.463	5831.56
484.681	5922.56
484.9	5954.56
485.118	6043.56
485.336	6062.56
485.554	6096.56
485.772	6133.56
485.99	6176.56
486.209	6164.56
486.427	6190.56
486.645	6324.56
486.863	6388.56
487.081	6287.56
487.299	6243.56
487.517	6267.56
487.735	6225.56
