Data from Uncirc_1986_H10_HRD10591_00068.txt Node
Date: Wed Jan 03 12:14:40 EST 2024
User: Yrep
Spectrometer: HR+D1059
Trigger mode: 1
Integration Time (sec): 1.000000E-1
Scans to average: 1
Electric dark correction enabled: true
Nonlinearity correction enabled: false
Boxcar width: 0
XAxis mode: Wavelengths
Number of Pixels in Spectrum: 2048
>>>>>Begin Spectral Data<<<<<
223.165	-11.5
223.4	-11.5
223.635	-11.5
223.869	-24.5
224.104	-13.5
224.338	-13.5
224.573	-15.5
224.808	-22.5
225.042	2.5
225.277	-10.5
225.511	-0.5
225.746	14.5
225.98	7.5
226.215	5.5
226.449	24.5
226.683	3.5
226.918	20.5
227.152	33.5
227.387	41.5
227.621	37.5
227.856	38.5
228.09	54.5
228.324	49.5
228.559	59.5
228.793	61.5
229.027	58.5
229.262	69.5
229.496	77.5
229.73	91.5
229.964	86.5
230.199	67.5
230.433	74.5
230.667	65.5
230.901	66.5
231.136	85.5
231.37	87.5
231.604	73.5
231.838	73.5
232.072	78.5
232.306	83.5
232.541	74.5
232.775	72.5
233.009	78.5
233.243	84.5
233.477	90.5
233.711	88.5
233.945	77.5
234.179	75.5
234.413	76.5
234.647	69.5
234.881	82.5
235.115	93.5
235.349	67.5
235.583	65.5
235.817	86.5
236.051	73.5
236.285	70.5
236.519	88.5
236.753	85.5
236.987	87.5
237.221	94.5
237.455	77.5
237.689	74.5
237.922	82.5
238.156	81.5
238.39	81.5
238.624	84.5
238.858	65.5
239.091	78.5
239.325	88.5
239.559	78.5
239.793	77.5
240.027	64.5
240.26	81.5
240.494	71.5
240.728	65.5
240.961	75.5
241.195	85.5
241.429	79.5
241.662	77.5
241.896	81.5
242.13	79.5
242.363	66.5
242.597	77.5
242.83	81.5
243.064	81.5
243.298	88.5
243.531	88.5
243.765	92.5
243.998	63.5
244.232	78.5
244.465	86.5
244.699	75.5
244.932	77.5
245.166	79.5
245.399	80.5
245.633	85.5
245.866	85.5
246.099	89.5
246.333	74.5
246.566	69.5
246.8	82.5
247.033	67.5
247.266	87.5
247.5	69.5
247.733	84.5
247.966	85.5
248.2	72.5
248.433	79.5
248.666	71.5
248.899	70.5
249.133	88.5
249.366	88.5
249.599	93.5
249.832	80.5
250.066	87.5
250.299	61.5
250.532	84.5
250.765	81.5
250.998	64.5
251.231	69.5
251.465	98.5
251.698	74.5
251.931	85.5
252.164	79.5
252.397	86.5
252.63	84.5
252.863	85.5
253.096	69.5
253.329	71.5
253.562	71.5
253.795	78.5
254.028	87.5
254.261	80.5
254.494	80.5
254.727	82.5
254.96	79.5
255.193	75.5
255.426	75.5
255.659	81.5
255.892	85.5
256.124	73.5
256.357	87.5
256.59	86.5
256.823	82.5
257.056	78.5
257.289	79.5
257.521	61.5
257.754	86.5
257.987	84.5
258.22	84.5
258.452	73.5
258.685	81.5
258.918	72.5
259.151	85.5
259.383	84.5
259.616	76.5
259.849	77.5
260.081	90.5
260.314	73.5
260.547	93.5
260.779	80.5
261.012	80.5
261.244	77.5
261.477	74.5
261.71	85.5
261.942	100.5
262.175	99.5
262.407	75.5
262.64	72.5
262.872	74.5
263.105	79.5
263.337	77.5
263.57	72.5
263.802	96.5
264.035	89.5
264.267	74.5
264.499	78.5
264.732	84.5
264.964	91.5
265.197	83.5
265.429	84.5
265.661	83.5
265.894	91.5
266.126	91.5
266.358	79.5
266.591	82.5
266.823	75.5
267.055	75.5
267.287	85.5
267.52	70.5
267.752	89.5
267.984	64.5
268.216	94.5
268.448	79.5
268.681	89.5
268.913	77.5
269.145	75.5
269.377	75.5
269.609	83.5
269.841	81.5
270.073	72.5
270.306	85.5
270.538	100.5
270.77	87.5
271.002	85.5
271.234	84.5
271.466	75.5
271.698	73.5
271.93	96.5
272.162	87.5
272.394	85.5
272.626	87.5
272.858	79.5
273.09	88.5
273.322	89.5
273.553	80.5
273.785	100.5
274.017	89.5
274.249	90.5
274.481	85.5
274.713	94.5
274.945	80.5
275.176	69.5
275.408	83.5
275.64	79.5
275.872	72.5
276.104	70.5
276.335	93.5
276.567	89.5
276.799	101.5
277.031	89.5
277.262	92.5
277.494	90.5
277.726	90.5
277.957	80.5
278.189	80.5
278.421	85.5
278.652	85.5
278.884	87.5
279.115	89.5
279.347	82.5
279.579	87.5
279.81	94.5
280.042	99.5
280.273	82.5
280.505	92.5
280.736	79.5
280.968	73.5
281.199	74.5
281.431	78.5
281.662	93.5
281.894	88.5
282.125	92.5
282.356	111.5
282.588	123.5
282.819	98.5
283.051	97.5
283.282	86.5
283.513	94.5
283.745	95.5
283.976	79.5
284.207	78.5
284.439	78.5
284.67	82.5
284.901	88.5
285.132	88.5
285.364	91.5
285.595	98.5
285.826	87.5
286.057	88.5
286.288	90.5
286.52	90.5
286.751	82.5
286.982	53.5
287.213	88.5
287.444	91.5
287.675	96.5
287.906	92.5
288.138	94.5
288.369	85.5
288.6	81.5
288.831	87.5
289.062	83.5
289.293	83.5
289.524	81.5
289.755	88.5
289.986	94.5
290.217	83.5
290.448	85.5
290.679	85.5
290.91	86.5
291.141	84.5
291.371	85.5
291.602	73.5
291.833	83.5
292.064	81.5
292.295	81.5
292.526	97.5
292.757	97.5
292.987	90.5
293.218	99.5
293.449	82.5
293.68	80.5
293.91	71.5
294.141	88.5
294.372	83.5
294.603	87.5
294.833	100.5
295.064	91.5
295.295	94.5
295.525	97.5
295.756	104.5
295.987	101.5
296.217	119.5
296.448	118.5
296.679	101.5
296.909	99.5
297.14	101.5
297.37	79.5
297.601	101.5
297.831	77.5
298.062	91.5
298.292	86.5
298.523	91.5
298.753	99.5
298.984	89.5
299.214	75.5
299.445	78.5
299.675	88.5
299.905	83.5
300.136	84.5
300.366	74.5
300.597	77.5
300.827	97.5
301.057	89.5
301.288	101.5
301.518	96.5
301.748	83.5
301.979	114.5
302.209	80.5
302.439	82.5
302.669	89.5
302.9	77.5
303.13	93.5
303.36	82.5
303.59	102.5
303.82	104.5
304.051	116.5
304.281	87.5
304.511	86.5
304.741	97.5
304.971	84.5
305.201	88.5
305.431	91.5
305.661	71.5
305.891	100.5
306.121	107.5
306.352	98.5
306.582	95.5
306.812	107.5
307.042	86.5
307.272	83.5
307.502	82.5
307.731	85.5
307.961	94.5
308.191	88.5
308.421	74.5
308.651	99.5
308.881	87.5
309.111	97.5
309.341	93.5
309.571	88.5
309.8	89.5
310.03	85.5
310.26	87.5
310.49	99.5
310.72	95.5
310.949	90.5
311.179	105.5
311.409	77.5
311.639	104.5
311.868	87.5
312.098	90.5
312.328	102.5
312.557	105.5
312.787	103.5
313.017	98.5
313.246	98.5
313.476	89.5
313.706	91.5
313.935	85.5
314.165	85.5
314.394	102.5
314.624	92.5
314.853	111.5
315.083	101.5
315.312	85.5
315.542	109.5
315.771	93.5
316.001	85.5
316.23	103.5
316.46	89.5
316.689	94.5
316.919	89.5
317.148	86.5
317.377	94.5
317.607	94.5
317.836	88.5
318.065	91.5
318.295	75.5
318.524	98.5
318.753	104.5
318.983	96.5
319.212	107.5
319.441	99.5
319.67	103.5
319.9	88.5
320.129	91.5
320.358	88.5
320.587	91.5
320.816	92.5
321.046	104.5
321.275	100.5
321.504	104.5
321.733	79.5
321.962	88.5
322.191	99.5
322.42	98.5
322.649	108.5
322.878	110.5
323.108	95.5
323.337	114.5
323.566	110.5
323.795	134.5
324.024	186.5
324.253	340.5
324.482	712.5
324.71	1421.5
324.939	1917.5
325.168	727.5
325.397	217.5
325.626	141.5
325.855	119.5
326.084	121.5
326.313	118.5
326.542	145.5
326.77	201.5
326.999	424.5
327.228	824.5
327.457	1482.5
327.686	1201.5
327.914	335.5
328.143	167.5
328.372	139.5
328.6	104.5
328.829	111.5
329.058	106.5
329.287	114.5
329.515	101.5
329.744	106.5
329.972	87.5
330.201	98.5
330.43	97.5
330.658	113.5
330.887	117.5
331.115	111.5
331.344	94.5
331.572	91.5
331.801	97.5
332.03	107.5
332.258	106.5
332.486	79.5
332.715	87.5
332.943	91.5
333.172	105.5
333.4	100.5
333.629	101.5
333.857	95.5
334.085	112.5
334.314	99.5
334.542	119.5
334.771	114.5
334.999	99.5
335.227	100.5
335.455	105.5
335.684	92.5
335.912	94.5
336.14	93.5
336.369	95.5
336.597	102.5
336.825	91.5
337.053	94.5
337.281	87.5
337.51	86.5
337.738	79.5
337.966	91.5
338.194	82.5
338.422	77.5
338.65	102.5
338.878	94.5
339.106	90.5
339.334	89.5
339.562	87.5
339.79	99.5
340.018	79.5
340.246	88.5
340.474	89.5
340.702	90.5
340.93	94.5
341.158	81.5
341.386	87.5
341.614	110.5
341.842	85.5
342.07	84.5
342.298	82.5
342.526	106.5
342.754	95.5
342.981	90.5
343.209	83.5
343.437	98.5
343.665	90.5
343.893	77.5
344.12	87.5
344.348	90.5
344.576	97.5
344.804	95.5
345.031	84.5
345.259	98.5
345.487	94.5
345.714	75.5
345.942	108.5
346.17	97.5
346.397	95.5
346.625	102.5
346.853	91.5
347.08	88.5
347.308	90.5
347.535	98.5
347.763	89.5
347.99	96.5
348.218	88.5
348.445	90.5
348.673	91.5
348.9	94.5
349.128	101.5
349.355	107.5
349.583	85.5
349.81	103.5
350.037	82.5
350.265	88.5
350.492	106.5
350.72	99.5
350.947	112.5
351.174	90.5
351.402	105.5
351.629	107.5
351.856	89.5
352.083	107.5
352.311	99.5
352.538	104.5
352.765	109.5
352.992	118.5
353.22	104.5
353.447	104.5
353.674	95.5
353.901	91.5
354.128	100.5
354.355	91.5
354.583	88.5
354.81	89.5
355.037	88.5
355.264	80.5
355.491	103.5
355.718	98.5
355.945	92.5
356.172	84.5
356.399	97.5
356.626	87.5
356.853	95.5
357.08	98.5
357.307	87.5
357.534	90.5
357.761	91.5
357.988	100.5
358.215	83.5
358.441	99.5
358.668	89.5
358.895	66.5
359.122	90.5
359.349	82.5
359.576	94.5
359.802	96.5
360.029	110.5
360.256	97.5
360.483	91.5
360.709	93.5
360.936	84.5
361.163	88.5
361.39	73.5
361.616	90.5
361.843	75.5
362.07	85.5
362.296	103.5
362.523	90.5
362.749	84.5
362.976	89.5
363.203	100.5
363.429	86.5
363.656	97.5
363.882	98.5
364.109	86.5
364.335	90.5
364.562	90.5
364.788	85.5
365.015	100.5
365.241	85.5
365.468	105.5
365.694	87.5
365.92	85.5
366.147	83.5
366.373	94.5
366.599	99.5
366.826	92.5
367.052	111.5
367.278	74.5
367.505	93.5
367.731	103.5
367.957	77.5
368.184	85.5
368.41	101.5
368.636	106.5
368.862	112.5
369.089	97.5
369.315	88.5
369.541	103.5
369.767	88.5
369.993	92.5
370.219	82.5
370.445	92.5
370.672	87.5
370.898	91.5
371.124	88.5
371.35	79.5
371.576	81.5
371.802	91.5
372.028	99.5
372.254	94.5
372.48	72.5
372.706	94.5
372.932	85.5
373.158	86.5
373.384	99.5
373.61	98.5
373.835	97.5
374.061	84.5
374.287	103.5
374.513	82.5
374.739	85.5
374.965	88.5
375.191	75.5
375.416	85.5
375.642	86.5
375.868	92.5
376.094	83.5
376.319	86.5
376.545	90.5
376.771	93.5
376.997	87.5
377.222	93.5
377.448	86.5
377.674	88.5
377.899	78.5
378.125	79.5
378.35	91.5
378.576	106.5
378.802	94.5
379.027	83.5
379.253	102.5
379.478	83.5
379.704	95.5
379.929	84.5
380.155	79.5
380.38	89.5
380.606	96.5
380.831	88.5
381.057	102.5
381.282	87.5
381.507	107.5
381.733	101.5
381.958	93.5
382.184	86.5
382.409	82.5
382.634	97.5
382.86	89.5
383.085	101.5
383.31	107.5
383.535	90.5
383.761	86.5
383.986	92.5
384.211	98.5
384.436	98.5
384.662	86.5
384.887	102.5
385.112	105.5
385.337	99.5
385.562	99.5
385.787	100.5
386.013	102.5
386.238	111.5
386.463	96.5
386.688	112.5
386.913	100.5
387.138	95.5
387.363	102.5
387.588	94.5
387.813	94.5
388.038	98.5
388.263	87.5
388.488	89.5
388.713	90.5
388.938	85.5
389.163	97.5
389.387	95.5
389.612	100.5
389.837	106.5
390.062	109.5
390.287	79.5
390.512	93.5
390.736	91.5
390.961	80.5
391.186	98.5
391.411	99.5
391.636	97.5
391.86	86.5
392.085	79.5
392.31	77.5
392.534	82.5
392.759	91.5
392.984	82.5
393.208	90.5
393.433	86.5
393.658	87.5
393.882	80.5
394.107	101.5
394.331	83.5
394.556	89.5
394.78	85.5
395.005	93.5
395.229	93.5
395.454	94.5
395.678	81.5
395.903	94.5
396.127	74.5
396.352	91.5
396.576	88.5
396.801	75.5
397.025	80.5
397.249	95.5
397.474	87.5
397.698	82.5
397.922	97.5
398.147	70.5
398.371	85.5
398.595	91.5
398.82	91.5
399.044	77.5
399.268	77.5
399.492	110.5
399.717	65.5
399.941	91.5
400.165	90.5
400.389	89.5
400.613	91.5
400.837	87.5
401.062	97.5
401.286	98.5
401.51	64.5
401.734	76.5
401.958	102.5
402.182	114.5
402.406	142.5
402.63	132.5
402.854	85.5
403.078	73.5
403.302	77.5
403.526	80.5
403.75	83.5
403.974	96.5
404.198	87.5
404.422	89.5
404.645	97.5
404.869	112.5
405.093	95.5
405.317	91.5
405.541	100.5
405.765	98.5
405.988	104.5
406.212	145.5
406.436	196.5
406.66	134.5
406.883	100.5
407.107	91.5
407.331	98.5
407.555	106.5
407.778	90.5
408.002	97.5
408.226	97.5
408.449	95.5
408.673	91.5
408.896	101.5
409.12	98.5
409.344	95.5
409.567	88.5
409.791	93.5
410.014	92.5
410.238	78.5
410.461	94.5
410.685	89.5
410.908	95.5
411.132	106.5
411.355	109.5
411.578	89.5
411.802	78.5
412.025	76.5
412.249	82.5
412.472	88.5
412.695	91.5
412.919	101.5
413.142	96.5
413.365	92.5
413.589	89.5
413.812	73.5
414.035	94.5
414.258	98.5
414.482	89.5
414.705	101.5
414.928	88.5
415.151	90.5
415.374	75.5
415.597	84.5
415.821	98.5
416.044	80.5
416.267	96.5
416.49	94.5
416.713	96.5
416.936	85.5
417.159	81.5
417.382	84.5
417.605	86.5
417.828	74.5
418.051	92.5
418.274	89.5
418.497	91.5
418.72	88.5
418.943	90.5
419.166	78.5
419.389	82.5
419.611	87.5
419.834	91.5
420.057	94.5
420.28	76.5
420.503	81.5
420.726	66.5
420.948	104.5
421.171	88.5
421.394	102.5
421.617	92.5
421.839	87.5
422.062	78.5
422.285	92.5
422.507	94.5
422.73	90.5
422.953	90.5
423.175	99.5
423.398	89.5
423.621	90.5
423.843	99.5
424.066	92.5
424.288	89.5
424.511	87.5
424.733	91.5
424.956	97.5
425.178	90.5
425.401	102.5
425.623	99.5
425.846	69.5
426.068	84.5
426.291	102.5
426.513	85.5
426.735	95.5
426.958	83.5
427.18	98.5
427.402	125.5
427.625	162.5
427.847	107.5
428.069	106.5
428.292	94.5
428.514	89.5
428.736	77.5
428.958	78.5
429.181	90.5
429.403	83.5
429.625	91.5
429.847	66.5
430.069	85.5
430.292	79.5
430.514	82.5
430.736	80.5
430.958	90.5
431.18	89.5
431.402	70.5
431.624	79.5
431.846	79.5
432.068	81.5
432.29	82.5
432.512	88.5
432.734	83.5
432.956	100.5
433.178	96.5
433.4	94.5
433.622	91.5
433.844	98.5
434.066	81.5
434.287	87.5
434.509	95.5
434.731	86.5
434.953	88.5
435.175	93.5
435.397	86.5
435.618	101.5
435.84	89.5
436.062	115.5
436.284	122.5
436.505	109.5
436.727	93.5
436.949	79.5
437.17	80.5
437.392	99.5
437.614	92.5
437.835	92.5
438.057	116.5
438.278	106.5
438.5	100.5
438.721	116.5
438.943	93.5
439.165	96.5
439.386	88.5
439.608	88.5
439.829	94.5
440.05	111.5
440.272	129.5
440.493	101.5
440.715	95.5
440.936	96.5
441.158	77.5
441.379	78.5
441.6	86.5
441.822	83.5
442.043	73.5
442.264	89.5
442.486	86.5
442.707	88.5
442.928	99.5
443.149	127.5
443.371	118.5
443.592	101.5
443.813	113.5
444.034	110.5
444.255	92.5
444.476	87.5
444.698	93.5
444.919	77.5
445.14	118.5
445.361	117.5
445.582	103.5
445.803	134.5
446.024	132.5
446.245	130.5
446.466	109.5
446.687	88.5
446.908	94.5
447.129	83.5
447.35	95.5
447.571	85.5
447.792	97.5
448.013	87.5
448.234	104.5
448.455	99.5
448.675	104.5
448.896	113.5
449.117	101.5
449.338	86.5
449.559	136.5
449.779	122.5
450	109.5
450.221	88.5
450.442	87.5
450.662	97.5
450.883	94.5
451.104	94.5
451.324	92.5
451.545	98.5
451.766	87.5
451.986	97.5
452.207	104.5
452.428	94.5
452.648	99.5
452.869	90.5
453.089	103.5
453.31	97.5
453.53	101.5
453.751	98.5
453.971	97.5
454.192	123.5
454.412	93.5
454.633	82.5
454.853	86.5
455.073	94.5
455.294	81.5
455.514	102.5
455.734	72.5
455.955	89.5
456.175	90.5
456.395	81.5
456.616	78.5
456.836	93.5
457.056	92.5
457.276	80.5
457.497	77.5
457.717	79.5
457.937	92.5
458.157	102.5
458.377	85.5
458.598	111.5
458.818	124.5
459.038	126.5
459.258	108.5
459.478	80.5
459.698	93.5
459.918	98.5
460.138	84.5
460.358	79.5
460.578	89.5
460.798	86.5
461.018	89.5
461.238	92.5
461.458	75.5
461.678	84.5
461.898	93.5
462.118	86.5
462.338	87.5
462.558	83.5
462.777	82.5
462.997	85.5
463.217	89.5
463.437	67.5
463.657	91.5
463.876	92.5
464.096	74.5
464.316	99.5
464.536	85.5
464.755	103.5
464.975	104.5
465.195	130.5
465.414	138.5
465.634	100.5
465.854	95.5
466.073	90.5
466.293	89.5
466.512	74.5
466.732	83.5
466.951	91.5
467.171	92.5
467.391	88.5
467.61	101.5
467.829	104.5
468.049	89.5
468.268	81.5
468.488	101.5
468.707	94.5
468.927	85.5
469.146	90.5
469.365	94.5
469.585	93.5
469.804	92.5
470.023	65.5
470.243	89.5
470.462	86.5
470.681	112.5
470.901	95.5
471.12	93.5
471.339	91.5
471.558	87.5
471.777	85.5
471.997	82.5
472.216	93.5
472.435	97.5
472.654	90.5
472.873	77.5
473.092	91.5
473.311	92.5
473.53	89.5
473.749	85.5
473.968	91.5
474.187	111.5
474.406	96.5
474.625	100.5
474.844	99.5
475.063	81.5
475.282	78.5
475.501	71.5
475.72	85.5
475.939	85.5
476.158	85.5
476.377	81.5
476.596	89.5
476.814	89.5
477.033	87.5
477.252	84.5
477.471	77.5
477.69	90.5
477.908	91.5
478.127	92.5
478.346	84.5
478.564	86.5
478.783	84.5
479.002	88.5
479.22	91.5
479.439	91.5
479.658	86.5
479.876	99.5
480.095	94.5
480.313	106.5
480.532	104.5
480.751	80.5
480.969	87.5
481.188	118.5
481.406	114.5
481.624	86.5
481.843	78.5
482.061	78.5
482.28	105.5
482.498	81.5
482.717	92.5
482.935	95.5
483.153	93.5
483.372	95.5
483.59	80.5
483.808	100.5
484.027	83.5
484.245	92.5
484.463	88.5
484.681	94.5
484.9	88.5
485.118	101.5
485.336	91.5
485.554	98.5
485.772	93.5
485.99	104.5
486.209	104.5
486.427	111.5
486.645	95.5
486.863	108.5
487.081	99.5
487.299	105.5
487.517	79.5
487.735	87.5
487.953	94.5
488.171	87.5
488.389	90.5
488.607	107.5
488.825	82.5
489.043	90.5
489.261	96.5
489.479	81.5
489.696	79.5
489.914	70.5
490.132	95.5
490.35	98.5
490.568	84.5
490.786	95.5
491.003	74.5
491.221	87.5
491.439	87.5
491.657	93.5
491.874	100.5
492.092	87.5
492.31	93.5
492.527	92.5
492.745	93.5
492.963	85.5
493.18	79.5
493.398	83.5
493.615	99.5
493.833	85.5
494.05	78.5
494.268	86.5
494.485	105.5
494.703	90.5
494.92	105.5
495.138	87.5
495.355	91.5
495.573	95.5
495.79	89.5
496.008	94.5
496.225	89.5
496.442	86.5
496.66	95.5
496.877	87.5
497.094	91.5
497.312	93.5
497.529	91.5
497.746	105.5
497.963	88.5
498.181	79.5
498.398	96.5
498.615	116.5
498.832	108.5
499.049	93.5
499.267	94.5
499.484	104.5
499.701	86.5
499.918	107.5
500.135	84.5
500.352	97.5
500.569	93.5
500.786	89.5
501.003	81.5
501.22	91.5
501.437	98.5
501.654	93.5
501.871	104.5
502.088	93.5
502.305	89.5
502.522	97.5
502.739	97.5
502.956	103.5
503.172	89.5
503.389	105.5
503.606	95.5
503.823	89.5
504.04	97.5
504.256	86.5
504.473	74.5
504.69	90.5
504.907	78.5
505.123	77.5
505.34	93.5
505.557	93.5
505.773	75.5
505.99	85.5
506.207	96.5
506.423	87.5
506.64	95.5
506.856	82.5
507.073	82.5
507.289	85.5
507.506	89.5
507.722	104.5
507.939	88.5
508.155	91.5
508.372	81.5
508.588	108.5
508.805	90.5
509.021	94.5
509.238	107.5
509.454	105.5
509.67	111.5
509.887	118.5
510.103	128.5
510.319	203.5
510.536	635.5
510.752	1989.5
510.968	541.5
511.184	135.5
511.401	102.5
511.617	97.5
511.833	87.5
512.049	86.5
512.265	87.5
512.481	94.5
512.698	89.5
512.914	88.5
513.13	86.5
513.346	86.5
513.562	88.5
513.778	106.5
513.994	84.5
514.21	102.5
514.426	115.5
514.642	123.5
514.858	112.5
515.074	143.5
515.29	369.5
515.506	1174.5
515.721	440.5
515.937	137.5
516.153	102.5
516.369	110.5
516.585	96.5
516.801	89.5
517.016	99.5
517.232	70.5
517.448	90.5
517.664	87.5
517.879	100.5
518.095	112.5
518.311	94.5
518.527	103.5
518.742	95.5
518.958	98.5
519.173	83.5
519.389	98.5
519.605	94.5
519.82	99.5
520.036	102.5
520.251	110.5
520.467	107.5
520.682	109.5
520.898	114.5
521.113	114.5
521.329	128.5
521.544	170.5
521.76	438.5
521.975	1973.5
522.19	1173.5
522.406	256.5
522.621	116.5
522.836	118.5
523.052	99.5
523.267	96.5
523.482	92.5
523.698	101.5
523.913	99.5
524.128	108.5
524.343	95.5
524.559	91.5
524.774	94.5
524.989	81.5
525.204	99.5
525.419	98.5
525.634	72.5
525.849	94.5
526.064	81.5
526.28	95.5
526.495	87.5
526.71	87.5
526.925	92.5
527.14	80.5
527.355	67.5
527.57	86.5
527.785	81.5
527.999	80.5
528.214	77.5
528.429	86.5
528.644	99.5
528.859	94.5
529.074	86.5
529.289	114.5
529.503	124.5
529.718	102.5
529.933	87.5
530.148	87.5
530.363	99.5
530.577	77.5
530.792	70.5
531.007	103.5
531.221	110.5
531.436	92.5
531.651	92.5
531.865	94.5
532.08	62.5
532.295	97.5
532.509	73.5
532.724	94.5
532.938	89.5
533.153	88.5
533.367	96.5
533.582	80.5
533.796	96.5
534.011	95.5
534.225	81.5
534.44	89.5
534.654	84.5
534.868	91.5
535.083	94.5
535.297	78.5
535.511	93.5
535.726	111.5
535.94	95.5
536.154	83.5
