Data from Uncirc_1986_H10_HRD10591_00025.txt Node
Date: Wed Jan 03 12:14:31 EST 2024
User: Yrep
Spectrometer: HR+D1059
Trigger mode: 1
Integration Time (sec): 1.000000E-1
Scans to average: 1
Electric dark correction enabled: true
Nonlinearity correction enabled: false
Boxcar width: 0
XAxis mode: Wavelengths
Number of Pixels in Spectrum: 2048
>>>>>Begin Spectral Data<<<<<
223.165	-39.31
223.4	-39.31
223.635	-39.31
223.869	-14.31
224.104	-13.31
224.338	-24.31
224.573	-18.31
224.808	-11.31
225.042	-2.31
225.277	-5.31
225.511	11.69
225.746	-5.31
225.98	7.69
226.215	11.69
226.449	21.69
226.683	26.69
226.918	23.69
227.152	30.69
227.387	38.69
227.621	48.69
227.856	48.69
228.09	48.69
228.324	53.69
228.559	57.69
228.793	74.69
229.027	63.69
229.262	69.69
229.496	82.69
229.73	89.69
229.964	77.69
230.199	73.69
230.433	85.69
230.667	74.69
230.901	87.69
231.136	69.69
231.37	87.69
231.604	87.69
231.838	86.69
232.072	86.69
232.306	74.69
232.541	85.69
232.775	90.69
233.009	81.69
233.243	55.69
233.477	81.69
233.711	84.69
233.945	71.69
234.179	80.69
234.413	77.69
234.647	62.69
234.881	76.69
235.115	76.69
235.349	70.69
235.583	91.69
235.817	77.69
236.051	77.69
236.285	77.69
236.519	78.69
236.753	87.69
236.987	90.69
237.221	78.69
237.455	89.69
237.689	90.69
237.922	75.69
238.156	78.69
238.39	74.69
238.624	69.69
238.858	84.69
239.091	66.69
239.325	82.69
239.559	83.69
239.793	83.69
240.027	79.69
240.26	59.69
240.494	84.69
240.728	77.69
240.961	69.69
241.195	79.69
241.429	75.69
241.662	70.69
241.896	73.69
242.13	69.69
242.363	67.69
242.597	73.69
242.83	74.69
243.064	77.69
243.298	87.69
243.531	78.69
243.765	67.69
243.998	84.69
244.232	74.69
244.465	90.69
244.699	81.69
244.932	78.69
245.166	89.69
245.399	90.69
245.633	76.69
245.866	80.69
246.099	91.69
246.333	75.69
246.566	70.69
246.8	83.69
247.033	68.69
247.266	84.69
247.5	68.69
247.733	69.69
247.966	72.69
248.2	75.69
248.433	61.69
248.666	83.69
248.899	92.69
249.133	87.69
249.366	98.69
249.599	83.69
249.832	99.69
250.066	95.69
250.299	82.69
250.532	85.69
250.765	77.69
250.998	87.69
251.231	79.69
251.465	90.69
251.698	85.69
251.931	83.69
252.164	85.69
252.397	91.69
252.63	89.69
252.863	67.69
253.096	81.69
253.329	82.69
253.562	86.69
253.795	97.69
254.028	90.69
254.261	84.69
254.494	82.69
254.727	77.69
254.96	90.69
255.193	82.69
255.426	88.69
255.659	87.69
255.892	83.69
256.124	90.69
256.357	86.69
256.59	90.69
256.823	94.69
257.056	91.69
257.289	81.69
257.521	84.69
257.754	89.69
257.987	91.69
258.22	83.69
258.452	72.69
258.685	90.69
258.918	88.69
259.151	71.69
259.383	83.69
259.616	82.69
259.849	86.69
260.081	85.69
260.314	81.69
260.547	74.69
260.779	91.69
261.012	91.69
261.244	90.69
261.477	100.69
261.71	97.69
261.942	117.69
262.175	117.69
262.407	98.69
262.64	94.69
262.872	78.69
263.105	84.69
263.337	87.69
263.57	86.69
263.802	79.69
264.035	61.69
264.267	71.69
264.499	96.69
264.732	89.69
264.964	81.69
265.197	104.69
265.429	81.69
265.661	94.69
265.894	82.69
266.126	95.69
266.358	83.69
266.591	84.69
266.823	87.69
267.055	81.69
267.287	77.69
267.52	92.69
267.752	87.69
267.984	85.69
268.216	89.69
268.448	89.69
268.681	100.69
268.913	87.69
269.145	90.69
269.377	86.69
269.609	102.69
269.841	86.69
270.073	88.69
270.306	90.69
270.538	94.69
270.77	88.69
271.002	73.69
271.234	86.69
271.466	87.69
271.698	91.69
271.93	86.69
272.162	86.69
272.394	101.69
272.626	89.69
272.858	85.69
273.09	83.69
273.322	77.69
273.553	87.69
273.785	93.69
274.017	83.69
274.249	77.69
274.481	88.69
274.713	92.69
274.945	95.69
275.176	97.69
275.408	93.69
275.64	106.69
275.872	98.69
276.104	86.69
276.335	77.69
276.567	99.69
276.799	110.69
277.031	101.69
277.262	89.69
277.494	91.69
277.726	94.69
277.957	91.69
278.189	82.69
278.421	79.69
278.652	88.69
278.884	87.69
279.115	93.69
279.347	96.69
279.579	79.69
279.81	83.69
280.042	100.69
280.273	94.69
280.505	85.69
280.736	82.69
280.968	89.69
281.199	98.69
281.431	99.69
281.662	89.69
281.894	87.69
282.125	98.69
282.356	97.69
282.588	125.69
282.819	125.69
283.051	99.69
283.282	90.69
283.513	105.69
283.745	86.69
283.976	89.69
284.207	95.69
284.439	99.69
284.67	92.69
284.901	84.69
285.132	76.69
285.364	75.69
285.595	85.69
285.826	86.69
286.057	91.69
286.288	93.69
286.52	93.69
286.751	101.69
286.982	94.69
287.213	88.69
287.444	99.69
287.675	77.69
287.906	97.69
288.138	85.69
288.369	94.69
288.6	90.69
288.831	91.69
289.062	101.69
289.293	88.69
289.524	74.69
289.755	94.69
289.986	101.69
290.217	102.69
290.448	95.69
290.679	91.69
290.91	95.69
291.141	87.69
291.371	95.69
291.602	81.69
291.833	93.69
292.064	104.69
292.295	81.69
292.526	94.69
292.757	85.69
292.987	93.69
293.218	89.69
293.449	85.69
293.68	78.69
293.91	109.69
294.141	89.69
294.372	99.69
294.603	89.69
294.833	83.69
295.064	94.69
295.295	88.69
295.525	90.69
295.756	96.69
295.987	98.69
296.217	122.69
296.448	121.69
296.679	96.69
296.909	97.69
297.14	93.69
297.37	85.69
297.601	93.69
297.831	102.69
298.062	92.69
298.292	102.69
298.523	83.69
298.753	81.69
298.984	95.69
299.214	94.69
299.445	89.69
299.675	86.69
299.905	97.69
300.136	92.69
300.366	107.69
300.597	103.69
300.827	101.69
301.057	102.69
301.288	107.69
301.518	99.69
301.748	92.69
301.979	96.69
302.209	98.69
302.439	85.69
302.669	87.69
302.9	104.69
303.13	106.69
303.36	89.69
303.59	88.69
303.82	99.69
304.051	100.69
304.281	98.69
304.511	90.69
304.741	75.69
304.971	91.69
305.201	100.69
305.431	107.69
305.661	101.69
305.891	87.69
306.121	107.69
306.352	105.69
306.582	94.69
306.812	86.69
307.042	89.69
307.272	93.69
307.502	101.69
307.731	109.69
307.961	94.69
308.191	86.69
308.421	89.69
308.651	97.69
308.881	91.69
309.111	98.69
309.341	86.69
309.571	110.69
309.8	98.69
310.03	104.69
310.26	92.69
310.49	106.69
310.72	92.69
310.949	105.69
311.179	93.69
311.409	93.69
311.639	99.69
311.868	108.69
312.098	117.69
312.328	87.69
312.557	110.69
312.787	109.69
313.017	86.69
313.246	92.69
313.476	102.69
313.706	92.69
313.935	89.69
314.165	100.69
314.394	111.69
314.624	98.69
314.853	106.69
315.083	102.69
315.312	91.69
315.542	100.69
315.771	99.69
316.001	105.69
316.23	102.69
316.46	101.69
316.689	109.69
316.919	92.69
317.148	96.69
317.377	109.69
317.607	91.69
317.836	86.69
318.065	89.69
318.295	95.69
318.524	92.69
318.753	98.69
318.983	94.69
319.212	95.69
319.441	119.69
319.67	109.69
319.9	80.69
320.129	107.69
320.358	97.69
320.587	109.69
320.816	99.69
321.046	105.69
321.275	94.69
321.504	93.69
321.733	92.69
321.962	113.69
322.191	89.69
322.42	102.69
322.649	111.69
322.878	110.69
323.108	103.69
323.337	119.69
323.566	135.69
323.795	141.69
324.024	186.69
324.253	371.69
324.482	714.69
324.71	1461.69
324.939	1968.69
325.168	769.69
325.397	224.69
325.626	124.69
325.855	117.69
326.084	113.69
326.313	120.69
326.542	145.69
326.77	205.69
326.999	412.69
327.228	835.69
327.457	1533.69
327.686	1221.69
327.914	341.69
328.143	176.69
328.372	144.69
328.6	125.69
328.829	113.69
329.058	130.69
329.287	122.69
329.515	122.69
329.744	109.69
329.972	90.69
330.201	100.69
330.43	118.69
330.658	126.69
330.887	143.69
331.115	111.69
331.344	93.69
331.572	92.69
331.801	104.69
332.03	104.69
332.258	108.69
332.486	91.69
332.715	93.69
332.943	79.69
333.172	113.69
333.4	99.69
333.629	102.69
333.857	102.69
334.085	110.69
334.314	89.69
334.542	97.69
334.771	102.69
334.999	97.69
335.227	93.69
335.455	101.69
335.684	100.69
335.912	90.69
336.14	108.69
336.369	107.69
336.597	104.69
336.825	103.69
337.053	82.69
337.281	94.69
337.51	106.69
337.738	101.69
337.966	117.69
338.194	104.69
338.422	98.69
338.65	99.69
338.878	102.69
339.106	103.69
339.334	97.69
339.562	106.69
339.79	101.69
340.018	97.69
340.246	96.69
340.474	93.69
340.702	89.69
340.93	115.69
341.158	102.69
341.386	94.69
341.614	103.69
341.842	88.69
342.07	95.69
342.298	101.69
342.526	109.69
342.754	91.69
342.981	81.69
343.209	86.69
343.437	110.69
343.665	88.69
343.893	88.69
344.12	95.69
344.348	80.69
344.576	78.69
344.804	107.69
345.031	101.69
345.259	95.69
345.487	95.69
345.714	106.69
345.942	92.69
346.17	85.69
346.397	96.69
346.625	109.69
346.853	85.69
347.08	106.69
347.308	105.69
347.535	104.69
347.763	108.69
347.99	100.69
348.218	91.69
348.445	115.69
348.673	101.69
348.9	97.69
349.128	97.69
349.355	91.69
349.583	105.69
349.81	95.69
350.037	98.69
350.265	101.69
350.492	87.69
350.72	97.69
350.947	103.69
351.174	96.69
351.402	108.69
351.629	91.69
351.856	91.69
352.083	91.69
352.311	111.69
352.538	102.69
352.765	111.69
352.992	109.69
353.22	114.69
353.447	103.69
353.674	98.69
353.901	94.69
354.128	102.69
354.355	91.69
354.583	100.69
354.81	106.69
355.037	105.69
355.264	94.69
355.491	104.69
355.718	93.69
355.945	103.69
356.172	116.69
356.399	100.69
356.626	102.69
356.853	90.69
357.08	109.69
357.307	96.69
357.534	109.69
357.761	95.69
357.988	104.69
358.215	92.69
358.441	107.69
358.668	86.69
358.895	101.69
359.122	93.69
359.349	85.69
359.576	90.69
359.802	93.69
360.029	117.69
360.256	98.69
360.483	102.69
360.709	87.69
360.936	105.69
361.163	89.69
361.39	101.69
361.616	100.69
361.843	86.69
362.07	92.69
362.296	90.69
362.523	89.69
362.749	101.69
362.976	95.69
363.203	102.69
363.429	110.69
363.656	81.69
363.882	86.69
364.109	95.69
364.335	94.69
364.562	101.69
364.788	90.69
365.015	104.69
365.241	100.69
365.468	92.69
365.694	110.69
365.92	91.69
366.147	99.69
366.373	87.69
366.599	96.69
366.826	95.69
367.052	99.69
367.278	95.69
367.505	100.69
367.731	89.69
367.957	88.69
368.184	106.69
368.41	91.69
368.636	108.69
368.862	113.69
369.089	106.69
369.315	95.69
369.541	86.69
369.767	99.69
369.993	88.69
370.219	81.69
370.445	90.69
370.672	96.69
370.898	102.69
371.124	91.69
371.35	90.69
371.576	113.69
371.802	89.69
372.028	87.69
372.254	90.69
372.48	97.69
372.706	78.69
372.932	91.69
373.158	94.69
373.384	95.69
373.61	84.69
373.835	83.69
374.061	97.69
374.287	95.69
374.513	84.69
374.739	93.69
374.965	83.69
375.191	95.69
375.416	81.69
375.642	99.69
375.868	103.69
376.094	86.69
376.319	87.69
376.545	98.69
376.771	103.69
376.997	96.69
377.222	83.69
377.448	83.69
377.674	85.69
377.899	89.69
378.125	94.69
378.35	82.69
378.576	86.69
378.802	95.69
379.027	102.69
379.253	101.69
379.478	90.69
379.704	89.69
379.929	103.69
380.155	95.69
380.38	105.69
380.606	94.69
380.831	93.69
381.057	109.69
381.282	90.69
381.507	91.69
381.733	107.69
381.958	100.69
382.184	91.69
382.409	99.69
382.634	97.69
382.86	111.69
383.085	93.69
383.31	101.69
383.535	81.69
383.761	86.69
383.986	109.69
384.211	106.69
384.436	101.69
384.662	111.69
384.887	90.69
385.112	102.69
385.337	92.69
385.562	101.69
385.787	93.69
386.013	103.69
386.238	111.69
386.463	111.69
386.688	106.69
386.913	118.69
387.138	96.69
387.363	93.69
387.588	101.69
387.813	86.69
388.038	104.69
388.263	118.69
388.488	111.69
388.713	106.69
388.938	92.69
389.163	104.69
389.387	105.69
389.612	88.69
389.837	86.69
390.062	104.69
390.287	106.69
390.512	111.69
390.736	98.69
390.961	92.69
391.186	99.69
391.411	79.69
391.636	105.69
391.86	93.69
392.085	99.69
392.31	97.69
392.534	95.69
392.759	98.69
392.984	98.69
393.208	78.69
393.433	107.69
393.658	90.69
393.882	81.69
394.107	88.69
394.331	97.69
394.556	87.69
394.78	99.69
395.005	79.69
395.229	89.69
395.454	88.69
395.678	93.69
395.903	99.69
396.127	89.69
396.352	90.69
396.576	100.69
396.801	86.69
397.025	92.69
397.249	88.69
397.474	90.69
397.698	84.69
397.922	95.69
398.147	91.69
398.371	66.69
398.595	101.69
398.82	99.69
399.044	87.69
399.268	92.69
399.492	103.69
399.717	98.69
399.941	89.69
400.165	89.69
400.389	104.69
400.613	77.69
400.837	93.69
401.062	99.69
401.286	91.69
401.51	71.69
401.734	84.69
401.958	90.69
402.182	120.69
402.406	145.69
402.63	124.69
402.854	101.69
403.078	100.69
403.302	87.69
403.526	98.69
403.75	89.69
403.974	98.69
404.198	84.69
404.422	87.69
404.645	78.69
404.869	91.69
405.093	94.69
405.317	99.69
405.541	75.69
405.765	95.69
405.988	111.69
406.212	181.69
406.436	209.69
406.66	126.69
406.883	104.69
407.107	93.69
407.331	94.69
407.555	95.69
407.778	85.69
408.002	92.69
408.226	93.69
408.449	87.69
408.673	82.69
408.896	95.69
409.12	90.69
409.344	90.69
409.567	88.69
409.791	85.69
410.014	101.69
410.238	105.69
410.461	93.69
410.685	93.69
410.908	98.69
411.132	94.69
411.355	114.69
411.578	99.69
411.802	93.69
412.025	83.69
412.249	74.69
412.472	103.69
412.695	85.69
412.919	87.69
413.142	82.69
413.365	96.69
413.589	84.69
413.812	91.69
414.035	85.69
414.258	81.69
414.482	99.69
414.705	102.69
414.928	93.69
415.151	111.69
415.374	104.69
415.597	85.69
415.821	99.69
416.044	92.69
416.267	110.69
416.49	96.69
416.713	91.69
416.936	94.69
417.159	89.69
417.382	92.69
417.605	90.69
417.828	105.69
418.051	111.69
418.274	91.69
418.497	102.69
418.72	89.69
418.943	87.69
419.166	81.69
419.389	84.69
419.611	109.69
419.834	92.69
420.057	96.69
420.28	92.69
420.503	85.69
420.726	92.69
420.948	78.69
421.171	91.69
421.394	99.69
421.617	79.69
421.839	81.69
422.062	77.69
422.285	87.69
422.507	96.69
422.73	116.69
422.953	115.69
423.175	83.69
423.398	86.69
423.621	95.69
423.843	87.69
424.066	101.69
424.288	91.69
424.511	80.69
424.733	102.69
424.956	100.69
425.178	96.69
425.401	97.69
425.623	95.69
425.846	87.69
426.068	90.69
426.291	84.69
426.513	91.69
426.735	96.69
426.958	102.69
427.18	114.69
427.402	117.69
427.625	155.69
427.847	119.69
428.069	110.69
428.292	101.69
428.514	99.69
428.736	94.69
428.958	89.69
429.181	94.69
429.403	85.69
429.625	95.69
429.847	98.69
430.069	115.69
430.292	90.69
430.514	86.69
430.736	89.69
430.958	99.69
431.18	91.69
431.402	93.69
431.624	103.69
431.846	85.69
432.068	101.69
432.29	89.69
432.512	96.69
432.734	75.69
432.956	90.69
433.178	97.69
433.4	105.69
433.622	98.69
433.844	104.69
434.066	96.69
434.287	92.69
434.509	93.69
434.731	86.69
434.953	77.69
435.175	88.69
435.397	103.69
435.618	95.69
435.84	95.69
436.062	116.69
436.284	122.69
436.505	99.69
436.727	95.69
436.949	91.69
437.17	92.69
437.392	87.69
437.614	85.69
437.835	106.69
438.057	108.69
438.278	106.69
438.5	94.69
438.721	117.69
438.943	103.69
439.165	88.69
439.386	94.69
439.608	97.69
439.829	101.69
440.05	116.69
440.272	141.69
440.493	103.69
440.715	94.69
440.936	106.69
441.158	91.69
441.379	87.69
441.6	84.69
441.822	99.69
442.043	91.69
442.264	104.69
442.486	104.69
442.707	89.69
442.928	94.69
443.149	113.69
443.371	129.69
443.592	125.69
443.813	104.69
444.034	97.69
444.255	93.69
444.476	92.69
444.698	74.69
444.919	86.69
445.14	129.69
445.361	127.69
445.582	111.69
445.803	115.69
446.024	117.69
446.245	132.69
446.466	115.69
446.687	100.69
446.908	91.69
447.129	80.69
447.35	77.69
447.571	101.69
447.792	109.69
448.013	122.69
448.234	94.69
448.455	103.69
448.675	106.69
448.896	120.69
449.117	97.69
449.338	111.69
449.559	134.69
449.779	117.69
450	89.69
450.221	97.69
450.442	94.69
450.662	83.69
450.883	105.69
451.104	110.69
451.324	97.69
451.545	93.69
451.766	94.69
451.986	92.69
452.207	85.69
452.428	102.69
452.648	106.69
452.869	109.69
453.089	117.69
453.31	116.69
453.53	101.69
453.751	92.69
453.971	101.69
454.192	114.69
454.412	111.69
454.633	83.69
454.853	82.69
455.073	94.69
455.294	93.69
455.514	95.69
455.734	82.69
455.955	91.69
456.175	77.69
456.395	72.69
456.616	83.69
456.836	83.69
457.056	100.69
457.276	83.69
457.497	94.69
457.717	90.69
457.937	86.69
458.157	90.69
458.377	97.69
458.598	96.69
458.818	147.69
459.038	154.69
459.258	101.69
459.478	96.69
459.698	81.69
459.918	100.69
460.138	83.69
460.358	86.69
460.578	83.69
460.798	95.69
461.018	86.69
461.238	92.69
461.458	89.69
461.678	85.69
461.898	83.69
462.118	78.69
462.338	85.69
462.558	78.69
462.777	85.69
462.997	86.69
463.217	90.69
463.437	78.69
463.657	89.69
463.876	103.69
464.096	81.69
464.316	87.69
464.536	99.69
464.755	95.69
464.975	104.69
465.195	154.69
465.414	147.69
465.634	90.69
465.854	91.69
466.073	87.69
466.293	93.69
466.512	95.69
466.732	94.69
466.951	90.69
467.171	85.69
467.391	94.69
467.61	103.69
467.829	104.69
468.049	81.69
468.268	99.69
468.488	85.69
468.707	98.69
468.927	89.69
469.146	93.69
469.365	93.69
469.585	80.69
469.804	89.69
470.023	96.69
470.243	102.69
470.462	97.69
470.681	104.69
470.901	92.69
471.12	81.69
471.339	97.69
471.558	71.69
471.777	93.69
471.997	99.69
472.216	95.69
472.435	89.69
472.654	86.69
472.873	93.69
473.092	94.69
473.311	89.69
473.53	97.69
473.749	90.69
473.968	93.69
474.187	107.69
474.406	94.69
474.625	101.69
474.844	106.69
475.063	87.69
475.282	107.69
475.501	85.69
475.72	89.69
475.939	93.69
476.158	100.69
476.377	94.69
476.596	91.69
476.814	84.69
477.033	87.69
477.252	91.69
477.471	98.69
477.69	95.69
477.908	88.69
478.127	97.69
478.346	92.69
478.564	91.69
478.783	107.69
479.002	98.69
479.22	86.69
479.439	89.69
479.658	86.69
479.876	104.69
480.095	90.69
480.313	92.69
480.532	77.69
480.751	75.69
480.969	104.69
481.188	113.69
481.406	105.69
481.624	94.69
481.843	93.69
482.061	99.69
482.28	81.69
482.498	82.69
482.717	95.69
482.935	96.69
483.153	91.69
483.372	80.69
483.59	82.69
483.808	86.69
484.027	91.69
484.245	91.69
484.463	113.69
484.681	97.69
484.9	101.69
485.118	102.69
485.336	90.69
485.554	101.69
485.772	111.69
485.99	112.69
486.209	99.69
486.427	122.69
486.645	105.69
486.863	102.69
487.081	101.69
487.299	89.69
487.517	92.69
487.735	99.69
487.953	94.69
488.171	85.69
488.389	95.69
488.607	94.69
488.825	85.69
489.043	90.69
489.261	78.69
489.479	95.69
489.696	113.69
489.914	99.69
490.132	77.69
490.35	83.69
490.568	95.69
490.786	96.69
491.003	89.69
491.221	72.69
491.439	99.69
491.657	99.69
491.874	87.69
492.092	104.69
492.31	83.69
492.527	83.69
492.745	94.69
492.963	95.69
493.18	89.69
493.398	95.69
493.615	104.69
493.833	103.69
494.05	104.69
494.268	93.69
494.485	91.69
494.703	84.69
494.92	78.69
495.138	94.69
495.355	99.69
495.573	103.69
495.79	99.69
496.008	121.69
496.225	98.69
496.442	88.69
496.66	96.69
496.877	89.69
497.094	103.69
497.312	91.69
497.529	93.69
497.746	101.69
497.963	85.69
498.181	89.69
498.398	87.69
498.615	98.69
498.832	102.69
499.049	96.69
499.267	85.69
499.484	94.69
499.701	107.69
499.918	85.69
500.135	86.69
500.352	85.69
500.569	76.69
500.786	87.69
501.003	111.69
501.22	98.69
501.437	97.69
501.654	106.69
501.871	93.69
502.088	91.69
502.305	89.69
502.522	73.69
502.739	89.69
502.956	94.69
503.172	104.69
503.389	95.69
503.606	115.69
503.823	108.69
504.04	97.69
504.256	86.69
504.473	89.69
504.69	95.69
504.907	91.69
505.123	94.69
505.34	94.69
505.557	89.69
505.773	95.69
505.99	103.69
506.207	94.69
506.423	84.69
506.64	104.69
506.856	94.69
507.073	99.69
507.289	95.69
507.506	99.69
507.722	114.69
507.939	109.69
508.155	94.69
508.372	100.69
508.588	109.69
508.805	95.69
509.021	102.69
509.238	92.69
509.454	103.69
509.67	103.69
509.887	93.69
510.103	115.69
510.319	213.69
510.536	687.69
510.752	2177.69
510.968	597.69
511.184	139.69
511.401	115.69
511.617	106.69
511.833	101.69
512.049	102.69
512.265	97.69
512.481	110.69
512.698	98.69
512.914	94.69
513.13	112.69
513.346	101.69
513.562	93.69
513.778	97.69
513.994	97.69
514.21	107.69
514.426	123.69
514.642	127.69
