Data from Uncirc_1986_H10_HRD10591_00003.txt Node
Date: Wed Jan 03 12:14:27 EST 2024
User: Yrep
Spectrometer: HR+D1059
Trigger mode: 1
Integration Time (sec): 1.000000E-1
Scans to average: 1
Electric dark correction enabled: true
Nonlinearity correction enabled: false
Boxcar width: 0
XAxis mode: Wavelengths
Number of Pixels in Spectrum: 2048
>>>>>Begin Spectral Data<<<<<
223.165	-13.56
223.4	-13.56
223.635	-13.56
223.869	-24.56
224.104	-16.56
224.338	-23.56
224.573	-17.56
224.808	-11.56
225.042	-8.56
225.277	-3.56
225.511	1.44
225.746	9.44
225.98	10.44
226.215	13.44
226.449	2.44
226.683	24.44
226.918	25.44
227.152	32.44
227.387	46.44
227.621	34.44
227.856	47.44
228.09	44.44
228.324	59.44
228.559	59.44
228.793	51.44
229.027	65.44
229.262	71.44
229.496	80.44
229.73	75.44
229.964	90.44
230.199	67.44
230.433	57.44
230.667	85.44
230.901	84.44
231.136	82.44
231.37	73.44
231.604	74.44
231.838	90.44
232.072	85.44
232.306	75.44
232.541	92.44
232.775	87.44
233.009	88.44
233.243	87.44
233.477	66.44
233.711	79.44
233.945	83.44
234.179	64.44
234.413	70.44
234.647	81.44
234.881	67.44
235.115	86.44
235.349	80.44
235.583	85.44
235.817	78.44
236.051	83.44
236.285	69.44
236.519	84.44
236.753	75.44
236.987	79.44
237.221	84.44
237.455	95.44
237.689	89.44
237.922	70.44
238.156	72.44
238.39	69.44
238.624	77.44
238.858	73.44
239.091	78.44
239.325	74.44
239.559	83.44
239.793	82.44
240.027	65.44
240.26	74.44
240.494	67.44
240.728	78.44
240.961	78.44
241.195	80.44
241.429	80.44
241.662	74.44
241.896	92.44
242.13	77.44
242.363	73.44
242.597	88.44
242.83	72.44
243.064	60.44
243.298	82.44
243.531	80.44
243.765	87.44
243.998	85.44
244.232	78.44
244.465	74.44
244.699	82.44
244.932	72.44
245.166	90.44
245.399	82.44
245.633	81.44
245.866	71.44
246.099	75.44
246.333	68.44
246.566	78.44
246.8	71.44
247.033	83.44
247.266	81.44
247.5	81.44
247.733	77.44
247.966	95.44
248.2	79.44
248.433	67.44
248.666	81.44
248.899	81.44
249.133	81.44
249.366	75.44
249.599	79.44
249.832	85.44
250.066	89.44
250.299	73.44
250.532	84.44
250.765	75.44
250.998	73.44
251.231	73.44
251.465	86.44
251.698	70.44
251.931	89.44
252.164	66.44
252.397	61.44
252.63	84.44
252.863	70.44
253.096	73.44
253.329	87.44
253.562	72.44
253.795	81.44
254.028	81.44
254.261	84.44
254.494	79.44
254.727	80.44
254.96	72.44
255.193	87.44
255.426	85.44
255.659	86.44
255.892	81.44
256.124	83.44
256.357	78.44
256.59	97.44
256.823	95.44
257.056	81.44
257.289	72.44
257.521	84.44
257.754	74.44
257.987	74.44
258.22	78.44
258.452	74.44
258.685	79.44
258.918	82.44
259.151	84.44
259.383	81.44
259.616	80.44
259.849	72.44
260.081	87.44
260.314	86.44
260.547	73.44
260.779	79.44
261.012	85.44
261.244	74.44
261.477	83.44
261.71	101.44
261.942	94.44
262.175	103.44
262.407	89.44
262.64	102.44
262.872	70.44
263.105	75.44
263.337	87.44
263.57	101.44
263.802	78.44
264.035	78.44
264.267	83.44
264.499	95.44
264.732	113.44
264.964	82.44
265.197	83.44
265.429	75.44
265.661	83.44
265.894	82.44
266.126	79.44
266.358	80.44
266.591	97.44
266.823	94.44
267.055	74.44
267.287	83.44
267.52	81.44
267.752	81.44
267.984	78.44
268.216	75.44
268.448	84.44
268.681	96.44
268.913	74.44
269.145	87.44
269.377	88.44
269.609	91.44
269.841	84.44
270.073	90.44
270.306	88.44
270.538	91.44
270.77	91.44
271.002	96.44
271.234	71.44
271.466	95.44
271.698	93.44
271.93	91.44
272.162	91.44
272.394	99.44
272.626	80.44
272.858	90.44
273.09	82.44
273.322	79.44
273.553	95.44
273.785	90.44
274.017	70.44
274.249	79.44
274.481	82.44
274.713	86.44
274.945	91.44
275.176	82.44
275.408	91.44
275.64	91.44
275.872	74.44
276.104	84.44
276.335	84.44
276.567	107.44
276.799	88.44
277.031	103.44
277.262	86.44
277.494	81.44
277.726	104.44
277.957	95.44
278.189	94.44
278.421	91.44
278.652	76.44
278.884	85.44
279.115	83.44
279.347	85.44
279.579	81.44
279.81	84.44
280.042	79.44
280.273	88.44
280.505	80.44
280.736	82.44
280.968	87.44
281.199	78.44
281.431	97.44
281.662	95.44
281.894	97.44
282.125	94.44
282.356	116.44
282.588	147.44
282.819	112.44
283.051	91.44
283.282	91.44
283.513	83.44
283.745	100.44
283.976	77.44
284.207	86.44
284.439	68.44
284.67	81.44
284.901	95.44
285.132	91.44
285.364	82.44
285.595	78.44
285.826	83.44
286.057	94.44
286.288	99.44
286.52	84.44
286.751	72.44
286.982	82.44
287.213	85.44
287.444	90.44
287.675	105.44
287.906	95.44
288.138	85.44
288.369	100.44
288.6	90.44
288.831	90.44
289.062	88.44
289.293	87.44
289.524	84.44
289.755	81.44
289.986	98.44
290.217	87.44
290.448	80.44
290.679	89.44
290.91	81.44
291.141	84.44
291.371	81.44
291.602	75.44
291.833	83.44
292.064	100.44
292.295	90.44
292.526	86.44
292.757	86.44
292.987	91.44
293.218	84.44
293.449	90.44
293.68	75.44
293.91	77.44
294.141	100.44
294.372	98.44
294.603	83.44
294.833	94.44
295.064	86.44
295.295	87.44
295.525	87.44
295.756	107.44
295.987	104.44
296.217	139.44
296.448	130.44
296.679	102.44
296.909	102.44
297.14	86.44
297.37	95.44
297.601	93.44
297.831	91.44
298.062	87.44
298.292	77.44
298.523	96.44
298.753	95.44
298.984	97.44
299.214	89.44
299.445	98.44
299.675	101.44
299.905	102.44
300.136	96.44
300.366	99.44
300.597	87.44
300.827	90.44
301.057	89.44
301.288	99.44
301.518	82.44
301.748	85.44
301.979	92.44
302.209	81.44
302.439	95.44
302.669	91.44
302.9	82.44
303.13	92.44
303.36	94.44
303.59	82.44
303.82	102.44
304.051	87.44
304.281	103.44
304.511	88.44
304.741	90.44
304.971	78.44
305.201	83.44
305.431	103.44
305.661	74.44
305.891	91.44
306.121	100.44
306.352	102.44
306.582	101.44
306.812	104.44
307.042	92.44
307.272	94.44
307.502	98.44
307.731	89.44
307.961	93.44
308.191	98.44
308.421	77.44
308.651	90.44
308.881	98.44
309.111	93.44
309.341	97.44
309.571	101.44
309.8	92.44
310.03	94.44
310.26	107.44
310.49	121.44
310.72	96.44
310.949	96.44
311.179	100.44
311.409	113.44
311.639	94.44
311.868	88.44
312.098	89.44
312.328	90.44
312.557	92.44
312.787	113.44
313.017	95.44
313.246	93.44
313.476	94.44
313.706	87.44
313.935	91.44
314.165	102.44
314.394	96.44
314.624	99.44
314.853	110.44
315.083	96.44
315.312	90.44
315.542	94.44
315.771	99.44
316.001	74.44
316.23	99.44
316.46	81.44
316.689	89.44
316.919	112.44
317.148	105.44
317.377	85.44
317.607	94.44
317.836	88.44
318.065	79.44
318.295	89.44
318.524	89.44
318.753	90.44
318.983	106.44
319.212	88.44
319.441	98.44
319.67	117.44
319.9	90.44
320.129	96.44
320.358	90.44
320.587	99.44
320.816	104.44
321.046	89.44
321.275	95.44
321.504	100.44
321.733	82.44
321.962	102.44
322.191	103.44
322.42	104.44
322.649	102.44
322.878	114.44
323.108	130.44
323.337	133.44
323.566	124.44
323.795	145.44
324.024	193.44
324.253	368.44
324.482	746.44
324.71	1519.44
324.939	2105.44
325.168	750.44
325.397	234.44
325.626	153.44
325.855	132.44
326.084	129.44
326.313	131.44
326.542	141.44
326.77	209.44
326.999	413.44
327.228	857.44
327.457	1597.44
327.686	1273.44
327.914	359.44
328.143	189.44
328.372	136.44
328.6	114.44
328.829	117.44
329.058	119.44
329.287	121.44
329.515	107.44
329.744	90.44
329.972	99.44
330.201	100.44
330.43	100.44
330.658	115.44
330.887	126.44
331.115	103.44
331.344	107.44
331.572	101.44
331.801	122.44
332.03	85.44
332.258	81.44
332.486	98.44
332.715	87.44
332.943	99.44
333.172	105.44
333.4	108.44
333.629	106.44
333.857	113.44
334.085	81.44
334.314	91.44
334.542	105.44
334.771	98.44
334.999	97.44
335.227	83.44
335.455	95.44
335.684	93.44
335.912	91.44
336.14	89.44
336.369	98.44
336.597	103.44
336.825	90.44
337.053	89.44
337.281	82.44
337.51	86.44
337.738	78.44
337.966	88.44
338.194	101.44
338.422	99.44
338.65	100.44
338.878	99.44
339.106	97.44
339.334	93.44
339.562	94.44
339.79	105.44
340.018	93.44
340.246	96.44
340.474	79.44
340.702	92.44
340.93	93.44
341.158	81.44
341.386	105.44
341.614	91.44
341.842	87.44
342.07	80.44
342.298	88.44
342.526	78.44
342.754	105.44
342.981	94.44
343.209	90.44
343.437	104.44
343.665	85.44
343.893	83.44
344.12	89.44
344.348	71.44
344.576	96.44
344.804	87.44
345.031	101.44
345.259	107.44
345.487	83.44
345.714	92.44
345.942	94.44
346.17	93.44
346.397	90.44
346.625	95.44
346.853	97.44
347.08	102.44
347.308	93.44
347.535	87.44
347.763	107.44
347.99	106.44
348.218	103.44
348.445	97.44
348.673	100.44
348.9	97.44
349.128	105.44
349.355	85.44
349.583	86.44
349.81	96.44
350.037	97.44
350.265	94.44
350.492	97.44
350.72	104.44
350.947	107.44
351.174	93.44
351.402	103.44
351.629	99.44
351.856	106.44
352.083	99.44
352.311	90.44
352.538	100.44
352.765	100.44
352.992	114.44
353.22	107.44
353.447	88.44
353.674	95.44
353.901	111.44
354.128	91.44
354.355	103.44
354.583	97.44
354.81	78.44
355.037	87.44
355.264	95.44
355.491	100.44
355.718	95.44
355.945	110.44
356.172	82.44
356.399	100.44
356.626	85.44
356.853	99.44
357.08	83.44
357.307	78.44
357.534	82.44
357.761	94.44
357.988	89.44
358.215	99.44
358.441	92.44
358.668	93.44
358.895	92.44
359.122	97.44
359.349	98.44
359.576	96.44
359.802	93.44
360.029	103.44
360.256	104.44
360.483	90.44
360.709	86.44
360.936	102.44
361.163	91.44
361.39	99.44
361.616	87.44
361.843	87.44
362.07	85.44
362.296	81.44
362.523	81.44
362.749	91.44
362.976	87.44
363.203	103.44
363.429	86.44
363.656	86.44
363.882	85.44
364.109	83.44
364.335	83.44
364.562	86.44
364.788	77.44
365.015	101.44
365.241	94.44
365.468	95.44
365.694	88.44
365.92	102.44
366.147	86.44
366.373	82.44
366.599	84.44
366.826	96.44
367.052	87.44
367.278	83.44
367.505	102.44
367.731	91.44
367.957	88.44
368.184	104.44
368.41	94.44
368.636	106.44
368.862	113.44
369.089	91.44
369.315	89.44
369.541	102.44
369.767	80.44
369.993	93.44
370.219	86.44
370.445	95.44
370.672	90.44
370.898	97.44
371.124	86.44
371.35	93.44
371.576	93.44
371.802	98.44
372.028	85.44
372.254	85.44
372.48	97.44
372.706	87.44
372.932	96.44
373.158	88.44
373.384	95.44
373.61	89.44
373.835	101.44
374.061	79.44
374.287	92.44
374.513	90.44
374.739	82.44
374.965	78.44
375.191	94.44
375.416	92.44
375.642	96.44
375.868	82.44
376.094	82.44
376.319	82.44
376.545	80.44
376.771	74.44
376.997	90.44
377.222	80.44
377.448	93.44
377.674	94.44
377.899	86.44
378.125	94.44
378.35	96.44
378.576	99.44
378.802	82.44
379.027	92.44
379.253	86.44
379.478	88.44
379.704	83.44
379.929	86.44
380.155	97.44
380.38	89.44
380.606	74.44
380.831	82.44
381.057	92.44
381.282	105.44
381.507	93.44
381.733	101.44
381.958	121.44
382.184	102.44
382.409	106.44
382.634	89.44
382.86	97.44
383.085	97.44
383.31	97.44
383.535	100.44
383.761	81.44
383.986	103.44
384.211	104.44
384.436	117.44
384.662	99.44
384.887	93.44
385.112	97.44
385.337	92.44
385.562	100.44
385.787	115.44
386.013	109.44
386.238	105.44
386.463	97.44
386.688	104.44
386.913	103.44
387.138	119.44
387.363	96.44
387.588	97.44
387.813	113.44
388.038	117.44
388.263	121.44
388.488	112.44
388.713	91.44
388.938	103.44
389.163	97.44
389.387	94.44
389.612	96.44
389.837	102.44
390.062	91.44
390.287	89.44
390.512	91.44
390.736	98.44
390.961	89.44
391.186	97.44
391.411	85.44
391.636	92.44
391.86	82.44
392.085	79.44
392.31	86.44
392.534	94.44
392.759	95.44
392.984	85.44
393.208	101.44
393.433	99.44
393.658	112.44
393.882	97.44
394.107	90.44
394.331	96.44
394.556	93.44
394.78	84.44
395.005	94.44
395.229	85.44
395.454	88.44
395.678	101.44
395.903	86.44
396.127	82.44
396.352	91.44
396.576	98.44
396.801	104.44
397.025	88.44
397.249	87.44
397.474	80.44
397.698	91.44
397.922	76.44
398.147	80.44
398.371	83.44
398.595	91.44
398.82	84.44
399.044	84.44
399.268	85.44
399.492	94.44
399.717	88.44
399.941	71.44
400.165	78.44
400.389	97.44
400.613	96.44
400.837	90.44
401.062	72.44
401.286	83.44
401.51	98.44
401.734	89.44
401.958	114.44
402.182	114.44
402.406	150.44
402.63	115.44
402.854	96.44
403.078	80.44
403.302	82.44
403.526	74.44
403.75	101.44
403.974	87.44
404.198	91.44
404.422	97.44
404.645	84.44
404.869	95.44
405.093	92.44
405.317	87.44
405.541	104.44
405.765	97.44
405.988	119.44
406.212	183.44
406.436	234.44
406.66	151.44
406.883	102.44
407.107	98.44
407.331	99.44
407.555	109.44
407.778	96.44
408.002	98.44
408.226	101.44
408.449	87.44
408.673	86.44
408.896	111.44
409.12	96.44
409.344	85.44
409.567	95.44
409.791	103.44
410.014	92.44
410.238	101.44
410.461	90.44
410.685	88.44
410.908	104.44
411.132	104.44
411.355	93.44
411.578	80.44
411.802	88.44
412.025	77.44
412.249	101.44
412.472	92.44
412.695	88.44
412.919	85.44
413.142	95.44
413.365	85.44
413.589	87.44
413.812	88.44
414.035	96.44
414.258	82.44
414.482	101.44
414.705	81.44
414.928	98.44
415.151	91.44
415.374	99.44
415.597	92.44
415.821	83.44
416.044	84.44
416.267	77.44
416.49	85.44
416.713	86.44
416.936	90.44
417.159	85.44
417.382	75.44
417.605	80.44
417.828	90.44
418.051	93.44
418.274	94.44
418.497	81.44
418.72	97.44
418.943	86.44
419.166	78.44
419.389	62.44
419.611	85.44
419.834	91.44
420.057	91.44
420.28	83.44
420.503	85.44
420.726	81.44
420.948	100.44
421.171	93.44
421.394	86.44
421.617	89.44
421.839	94.44
422.062	87.44
422.285	101.44
422.507	117.44
422.73	109.44
422.953	105.44
423.175	87.44
423.398	89.44
423.621	76.44
423.843	92.44
424.066	97.44
424.288	82.44
424.511	104.44
424.733	103.44
424.956	116.44
425.178	111.44
425.401	113.44
425.623	96.44
425.846	86.44
426.068	89.44
426.291	85.44
426.513	96.44
426.735	102.44
426.958	88.44
427.18	82.44
427.402	129.44
427.625	145.44
427.847	119.44
428.069	93.44
428.292	95.44
428.514	88.44
428.736	73.44
428.958	103.44
429.181	90.44
429.403	85.44
429.625	75.44
429.847	88.44
430.069	107.44
430.292	85.44
430.514	71.44
430.736	96.44
430.958	90.44
431.18	74.44
431.402	81.44
431.624	87.44
431.846	73.44
432.068	96.44
432.29	82.44
432.512	97.44
432.734	95.44
432.956	101.44
433.178	103.44
433.4	105.44
433.622	93.44
433.844	77.44
434.066	85.44
434.287	76.44
434.509	107.44
434.731	106.44
434.953	90.44
435.175	89.44
435.397	94.44
435.618	92.44
435.84	105.44
436.062	119.44
436.284	108.44
436.505	107.44
436.727	83.44
436.949	93.44
437.17	90.44
437.392	93.44
437.614	87.44
437.835	106.44
438.057	102.44
438.278	103.44
438.5	105.44
438.721	133.44
438.943	107.44
439.165	81.44
439.386	95.44
439.608	95.44
439.829	96.44
440.05	119.44
440.272	125.44
440.493	99.44
440.715	86.44
440.936	85.44
441.158	85.44
441.379	82.44
441.6	105.44
441.822	99.44
442.043	100.44
442.264	97.44
442.486	103.44
442.707	85.44
442.928	113.44
443.149	126.44
443.371	122.44
443.592	114.44
443.813	121.44
444.034	98.44
444.255	95.44
444.476	89.44
444.698	101.44
444.919	102.44
445.14	126.44
445.361	112.44
445.582	121.44
445.803	133.44
446.024	125.44
446.245	119.44
446.466	104.44
446.687	89.44
446.908	86.44
447.129	96.44
447.35	79.44
447.571	102.44
447.792	101.44
448.013	100.44
448.234	104.44
448.455	106.44
448.675	131.44
448.896	125.44
449.117	116.44
449.338	88.44
449.559	128.44
449.779	133.44
450	95.44
450.221	88.44
450.442	102.44
450.662	97.44
450.883	106.44
451.104	98.44
451.324	99.44
451.545	103.44
451.766	83.44
451.986	86.44
452.207	89.44
452.428	103.44
452.648	85.44
452.869	114.44
453.089	120.44
453.31	107.44
453.53	102.44
453.751	81.44
453.971	86.44
454.192	111.44
454.412	82.44
454.633	89.44
454.853	87.44
455.073	90.44
455.294	96.44
455.514	112.44
455.734	87.44
455.955	83.44
456.175	89.44
456.395	94.44
456.616	64.44
456.836	79.44
457.056	75.44
457.276	89.44
457.497	82.44
457.717	92.44
457.937	89.44
458.157	96.44
458.377	111.44
458.598	103.44
458.818	145.44
459.038	153.44
459.258	106.44
459.478	82.44
459.698	89.44
459.918	81.44
460.138	82.44
460.358	102.44
460.578	71.44
460.798	93.44
461.018	85.44
461.238	75.44
461.458	82.44
461.678	94.44
461.898	94.44
462.118	90.44
462.338	85.44
462.558	93.44
462.777	77.44
462.997	97.44
463.217	85.44
463.437	78.44
463.657	83.44
463.876	81.44
464.096	69.44
464.316	90.44
464.536	90.44
464.755	89.44
464.975	103.44
465.195	148.44
465.414	159.44
465.634	102.44
465.854	89.44
466.073	88.44
466.293	85.44
466.512	80.44
466.732	98.44
466.951	93.44
467.171	85.44
467.391	96.44
467.61	107.44
467.829	88.44
468.049	99.44
468.268	83.44
468.488	83.44
468.707	80.44
468.927	88.44
469.146	96.44
469.365	82.44
469.585	82.44
469.804	99.44
470.023	93.44
470.243	103.44
470.462	88.44
470.681	106.44
470.901	88.44
471.12	94.44
471.339	79.44
471.558	91.44
471.777	83.44
471.997	81.44
472.216	79.44
472.435	98.44
472.654	84.44
472.873	87.44
473.092	75.44
473.311	96.44
473.53	93.44
473.749	91.44
473.968	101.44
474.187	101.44
474.406	103.44
474.625	89.44
474.844	90.44
475.063	73.44
475.282	89.44
475.501	97.44
475.72	78.44
475.939	95.44
476.158	77.44
476.377	85.44
476.596	85.44
476.814	90.44
477.033	74.44
477.252	96.44
477.471	98.44
477.69	90.44
477.908	57.44
478.127	83.44
478.346	99.44
478.564	85.44
478.783	93.44
479.002	85.44
479.22	92.44
479.439	105.44
479.658	123.44
479.876	87.44
480.095	99.44
480.313	113.44
480.532	104.44
480.751	93.44
480.969	89.44
481.188	97.44
481.406	102.44
481.624	99.44
481.843	85.44
482.061	80.44
482.28	88.44
482.498	86.44
482.717	87.44
482.935	89.44
483.153	82.44
483.372	90.44
483.59	93.44
483.808	79.44
484.027	88.44
484.245	90.44
484.463	69.44
484.681	97.44
484.9	91.44
485.118	101.44
485.336	89.44
485.554	100.44
485.772	93.44
485.99	109.44
486.209	110.44
486.427	106.44
486.645	99.44
486.863	105.44
487.081	108.44
487.299	91.44
487.517	101.44
487.735	104.44
487.953	99.44
488.171	84.44
488.389	79.44
488.607	92.44
488.825	90.44
489.043	106.44
489.261	88.44
489.479	80.44
489.696	84.44
489.914	89.44
490.132	78.44
490.35	88.44
490.568	96.44
490.786	93.44
491.003	100.44
491.221	75.44
491.439	101.44
491.657	94.44
491.874	89.44
492.092	96.44
492.31	94.44
492.527	77.44
492.745	112.44
492.963	94.44
493.18	93.44
493.398	95.44
493.615	90.44
493.833	86.44
494.05	103.44
494.268	98.44
494.485	84.44
494.703	92.44
494.92	95.44
495.138	78.44
495.355	91.44
495.573	88.44
495.79	93.44
496.008	92.44
496.225	80.44
496.442	98.44
496.66	99.44
496.877	101.44
497.094	83.44
497.312	90.44
497.529	105.44
497.746	93.44
497.963	80.44
498.181	100.44
498.398	98.44
498.615	118.44
498.832	93.44
499.049	90.44
499.267	83.44
499.484	83.44
499.701	101.44
499.918	95.44
500.135	83.44
500.352	81.44
500.569	95.44
500.786	85.44
501.003	100.44
501.22	89.44
501.437	93.44
501.654	90.44
501.871	99.44
502.088	90.44
502.305	90.44
502.522	73.44
502.739	93.44
502.956	87.44
503.172	84.44
503.389	91.44
503.606	97.44
503.823	93.44
504.04	102.44
504.256	86.44
504.473	92.44
504.69	84.44
504.907	87.44
505.123	85.44
505.34	90.44
505.557	96.44
505.773	87.44
505.99	99.44
506.207	82.44
506.423	84.44
506.64	92.44
506.856	81.44
507.073	94.44
507.289	97.44
507.506	99.44
507.722	104.44
507.939	107.44
508.155	103.44
508.372	85.44
508.588	94.44
508.805	87.44
509.021	95.44
509.238	89.44
509.454	86.44
509.67	100.44
509.887	106.44
510.103	123.44
510.319	202.44
510.536	738.44
510.752	2251.44
510.968	613.44
511.184	159.44
511.401	115.44
511.617	98.44
511.833	89.44
512.049	78.44
512.265	65.44
512.481	97.44
512.698	94.44
512.914	89.44
513.13	97.44
513.346	94.44
513.562	91.44
513.778	97.44
513.994	95.44
514.21	92.44
514.426	117.44
514.642	128.44
514.858	122.44
515.074	171.44
515.29	435.44
515.506	1448.44
515.721	535.44
