Data from Uncirc_1986_H10_HRD10591_00079.txt Node
Date: Wed Jan 03 12:14:42 EST 2024
User: Yrep
Spectrometer: HR+D1059
Trigger mode: 1
Integration Time (sec): 1.000000E-1
Scans to average: 1
Electric dark correction enabled: true
Nonlinearity correction enabled: false
Boxcar width: 0
XAxis mode: Wavelengths
Number of Pixels in Spectrum: 2048
>>>>>Begin Spectral Data<<<<<
223.165	-20.31
223.4	-20.31
223.635	-20.31
223.869	-11.31
224.104	-6.31
224.338	-17.31
224.573	-19.31
224.808	-11.31
225.042	-6.31
225.277	-10.31
225.511	-22.31
225.746	-1.31
225.98	14.69
226.215	15.69
226.449	31.69
226.683	32.69
226.918	15.69
227.152	15.69
227.387	37.69
227.621	30.69
227.856	36.69
228.09	47.69
228.324	41.69
228.559	50.69
228.793	165.69
229.027	476.69
229.262	543.69
229.496	613.69
229.73	812.69
229.964	819.69
230.199	566.69
230.433	509.69
230.667	451.69
230.901	471.69
231.136	429.69
231.37	443.69
231.604	453.69
231.838	483.69
232.072	450.69
232.306	453.69
232.541	478.69
232.775	477.69
233.009	467.69
233.243	486.69
233.477	508.69
233.711	482.69
233.945	515.69
234.179	521.69
234.413	507.69
234.647	514.69
234.881	526.69
235.115	533.69
235.349	573.69
235.583	601.69
235.817	615.69
236.051	651.69
236.285	631.69
236.519	648.69
236.753	727.69
236.987	945.69
237.221	1439.69
237.455	1562.69
237.689	945.69
237.922	787.69
238.156	752.69
238.39	681.69
238.624	679.69
238.858	654.69
239.091	665.69
239.325	665.69
239.559	671.69
239.793	733.69
240.027	782.69
240.26	915.69
240.494	985.69
240.728	973.69
240.961	916.69
241.195	851.69
241.429	788.69
241.662	800.69
241.896	817.69
242.13	786.69
242.363	795.69
242.597	811.69
242.83	838.69
243.064	829.69
243.298	834.69
243.531	845.69
243.765	860.69
243.998	882.69
244.232	883.69
244.465	896.69
244.699	905.69
244.932	939.69
245.166	908.69
245.399	900.69
245.633	931.69
245.866	949.69
246.099	943.69
246.333	955.69
246.566	978.69
246.8	989.69
247.033	1030.69
247.266	1078.69
247.5	1119.69
247.733	1169.69
247.966	1171.69
248.2	1192.69
248.433	1195.69
248.666	1259.69
248.899	1373.69
249.133	1493.69
249.366	1450.69
249.599	1353.69
249.832	1241.69
250.066	1254.69
250.299	1272.69
250.532	1378.69
250.765	1556.69
250.998	1722.69
251.231	1695.69
251.465	1565.69
251.698	1497.69
251.931	1467.69
252.164	1441.69
252.397	1440.69
252.63	1516.69
252.863	1605.69
253.096	1737.69
253.329	1783.69
253.562	1701.69
253.795	1631.69
254.028	1613.69
254.261	1677.69
254.494	1840.69
254.727	2185.69
254.96	2312.69
255.193	2057.69
255.426	1829.69
255.659	1726.69
255.892	1635.69
256.124	1641.69
256.357	1583.69
256.59	1548.69
256.823	1515.69
257.056	1521.69
257.289	1547.69
257.521	1602.69
257.754	1593.69
257.987	1554.69
258.22	1565.69
258.452	1590.69
258.685	1576.69
258.918	1593.69
259.151	1630.69
259.383	1702.69
259.616	1715.69
259.849	1823.69
260.081	1980.69
260.314	2161.69
260.547	2099.69
260.779	1943.69
261.012	1822.69
261.244	1762.69
261.477	1713.69
261.71	1794.69
261.942	1810.69
262.175	1845.69
262.407	1745.69
262.64	1706.69
262.872	1677.69
263.105	1663.69
263.337	1708.69
263.57	1697.69
263.802	1685.69
264.035	1737.69
264.267	1694.69
264.499	1711.69
264.732	1714.69
264.964	1735.69
265.197	1723.69
265.429	1713.69
265.661	1717.69
265.894	1736.69
266.126	1769.69
266.358	1793.69
266.591	1770.69
266.823	1869.69
267.055	1936.69
267.287	1930.69
267.52	1861.69
267.752	1887.69
267.984	1878.69
268.216	1945.69
268.448	1979.69
268.681	2007.69
268.913	2169.69
269.145	2382.69
269.377	2411.69
269.609	2348.69
269.841	2277.69
270.073	2470.69
270.306	2753.69
270.538	2921.69
270.77	2749.69
271.002	2574.69
271.234	2584.69
271.466	2745.69
271.698	2854.69
271.93	2853.69
272.162	2806.69
272.394	2747.69
272.626	2543.69
272.858	2468.69
273.09	2389.69
273.322	2321.69
273.553	2281.69
273.785	2298.69
274.017	2294.69
274.249	2305.69
274.481	2303.69
274.713	2319.69
274.945	2356.69
275.176	2339.69
275.408	2288.69
275.64	2319.69
275.872	2292.69
276.104	2326.69
276.335	2348.69
276.567	2411.69
276.799	2621.69
277.031	2817.69
277.262	2950.69
277.494	2835.69
277.726	2651.69
277.957	2531.69
278.189	2493.69
278.421	2436.69
278.652	2398.69
278.884	2393.69
279.115	2394.69
279.347	2415.69
279.579	2365.69
279.81	2390.69
280.042	2417.69
280.273	2433.69
280.505	2417.69
280.736	2469.69
280.968	2444.69
281.199	2450.69
281.431	2500.69
281.662	2442.69
281.894	2517.69
282.125	2513.69
282.356	2720.69
282.588	2844.69
282.819	2721.69
283.051	2591.69
283.282	2564.69
283.513	2598.69
283.745	2645.69
283.976	2687.69
284.207	2687.69
284.439	2681.69
284.67	2648.69
284.901	2650.69
285.132	2642.69
285.364	2604.69
285.595	2699.69
285.826	2702.69
286.057	2694.69
286.288	2668.69
286.52	2702.69
286.751	2675.69
286.982	2718.69
287.213	2681.69
287.444	2785.69
287.675	2837.69
287.906	2944.69
288.138	3012.69
288.369	2951.69
288.6	2958.69
288.831	2883.69
289.062	2823.69
289.293	2821.69
289.524	2859.69
289.755	2832.69
289.986	2801.69
290.217	2842.69
290.448	2827.69
290.679	2867.69
290.91	2817.69
291.141	2815.69
291.371	2817.69
291.602	2813.69
291.833	2845.69
292.064	2874.69
292.295	2868.69
292.526	2844.69
292.757	2884.69
292.987	2813.69
293.218	2785.69
293.449	2877.69
293.68	2869.69
293.91	2914.69
294.141	2863.69
294.372	2879.69
294.603	2911.69
294.833	2914.69
295.064	2866.69
295.295	2951.69
295.525	2884.69
295.756	2976.69
295.987	3072.69
296.217	3188.69
296.448	3175.69
296.679	3014.69
296.909	3006.69
297.14	2958.69
297.37	3029.69
297.601	3099.69
297.831	3049.69
298.062	3066.69
298.292	3072.69
298.523	3139.69
298.753	3171.69
298.984	3119.69
299.214	3109.69
299.445	3140.69
299.675	3152.69
299.905	3201.69
300.136	3135.69
300.366	3161.69
300.597	3189.69
300.827	3315.69
301.057	3330.69
301.288	3411.69
301.518	3341.69
301.748	3357.69
301.979	3488.69
302.209	3423.69
302.439	3397.69
302.669	3302.69
302.9	3361.69
303.13	3314.69
303.36	3339.69
303.59	3388.69
303.82	3437.69
304.051	3379.69
304.281	3379.69
304.511	3270.69
304.741	3343.69
304.971	3363.69
305.201	3333.69
305.431	3321.69
305.661	3291.69
305.891	3265.69
306.121	3275.69
306.352	3369.69
306.582	3350.69
306.812	3262.69
307.042	3275.69
307.272	3290.69
307.502	3292.69
307.731	3290.69
307.961	3294.69
308.191	3294.69
308.421	3232.69
308.651	3340.69
308.881	3343.69
309.111	3396.69
309.341	3444.69
309.571	3460.69
309.8	3533.69
310.03	3569.69
310.26	3591.69
310.49	3611.69
310.72	3683.69
310.949	3855.69
311.179	3840.69
311.409	3636.69
311.639	3630.69
311.868	3733.69
312.098	3674.69
312.328	3825.69
312.557	3952.69
312.787	4052.69
313.017	3847.69
313.246	3817.69
313.476	3722.69
313.706	3805.69
313.935	3839.69
314.165	3972.69
314.394	4015.69
314.624	3947.69
314.853	3792.69
315.083	3769.69
315.312	3757.69
315.542	3758.69
315.771	3712.69
316.001	3661.69
316.23	3707.69
316.46	3750.69
316.689	3819.69
316.919	3813.69
317.148	3789.69
317.377	3787.69
317.607	3805.69
317.836	3687.69
318.065	3713.69
318.295	3708.69
318.524	3699.69
318.753	3691.69
318.983	3733.69
319.212	3681.69
319.441	3804.69
319.67	3779.69
319.9	3731.69
320.129	3756.69
320.358	3780.69
320.587	3781.69
320.816	3828.69
321.046	3948.69
321.275	3849.69
321.504	3891.69
321.733	3946.69
321.962	3993.69
322.191	4091.69
322.42	4165.69
322.649	4199.69
322.878	4230.69
323.108	4389.69
323.337	4623.69
323.566	4802.69
323.795	5028.69
324.024	5641.69
324.253	7451.69
324.482	11248.69
324.71	15411.69
324.939	15623.69
325.168	13310.69
325.397	6734.69
325.626	5343.69
325.855	4938.69
326.084	4803.69
326.313	4815.69
326.542	4971.69
326.77	5593.69
326.999	7105.69
327.228	10423.69
327.457	14587.69
327.686	13811.69
327.914	7555.69
328.143	5927.69
328.372	5463.69
328.6	5368.69
328.829	5286.69
329.058	5480.69
329.287	5421.69
329.515	4990.69
329.744	4790.69
329.972	4831.69
330.201	4988.69
330.43	5226.69
330.658	5510.69
330.887	5843.69
331.115	5351.69
331.344	5028.69
331.572	4934.69
331.801	5027.69
332.03	4968.69
332.258	5057.69
332.486	4968.69
332.715	5001.69
332.943	5206.69
333.172	5332.69
333.4	5437.69
333.629	5552.69
333.857	5617.69
334.085	5570.69
334.314	5510.69
334.542	5478.69
334.771	5460.69
334.999	5321.69
335.227	5182.69
335.455	5149.69
335.684	5092.69
335.912	5021.69
336.14	4932.69
336.369	4939.69
336.597	5018.69
336.825	5002.69
337.053	4885.69
337.281	4815.69
337.51	4782.69
337.738	4738.69
337.966	4687.69
338.194	4738.69
338.422	4666.69
338.65	4570.69
338.878	4553.69
339.106	4545.69
339.334	4548.69
339.562	4488.69
339.79	4394.69
340.018	4454.69
340.246	4437.69
340.474	4457.69
340.702	4414.69
340.93	4480.69
341.158	4417.69
341.386	4405.69
341.614	4474.69
341.842	4363.69
342.07	4310.69
342.298	4396.69
342.526	4315.69
342.754	4349.69
342.981	4297.69
343.209	4466.69
343.437	4576.69
343.665	4937.69
343.893	5142.69
344.12	5203.69
344.348	4933.69
344.576	4839.69
344.804	4754.69
345.031	4682.69
345.259	4676.69
345.487	4456.69
345.714	4422.69
345.942	4326.69
346.17	4269.69
346.397	4319.69
346.625	4261.69
346.853	4239.69
347.08	4206.69
347.308	4302.69
347.535	4329.69
347.763	4327.69
347.99	4305.69
348.218	4358.69
348.445	4290.69
348.673	4271.69
348.9	4177.69
349.128	4147.69
349.355	4060.69
349.583	4094.69
349.81	4083.69
350.037	4026.69
350.265	4110.69
350.492	4105.69
350.72	4098.69
350.947	4151.69
351.174	4190.69
351.402	4233.69
351.629	4187.69
351.856	4211.69
352.083	4281.69
352.311	4228.69
352.538	4271.69
352.765	4302.69
352.992	4199.69
353.22	4147.69
353.447	4097.69
353.674	4092.69
353.901	4005.69
354.128	3995.69
354.355	3924.69
354.583	3953.69
354.81	3913.69
355.037	3941.69
355.264	3935.69
355.491	3994.69
355.718	3971.69
355.945	3872.69
356.172	3957.69
356.399	3928.69
356.626	3985.69
356.853	3964.69
357.08	3964.69
357.307	3970.69
357.534	3921.69
357.761	3977.69
357.988	3969.69
358.215	3953.69
358.441	3965.69
358.668	4027.69
358.895	4098.69
359.122	4108.69
359.349	4122.69
359.576	4311.69
359.802	4529.69
360.029	4621.69
360.256	4643.69
360.483	4421.69
360.709	4288.69
360.936	4238.69
361.163	4247.69
361.39	4234.69
361.616	4216.69
361.843	4238.69
362.07	4267.69
362.296	4228.69
362.523	4196.69
362.749	4133.69
362.976	4141.69
363.203	4102.69
363.429	4036.69
363.656	4127.69
363.882	4112.69
364.109	4017.69
364.335	4003.69
364.562	4086.69
364.788	4053.69
365.015	4049.69
365.241	4058.69
365.468	4068.69
365.694	4139.69
365.92	4169.69
366.147	4072.69
366.373	4030.69
366.599	4049.69
366.826	3969.69
367.052	4049.69
367.278	4127.69
367.505	4049.69
367.731	4054.69
367.957	4049.69
368.184	4137.69
368.41	4202.69
368.636	4208.69
368.862	4284.69
369.089	4208.69
369.315	4180.69
369.541	4166.69
369.767	4162.69
369.993	4139.69
370.219	4165.69
370.445	4212.69
370.672	4182.69
370.898	4281.69
371.124	4238.69
371.35	4301.69
371.576	4278.69
371.802	4274.69
372.028	4254.69
372.254	4259.69
372.48	4327.69
372.706	4375.69
372.932	4433.69
373.158	4423.69
373.384	4429.69
373.61	4323.69
373.835	4367.69
374.061	4387.69
374.287	4454.69
374.513	4537.69
374.739	4642.69
374.965	4745.69
375.191	4711.69
375.416	4643.69
375.642	4538.69
375.868	4532.69
376.094	4461.69
376.319	4369.69
376.545	4411.69
376.771	4397.69
376.997	4447.69
377.222	4402.69
377.448	4308.69
377.674	4326.69
377.899	4256.69
378.125	4333.69
378.35	4244.69
378.576	4266.69
378.802	4249.69
379.027	4330.69
379.253	4278.69
379.478	4267.69
379.704	4304.69
379.929	4322.69
380.155	4333.69
380.38	4326.69
380.606	4331.69
380.831	4327.69
381.057	4340.69
381.282	4295.69
381.507	4321.69
381.733	4379.69
381.958	4397.69
382.184	4471.69
382.409	4486.69
382.634	4508.69
382.86	4546.69
383.085	4625.69
383.31	4681.69
383.535	4726.69
383.761	4826.69
383.986	4863.69
384.211	4944.69
384.436	5060.69
384.662	5092.69
384.887	5165.69
385.112	5111.69
385.337	5219.69
385.562	5229.69
385.787	5198.69
386.013	5316.69
386.238	5257.69
386.463	5330.69
386.688	5301.69
386.913	5193.69
387.138	5185.69
387.363	5116.69
387.588	5115.69
387.813	5126.69
388.038	5126.69
388.263	5159.69
388.488	5126.69
388.713	5113.69
388.938	5183.69
389.163	5113.69
389.387	5203.69
389.612	5060.69
389.837	5077.69
390.062	5106.69
390.287	5169.69
390.512	5114.69
390.736	5205.69
390.961	5218.69
391.186	5316.69
391.411	5467.69
391.636	5558.69
391.86	5754.69
392.085	5778.69
392.31	5689.69
392.534	5605.69
392.759	5486.69
392.984	5324.69
393.208	5363.69
393.433	5315.69
393.658	5297.69
393.882	5388.69
394.107	5429.69
394.331	5406.69
394.556	5459.69
394.78	5438.69
395.005	5493.69
395.229	5502.69
395.454	5709.69
395.678	5813.69
395.903	5833.69
396.127	5912.69
396.352	5661.69
396.576	5487.69
396.801	5435.69
397.025	5519.69
397.249	5637.69
397.474	5736.69
397.698	5743.69
397.922	6011.69
398.147	6041.69
398.371	6145.69
398.595	6253.69
398.82	6509.69
399.044	7099.69
399.268	7831.69
399.492	8979.69
399.717	9516.69
399.941	9313.69
400.165	8717.69
400.389	8011.69
400.613	7265.69
400.837	6797.69
401.062	6622.69
401.286	6611.69
401.51	6494.69
401.734	6475.69
401.958	6561.69
402.182	6715.69
402.406	6780.69
402.63	6902.69
402.854	6983.69
403.078	7067.69
403.302	7166.69
403.526	7245.69
403.75	7348.69
403.974	7423.69
404.198	7345.69
404.422	7476.69
404.645	7402.69
404.869	7219.69
405.093	7413.69
405.317	7693.69
405.541	7613.69
405.765	7253.69
405.988	7169.69
406.212	7349.69
406.436	7554.69
406.66	7729.69
406.883	7721.69
407.107	8372.69
407.331	8859.69
407.555	9348.69
407.778	8978.69
408.002	8295.69
408.226	7887.69
408.449	7792.69
408.673	7653.69
408.896	7870.69
409.12	8044.69
409.344	7508.69
409.567	7174.69
409.791	7041.69
410.014	6994.69
410.238	6906.69
410.461	6938.69
410.685	6989.69
410.908	7205.69
411.132	7353.69
411.355	7494.69
411.578	7055.69
411.802	6785.69
412.025	6714.69
412.249	6885.69
412.472	6891.69
412.695	6780.69
412.919	6609.69
413.142	6379.69
413.365	6423.69
413.589	6445.69
413.812	6350.69
414.035	6336.69
414.258	6339.69
414.482	6461.69
414.705	6419.69
414.928	6357.69
415.151	6438.69
415.374	6359.69
415.597	6321.69
415.821	6264.69
416.044	6322.69
416.267	6213.69
416.49	6157.69
416.713	6117.69
416.936	6260.69
417.159	6208.69
417.382	6225.69
417.605	6301.69
417.828	6504.69
418.051	6667.69
418.274	6609.69
418.497	6417.69
418.72	6502.69
418.943	6456.69
419.166	6895.69
419.389	7190.69
419.611	7129.69
419.834	6971.69
420.057	6843.69
420.28	6645.69
420.503	6425.69
420.726	6511.69
420.948	6607.69
421.171	7065.69
421.394	7068.69
421.617	6628.69
421.839	6516.69
422.062	6610.69
422.285	6809.69
422.507	7492.69
422.73	8050.69
422.953	7319.69
423.175	6978.69
423.398	6982.69
423.621	7041.69
423.843	7214.69
424.066	7239.69
424.288	7042.69
424.511	7344.69
424.733	7881.69
424.956	8335.69
425.178	7916.69
425.401	8003.69
425.623	7924.69
425.846	6943.69
426.068	6723.69
426.291	6598.69
426.513	6636.69
426.735	6763.69
426.958	7226.69
427.18	7990.69
427.402	9214.69
427.625	9117.69
427.847	7760.69
428.069	6815.69
428.292	6428.69
428.514	6148.69
428.736	6054.69
428.958	6012.69
429.181	5790.69
429.403	5887.69
429.625	6117.69
429.847	6371.69
430.069	6999.69
430.292	6512.69
430.514	5941.69
430.736	5937.69
430.958	5811.69
431.18	5632.69
431.402	5690.69
431.624	5680.69
431.846	5782.69
432.068	5831.69
432.29	5906.69
432.512	5742.69
432.734	5831.69
432.956	5807.69
433.178	5836.69
433.4	5912.69
433.622	5743.69
433.844	5753.69
434.066	5854.69
434.287	5872.69
434.509	6087.69
434.731	6388.69
434.953	6506.69
435.175	6670.69
435.397	6781.69
435.618	6684.69
435.84	7085.69
436.062	7945.69
436.284	7951.69
436.505	6661.69
436.727	6298.69
436.949	6059.69
437.17	5908.69
437.392	5839.69
437.614	6042.69
437.835	6389.69
438.057	7470.69
438.278	8197.69
438.5	8111.69
438.721	8889.69
438.943	7753.69
439.165	6498.69
439.386	6342.69
439.608	6395.69
439.829	6400.69
440.05	6720.69
440.272	7181.69
440.493	6521.69
440.715	6269.69
440.936	6214.69
441.158	6163.69
441.379	6312.69
441.6	6658.69
441.822	6846.69
442.043	7374.69
442.264	8213.69
442.486	7833.69
442.707	6966.69
442.928	6756.69
443.149	6981.69
443.371	7237.69
443.592	7788.69
443.813	8864.69
444.034	8733.69
444.255	7580.69
444.476	7381.69
444.698	7543.69
444.919	7685.69
445.14	7377.69
445.361	7293.69
445.582	7477.69
445.803	8086.69
446.024	8889.69
446.245	8463.69
446.466	7551.69
446.687	6502.69
446.908	6207.69
447.129	5819.69
447.35	5706.69
447.571	5764.69
447.792	5632.69
448.013	5664.69
448.234	5857.69
448.455	6676.69
448.675	7913.69
448.896	8352.69
449.117	6897.69
449.338	7158.69
449.559	8502.69
449.779	8637.69
450	6514.69
450.221	5892.69
450.442	5550.69
450.662	5514.69
450.883	5702.69
451.104	5717.69
451.324	5526.69
451.545	5390.69
451.766	5245.69
451.986	5161.69
452.207	5092.69
452.428	5091.69
452.648	5114.69
452.869	5186.69
453.089	5249.69
453.31	5354.69
453.53	5139.69
453.751	4943.69
453.971	5035.69
454.192	5157.69
454.412	5002.69
454.633	4908.69
454.853	4973.69
455.073	4906.69
455.294	5465.69
455.514	6047.69
455.734	5415.69
455.955	4883.69
456.175	4765.69
456.395	4687.69
456.616	4694.69
456.836	4613.69
457.056	4685.69
457.276	4650.69
457.497	4714.69
457.717	4751.69
457.937	4815.69
458.157	4906.69
458.377	4947.69
458.598	5393.69
458.818	6037.69
459.038	6789.69
459.258	6645.69
459.478	6093.69
459.698	5858.69
459.918	5856.69
460.138	6011.69
460.358	6294.69
460.578	6327.69
460.798	6354.69
461.018	6337.69
461.238	6174.69
461.458	6222.69
461.678	6179.69
461.898	6309.69
462.118	6346.69
462.338	6734.69
462.558	6754.69
462.777	7157.69
462.997	7604.69
463.217	8107.69
463.437	7895.69
463.657	7302.69
463.876	7171.69
464.096	7094.69
464.316	7166.69
464.536	7207.69
464.755	6970.69
464.975	6906.69
465.195	7054.69
465.414	7050.69
465.634	6257.69
465.854	5969.69
466.073	5661.69
466.293	5489.69
466.512	5313.69
466.732	5234.69
466.951	5237.69
467.171	5229.69
467.391	5345.69
467.61	5415.69
467.829	5349.69
468.049	5300.69
468.268	5043.69
468.488	4991.69
468.707	4987.69
468.927	4968.69
469.146	5001.69
469.365	5049.69
469.585	5077.69
469.804	5293.69
470.023	5335.69
470.243	5379.69
470.462	5482.69
470.681	5577.69
470.901	5551.69
471.12	5357.69
471.339	5337.69
471.558	5315.69
471.777	5222.69
471.997	5090.69
472.216	5055.69
472.435	5107.69
472.654	5096.69
472.873	4915.69
473.092	4993.69
473.311	4972.69
473.53	5021.69
473.749	5216.69
473.968	5687.69
474.187	6833.69
474.406	6297.69
474.625	5370.69
474.844	5078.69
475.063	4954.69
475.282	5026.69
475.501	5152.69
475.72	5133.69
475.939	5114.69
476.158	5150.69
476.377	5260.69
476.596	5183.69
476.814	5373.69
477.033	5327.69
477.252	5483.69
477.471	5508.69
477.69	5690.69
477.908	5766.69
478.127	5914.69
478.346	6013.69
478.564	6098.69
478.783	6187.69
479.002	6289.69
479.22	6271.69
479.439	6311.69
479.658	6475.69
479.876	6590.69
480.095	6780.69
480.313	7181.69
480.532	7057.69
480.751	6901.69
480.969	6829.69
481.188	6860.69
481.406	6585.69
481.624	6259.69
481.843	6138.69
482.061	6076.69
482.28	5900.69
482.498	5857.69
482.717	5930.69
482.935	5831.69
483.153	5885.69
483.372	5846.69
483.59	5908.69
483.808	5861.69
484.027	5875.69
484.245	5936.69
484.463	6016.69
484.681	6080.69
484.9	6129.69
485.118	6099.69
485.336	6181.69
485.554	6241.69
485.772	6333.69
485.99	6328.69
486.209	6379.69
486.427	6410.69
486.645	6383.69
486.863	6535.69
487.081	6511.69
487.299	6395.69
487.517	6325.69
487.735	6334.69
