Data from Uncirc_1986_H10_HRD10591_00063.txt Node
Date: Wed Jan 03 12:14:39 EST 2024
User: Yrep
Spectrometer: HR+D1059
Trigger mode: 1
Integration Time (sec): 1.000000E-1
Scans to average: 1
Electric dark correction enabled: true
Nonlinearity correction enabled: false
Boxcar width: 0
XAxis mode: Wavelengths
Number of Pixels in Spectrum: 2048
>>>>>Begin Spectral Data<<<<<
223.165	-11.94
223.4	-11.94
223.635	-11.94
223.869	-13.94
224.104	-25.94
224.338	-14.94
224.573	-15.94
224.808	-18.94
225.042	-13.94
225.277	-12.94
225.511	1.06
225.746	11.06
225.98	5.06
226.215	16.06
226.449	18.06
226.683	31.06
226.918	15.06
227.152	31.06
227.387	24.06
227.621	43.06
227.856	50.06
228.09	43.06
228.324	46.06
228.559	54.06
228.793	60.06
229.027	68.06
229.262	58.06
229.496	65.06
229.73	90.06
229.964	76.06
230.199	75.06
230.433	86.06
230.667	76.06
230.901	87.06
231.136	81.06
231.37	68.06
231.604	82.06
231.838	89.06
232.072	68.06
232.306	90.06
232.541	79.06
232.775	78.06
233.009	87.06
233.243	73.06
233.477	94.06
233.711	74.06
233.945	82.06
234.179	75.06
234.413	75.06
234.647	83.06
234.881	78.06
235.115	80.06
235.349	81.06
235.583	80.06
235.817	94.06
236.051	101.06
236.285	68.06
236.519	83.06
236.753	83.06
236.987	94.06
237.221	79.06
237.455	94.06
237.689	81.06
237.922	66.06
238.156	68.06
238.39	73.06
238.624	82.06
238.858	70.06
239.091	78.06
239.325	62.06
239.559	82.06
239.793	76.06
240.027	84.06
240.26	86.06
240.494	80.06
240.728	84.06
240.961	78.06
241.195	81.06
241.429	86.06
241.662	91.06
241.896	86.06
242.13	74.06
242.363	83.06
242.597	74.06
242.83	66.06
243.064	71.06
243.298	78.06
243.531	84.06
243.765	82.06
243.998	78.06
244.232	84.06
244.465	88.06
244.699	82.06
244.932	69.06
245.166	71.06
245.399	80.06
245.633	87.06
245.866	69.06
246.099	81.06
246.333	82.06
246.566	73.06
246.8	75.06
247.033	88.06
247.266	74.06
247.5	73.06
247.733	79.06
247.966	84.06
248.2	76.06
248.433	72.06
248.666	73.06
248.899	85.06
249.133	87.06
249.366	89.06
249.599	77.06
249.832	64.06
250.066	82.06
250.299	84.06
250.532	82.06
250.765	75.06
250.998	70.06
251.231	78.06
251.465	78.06
251.698	86.06
251.931	92.06
252.164	91.06
252.397	79.06
252.63	94.06
252.863	82.06
253.096	82.06
253.329	71.06
253.562	83.06
253.795	90.06
254.028	76.06
254.261	70.06
254.494	97.06
254.727	90.06
254.96	65.06
255.193	75.06
255.426	82.06
255.659	88.06
255.892	86.06
256.124	79.06
256.357	84.06
256.59	90.06
256.823	80.06
257.056	71.06
257.289	82.06
257.521	90.06
257.754	68.06
257.987	66.06
258.22	80.06
258.452	83.06
258.685	78.06
258.918	74.06
259.151	76.06
259.383	80.06
259.616	64.06
259.849	81.06
260.081	73.06
260.314	76.06
260.547	86.06
260.779	92.06
261.012	82.06
261.244	87.06
261.477	106.06
261.71	100.06
261.942	131.06
262.175	125.06
262.407	88.06
262.64	88.06
262.872	87.06
263.105	74.06
263.337	83.06
263.57	82.06
263.802	74.06
264.035	78.06
264.267	87.06
264.499	79.06
264.732	102.06
264.964	81.06
265.197	76.06
265.429	80.06
265.661	71.06
265.894	81.06
266.126	86.06
266.358	87.06
266.591	76.06
266.823	87.06
267.055	75.06
267.287	86.06
267.52	94.06
267.752	84.06
267.984	74.06
268.216	82.06
268.448	89.06
268.681	71.06
268.913	84.06
269.145	90.06
269.377	81.06
269.609	86.06
269.841	79.06
270.073	82.06
270.306	80.06
270.538	88.06
270.77	83.06
271.002	87.06
271.234	78.06
271.466	94.06
271.698	95.06
271.93	98.06
272.162	79.06
272.394	74.06
272.626	98.06
272.858	75.06
273.09	86.06
273.322	83.06
273.553	74.06
273.785	86.06
274.017	92.06
274.249	84.06
274.481	77.06
274.713	94.06
274.945	103.06
275.176	94.06
275.408	88.06
275.64	87.06
275.872	88.06
276.104	87.06
276.335	91.06
276.567	96.06
276.799	115.06
277.031	98.06
277.262	90.06
277.494	94.06
277.726	104.06
277.957	92.06
278.189	73.06
278.421	73.06
278.652	92.06
278.884	87.06
279.115	85.06
279.347	96.06
279.579	94.06
279.81	82.06
280.042	76.06
280.273	71.06
280.505	80.06
280.736	83.06
280.968	86.06
281.199	94.06
281.431	99.06
281.662	96.06
281.894	105.06
282.125	98.06
282.356	104.06
282.588	139.06
282.819	119.06
283.051	88.06
283.282	93.06
283.513	87.06
283.745	98.06
283.976	86.06
284.207	88.06
284.439	85.06
284.67	90.06
284.901	84.06
285.132	87.06
285.364	80.06
285.595	89.06
285.826	98.06
286.057	95.06
286.288	76.06
286.52	80.06
286.751	91.06
286.982	71.06
287.213	89.06
287.444	75.06
287.675	75.06
287.906	88.06
288.138	82.06
288.369	84.06
288.6	102.06
288.831	94.06
289.062	89.06
289.293	92.06
289.524	79.06
289.755	87.06
289.986	97.06
290.217	88.06
290.448	91.06
290.679	82.06
290.91	99.06
291.141	102.06
291.371	81.06
291.602	94.06
291.833	84.06
292.064	97.06
292.295	87.06
292.526	81.06
292.757	97.06
292.987	89.06
293.218	94.06
293.449	95.06
293.68	88.06
293.91	81.06
294.141	82.06
294.372	82.06
294.603	90.06
294.833	89.06
295.064	88.06
295.295	78.06
295.525	86.06
295.756	106.06
295.987	111.06
296.217	142.06
296.448	121.06
296.679	100.06
296.909	76.06
297.14	87.06
297.37	112.06
297.601	96.06
297.831	89.06
298.062	85.06
298.292	94.06
298.523	95.06
298.753	84.06
298.984	82.06
299.214	73.06
299.445	88.06
299.675	80.06
299.905	101.06
300.136	92.06
300.366	89.06
300.597	86.06
300.827	88.06
301.057	102.06
301.288	104.06
301.518	85.06
301.748	68.06
301.979	102.06
302.209	85.06
302.439	75.06
302.669	90.06
302.9	92.06
303.13	83.06
303.36	108.06
303.59	96.06
303.82	109.06
304.051	103.06
304.281	88.06
304.511	85.06
304.741	88.06
304.971	94.06
305.201	90.06
305.431	88.06
305.661	101.06
305.891	88.06
306.121	93.06
306.352	99.06
306.582	96.06
306.812	90.06
307.042	100.06
307.272	82.06
307.502	102.06
307.731	88.06
307.961	82.06
308.191	89.06
308.421	89.06
308.651	110.06
308.881	107.06
309.111	93.06
309.341	96.06
309.571	95.06
309.8	87.06
310.03	102.06
310.26	86.06
310.49	91.06
310.72	90.06
310.949	106.06
311.179	98.06
311.409	79.06
311.639	90.06
311.868	90.06
312.098	90.06
312.328	100.06
312.557	109.06
312.787	98.06
313.017	95.06
313.246	101.06
313.476	97.06
313.706	97.06
313.935	97.06
314.165	87.06
314.394	87.06
314.624	98.06
314.853	98.06
315.083	110.06
315.312	83.06
315.542	87.06
315.771	89.06
316.001	77.06
316.23	104.06
316.46	86.06
316.689	78.06
316.919	90.06
317.148	90.06
317.377	102.06
317.607	102.06
317.836	105.06
318.065	88.06
318.295	87.06
318.524	97.06
318.753	85.06
318.983	92.06
319.212	105.06
319.441	112.06
319.67	116.06
319.9	93.06
320.129	86.06
320.358	88.06
320.587	87.06
320.816	95.06
321.046	100.06
321.275	96.06
321.504	90.06
321.733	98.06
321.962	89.06
322.191	104.06
322.42	107.06
322.649	105.06
322.878	107.06
323.108	116.06
323.337	114.06
323.566	123.06
323.795	154.06
324.024	193.06
324.253	376.06
324.482	804.06
324.71	1694.06
324.939	2314.06
325.168	851.06
325.397	235.06
325.626	159.06
325.855	137.06
326.084	131.06
326.313	142.06
326.542	165.06
326.77	238.06
326.999	441.06
327.228	939.06
327.457	1764.06
327.686	1411.06
327.914	368.06
328.143	172.06
328.372	142.06
328.6	109.06
328.829	120.06
329.058	128.06
329.287	111.06
329.515	122.06
329.744	98.06
329.972	94.06
330.201	94.06
330.43	120.06
330.658	128.06
330.887	131.06
331.115	130.06
331.344	96.06
331.572	100.06
331.801	103.06
332.03	101.06
332.258	86.06
332.486	95.06
332.715	91.06
332.943	85.06
333.172	99.06
333.4	103.06
333.629	102.06
333.857	114.06
334.085	115.06
334.314	117.06
334.542	112.06
334.771	118.06
334.999	111.06
335.227	87.06
335.455	96.06
335.684	90.06
335.912	84.06
336.14	96.06
336.369	101.06
336.597	99.06
336.825	94.06
337.053	92.06
337.281	106.06
337.51	92.06
337.738	106.06
337.966	84.06
338.194	93.06
338.422	91.06
338.65	84.06
338.878	93.06
339.106	80.06
339.334	98.06
339.562	89.06
339.79	85.06
340.018	79.06
340.246	86.06
340.474	89.06
340.702	89.06
340.93	74.06
341.158	92.06
341.386	94.06
341.614	97.06
341.842	87.06
342.07	94.06
342.298	98.06
342.526	96.06
342.754	90.06
342.981	107.06
343.209	90.06
343.437	105.06
343.665	88.06
343.893	99.06
344.12	100.06
344.348	95.06
344.576	104.06
344.804	103.06
345.031	111.06
345.259	111.06
345.487	84.06
345.714	99.06
345.942	101.06
346.17	94.06
346.397	95.06
346.625	86.06
346.853	84.06
347.08	86.06
347.308	100.06
347.535	94.06
347.763	86.06
347.99	90.06
348.218	102.06
348.445	103.06
348.673	104.06
348.9	91.06
349.128	91.06
349.355	95.06
349.583	91.06
349.81	91.06
350.037	94.06
350.265	99.06
350.492	83.06
350.72	80.06
350.947	89.06
351.174	109.06
351.402	115.06
351.629	100.06
351.856	110.06
352.083	107.06
352.311	106.06
352.538	111.06
352.765	107.06
352.992	121.06
353.22	110.06
353.447	106.06
353.674	99.06
353.901	94.06
354.128	90.06
354.355	94.06
354.583	85.06
354.81	90.06
355.037	104.06
355.264	86.06
355.491	95.06
355.718	90.06
355.945	84.06
356.172	92.06
356.399	75.06
356.626	90.06
356.853	90.06
357.08	92.06
357.307	90.06
357.534	103.06
357.761	88.06
357.988	105.06
358.215	101.06
358.441	97.06
358.668	90.06
358.895	76.06
359.122	103.06
359.349	89.06
359.576	100.06
359.802	102.06
360.029	110.06
360.256	105.06
360.483	102.06
360.709	89.06
360.936	108.06
361.163	105.06
361.39	89.06
361.616	107.06
361.843	89.06
362.07	78.06
362.296	97.06
362.523	96.06
362.749	78.06
362.976	100.06
363.203	94.06
363.429	93.06
363.656	93.06
363.882	88.06
364.109	97.06
364.335	90.06
364.562	88.06
364.788	95.06
365.015	93.06
365.241	96.06
365.468	100.06
365.694	112.06
365.92	97.06
366.147	73.06
366.373	90.06
366.599	101.06
366.826	88.06
367.052	90.06
367.278	88.06
367.505	84.06
367.731	100.06
367.957	86.06
368.184	92.06
368.41	103.06
368.636	116.06
368.862	133.06
369.089	116.06
369.315	90.06
369.541	80.06
369.767	90.06
369.993	90.06
370.219	87.06
370.445	86.06
370.672	79.06
370.898	73.06
371.124	88.06
371.35	90.06
371.576	80.06
371.802	103.06
372.028	90.06
372.254	75.06
372.48	86.06
372.706	97.06
372.932	78.06
373.158	90.06
373.384	106.06
373.61	92.06
373.835	75.06
374.061	90.06
374.287	81.06
374.513	92.06
374.739	98.06
374.965	78.06
375.191	69.06
375.416	90.06
375.642	79.06
375.868	93.06
376.094	94.06
376.319	76.06
376.545	95.06
376.771	94.06
376.997	85.06
377.222	86.06
377.448	98.06
377.674	76.06
377.899	90.06
378.125	92.06
378.35	84.06
378.576	84.06
378.802	87.06
379.027	86.06
379.253	87.06
379.478	91.06
379.704	104.06
379.929	97.06
380.155	99.06
380.38	83.06
380.606	83.06
380.831	83.06
381.057	90.06
381.282	100.06
381.507	93.06
381.733	90.06
381.958	107.06
382.184	105.06
382.409	90.06
382.634	89.06
382.86	98.06
383.085	100.06
383.31	91.06
383.535	97.06
383.761	97.06
383.986	95.06
384.211	97.06
384.436	102.06
384.662	97.06
384.887	97.06
385.112	94.06
385.337	100.06
385.562	96.06
385.787	82.06
386.013	99.06
386.238	104.06
386.463	105.06
386.688	114.06
386.913	89.06
387.138	94.06
387.363	86.06
387.588	91.06
387.813	107.06
388.038	99.06
388.263	108.06
388.488	97.06
388.713	83.06
388.938	102.06
389.163	90.06
389.387	94.06
389.612	100.06
389.837	86.06
390.062	86.06
390.287	102.06
390.512	102.06
390.736	91.06
390.961	110.06
391.186	86.06
391.411	79.06
391.636	90.06
391.86	81.06
392.085	89.06
392.31	84.06
392.534	89.06
392.759	96.06
392.984	68.06
393.208	86.06
393.433	91.06
393.658	113.06
393.882	73.06
394.107	82.06
394.331	92.06
394.556	81.06
394.78	78.06
395.005	90.06
395.229	102.06
395.454	96.06
395.678	84.06
395.903	90.06
396.127	86.06
396.352	79.06
396.576	95.06
396.801	82.06
397.025	91.06
397.249	96.06
397.474	100.06
397.698	84.06
397.922	96.06
398.147	92.06
398.371	87.06
398.595	87.06
398.82	84.06
399.044	88.06
399.268	92.06
399.492	84.06
399.717	81.06
399.941	97.06
400.165	87.06
400.389	85.06
400.613	72.06
400.837	85.06
401.062	76.06
401.286	93.06
401.51	90.06
401.734	82.06
401.958	99.06
402.182	131.06
402.406	152.06
402.63	133.06
402.854	104.06
403.078	88.06
403.302	85.06
403.526	81.06
403.75	97.06
403.974	90.06
404.198	88.06
404.422	103.06
404.645	89.06
404.869	103.06
405.093	100.06
405.317	94.06
405.541	88.06
405.765	100.06
405.988	128.06
406.212	177.06
406.436	224.06
406.66	154.06
406.883	97.06
407.107	90.06
407.331	77.06
407.555	97.06
407.778	94.06
408.002	89.06
408.226	87.06
408.449	96.06
408.673	91.06
408.896	82.06
409.12	94.06
409.344	96.06
409.567	93.06
409.791	84.06
410.014	87.06
410.238	95.06
410.461	101.06
410.685	80.06
410.908	84.06
411.132	103.06
411.355	108.06
411.578	92.06
411.802	91.06
412.025	98.06
412.249	92.06
412.472	106.06
412.695	90.06
412.919	107.06
413.142	87.06
413.365	82.06
413.589	79.06
413.812	98.06
414.035	98.06
414.258	90.06
414.482	86.06
414.705	78.06
414.928	81.06
415.151	87.06
415.374	95.06
415.597	89.06
415.821	78.06
416.044	91.06
416.267	81.06
416.49	91.06
416.713	88.06
416.936	96.06
417.159	84.06
417.382	76.06
417.605	90.06
417.828	108.06
418.051	91.06
418.274	101.06
418.497	68.06
418.72	80.06
418.943	92.06
419.166	91.06
419.389	78.06
419.611	98.06
419.834	78.06
420.057	89.06
420.28	79.06
420.503	100.06
420.726	112.06
420.948	88.06
421.171	87.06
421.394	90.06
421.617	86.06
421.839	87.06
422.062	79.06
422.285	84.06
422.507	105.06
422.73	102.06
422.953	101.06
423.175	90.06
423.398	75.06
423.621	87.06
423.843	96.06
424.066	85.06
424.288	96.06
424.511	101.06
424.733	101.06
424.956	110.06
425.178	107.06
425.401	86.06
425.623	95.06
425.846	92.06
426.068	94.06
426.291	95.06
426.513	99.06
426.735	87.06
426.958	97.06
427.18	118.06
427.402	137.06
427.625	169.06
427.847	135.06
428.069	114.06
428.292	102.06
428.514	87.06
428.736	101.06
428.958	87.06
429.181	88.06
429.403	74.06
429.625	84.06
429.847	89.06
430.069	95.06
430.292	103.06
430.514	93.06
430.736	77.06
430.958	88.06
431.18	81.06
431.402	75.06
431.624	101.06
431.846	80.06
432.068	86.06
432.29	83.06
432.512	105.06
432.734	90.06
432.956	90.06
433.178	103.06
433.4	103.06
433.622	98.06
433.844	102.06
434.066	95.06
434.287	97.06
434.509	94.06
434.731	85.06
434.953	81.06
435.175	84.06
435.397	97.06
435.618	88.06
435.84	99.06
436.062	123.06
436.284	122.06
436.505	99.06
436.727	90.06
436.949	98.06
437.17	99.06
437.392	91.06
437.614	122.06
437.835	119.06
438.057	122.06
438.278	126.06
438.5	113.06
438.721	109.06
438.943	98.06
439.165	88.06
439.386	98.06
439.608	81.06
439.829	92.06
440.05	119.06
440.272	158.06
440.493	101.06
440.715	93.06
440.936	82.06
441.158	87.06
441.379	96.06
441.6	105.06
441.822	97.06
442.043	99.06
442.264	99.06
442.486	106.06
442.707	89.06
442.928	99.06
443.149	128.06
443.371	132.06
443.592	112.06
443.813	117.06
444.034	107.06
444.255	91.06
444.476	98.06
444.698	104.06
444.919	105.06
445.14	125.06
445.361	125.06
445.582	109.06
445.803	139.06
446.024	129.06
446.245	150.06
446.466	107.06
446.687	89.06
446.908	92.06
447.129	87.06
447.35	74.06
447.571	92.06
447.792	84.06
448.013	110.06
448.234	103.06
448.455	97.06
448.675	124.06
448.896	121.06
449.117	113.06
449.338	101.06
449.559	137.06
449.779	141.06
450	92.06
450.221	100.06
450.442	98.06
450.662	96.06
450.883	97.06
451.104	115.06
451.324	88.06
451.545	90.06
451.766	84.06
451.986	83.06
452.207	98.06
452.428	79.06
452.648	103.06
452.869	95.06
453.089	112.06
453.31	108.06
453.53	86.06
453.751	86.06
453.971	105.06
454.192	120.06
454.412	76.06
454.633	98.06
454.853	90.06
455.073	98.06
455.294	64.06
455.514	99.06
455.734	94.06
455.955	89.06
456.175	85.06
456.395	71.06
456.616	88.06
456.836	80.06
457.056	89.06
457.276	83.06
457.497	78.06
457.717	92.06
457.937	95.06
458.157	88.06
458.377	104.06
458.598	103.06
458.818	146.06
459.038	173.06
459.258	123.06
459.478	94.06
459.698	88.06
459.918	90.06
460.138	82.06
460.358	87.06
460.578	88.06
460.798	89.06
461.018	97.06
461.238	90.06
461.458	80.06
461.678	85.06
461.898	100.06
462.118	70.06
462.338	84.06
462.558	94.06
462.777	90.06
462.997	94.06
463.217	85.06
463.437	96.06
463.657	99.06
463.876	95.06
464.096	90.06
464.316	94.06
464.536	101.06
464.755	85.06
464.975	99.06
465.195	166.06
465.414	158.06
465.634	82.06
465.854	96.06
466.073	86.06
466.293	86.06
466.512	91.06
466.732	75.06
466.951	96.06
467.171	93.06
467.391	104.06
467.61	101.06
467.829	106.06
468.049	88.06
468.268	88.06
468.488	79.06
468.707	87.06
468.927	83.06
469.146	85.06
469.365	73.06
469.585	85.06
469.804	87.06
470.023	106.06
470.243	96.06
470.462	94.06
470.681	102.06
470.901	76.06
471.12	90.06
471.339	92.06
471.558	93.06
471.777	92.06
471.997	82.06
472.216	93.06
472.435	97.06
472.654	85.06
472.873	88.06
473.092	90.06
473.311	72.06
473.53	80.06
473.749	96.06
473.968	96.06
474.187	104.06
474.406	85.06
474.625	82.06
474.844	80.06
475.063	85.06
475.282	89.06
475.501	85.06
475.72	78.06
475.939	89.06
476.158	82.06
476.377	90.06
476.596	85.06
476.814	90.06
477.033	89.06
477.252	103.06
477.471	94.06
477.69	82.06
477.908	94.06
478.127	98.06
478.346	82.06
478.564	102.06
478.783	87.06
479.002	98.06
479.22	97.06
479.439	99.06
479.658	111.06
479.876	101.06
480.095	97.06
480.313	90.06
480.532	89.06
480.751	75.06
480.969	91.06
481.188	114.06
481.406	103.06
481.624	99.06
481.843	92.06
482.061	81.06
482.28	86.06
482.498	81.06
482.717	94.06
482.935	81.06
483.153	79.06
483.372	94.06
483.59	86.06
483.808	88.06
484.027	89.06
484.245	87.06
484.463	86.06
484.681	113.06
484.9	88.06
485.118	105.06
485.336	80.06
485.554	108.06
485.772	113.06
485.99	108.06
486.209	100.06
486.427	83.06
486.645	105.06
486.863	90.06
487.081	104.06
487.299	101.06
487.517	104.06
487.735	98.06
487.953	91.06
488.171	93.06
488.389	106.06
488.607	100.06
488.825	95.06
489.043	105.06
489.261	96.06
489.479	83.06
489.696	99.06
489.914	82.06
490.132	82.06
490.35	96.06
490.568	94.06
490.786	88.06
491.003	73.06
491.221	90.06
491.439	92.06
491.657	98.06
491.874	104.06
492.092	76.06
492.31	86.06
492.527	76.06
492.745	89.06
492.963	97.06
493.18	94.06
493.398	81.06
493.615	101.06
493.833	111.06
494.05	89.06
494.268	98.06
494.485	87.06
494.703	81.06
494.92	89.06
495.138	71.06
495.355	88.06
495.573	88.06
495.79	91.06
496.008	102.06
496.225	81.06
496.442	105.06
496.66	101.06
496.877	78.06
497.094	94.06
497.312	96.06
497.529	78.06
497.746	78.06
497.963	90.06
498.181	96.06
498.398	96.06
498.615	110.06
498.832	98.06
499.049	91.06
499.267	105.06
499.484	93.06
499.701	96.06
499.918	100.06
500.135	102.06
500.352	99.06
500.569	83.06
500.786	104.06
501.003	86.06
501.22	94.06
501.437	89.06
501.654	84.06
501.871	100.06
502.088	92.06
502.305	92.06
502.522	98.06
502.739	95.06
502.956	82.06
503.172	94.06
503.389	87.06
503.606	99.06
503.823	98.06
504.04	88.06
504.256	99.06
504.473	90.06
504.69	85.06
504.907	86.06
505.123	90.06
505.34	94.06
505.557	93.06
505.773	94.06
505.99	83.06
506.207	102.06
506.423	101.06
506.64	83.06
506.856	82.06
507.073	92.06
507.289	107.06
507.506	94.06
507.722	114.06
507.939	116.06
508.155	87.06
508.372	100.06
508.588	103.06
508.805	102.06
509.021	94.06
509.238	97.06
509.454	98.06
509.67	98.06
509.887	99.06
510.103	132.06
510.319	232.06
510.536	763.06
510.752	2400.06
510.968	651.06
511.184	145.06
511.401	107.06
511.617	106.06
511.833	97.06
512.049	95.06
512.265	94.06
512.481	91.06
512.698	89.06
512.914	96.06
513.13	98.06
513.346	90.06
513.562	102.06
513.778	97.06
513.994	89.06
514.21	102.06
514.426	130.06
514.642	137.06
514.858	130.06
515.074	169.06
515.29	456.06
515.506	1537.06
