Data from Uncirc_1986_H10_HRD10591_00072.txt Node
Date: Wed Jan 03 12:14:40 EST 2024
User: Yrep
Spectrometer: HR+D1059
Trigger mode: 1
Integration Time (sec): 1.000000E-1
Scans to average: 1
Electric dark correction enabled: true
Nonlinearity correction enabled: false
Boxcar width: 0
XAxis mode: Wavelengths
Number of Pixels in Spectrum: 2048
>>>>>Begin Spectral Data<<<<<
223.165	-18.94
223.4	-18.94
223.635	-18.94
223.869	-12.94
224.104	-22.94
224.338	-16.94
224.573	-9.94
224.808	-2.94
225.042	-12.94
225.277	-11.94
225.511	9.06
225.746	-7.94
225.98	8.06
226.215	5.06
226.449	17.06
226.683	49.06
226.918	10.06
227.152	19.06
227.387	27.06
227.621	54.06
227.856	41.06
228.09	35.06
228.324	46.06
228.559	50.06
228.793	58.06
229.027	48.06
229.262	61.06
229.496	65.06
229.73	72.06
229.964	70.06
230.199	48.06
230.433	65.06
230.667	69.06
230.901	74.06
231.136	81.06
231.37	84.06
231.604	71.06
231.838	67.06
232.072	70.06
232.306	74.06
232.541	73.06
232.775	73.06
233.009	79.06
233.243	67.06
233.477	86.06
233.711	89.06
233.945	81.06
234.179	75.06
234.413	73.06
234.647	81.06
234.881	89.06
235.115	66.06
235.349	80.06
235.583	77.06
235.817	88.06
236.051	93.06
236.285	80.06
236.519	64.06
236.753	74.06
236.987	82.06
237.221	87.06
237.455	91.06
237.689	85.06
237.922	77.06
238.156	85.06
238.39	70.06
238.624	83.06
238.858	79.06
239.091	69.06
239.325	79.06
239.559	69.06
239.793	77.06
240.027	77.06
240.26	78.06
240.494	86.06
240.728	65.06
240.961	79.06
241.195	97.06
241.429	72.06
241.662	69.06
241.896	71.06
242.13	75.06
242.363	88.06
242.597	98.06
242.83	77.06
243.064	65.06
243.298	76.06
243.531	69.06
243.765	79.06
243.998	67.06
244.232	89.06
244.465	84.06
244.699	72.06
244.932	84.06
245.166	79.06
245.399	70.06
245.633	79.06
245.866	73.06
246.099	77.06
246.333	71.06
246.566	72.06
246.8	91.06
247.033	75.06
247.266	88.06
247.5	79.06
247.733	83.06
247.966	82.06
248.2	81.06
248.433	81.06
248.666	80.06
248.899	85.06
249.133	68.06
249.366	83.06
249.599	91.06
249.832	84.06
250.066	79.06
250.299	90.06
250.532	89.06
250.765	68.06
250.998	72.06
251.231	66.06
251.465	87.06
251.698	75.06
251.931	74.06
252.164	81.06
252.397	76.06
252.63	75.06
252.863	73.06
253.096	74.06
253.329	67.06
253.562	71.06
253.795	89.06
254.028	79.06
254.261	82.06
254.494	77.06
254.727	67.06
254.96	80.06
255.193	87.06
255.426	69.06
255.659	63.06
255.892	89.06
256.124	87.06
256.357	71.06
256.59	76.06
256.823	77.06
257.056	75.06
257.289	75.06
257.521	74.06
257.754	69.06
257.987	79.06
258.22	93.06
258.452	69.06
258.685	79.06
258.918	80.06
259.151	67.06
259.383	90.06
259.616	80.06
259.849	82.06
260.081	86.06
260.314	94.06
260.547	90.06
260.779	76.06
261.012	85.06
261.244	70.06
261.477	77.06
261.71	102.06
261.942	99.06
262.175	110.06
262.407	94.06
262.64	80.06
262.872	73.06
263.105	72.06
263.337	86.06
263.57	80.06
263.802	77.06
264.035	94.06
264.267	81.06
264.499	83.06
264.732	77.06
264.964	87.06
265.197	78.06
265.429	82.06
265.661	82.06
265.894	78.06
266.126	79.06
266.358	86.06
266.591	87.06
266.823	92.06
267.055	91.06
267.287	73.06
267.52	81.06
267.752	92.06
267.984	83.06
268.216	83.06
268.448	90.06
268.681	83.06
268.913	81.06
269.145	83.06
269.377	79.06
269.609	71.06
269.841	93.06
270.073	65.06
270.306	90.06
270.538	83.06
270.77	90.06
271.002	86.06
271.234	88.06
271.466	78.06
271.698	78.06
271.93	79.06
272.162	91.06
272.394	89.06
272.626	59.06
272.858	91.06
273.09	86.06
273.322	94.06
273.553	69.06
273.785	89.06
274.017	85.06
274.249	82.06
274.481	84.06
274.713	82.06
274.945	72.06
275.176	82.06
275.408	93.06
275.64	83.06
275.872	83.06
276.104	82.06
276.335	96.06
276.567	90.06
276.799	93.06
277.031	109.06
277.262	97.06
277.494	87.06
277.726	85.06
277.957	80.06
278.189	85.06
278.421	96.06
278.652	96.06
278.884	96.06
279.115	88.06
279.347	91.06
279.579	90.06
279.81	87.06
280.042	84.06
280.273	94.06
280.505	97.06
280.736	93.06
280.968	81.06
281.199	100.06
281.431	93.06
281.662	74.06
281.894	94.06
282.125	98.06
282.356	110.06
282.588	126.06
282.819	106.06
283.051	78.06
283.282	96.06
283.513	97.06
283.745	99.06
283.976	95.06
284.207	88.06
284.439	88.06
284.67	81.06
284.901	99.06
285.132	76.06
285.364	83.06
285.595	71.06
285.826	93.06
286.057	82.06
286.288	87.06
286.52	90.06
286.751	90.06
286.982	90.06
287.213	86.06
287.444	70.06
287.675	88.06
287.906	87.06
288.138	91.06
288.369	87.06
288.6	96.06
288.831	87.06
289.062	85.06
289.293	90.06
289.524	81.06
289.755	91.06
289.986	95.06
290.217	85.06
290.448	89.06
290.679	83.06
290.91	83.06
291.141	90.06
291.371	81.06
291.602	94.06
291.833	85.06
292.064	89.06
292.295	102.06
292.526	96.06
292.757	79.06
292.987	79.06
293.218	88.06
293.449	78.06
293.68	61.06
293.91	87.06
294.141	84.06
294.372	89.06
294.603	97.06
294.833	86.06
295.064	77.06
295.295	88.06
295.525	89.06
295.756	101.06
295.987	110.06
296.217	117.06
296.448	114.06
296.679	94.06
296.909	95.06
297.14	90.06
297.37	93.06
297.601	85.06
297.831	85.06
298.062	83.06
298.292	87.06
298.523	94.06
298.753	81.06
298.984	85.06
299.214	92.06
299.445	83.06
299.675	85.06
299.905	76.06
300.136	95.06
300.366	83.06
300.597	89.06
300.827	93.06
301.057	96.06
301.288	94.06
301.518	94.06
301.748	92.06
301.979	90.06
302.209	93.06
302.439	97.06
302.669	94.06
302.9	90.06
303.13	89.06
303.36	92.06
303.59	93.06
303.82	100.06
304.051	77.06
304.281	88.06
304.511	81.06
304.741	85.06
304.971	107.06
305.201	92.06
305.431	94.06
305.661	85.06
305.891	90.06
306.121	86.06
306.352	97.06
306.582	97.06
306.812	90.06
307.042	87.06
307.272	95.06
307.502	88.06
307.731	110.06
307.961	103.06
308.191	74.06
308.421	82.06
308.651	109.06
308.881	91.06
309.111	93.06
309.341	83.06
309.571	97.06
309.8	74.06
310.03	93.06
310.26	101.06
310.49	100.06
310.72	90.06
310.949	89.06
311.179	96.06
311.409	80.06
311.639	104.06
311.868	90.06
312.098	91.06
312.328	96.06
312.557	83.06
312.787	90.06
313.017	89.06
313.246	102.06
313.476	99.06
313.706	83.06
313.935	82.06
314.165	103.06
314.394	98.06
314.624	93.06
314.853	98.06
315.083	86.06
315.312	89.06
315.542	87.06
315.771	83.06
316.001	99.06
316.23	89.06
316.46	86.06
316.689	101.06
316.919	102.06
317.148	95.06
317.377	98.06
317.607	97.06
317.836	98.06
318.065	94.06
318.295	83.06
318.524	82.06
318.753	113.06
318.983	93.06
319.212	90.06
319.441	88.06
319.67	101.06
319.9	98.06
320.129	97.06
320.358	99.06
320.587	103.06
320.816	93.06
321.046	93.06
321.275	89.06
321.504	98.06
321.733	90.06
321.962	85.06
322.191	85.06
322.42	101.06
322.649	106.06
322.878	100.06
323.108	99.06
323.337	117.06
323.566	129.06
323.795	136.06
324.024	176.06
324.253	313.06
324.482	671.06
324.71	1365.06
324.939	1812.06
325.168	667.06
325.397	221.06
325.626	140.06
325.855	126.06
326.084	126.06
326.313	121.06
326.542	132.06
326.77	200.06
326.999	385.06
327.228	775.06
327.457	1362.06
327.686	1109.06
327.914	313.06
328.143	179.06
328.372	132.06
328.6	111.06
328.829	106.06
329.058	110.06
329.287	127.06
329.515	106.06
329.744	102.06
329.972	90.06
330.201	101.06
330.43	115.06
330.658	102.06
330.887	126.06
331.115	110.06
331.344	105.06
331.572	99.06
331.801	98.06
332.03	95.06
332.258	91.06
332.486	90.06
332.715	111.06
332.943	94.06
333.172	101.06
333.4	93.06
333.629	113.06
333.857	92.06
334.085	101.06
334.314	101.06
334.542	98.06
334.771	99.06
334.999	86.06
335.227	106.06
335.455	93.06
335.684	97.06
335.912	96.06
336.14	95.06
336.369	81.06
336.597	97.06
336.825	84.06
337.053	89.06
337.281	81.06
337.51	89.06
337.738	105.06
337.966	93.06
338.194	86.06
338.422	96.06
338.65	93.06
338.878	87.06
339.106	87.06
339.334	83.06
339.562	87.06
339.79	98.06
340.018	99.06
340.246	85.06
340.474	96.06
340.702	80.06
340.93	91.06
341.158	80.06
341.386	91.06
341.614	87.06
341.842	95.06
342.07	89.06
342.298	88.06
342.526	84.06
342.754	90.06
342.981	87.06
343.209	89.06
343.437	98.06
343.665	76.06
343.893	84.06
344.12	98.06
344.348	87.06
344.576	92.06
344.804	77.06
345.031	90.06
345.259	101.06
345.487	89.06
345.714	94.06
345.942	87.06
346.17	90.06
346.397	94.06
346.625	99.06
346.853	102.06
347.08	93.06
347.308	87.06
347.535	96.06
347.763	87.06
347.99	77.06
348.218	97.06
348.445	97.06
348.673	104.06
348.9	96.06
349.128	95.06
349.355	101.06
349.583	99.06
349.81	103.06
350.037	113.06
350.265	97.06
350.492	101.06
350.72	102.06
350.947	98.06
351.174	102.06
351.402	111.06
351.629	95.06
351.856	89.06
352.083	101.06
352.311	103.06
352.538	101.06
352.765	102.06
352.992	98.06
353.22	104.06
353.447	88.06
353.674	102.06
353.901	94.06
354.128	85.06
354.355	89.06
354.583	102.06
354.81	94.06
355.037	112.06
355.264	99.06
355.491	94.06
355.718	82.06
355.945	99.06
356.172	85.06
356.399	104.06
356.626	110.06
356.853	88.06
357.08	95.06
357.307	97.06
357.534	89.06
357.761	90.06
357.988	95.06
358.215	89.06
358.441	96.06
358.668	93.06
358.895	99.06
359.122	104.06
359.349	95.06
359.576	70.06
359.802	95.06
360.029	94.06
360.256	106.06
360.483	101.06
360.709	104.06
360.936	96.06
361.163	100.06
361.39	98.06
361.616	93.06
361.843	95.06
362.07	92.06
362.296	97.06
362.523	94.06
362.749	102.06
362.976	96.06
363.203	90.06
363.429	101.06
363.656	86.06
363.882	88.06
364.109	90.06
364.335	89.06
364.562	92.06
364.788	90.06
365.015	102.06
365.241	98.06
365.468	113.06
365.694	92.06
365.92	84.06
366.147	90.06
366.373	86.06
366.599	77.06
366.826	91.06
367.052	98.06
367.278	95.06
367.505	89.06
367.731	96.06
367.957	81.06
368.184	82.06
368.41	107.06
368.636	106.06
368.862	110.06
369.089	105.06
369.315	98.06
369.541	91.06
369.767	77.06
369.993	81.06
370.219	98.06
370.445	83.06
370.672	78.06
370.898	90.06
371.124	77.06
371.35	81.06
371.576	87.06
371.802	90.06
372.028	81.06
372.254	92.06
372.48	84.06
372.706	89.06
372.932	84.06
373.158	80.06
373.384	87.06
373.61	97.06
373.835	99.06
374.061	89.06
374.287	85.06
374.513	89.06
374.739	75.06
374.965	96.06
375.191	97.06
375.416	92.06
375.642	89.06
375.868	90.06
376.094	86.06
376.319	82.06
376.545	81.06
376.771	89.06
376.997	96.06
377.222	83.06
377.448	83.06
377.674	100.06
377.899	97.06
378.125	85.06
378.35	101.06
378.576	94.06
378.802	87.06
379.027	84.06
379.253	97.06
379.478	82.06
379.704	88.06
379.929	97.06
380.155	101.06
380.38	94.06
380.606	102.06
380.831	85.06
381.057	101.06
381.282	104.06
381.507	96.06
381.733	81.06
381.958	100.06
382.184	93.06
382.409	85.06
382.634	97.06
382.86	99.06
383.085	85.06
383.31	103.06
383.535	89.06
383.761	101.06
383.986	89.06
384.211	89.06
384.436	87.06
384.662	99.06
384.887	93.06
385.112	100.06
385.337	98.06
385.562	84.06
385.787	104.06
386.013	104.06
386.238	114.06
386.463	95.06
386.688	103.06
386.913	98.06
387.138	87.06
387.363	107.06
387.588	104.06
387.813	100.06
388.038	117.06
388.263	99.06
388.488	97.06
388.713	94.06
388.938	100.06
389.163	102.06
389.387	97.06
389.612	100.06
389.837	88.06
390.062	89.06
390.287	95.06
390.512	98.06
390.736	87.06
390.961	102.06
391.186	73.06
391.411	90.06
391.636	88.06
391.86	85.06
392.085	83.06
392.31	90.06
392.534	93.06
392.759	87.06
392.984	89.06
393.208	87.06
393.433	90.06
393.658	93.06
393.882	93.06
394.107	96.06
394.331	89.06
394.556	86.06
394.78	77.06
395.005	94.06
395.229	85.06
395.454	83.06
395.678	88.06
395.903	97.06
396.127	101.06
396.352	74.06
396.576	87.06
396.801	85.06
397.025	90.06
397.249	104.06
397.474	92.06
397.698	68.06
397.922	86.06
398.147	101.06
398.371	88.06
398.595	94.06
398.82	77.06
399.044	86.06
399.268	79.06
399.492	87.06
399.717	78.06
399.941	83.06
400.165	93.06
400.389	97.06
400.613	74.06
400.837	72.06
401.062	81.06
401.286	97.06
401.51	89.06
401.734	96.06
401.958	105.06
402.182	118.06
402.406	133.06
402.63	103.06
402.854	97.06
403.078	86.06
403.302	88.06
403.526	97.06
403.75	84.06
403.974	87.06
404.198	78.06
404.422	85.06
404.645	92.06
404.869	95.06
405.093	89.06
405.317	85.06
405.541	93.06
405.765	100.06
405.988	107.06
406.212	147.06
406.436	201.06
406.66	135.06
406.883	99.06
407.107	102.06
407.331	99.06
407.555	97.06
407.778	105.06
408.002	90.06
408.226	85.06
408.449	92.06
408.673	76.06
408.896	106.06
409.12	98.06
409.344	110.06
409.567	93.06
409.791	95.06
410.014	105.06
410.238	73.06
410.461	94.06
410.685	90.06
410.908	106.06
411.132	108.06
411.355	84.06
411.578	69.06
411.802	85.06
412.025	85.06
412.249	83.06
412.472	90.06
412.695	86.06
412.919	87.06
413.142	93.06
413.365	94.06
413.589	80.06
413.812	88.06
414.035	84.06
414.258	82.06
414.482	83.06
414.705	100.06
414.928	85.06
415.151	79.06
415.374	96.06
415.597	82.06
415.821	92.06
416.044	85.06
416.267	97.06
416.49	84.06
416.713	104.06
416.936	80.06
417.159	88.06
417.382	87.06
417.605	79.06
417.828	96.06
418.051	85.06
418.274	77.06
418.497	91.06
418.72	97.06
418.943	86.06
419.166	79.06
419.389	88.06
419.611	90.06
419.834	79.06
420.057	80.06
420.28	84.06
420.503	80.06
420.726	74.06
420.948	84.06
421.171	98.06
421.394	97.06
421.617	74.06
421.839	85.06
422.062	102.06
422.285	98.06
422.507	101.06
422.73	102.06
422.953	103.06
423.175	104.06
423.398	92.06
423.621	89.06
423.843	78.06
424.066	89.06
424.288	85.06
424.511	104.06
424.733	83.06
424.956	90.06
425.178	90.06
425.401	99.06
425.623	78.06
425.846	85.06
426.068	77.06
426.291	85.06
426.513	90.06
426.735	90.06
426.958	100.06
427.18	86.06
427.402	107.06
427.625	138.06
427.847	112.06
428.069	107.06
428.292	86.06
428.514	90.06
428.736	96.06
428.958	83.06
429.181	86.06
429.403	90.06
429.625	90.06
429.847	91.06
430.069	82.06
430.292	89.06
430.514	93.06
430.736	82.06
430.958	73.06
431.18	88.06
431.402	93.06
431.624	81.06
431.846	81.06
432.068	86.06
432.29	95.06
432.512	91.06
432.734	92.06
432.956	98.06
433.178	94.06
433.4	107.06
433.622	80.06
433.844	93.06
434.066	91.06
434.287	91.06
434.509	90.06
434.731	95.06
434.953	108.06
435.175	83.06
435.397	90.06
435.618	85.06
435.84	90.06
436.062	110.06
436.284	118.06
436.505	98.06
436.727	97.06
436.949	104.06
437.17	88.06
437.392	81.06
437.614	97.06
437.835	103.06
438.057	102.06
438.278	101.06
438.5	93.06
438.721	111.06
438.943	108.06
439.165	83.06
439.386	90.06
439.608	104.06
439.829	110.06
440.05	105.06
440.272	125.06
440.493	98.06
440.715	88.06
440.936	85.06
441.158	86.06
441.379	81.06
441.6	96.06
441.822	90.06
442.043	88.06
442.264	104.06
442.486	101.06
442.707	92.06
442.928	109.06
443.149	97.06
443.371	118.06
443.592	107.06
443.813	114.06
444.034	98.06
444.255	96.06
444.476	96.06
444.698	87.06
444.919	102.06
445.14	119.06
445.361	124.06
445.582	136.06
445.803	130.06
446.024	120.06
446.245	129.06
446.466	112.06
446.687	86.06
446.908	90.06
447.129	86.06
447.35	91.06
447.571	94.06
447.792	96.06
448.013	96.06
448.234	111.06
448.455	89.06
448.675	100.06
448.896	124.06
449.117	96.06
449.338	88.06
449.559	114.06
449.779	111.06
450	88.06
450.221	91.06
450.442	91.06
450.662	80.06
450.883	98.06
451.104	107.06
451.324	103.06
451.545	86.06
451.766	97.06
451.986	91.06
452.207	100.06
452.428	91.06
452.648	91.06
452.869	96.06
453.089	107.06
453.31	110.06
453.53	76.06
453.751	81.06
453.971	95.06
454.192	91.06
454.412	82.06
454.633	95.06
454.853	79.06
455.073	95.06
455.294	83.06
455.514	73.06
455.734	87.06
455.955	76.06
456.175	85.06
456.395	82.06
456.616	91.06
456.836	65.06
457.056	93.06
457.276	85.06
457.497	78.06
457.717	88.06
457.937	98.06
458.157	77.06
458.377	94.06
458.598	106.06
458.818	135.06
459.038	135.06
459.258	106.06
459.478	81.06
459.698	83.06
459.918	86.06
460.138	97.06
460.358	93.06
460.578	78.06
460.798	79.06
461.018	84.06
461.238	71.06
461.458	76.06
461.678	77.06
461.898	87.06
462.118	78.06
462.338	95.06
462.558	92.06
462.777	74.06
462.997	85.06
463.217	71.06
463.437	79.06
463.657	102.06
463.876	80.06
464.096	72.06
464.316	75.06
464.536	90.06
464.755	90.06
464.975	94.06
465.195	137.06
465.414	133.06
465.634	109.06
465.854	86.06
466.073	94.06
466.293	97.06
466.512	94.06
466.732	87.06
466.951	82.06
467.171	88.06
467.391	87.06
467.61	101.06
467.829	97.06
468.049	82.06
468.268	101.06
468.488	94.06
468.707	87.06
468.927	85.06
469.146	76.06
469.365	83.06
469.585	83.06
469.804	98.06
470.023	93.06
470.243	97.06
470.462	86.06
470.681	111.06
470.901	87.06
471.12	89.06
471.339	95.06
471.558	98.06
471.777	89.06
471.997	87.06
472.216	103.06
472.435	93.06
472.654	77.06
472.873	79.06
473.092	86.06
473.311	83.06
473.53	79.06
473.749	93.06
473.968	102.06
474.187	89.06
474.406	99.06
474.625	82.06
474.844	85.06
475.063	83.06
475.282	76.06
475.501	73.06
475.72	87.06
475.939	90.06
476.158	90.06
476.377	74.06
476.596	103.06
476.814	84.06
477.033	80.06
477.252	99.06
477.471	73.06
477.69	101.06
477.908	86.06
478.127	82.06
478.346	88.06
478.564	81.06
478.783	77.06
479.002	83.06
479.22	82.06
479.439	88.06
479.658	81.06
479.876	84.06
480.095	94.06
480.313	72.06
480.532	91.06
480.751	99.06
480.969	91.06
481.188	105.06
481.406	91.06
481.624	86.06
481.843	94.06
482.061	91.06
482.28	105.06
482.498	91.06
482.717	75.06
482.935	93.06
483.153	101.06
483.372	87.06
483.59	81.06
483.808	81.06
484.027	86.06
484.245	87.06
484.463	98.06
484.681	94.06
484.9	100.06
485.118	102.06
485.336	94.06
485.554	85.06
485.772	105.06
485.99	90.06
486.209	104.06
486.427	104.06
486.645	97.06
486.863	107.06
487.081	103.06
487.299	89.06
487.517	85.06
487.735	94.06
487.953	77.06
488.171	98.06
488.389	96.06
488.607	100.06
488.825	89.06
489.043	103.06
489.261	89.06
489.479	89.06
489.696	96.06
489.914	81.06
490.132	82.06
490.35	88.06
490.568	86.06
490.786	82.06
491.003	86.06
491.221	71.06
491.439	93.06
491.657	96.06
491.874	74.06
492.092	81.06
492.31	89.06
492.527	102.06
492.745	101.06
492.963	86.06
493.18	88.06
493.398	92.06
493.615	86.06
493.833	98.06
494.05	90.06
494.268	97.06
494.485	96.06
494.703	85.06
494.92	94.06
495.138	95.06
495.355	84.06
495.573	85.06
495.79	83.06
496.008	88.06
496.225	79.06
496.442	77.06
496.66	85.06
496.877	99.06
497.094	100.06
497.312	86.06
497.529	93.06
497.746	78.06
497.963	85.06
498.181	97.06
498.398	89.06
498.615	96.06
498.832	100.06
499.049	88.06
499.267	85.06
499.484	96.06
499.701	82.06
499.918	85.06
500.135	88.06
500.352	93.06
500.569	83.06
500.786	97.06
501.003	74.06
501.22	83.06
501.437	91.06
501.654	82.06
501.871	97.06
502.088	86.06
502.305	85.06
502.522	81.06
502.739	97.06
502.956	84.06
503.172	97.06
503.389	98.06
503.606	105.06
503.823	83.06
504.04	88.06
504.256	92.06
504.473	77.06
504.69	86.06
504.907	79.06
505.123	93.06
505.34	97.06
505.557	81.06
505.773	84.06
505.99	88.06
506.207	88.06
506.423	84.06
506.64	76.06
506.856	80.06
507.073	100.06
507.289	105.06
507.506	98.06
507.722	95.06
507.939	100.06
508.155	88.06
508.372	90.06
508.588	95.06
508.805	90.06
509.021	91.06
509.238	89.06
509.454	87.06
509.67	97.06
509.887	95.06
510.103	120.06
510.319	192.06
510.536	681.06
510.752	2063.06
510.968	550.06
511.184	145.06
511.401	117.06
511.617	88.06
511.833	85.06
512.049	84.06
512.265	95.06
512.481	89.06
512.698	88.06
512.914	74.06
513.13	90.06
513.346	95.06
513.562	92.06
513.778	93.06
513.994	97.06
514.21	88.06
514.426	113.06
514.642	115.06
514.858	119.06
515.074	151.06
515.29	370.06
515.506	1224.06
515.721	457.06
515.937	137.06
516.153	105.06
516.369	102.06
516.585	93.06
