Data from Uncirc_1986_H10_HRD10591_00067.txt Node
Date: Wed Jan 03 12:14:39 EST 2024
User: Yrep
Spectrometer: HR+D1059
Trigger mode: 1
Integration Time (sec): 1.000000E-1
Scans to average: 1
Electric dark correction enabled: true
Nonlinearity correction enabled: false
Boxcar width: 0
XAxis mode: Wavelengths
Number of Pixels in Spectrum: 2048
>>>>>Begin Spectral Data<<<<<
223.165	-16.69
223.4	-16.69
223.635	-16.69
223.869	-19.69
224.104	-19.69
224.338	-24.69
224.573	-4.69
224.808	-13.69
225.042	-11.69
225.277	-4.69
225.511	-5.69
225.746	4.31
225.98	1.31
226.215	12.31
226.449	8.31
226.683	22.31
226.918	32.31
227.152	40.31
227.387	29.31
227.621	44.31
227.856	51.31
228.09	42.31
228.324	37.31
228.559	51.31
228.793	49.31
229.027	59.31
229.262	73.31
229.496	74.31
229.73	72.31
229.964	79.31
230.199	78.31
230.433	73.31
230.667	80.31
230.901	68.31
231.136	81.31
231.37	74.31
231.604	79.31
231.838	80.31
232.072	87.31
232.306	84.31
232.541	86.31
232.775	86.31
233.009	93.31
233.243	83.31
233.477	74.31
233.711	89.31
233.945	72.31
234.179	82.31
234.413	89.31
234.647	94.31
234.881	94.31
235.115	79.31
235.349	89.31
235.583	73.31
235.817	73.31
236.051	68.31
236.285	74.31
236.519	67.31
236.753	88.31
236.987	72.31
237.221	74.31
237.455	78.31
237.689	62.31
237.922	73.31
238.156	79.31
238.39	65.31
238.624	82.31
238.858	80.31
239.091	71.31
239.325	70.31
239.559	73.31
239.793	80.31
240.027	68.31
240.26	89.31
240.494	78.31
240.728	82.31
240.961	81.31
241.195	88.31
241.429	87.31
241.662	65.31
241.896	91.31
242.13	70.31
242.363	86.31
242.597	80.31
242.83	73.31
243.064	83.31
243.298	87.31
243.531	86.31
243.765	72.31
243.998	83.31
244.232	80.31
244.465	79.31
244.699	74.31
244.932	80.31
245.166	77.31
245.399	81.31
245.633	85.31
245.866	82.31
246.099	86.31
246.333	68.31
246.566	87.31
246.8	88.31
247.033	78.31
247.266	70.31
247.5	84.31
247.733	90.31
247.966	76.31
248.2	86.31
248.433	72.31
248.666	73.31
248.899	71.31
249.133	99.31
249.366	94.31
249.599	101.31
249.832	73.31
250.066	76.31
250.299	74.31
250.532	89.31
250.765	86.31
250.998	70.31
251.231	84.31
251.465	91.31
251.698	81.31
251.931	81.31
252.164	72.31
252.397	89.31
252.63	83.31
252.863	75.31
253.096	71.31
253.329	76.31
253.562	83.31
253.795	82.31
254.028	96.31
254.261	102.31
254.494	86.31
254.727	88.31
254.96	83.31
255.193	85.31
255.426	70.31
255.659	70.31
255.892	64.31
256.124	75.31
256.357	84.31
256.59	86.31
256.823	78.31
257.056	83.31
257.289	89.31
257.521	83.31
257.754	72.31
257.987	96.31
258.22	94.31
258.452	87.31
258.685	96.31
258.918	83.31
259.151	86.31
259.383	88.31
259.616	91.31
259.849	83.31
260.081	86.31
260.314	74.31
260.547	92.31
260.779	72.31
261.012	75.31
261.244	76.31
261.477	91.31
261.71	78.31
261.942	97.31
262.175	108.31
262.407	87.31
262.64	88.31
262.872	90.31
263.105	80.31
263.337	81.31
263.57	97.31
263.802	73.31
264.035	72.31
264.267	71.31
264.499	78.31
264.732	87.31
264.964	88.31
265.197	100.31
265.429	99.31
265.661	90.31
265.894	83.31
266.126	91.31
266.358	84.31
266.591	83.31
266.823	86.31
267.055	84.31
267.287	83.31
267.52	104.31
267.752	85.31
267.984	75.31
268.216	86.31
268.448	73.31
268.681	97.31
268.913	72.31
269.145	76.31
269.377	87.31
269.609	79.31
269.841	83.31
270.073	80.31
270.306	85.31
270.538	90.31
270.77	82.31
271.002	86.31
271.234	87.31
271.466	91.31
271.698	74.31
271.93	82.31
272.162	86.31
272.394	78.31
272.626	75.31
272.858	74.31
273.09	88.31
273.322	107.31
273.553	92.31
273.785	88.31
274.017	100.31
274.249	80.31
274.481	85.31
274.713	83.31
274.945	91.31
275.176	79.31
275.408	81.31
275.64	87.31
275.872	80.31
276.104	101.31
276.335	108.31
276.567	105.31
276.799	108.31
277.031	85.31
277.262	88.31
277.494	93.31
277.726	98.31
277.957	84.31
278.189	91.31
278.421	83.31
278.652	94.31
278.884	92.31
279.115	89.31
279.347	85.31
279.579	97.31
279.81	86.31
280.042	82.31
280.273	96.31
280.505	74.31
280.736	90.31
280.968	85.31
281.199	94.31
281.431	82.31
281.662	94.31
281.894	104.31
282.125	103.31
282.356	120.31
282.588	131.31
282.819	118.31
283.051	83.31
283.282	93.31
283.513	81.31
283.745	82.31
283.976	90.31
284.207	78.31
284.439	80.31
284.67	89.31
284.901	79.31
285.132	81.31
285.364	88.31
285.595	89.31
285.826	104.31
286.057	88.31
286.288	92.31
286.52	73.31
286.751	71.31
286.982	80.31
287.213	79.31
287.444	97.31
287.675	96.31
287.906	82.31
288.138	91.31
288.369	91.31
288.6	97.31
288.831	86.31
289.062	92.31
289.293	83.31
289.524	88.31
289.755	84.31
289.986	85.31
290.217	84.31
290.448	99.31
290.679	80.31
290.91	85.31
291.141	92.31
291.371	98.31
291.602	90.31
291.833	94.31
292.064	84.31
292.295	89.31
292.526	92.31
292.757	91.31
292.987	84.31
293.218	94.31
293.449	87.31
293.68	88.31
293.91	102.31
294.141	99.31
294.372	86.31
294.603	83.31
294.833	80.31
295.064	92.31
295.295	94.31
295.525	98.31
295.756	98.31
295.987	107.31
296.217	134.31
296.448	108.31
296.679	95.31
296.909	83.31
297.14	94.31
297.37	99.31
297.601	87.31
297.831	90.31
298.062	88.31
298.292	95.31
298.523	89.31
298.753	87.31
298.984	100.31
299.214	90.31
299.445	92.31
299.675	89.31
299.905	105.31
300.136	82.31
300.366	88.31
300.597	90.31
300.827	75.31
301.057	99.31
301.288	106.31
301.518	103.31
301.748	101.31
301.979	106.31
302.209	88.31
302.439	90.31
302.669	90.31
302.9	94.31
303.13	86.31
303.36	83.31
303.59	96.31
303.82	106.31
304.051	90.31
304.281	91.31
304.511	102.31
304.741	72.31
304.971	78.31
305.201	98.31
305.431	88.31
305.661	90.31
305.891	87.31
306.121	98.31
306.352	100.31
306.582	111.31
306.812	98.31
307.042	99.31
307.272	96.31
307.502	86.31
307.731	95.31
307.961	95.31
308.191	94.31
308.421	98.31
308.651	99.31
308.881	93.31
309.111	102.31
309.341	93.31
309.571	90.31
309.8	95.31
310.03	82.31
310.26	84.31
310.49	95.31
310.72	87.31
310.949	102.31
311.179	89.31
311.409	90.31
311.639	89.31
311.868	96.31
312.098	88.31
312.328	91.31
312.557	94.31
312.787	90.31
313.017	108.31
313.246	90.31
313.476	84.31
313.706	87.31
313.935	106.31
314.165	92.31
314.394	97.31
314.624	91.31
314.853	97.31
315.083	99.31
315.312	96.31
315.542	87.31
315.771	88.31
316.001	90.31
316.23	76.31
316.46	87.31
316.689	82.31
316.919	87.31
317.148	84.31
317.377	94.31
317.607	103.31
317.836	90.31
318.065	101.31
318.295	88.31
318.524	97.31
318.753	86.31
318.983	97.31
319.212	103.31
319.441	111.31
319.67	106.31
319.9	112.31
320.129	100.31
320.358	90.31
320.587	101.31
320.816	96.31
321.046	107.31
321.275	101.31
321.504	95.31
321.733	94.31
321.962	92.31
322.191	92.31
322.42	101.31
322.649	118.31
322.878	96.31
323.108	98.31
323.337	126.31
323.566	111.31
323.795	124.31
324.024	183.31
324.253	323.31
324.482	699.31
324.71	1313.31
324.939	1818.31
325.168	679.31
325.397	214.31
325.626	137.31
325.855	116.31
326.084	129.31
326.313	133.31
326.542	152.31
326.77	199.31
326.999	379.31
327.228	741.31
327.457	1360.31
327.686	1116.31
327.914	323.31
328.143	158.31
328.372	132.31
328.6	112.31
328.829	116.31
329.058	113.31
329.287	107.31
329.515	121.31
329.744	101.31
329.972	105.31
330.201	97.31
330.43	103.31
330.658	115.31
330.887	126.31
331.115	126.31
331.344	99.31
331.572	103.31
331.801	94.31
332.03	112.31
332.258	117.31
332.486	103.31
332.715	87.31
332.943	87.31
333.172	111.31
333.4	96.31
333.629	97.31
333.857	111.31
334.085	104.31
334.314	108.31
334.542	113.31
334.771	104.31
334.999	91.31
335.227	102.31
335.455	89.31
335.684	101.31
335.912	84.31
336.14	89.31
336.369	94.31
336.597	103.31
336.825	86.31
337.053	92.31
337.281	91.31
337.51	95.31
337.738	86.31
337.966	99.31
338.194	90.31
338.422	94.31
338.65	90.31
338.878	81.31
339.106	97.31
339.334	100.31
339.562	93.31
339.79	95.31
340.018	98.31
340.246	96.31
340.474	88.31
340.702	72.31
340.93	91.31
341.158	88.31
341.386	84.31
341.614	91.31
341.842	97.31
342.07	86.31
342.298	110.31
342.526	98.31
342.754	96.31
342.981	93.31
343.209	90.31
343.437	107.31
343.665	92.31
343.893	81.31
344.12	104.31
344.348	104.31
344.576	94.31
344.804	92.31
345.031	95.31
345.259	92.31
345.487	93.31
345.714	85.31
345.942	89.31
346.17	94.31
346.397	82.31
346.625	79.31
346.853	94.31
347.08	89.31
347.308	86.31
347.535	107.31
347.763	90.31
347.99	85.31
348.218	97.31
348.445	110.31
348.673	110.31
348.9	94.31
349.128	91.31
349.355	87.31
349.583	94.31
349.81	94.31
350.037	93.31
350.265	96.31
350.492	85.31
350.72	90.31
350.947	94.31
351.174	114.31
351.402	104.31
351.629	98.31
351.856	90.31
352.083	90.31
352.311	98.31
352.538	124.31
352.765	112.31
352.992	102.31
353.22	112.31
353.447	98.31
353.674	86.31
353.901	104.31
354.128	95.31
354.355	96.31
354.583	83.31
354.81	84.31
355.037	98.31
355.264	89.31
355.491	98.31
355.718	103.31
355.945	99.31
356.172	102.31
356.399	106.31
356.626	104.31
356.853	99.31
357.08	88.31
357.307	86.31
357.534	93.31
357.761	82.31
357.988	92.31
358.215	84.31
358.441	106.31
358.668	91.31
358.895	78.31
359.122	99.31
359.349	88.31
359.576	86.31
359.802	88.31
360.029	99.31
360.256	86.31
360.483	96.31
360.709	106.31
360.936	98.31
361.163	87.31
361.39	94.31
361.616	91.31
361.843	96.31
362.07	93.31
362.296	92.31
362.523	92.31
362.749	103.31
362.976	96.31
363.203	91.31
363.429	84.31
363.656	82.31
363.882	82.31
364.109	90.31
364.335	100.31
364.562	84.31
364.788	92.31
365.015	92.31
365.241	91.31
365.468	91.31
365.694	107.31
365.92	83.31
366.147	94.31
366.373	89.31
366.599	80.31
366.826	88.31
367.052	87.31
367.278	101.31
367.505	86.31
367.731	99.31
367.957	95.31
368.184	84.31
368.41	92.31
368.636	100.31
368.862	102.31
369.089	96.31
369.315	99.31
369.541	107.31
369.767	91.31
369.993	84.31
370.219	83.31
370.445	108.31
370.672	84.31
370.898	97.31
371.124	82.31
371.35	91.31
371.576	88.31
371.802	91.31
372.028	92.31
372.254	88.31
372.48	90.31
372.706	98.31
372.932	93.31
373.158	99.31
373.384	99.31
373.61	95.31
373.835	97.31
374.061	81.31
374.287	79.31
374.513	84.31
374.739	99.31
374.965	83.31
375.191	78.31
375.416	89.31
375.642	103.31
375.868	97.31
376.094	80.31
376.319	76.31
376.545	105.31
376.771	90.31
376.997	92.31
377.222	83.31
377.448	94.31
377.674	87.31
377.899	103.31
378.125	84.31
378.35	96.31
378.576	91.31
378.802	82.31
379.027	98.31
379.253	98.31
379.478	92.31
379.704	87.31
379.929	78.31
380.155	103.31
380.38	100.31
380.606	108.31
380.831	74.31
381.057	81.31
381.282	102.31
381.507	101.31
381.733	94.31
381.958	95.31
382.184	97.31
382.409	99.31
382.634	108.31
382.86	95.31
383.085	95.31
383.31	90.31
383.535	94.31
383.761	104.31
383.986	101.31
384.211	91.31
384.436	109.31
384.662	101.31
384.887	84.31
385.112	88.31
385.337	87.31
385.562	91.31
385.787	103.31
386.013	86.31
386.238	109.31
386.463	103.31
386.688	111.31
386.913	84.31
387.138	91.31
387.363	99.31
387.588	97.31
387.813	99.31
388.038	90.31
388.263	106.31
388.488	100.31
388.713	102.31
388.938	83.31
389.163	108.31
389.387	100.31
389.612	94.31
389.837	98.31
390.062	101.31
390.287	91.31
390.512	85.31
390.736	88.31
390.961	83.31
391.186	103.31
391.411	101.31
391.636	100.31
391.86	86.31
392.085	82.31
392.31	101.31
392.534	80.31
392.759	76.31
392.984	105.31
393.208	79.31
393.433	81.31
393.658	83.31
393.882	90.31
394.107	91.31
394.331	87.31
394.556	96.31
394.78	94.31
395.005	97.31
395.229	83.31
395.454	99.31
395.678	85.31
395.903	97.31
396.127	90.31
396.352	90.31
396.576	90.31
396.801	85.31
397.025	68.31
397.249	82.31
397.474	95.31
397.698	94.31
397.922	85.31
398.147	83.31
398.371	100.31
398.595	87.31
398.82	78.31
399.044	82.31
399.268	89.31
399.492	94.31
399.717	100.31
399.941	88.31
400.165	95.31
400.389	94.31
400.613	95.31
400.837	88.31
401.062	89.31
401.286	82.31
401.51	88.31
401.734	97.31
401.958	91.31
402.182	107.31
402.406	130.31
402.63	110.31
402.854	84.31
403.078	84.31
403.302	76.31
403.526	86.31
403.75	86.31
403.974	90.31
404.198	84.31
404.422	95.31
404.645	97.31
404.869	89.31
405.093	87.31
405.317	93.31
405.541	95.31
405.765	96.31
405.988	107.31
406.212	142.31
406.436	196.31
406.66	122.31
406.883	80.31
407.107	108.31
407.331	89.31
407.555	96.31
407.778	94.31
408.002	91.31
408.226	65.31
408.449	98.31
408.673	82.31
408.896	102.31
409.12	97.31
409.344	92.31
409.567	76.31
409.791	102.31
410.014	104.31
410.238	81.31
410.461	95.31
410.685	91.31
410.908	85.31
411.132	101.31
411.355	106.31
411.578	88.31
411.802	92.31
412.025	98.31
412.249	98.31
412.472	83.31
412.695	86.31
412.919	84.31
413.142	109.31
413.365	81.31
413.589	75.31
413.812	95.31
414.035	98.31
414.258	100.31
414.482	91.31
414.705	89.31
414.928	71.31
415.151	98.31
415.374	90.31
415.597	91.31
415.821	101.31
416.044	84.31
416.267	73.31
416.49	78.31
416.713	89.31
416.936	92.31
417.159	96.31
417.382	83.31
417.605	87.31
417.828	89.31
418.051	78.31
418.274	102.31
418.497	96.31
418.72	81.31
418.943	83.31
419.166	101.31
419.389	82.31
419.611	85.31
419.834	90.31
420.057	98.31
420.28	96.31
420.503	73.31
420.726	97.31
420.948	86.31
421.171	87.31
421.394	85.31
421.617	87.31
421.839	94.31
422.062	95.31
422.285	87.31
422.507	105.31
422.73	89.31
422.953	85.31
423.175	103.31
423.398	94.31
423.621	92.31
423.843	88.31
424.066	76.31
424.288	74.31
424.511	86.31
424.733	82.31
424.956	95.31
425.178	95.31
425.401	108.31
425.623	97.31
425.846	91.31
426.068	79.31
426.291	90.31
426.513	89.31
426.735	73.31
426.958	105.31
427.18	101.31
427.402	135.31
427.625	148.31
427.847	121.31
428.069	107.31
428.292	89.31
428.514	97.31
428.736	86.31
428.958	81.31
429.181	83.31
429.403	75.31
429.625	82.31
429.847	90.31
430.069	92.31
430.292	90.31
430.514	99.31
430.736	91.31
430.958	90.31
431.18	87.31
431.402	75.31
431.624	82.31
431.846	89.31
432.068	95.31
432.29	76.31
432.512	95.31
432.734	96.31
432.956	84.31
433.178	90.31
433.4	106.31
433.622	94.31
433.844	74.31
434.066	89.31
434.287	94.31
434.509	81.31
434.731	91.31
434.953	93.31
435.175	94.31
435.397	89.31
435.618	95.31
435.84	102.31
436.062	114.31
436.284	111.31
436.505	99.31
436.727	106.31
436.949	96.31
437.17	96.31
437.392	93.31
437.614	111.31
437.835	101.31
438.057	116.31
438.278	104.31
438.5	97.31
438.721	108.31
438.943	88.31
439.165	94.31
439.386	80.31
439.608	95.31
439.829	99.31
440.05	105.31
440.272	128.31
440.493	91.31
440.715	86.31
440.936	87.31
441.158	96.31
441.379	100.31
441.6	90.31
441.822	96.31
442.043	82.31
442.264	86.31
442.486	89.31
442.707	100.31
442.928	94.31
443.149	119.31
443.371	130.31
443.592	89.31
443.813	102.31
444.034	103.31
444.255	94.31
444.476	90.31
444.698	90.31
444.919	85.31
445.14	124.31
445.361	101.31
445.582	103.31
445.803	122.31
446.024	111.31
446.245	120.31
446.466	101.31
446.687	80.31
446.908	94.31
447.129	91.31
447.35	86.31
447.571	86.31
447.792	92.31
448.013	89.31
448.234	92.31
448.455	91.31
448.675	114.31
448.896	106.31
449.117	99.31
449.338	104.31
449.559	137.31
449.779	117.31
450	84.31
450.221	86.31
450.442	93.31
450.662	87.31
450.883	108.31
451.104	92.31
451.324	98.31
451.545	86.31
451.766	81.31
451.986	103.31
452.207	106.31
452.428	92.31
452.648	89.31
452.869	108.31
453.089	107.31
453.31	112.31
453.53	88.31
453.751	90.31
453.971	87.31
454.192	93.31
454.412	94.31
454.633	85.31
454.853	85.31
455.073	93.31
455.294	96.31
455.514	102.31
455.734	83.31
455.955	92.31
456.175	81.31
456.395	82.31
456.616	90.31
456.836	83.31
457.056	85.31
457.276	88.31
457.497	83.31
457.717	82.31
457.937	80.31
458.157	90.31
458.377	78.31
458.598	97.31
458.818	128.31
459.038	125.31
459.258	91.31
459.478	84.31
459.698	102.31
459.918	87.31
460.138	94.31
460.358	97.31
460.578	95.31
460.798	79.31
461.018	97.31
461.238	99.31
461.458	97.31
461.678	87.31
461.898	81.31
462.118	90.31
462.338	83.31
462.558	78.31
462.777	90.31
462.997	68.31
463.217	88.31
463.437	98.31
463.657	70.31
463.876	82.31
464.096	76.31
464.316	82.31
464.536	84.31
464.755	81.31
464.975	106.31
465.195	142.31
465.414	127.31
465.634	90.31
465.854	86.31
466.073	76.31
466.293	89.31
466.512	74.31
466.732	79.31
466.951	97.31
467.171	87.31
467.391	82.31
467.61	102.31
467.829	90.31
468.049	88.31
468.268	94.31
468.488	86.31
468.707	95.31
468.927	72.31
469.146	95.31
469.365	86.31
469.585	78.31
469.804	103.31
470.023	84.31
470.243	94.31
470.462	95.31
470.681	98.31
470.901	77.31
471.12	90.31
471.339	81.31
471.558	89.31
471.777	83.31
471.997	80.31
472.216	112.31
472.435	96.31
472.654	87.31
472.873	80.31
473.092	85.31
473.311	88.31
473.53	87.31
473.749	93.31
473.968	100.31
474.187	109.31
474.406	100.31
474.625	100.31
474.844	88.31
475.063	99.31
475.282	78.31
475.501	89.31
475.72	91.31
475.939	82.31
476.158	80.31
476.377	82.31
476.596	80.31
476.814	77.31
477.033	100.31
477.252	80.31
477.471	89.31
477.69	95.31
477.908	84.31
478.127	84.31
478.346	91.31
478.564	87.31
478.783	81.31
479.002	84.31
479.22	94.31
479.439	76.31
479.658	92.31
479.876	84.31
480.095	95.31
480.313	87.31
480.532	82.31
480.751	92.31
480.969	94.31
481.188	121.31
481.406	108.31
481.624	86.31
481.843	91.31
482.061	86.31
482.28	91.31
482.498	100.31
482.717	94.31
482.935	92.31
483.153	84.31
483.372	80.31
483.59	89.31
483.808	102.31
484.027	86.31
484.245	98.31
484.463	90.31
484.681	85.31
484.9	87.31
485.118	79.31
485.336	102.31
485.554	90.31
485.772	95.31
485.99	101.31
486.209	108.31
486.427	105.31
486.645	114.31
486.863	106.31
487.081	90.31
487.299	101.31
487.517	105.31
487.735	97.31
487.953	98.31
488.171	105.31
488.389	84.31
488.607	86.31
488.825	84.31
489.043	90.31
489.261	98.31
489.479	97.31
489.696	96.31
489.914	86.31
490.132	78.31
490.35	95.31
490.568	91.31
490.786	91.31
491.003	74.31
491.221	74.31
491.439	94.31
491.657	103.31
491.874	81.31
492.092	87.31
492.31	92.31
492.527	72.31
492.745	84.31
492.963	103.31
493.18	89.31
493.398	90.31
493.615	97.31
493.833	88.31
494.05	93.31
494.268	106.31
494.485	86.31
494.703	109.31
494.92	85.31
495.138	90.31
495.355	91.31
495.573	75.31
495.79	88.31
496.008	84.31
496.225	97.31
496.442	87.31
496.66	73.31
496.877	91.31
497.094	96.31
497.312	82.31
497.529	89.31
497.746	90.31
497.963	83.31
498.181	85.31
498.398	102.31
498.615	95.31
498.832	100.31
499.049	85.31
499.267	84.31
499.484	86.31
499.701	96.31
499.918	95.31
500.135	94.31
500.352	83.31
500.569	100.31
500.786	98.31
501.003	95.31
501.22	92.31
501.437	88.31
501.654	84.31
501.871	93.31
502.088	98.31
502.305	91.31
502.522	73.31
502.739	80.31
502.956	94.31
503.172	74.31
503.389	107.31
503.606	99.31
503.823	98.31
504.04	91.31
504.256	82.31
504.473	101.31
504.69	104.31
504.907	105.31
505.123	93.31
505.34	83.31
505.557	92.31
505.773	70.31
505.99	84.31
506.207	87.31
506.423	95.31
506.64	99.31
506.856	95.31
507.073	84.31
507.289	103.31
507.506	116.31
507.722	108.31
507.939	97.31
508.155	93.31
508.372	94.31
508.588	82.31
508.805	95.31
509.021	93.31
509.238	85.31
509.454	96.31
509.67	91.31
509.887	99.31
510.103	111.31
510.319	204.31
510.536	618.31
510.752	1877.31
510.968	531.31
511.184	144.31
511.401	99.31
511.617	87.31
511.833	97.31
512.049	80.31
512.265	103.31
512.481	96.31
512.698	91.31
512.914	86.31
513.13	92.31
513.346	86.31
513.562	85.31
513.778	91.31
513.994	92.31
514.21	102.31
514.426	107.31
514.642	121.31
514.858	113.31
515.074	140.31
515.29	330.31
515.506	1118.31
515.721	424.31
515.937	151.31
516.153	104.31
