Data from Uncirc_1986_H10_HRD10591_00023.txt Node
Date: Wed Jan 03 12:14:31 EST 2024
User: Yrep
Spectrometer: HR+D1059
Trigger mode: 1
Integration Time (sec): 1.000000E-1
Scans to average: 1
Electric dark correction enabled: true
Nonlinearity correction enabled: false
Boxcar width: 0
XAxis mode: Wavelengths
Number of Pixels in Spectrum: 2048
>>>>>Begin Spectral Data<<<<<
223.165	-11.56
223.4	-11.56
223.635	-11.56
223.869	-19.56
224.104	-19.56
224.338	-19.56
224.573	-13.56
224.808	-4.56
225.042	-10.56
225.277	-0.56
225.511	-1.56
225.746	-3.56
225.98	14.44
226.215	8.44
226.449	10.44
226.683	30.44
226.918	15.44
227.152	25.44
227.387	36.44
227.621	24.44
227.856	34.44
228.09	51.44
228.324	49.44
228.559	60.44
228.793	60.44
229.027	64.44
229.262	66.44
229.496	80.44
229.73	68.44
229.964	64.44
230.199	79.44
230.433	79.44
230.667	87.44
230.901	79.44
231.136	80.44
231.37	73.44
231.604	78.44
231.838	80.44
232.072	69.44
232.306	81.44
232.541	88.44
232.775	82.44
233.009	80.44
233.243	73.44
233.477	59.44
233.711	76.44
233.945	73.44
234.179	80.44
234.413	88.44
234.647	90.44
234.881	74.44
235.115	78.44
235.349	75.44
235.583	76.44
235.817	79.44
236.051	75.44
236.285	76.44
236.519	74.44
236.753	75.44
236.987	101.44
237.221	73.44
237.455	89.44
237.689	69.44
237.922	70.44
238.156	80.44
238.39	74.44
238.624	73.44
238.858	85.44
239.091	98.44
239.325	72.44
239.559	63.44
239.793	74.44
240.027	70.44
240.26	81.44
240.494	77.44
240.728	63.44
240.961	75.44
241.195	67.44
241.429	74.44
241.662	75.44
241.896	80.44
242.13	60.44
242.363	80.44
242.597	76.44
242.83	70.44
243.064	86.44
243.298	79.44
243.531	67.44
243.765	78.44
243.998	84.44
244.232	74.44
244.465	82.44
244.699	79.44
244.932	76.44
245.166	81.44
245.399	76.44
245.633	85.44
245.866	74.44
246.099	83.44
246.333	72.44
246.566	79.44
246.8	89.44
247.033	64.44
247.266	88.44
247.5	79.44
247.733	70.44
247.966	80.44
248.2	94.44
248.433	72.44
248.666	78.44
248.899	68.44
249.133	86.44
249.366	107.44
249.599	81.44
249.832	90.44
250.066	84.44
250.299	90.44
250.532	66.44
250.765	78.44
250.998	73.44
251.231	69.44
251.465	75.44
251.698	73.44
251.931	69.44
252.164	78.44
252.397	94.44
252.63	88.44
252.863	82.44
253.096	74.44
253.329	64.44
253.562	78.44
253.795	86.44
254.028	81.44
254.261	71.44
254.494	80.44
254.727	78.44
254.96	85.44
255.193	90.44
255.426	77.44
255.659	84.44
255.892	80.44
256.124	89.44
256.357	74.44
256.59	72.44
256.823	82.44
257.056	80.44
257.289	78.44
257.521	78.44
257.754	70.44
257.987	75.44
258.22	97.44
258.452	72.44
258.685	71.44
258.918	83.44
259.151	84.44
259.383	65.44
259.616	82.44
259.849	71.44
260.081	91.44
260.314	84.44
260.547	75.44
260.779	78.44
261.012	74.44
261.244	76.44
261.477	80.44
261.71	86.44
261.942	90.44
262.175	96.44
262.407	81.44
262.64	83.44
262.872	79.44
263.105	84.44
263.337	83.44
263.57	91.44
263.802	87.44
264.035	75.44
264.267	70.44
264.499	65.44
264.732	71.44
264.964	79.44
265.197	81.44
265.429	78.44
265.661	83.44
265.894	82.44
266.126	80.44
266.358	98.44
266.591	82.44
266.823	84.44
267.055	84.44
267.287	84.44
267.52	90.44
267.752	84.44
267.984	85.44
268.216	75.44
268.448	91.44
268.681	88.44
268.913	79.44
269.145	90.44
269.377	84.44
269.609	74.44
269.841	73.44
270.073	85.44
270.306	84.44
270.538	94.44
270.77	101.44
271.002	71.44
271.234	71.44
271.466	85.44
271.698	76.44
271.93	80.44
272.162	81.44
272.394	93.44
272.626	86.44
272.858	80.44
273.09	87.44
273.322	88.44
273.553	95.44
273.785	88.44
274.017	78.44
274.249	90.44
274.481	88.44
274.713	73.44
274.945	95.44
275.176	100.44
275.408	101.44
275.64	87.44
275.872	91.44
276.104	86.44
276.335	85.44
276.567	90.44
276.799	87.44
277.031	87.44
277.262	96.44
277.494	81.44
277.726	92.44
277.957	82.44
278.189	78.44
278.421	76.44
278.652	74.44
278.884	83.44
279.115	95.44
279.347	72.44
279.579	91.44
279.81	84.44
280.042	106.44
280.273	85.44
280.505	100.44
280.736	94.44
280.968	81.44
281.199	88.44
281.431	92.44
281.662	75.44
281.894	75.44
282.125	90.44
282.356	100.44
282.588	128.44
282.819	101.44
283.051	86.44
283.282	63.44
283.513	86.44
283.745	106.44
283.976	89.44
284.207	86.44
284.439	73.44
284.67	82.44
284.901	86.44
285.132	80.44
285.364	96.44
285.595	84.44
285.826	87.44
286.057	95.44
286.288	95.44
286.52	88.44
286.751	88.44
286.982	100.44
287.213	79.44
287.444	93.44
287.675	95.44
287.906	73.44
288.138	88.44
288.369	84.44
288.6	95.44
288.831	67.44
289.062	89.44
289.293	80.44
289.524	71.44
289.755	80.44
289.986	97.44
290.217	76.44
290.448	90.44
290.679	99.44
290.91	84.44
291.141	79.44
291.371	73.44
291.602	84.44
291.833	87.44
292.064	97.44
292.295	94.44
292.526	98.44
292.757	91.44
292.987	99.44
293.218	91.44
293.449	96.44
293.68	86.44
293.91	89.44
294.141	70.44
294.372	90.44
294.603	91.44
294.833	85.44
295.064	84.44
295.295	86.44
295.525	78.44
295.756	95.44
295.987	116.44
296.217	129.44
296.448	114.44
296.679	89.44
296.909	98.44
297.14	85.44
297.37	87.44
297.601	82.44
297.831	96.44
298.062	80.44
298.292	72.44
298.523	86.44
298.753	86.44
298.984	94.44
299.214	81.44
299.445	78.44
299.675	81.44
299.905	90.44
300.136	90.44
300.366	84.44
300.597	97.44
300.827	87.44
301.057	93.44
301.288	105.44
301.518	97.44
301.748	76.44
301.979	102.44
302.209	98.44
302.439	93.44
302.669	75.44
302.9	90.44
303.13	94.44
303.36	82.44
303.59	99.44
303.82	87.44
304.051	90.44
304.281	85.44
304.511	85.44
304.741	98.44
304.971	93.44
305.201	94.44
305.431	93.44
305.661	87.44
305.891	87.44
306.121	79.44
306.352	103.44
306.582	103.44
306.812	88.44
307.042	87.44
307.272	86.44
307.502	84.44
307.731	84.44
307.961	96.44
308.191	105.44
308.421	88.44
308.651	82.44
308.881	86.44
309.111	93.44
309.341	93.44
309.571	105.44
309.8	92.44
310.03	93.44
310.26	100.44
310.49	89.44
310.72	106.44
310.949	97.44
311.179	109.44
311.409	101.44
311.639	91.44
311.868	99.44
312.098	98.44
312.328	100.44
312.557	107.44
312.787	93.44
313.017	98.44
313.246	92.44
313.476	93.44
313.706	87.44
313.935	96.44
314.165	101.44
314.394	91.44
314.624	93.44
314.853	101.44
315.083	86.44
315.312	91.44
315.542	82.44
315.771	100.44
316.001	98.44
316.23	94.44
316.46	95.44
316.689	100.44
316.919	82.44
317.148	97.44
317.377	91.44
317.607	102.44
317.836	84.44
318.065	94.44
318.295	92.44
318.524	85.44
318.753	80.44
318.983	85.44
319.212	100.44
319.441	99.44
319.67	105.44
319.9	79.44
320.129	82.44
320.358	88.44
320.587	107.44
320.816	84.44
321.046	106.44
321.275	97.44
321.504	93.44
321.733	87.44
321.962	91.44
322.191	98.44
322.42	103.44
322.649	107.44
322.878	89.44
323.108	94.44
323.337	109.44
323.566	114.44
323.795	143.44
324.024	174.44
324.253	327.44
324.482	689.44
324.71	1363.44
324.939	1782.44
325.168	688.44
325.397	197.44
325.626	143.44
325.855	107.44
326.084	112.44
326.313	116.44
326.542	139.44
326.77	204.44
326.999	379.44
327.228	767.44
327.457	1402.44
327.686	1100.44
327.914	310.44
328.143	160.44
328.372	135.44
328.6	111.44
328.829	103.44
329.058	119.44
329.287	129.44
329.515	106.44
329.744	111.44
329.972	106.44
330.201	102.44
330.43	107.44
330.658	136.44
330.887	135.44
331.115	117.44
331.344	115.44
331.572	103.44
331.801	90.44
332.03	102.44
332.258	96.44
332.486	97.44
332.715	89.44
332.943	104.44
333.172	94.44
333.4	90.44
333.629	96.44
333.857	108.44
334.085	94.44
334.314	103.44
334.542	91.44
334.771	90.44
334.999	102.44
335.227	91.44
335.455	84.44
335.684	105.44
335.912	95.44
336.14	100.44
336.369	98.44
336.597	94.44
336.825	96.44
337.053	84.44
337.281	81.44
337.51	103.44
337.738	93.44
337.966	84.44
338.194	101.44
338.422	102.44
338.65	94.44
338.878	92.44
339.106	88.44
339.334	90.44
339.562	81.44
339.79	94.44
340.018	87.44
340.246	95.44
340.474	90.44
340.702	86.44
340.93	95.44
341.158	107.44
341.386	87.44
341.614	86.44
341.842	112.44
342.07	90.44
342.298	91.44
342.526	98.44
342.754	89.44
342.981	92.44
343.209	86.44
343.437	104.44
343.665	99.44
343.893	74.44
344.12	84.44
344.348	87.44
344.576	94.44
344.804	108.44
345.031	96.44
345.259	93.44
345.487	88.44
345.714	88.44
345.942	82.44
346.17	91.44
346.397	91.44
346.625	95.44
346.853	101.44
347.08	94.44
347.308	100.44
347.535	100.44
347.763	99.44
347.99	97.44
348.218	115.44
348.445	106.44
348.673	104.44
348.9	100.44
349.128	105.44
349.355	90.44
349.583	79.44
349.81	82.44
350.037	100.44
350.265	97.44
350.492	88.44
350.72	88.44
350.947	101.44
351.174	102.44
351.402	102.44
351.629	110.44
351.856	82.44
352.083	84.44
352.311	110.44
352.538	100.44
352.765	101.44
352.992	101.44
353.22	103.44
353.447	101.44
353.674	94.44
353.901	78.44
354.128	98.44
354.355	104.44
354.583	112.44
354.81	93.44
355.037	93.44
355.264	97.44
355.491	100.44
355.718	97.44
355.945	98.44
356.172	103.44
356.399	99.44
356.626	83.44
356.853	88.44
357.08	87.44
357.307	102.44
357.534	102.44
357.761	105.44
357.988	82.44
358.215	94.44
358.441	93.44
358.668	108.44
358.895	98.44
359.122	86.44
359.349	98.44
359.576	87.44
359.802	97.44
360.029	114.44
360.256	95.44
360.483	89.44
360.709	104.44
360.936	96.44
361.163	83.44
361.39	88.44
361.616	98.44
361.843	91.44
362.07	94.44
362.296	94.44
362.523	92.44
362.749	91.44
362.976	89.44
363.203	127.44
363.429	93.44
363.656	97.44
363.882	86.44
364.109	92.44
364.335	100.44
364.562	102.44
364.788	86.44
365.015	91.44
365.241	85.44
365.468	109.44
365.694	109.44
365.92	96.44
366.147	100.44
366.373	85.44
366.599	86.44
366.826	82.44
367.052	95.44
367.278	103.44
367.505	89.44
367.731	98.44
367.957	84.44
368.184	74.44
368.41	94.44
368.636	129.44
368.862	120.44
369.089	98.44
369.315	88.44
369.541	88.44
369.767	96.44
369.993	90.44
370.219	115.44
370.445	78.44
370.672	95.44
370.898	89.44
371.124	77.44
371.35	93.44
371.576	82.44
371.802	78.44
372.028	85.44
372.254	81.44
372.48	88.44
372.706	87.44
372.932	76.44
373.158	87.44
373.384	102.44
373.61	92.44
373.835	83.44
374.061	92.44
374.287	75.44
374.513	90.44
374.739	92.44
374.965	104.44
375.191	89.44
375.416	85.44
375.642	88.44
375.868	71.44
376.094	82.44
376.319	96.44
376.545	89.44
376.771	88.44
376.997	73.44
377.222	75.44
377.448	98.44
377.674	107.44
377.899	90.44
378.125	88.44
378.35	105.44
378.576	87.44
378.802	83.44
379.027	98.44
379.253	92.44
379.478	99.44
379.704	100.44
379.929	87.44
380.155	98.44
380.38	97.44
380.606	99.44
380.831	93.44
381.057	90.44
381.282	80.44
381.507	95.44
381.733	104.44
381.958	100.44
382.184	97.44
382.409	91.44
382.634	100.44
382.86	95.44
383.085	106.44
383.31	103.44
383.535	96.44
383.761	79.44
383.986	93.44
384.211	97.44
384.436	87.44
384.662	113.44
384.887	105.44
385.112	98.44
385.337	118.44
385.562	120.44
385.787	113.44
386.013	96.44
386.238	107.44
386.463	105.44
386.688	108.44
386.913	97.44
387.138	96.44
387.363	105.44
387.588	106.44
387.813	99.44
388.038	97.44
388.263	112.44
388.488	118.44
388.713	113.44
388.938	95.44
389.163	93.44
389.387	83.44
389.612	98.44
389.837	87.44
390.062	97.44
390.287	83.44
390.512	100.44
390.736	113.44
390.961	80.44
391.186	104.44
391.411	95.44
391.636	100.44
391.86	79.44
392.085	89.44
392.31	95.44
392.534	100.44
392.759	89.44
392.984	82.44
393.208	79.44
393.433	83.44
393.658	70.44
393.882	76.44
394.107	79.44
394.331	89.44
394.556	70.44
394.78	88.44
395.005	80.44
395.229	84.44
395.454	85.44
395.678	96.44
395.903	97.44
396.127	104.44
396.352	87.44
396.576	86.44
396.801	89.44
397.025	101.44
397.249	88.44
397.474	90.44
397.698	81.44
397.922	95.44
398.147	82.44
398.371	94.44
398.595	89.44
398.82	90.44
399.044	80.44
399.268	78.44
399.492	85.44
399.717	96.44
399.941	85.44
400.165	93.44
400.389	80.44
400.613	90.44
400.837	86.44
401.062	87.44
401.286	90.44
401.51	96.44
401.734	87.44
401.958	93.44
402.182	107.44
402.406	147.44
402.63	107.44
402.854	83.44
403.078	91.44
403.302	93.44
403.526	84.44
403.75	85.44
403.974	82.44
404.198	92.44
404.422	85.44
404.645	72.44
404.869	78.44
405.093	85.44
405.317	103.44
405.541	83.44
405.765	68.44
405.988	98.44
406.212	150.44
406.436	181.44
406.66	146.44
406.883	98.44
407.107	89.44
407.331	84.44
407.555	83.44
407.778	98.44
408.002	94.44
408.226	95.44
408.449	93.44
408.673	80.44
408.896	91.44
409.12	117.44
409.344	94.44
409.567	86.44
409.791	90.44
410.014	82.44
410.238	85.44
410.461	81.44
410.685	90.44
410.908	80.44
411.132	108.44
411.355	78.44
411.578	101.44
411.802	90.44
412.025	103.44
412.249	90.44
412.472	94.44
412.695	95.44
412.919	101.44
413.142	90.44
413.365	84.44
413.589	91.44
413.812	93.44
414.035	98.44
414.258	105.44
414.482	97.44
414.705	88.44
414.928	101.44
415.151	74.44
415.374	90.44
415.597	87.44
415.821	85.44
416.044	96.44
416.267	87.44
416.49	92.44
416.713	87.44
416.936	90.44
417.159	73.44
417.382	72.44
417.605	107.44
417.828	91.44
418.051	87.44
418.274	113.44
418.497	78.44
418.72	93.44
418.943	91.44
419.166	82.44
419.389	90.44
419.611	84.44
419.834	97.44
420.057	89.44
420.28	92.44
420.503	94.44
420.726	76.44
420.948	80.44
421.171	95.44
421.394	92.44
421.617	84.44
421.839	91.44
422.062	92.44
422.285	96.44
422.507	113.44
422.73	103.44
422.953	93.44
423.175	98.44
423.398	95.44
423.621	88.44
423.843	91.44
424.066	98.44
424.288	91.44
424.511	100.44
424.733	88.44
424.956	96.44
425.178	91.44
425.401	86.44
425.623	78.44
425.846	96.44
426.068	89.44
426.291	96.44
426.513	85.44
426.735	92.44
426.958	91.44
427.18	101.44
427.402	126.44
427.625	160.44
427.847	113.44
428.069	88.44
428.292	85.44
428.514	79.44
428.736	83.44
428.958	81.44
429.181	92.44
429.403	88.44
429.625	89.44
429.847	88.44
430.069	99.44
430.292	85.44
430.514	85.44
430.736	104.44
430.958	90.44
431.18	88.44
431.402	86.44
431.624	66.44
431.846	92.44
432.068	89.44
432.29	85.44
432.512	85.44
432.734	71.44
432.956	82.44
433.178	92.44
433.4	106.44
433.622	86.44
433.844	85.44
434.066	101.44
434.287	92.44
434.509	85.44
434.731	86.44
434.953	71.44
435.175	78.44
435.397	104.44
435.618	80.44
435.84	105.44
436.062	113.44
436.284	110.44
436.505	94.44
436.727	107.44
436.949	87.44
437.17	80.44
437.392	88.44
437.614	96.44
437.835	102.44
438.057	115.44
438.278	101.44
438.5	103.44
438.721	116.44
438.943	101.44
439.165	96.44
439.386	107.44
439.608	90.44
439.829	103.44
440.05	110.44
440.272	136.44
440.493	97.44
440.715	81.44
440.936	82.44
441.158	104.44
441.379	97.44
441.6	80.44
441.822	88.44
442.043	98.44
442.264	104.44
442.486	86.44
442.707	78.44
442.928	96.44
443.149	107.44
443.371	92.44
443.592	103.44
443.813	86.44
444.034	99.44
444.255	89.44
444.476	76.44
444.698	90.44
444.919	80.44
445.14	134.44
445.361	116.44
445.582	97.44
445.803	125.44
446.024	123.44
446.245	124.44
446.466	93.44
446.687	87.44
446.908	88.44
447.129	97.44
447.35	76.44
447.571	92.44
447.792	86.44
448.013	108.44
448.234	101.44
448.455	107.44
448.675	105.44
448.896	118.44
449.117	103.44
449.338	94.44
449.559	112.44
449.779	112.44
450	87.44
450.221	86.44
450.442	72.44
450.662	90.44
450.883	102.44
451.104	90.44
451.324	84.44
451.545	95.44
451.766	95.44
451.986	109.44
452.207	105.44
452.428	91.44
452.648	94.44
452.869	87.44
453.089	106.44
453.31	99.44
453.53	90.44
453.751	86.44
453.971	112.44
454.192	99.44
454.412	82.44
454.633	88.44
454.853	82.44
455.073	83.44
455.294	81.44
455.514	95.44
455.734	86.44
455.955	85.44
456.175	89.44
456.395	82.44
456.616	92.44
456.836	74.44
457.056	87.44
457.276	88.44
457.497	91.44
457.717	95.44
457.937	99.44
458.157	88.44
458.377	82.44
458.598	109.44
458.818	126.44
459.038	145.44
459.258	111.44
459.478	98.44
459.698	82.44
459.918	88.44
460.138	87.44
460.358	86.44
460.578	86.44
460.798	91.44
461.018	88.44
461.238	74.44
461.458	86.44
461.678	98.44
461.898	97.44
462.118	74.44
462.338	75.44
462.558	84.44
462.777	89.44
462.997	105.44
463.217	93.44
463.437	90.44
463.657	89.44
463.876	84.44
464.096	99.44
464.316	99.44
464.536	89.44
464.755	95.44
464.975	106.44
465.195	143.44
465.414	146.44
465.634	107.44
465.854	79.44
466.073	91.44
466.293	85.44
466.512	90.44
466.732	94.44
466.951	85.44
467.171	89.44
467.391	96.44
467.61	98.44
467.829	89.44
468.049	97.44
468.268	93.44
468.488	73.44
468.707	89.44
468.927	86.44
469.146	93.44
469.365	84.44
469.585	94.44
469.804	70.44
470.023	81.44
470.243	68.44
470.462	88.44
470.681	98.44
470.901	89.44
471.12	91.44
471.339	83.44
471.558	87.44
471.777	84.44
471.997	82.44
472.216	82.44
472.435	90.44
472.654	90.44
472.873	83.44
473.092	75.44
473.311	72.44
473.53	76.44
473.749	84.44
473.968	83.44
474.187	98.44
474.406	104.44
474.625	82.44
474.844	88.44
475.063	93.44
475.282	89.44
475.501	87.44
475.72	94.44
475.939	81.44
476.158	87.44
476.377	102.44
476.596	90.44
476.814	94.44
477.033	91.44
477.252	86.44
477.471	85.44
477.69	78.44
477.908	76.44
478.127	85.44
478.346	82.44
478.564	78.44
478.783	94.44
479.002	91.44
479.22	80.44
479.439	118.44
479.658	92.44
479.876	95.44
480.095	89.44
480.313	92.44
480.532	94.44
480.751	91.44
480.969	107.44
481.188	107.44
481.406	98.44
481.624	97.44
481.843	85.44
482.061	83.44
482.28	78.44
482.498	100.44
482.717	96.44
482.935	92.44
483.153	100.44
483.372	82.44
483.59	97.44
483.808	87.44
484.027	101.44
484.245	94.44
484.463	98.44
484.681	99.44
484.9	87.44
485.118	85.44
485.336	96.44
485.554	93.44
485.772	95.44
485.99	98.44
486.209	86.44
486.427	92.44
486.645	112.44
486.863	132.44
487.081	100.44
487.299	78.44
487.517	117.44
487.735	86.44
487.953	94.44
488.171	98.44
488.389	93.44
488.607	97.44
488.825	96.44
489.043	86.44
489.261	101.44
489.479	71.44
489.696	90.44
489.914	85.44
490.132	87.44
490.35	95.44
490.568	71.44
490.786	73.44
491.003	76.44
491.221	88.44
491.439	92.44
491.657	89.44
491.874	90.44
492.092	102.44
492.31	98.44
492.527	78.44
492.745	83.44
492.963	93.44
493.18	95.44
493.398	76.44
493.615	100.44
493.833	96.44
494.05	100.44
494.268	90.44
494.485	82.44
494.703	84.44
494.92	88.44
495.138	99.44
495.355	84.44
495.573	83.44
495.79	96.44
496.008	101.44
496.225	82.44
496.442	83.44
496.66	104.44
496.877	80.44
497.094	97.44
497.312	88.44
497.529	78.44
497.746	103.44
497.963	98.44
498.181	92.44
498.398	100.44
498.615	104.44
498.832	99.44
499.049	86.44
499.267	94.44
499.484	86.44
499.701	89.44
499.918	103.44
500.135	83.44
500.352	91.44
500.569	93.44
500.786	80.44
501.003	87.44
501.22	87.44
501.437	92.44
501.654	92.44
501.871	106.44
502.088	76.44
502.305	83.44
502.522	81.44
502.739	91.44
502.956	92.44
503.172	92.44
503.389	91.44
503.606	96.44
503.823	85.44
504.04	90.44
504.256	71.44
504.473	91.44
504.69	94.44
504.907	96.44
505.123	95.44
505.34	96.44
505.557	91.44
505.773	101.44
505.99	93.44
506.207	94.44
506.423	95.44
506.64	84.44
506.856	83.44
507.073	102.44
507.289	79.44
507.506	98.44
507.722	118.44
507.939	104.44
508.155	93.44
508.372	90.44
508.588	88.44
508.805	98.44
509.021	97.44
509.238	94.44
509.454	80.44
509.67	104.44
509.887	102.44
510.103	131.44
510.319	201.44
510.536	613.44
510.752	1970.44
510.968	560.44
511.184	147.44
511.401	104.44
511.617	96.44
511.833	85.44
512.049	93.44
512.265	98.44
512.481	95.44
512.698	73.44
512.914	92.44
513.13	88.44
513.346	95.44
513.562	98.44
513.778	97.44
513.994	94.44
514.21	101.44
514.426	108.44
514.642	114.44
514.858	114.44
515.074	151.44
515.29	392.44
515.506	1187.44
515.721	433.44
515.937	142.44
516.153	117.44
