Data from Uncirc_1986_H10_HRD10591_00050.txt Node
Date: Wed Jan 03 12:14:36 EST 2024
User: Yrep
Spectrometer: HR+D1059
Trigger mode: 1
Integration Time (sec): 1.000000E-1
Scans to average: 1
Electric dark correction enabled: true
Nonlinearity correction enabled: false
Boxcar width: 0
XAxis mode: Wavelengths
Number of Pixels in Spectrum: 2048
>>>>>Begin Spectral Data<<<<<
223.165	-19.88
223.4	-19.88
223.635	-19.88
223.869	-21.88
224.104	-20.88
224.338	-11.88
224.573	-28.88
224.808	-14.88
225.042	-7.88
225.277	8.12
225.511	-17.88
225.746	2.12
225.98	19.12
226.215	18.12
226.449	10.12
226.683	30.12
226.918	27.12
227.152	29.12
227.387	41.12
227.621	43.12
227.856	28.12
228.09	35.12
228.324	58.12
228.559	70.12
228.793	54.12
229.027	59.12
229.262	69.12
229.496	75.12
229.73	87.12
229.964	78.12
230.199	75.12
230.433	81.12
230.667	93.12
230.901	79.12
231.136	70.12
231.37	84.12
231.604	90.12
231.838	71.12
232.072	79.12
232.306	94.12
232.541	87.12
232.775	83.12
233.009	88.12
233.243	88.12
233.477	75.12
233.711	75.12
233.945	95.12
234.179	96.12
234.413	90.12
234.647	88.12
234.881	82.12
235.115	84.12
235.349	81.12
235.583	72.12
235.817	86.12
236.051	87.12
236.285	69.12
236.519	92.12
236.753	80.12
236.987	84.12
237.221	82.12
237.455	82.12
237.689	85.12
237.922	83.12
238.156	73.12
238.39	80.12
238.624	73.12
238.858	86.12
239.091	66.12
239.325	87.12
239.559	78.12
239.793	88.12
240.027	76.12
240.26	73.12
240.494	83.12
240.728	62.12
240.961	80.12
241.195	78.12
241.429	79.12
241.662	76.12
241.896	84.12
242.13	75.12
242.363	70.12
242.597	68.12
242.83	70.12
243.064	75.12
243.298	70.12
243.531	85.12
243.765	75.12
243.998	67.12
244.232	103.12
244.465	70.12
244.699	71.12
244.932	84.12
245.166	78.12
245.399	75.12
245.633	84.12
245.866	79.12
246.099	70.12
246.333	75.12
246.566	82.12
246.8	83.12
247.033	75.12
247.266	82.12
247.5	94.12
247.733	83.12
247.966	91.12
248.2	70.12
248.433	78.12
248.666	74.12
248.899	80.12
249.133	98.12
249.366	97.12
249.599	92.12
249.832	82.12
250.066	73.12
250.299	76.12
250.532	91.12
250.765	78.12
250.998	78.12
251.231	73.12
251.465	75.12
251.698	84.12
251.931	76.12
252.164	87.12
252.397	72.12
252.63	73.12
252.863	88.12
253.096	90.12
253.329	89.12
253.562	92.12
253.795	87.12
254.028	80.12
254.261	84.12
254.494	78.12
254.727	78.12
254.96	79.12
255.193	74.12
255.426	64.12
255.659	96.12
255.892	78.12
256.124	84.12
256.357	82.12
256.59	79.12
256.823	92.12
257.056	86.12
257.289	71.12
257.521	99.12
257.754	74.12
257.987	78.12
258.22	80.12
258.452	85.12
258.685	78.12
258.918	56.12
259.151	78.12
259.383	82.12
259.616	82.12
259.849	94.12
260.081	74.12
260.314	91.12
260.547	76.12
260.779	83.12
261.012	87.12
261.244	102.12
261.477	88.12
261.71	92.12
261.942	101.12
262.175	121.12
262.407	72.12
262.64	92.12
262.872	89.12
263.105	74.12
263.337	93.12
263.57	90.12
263.802	98.12
264.035	96.12
264.267	86.12
264.499	81.12
264.732	82.12
264.964	81.12
265.197	81.12
265.429	85.12
265.661	100.12
265.894	71.12
266.126	80.12
266.358	66.12
266.591	80.12
266.823	72.12
267.055	85.12
267.287	79.12
267.52	84.12
267.752	82.12
267.984	74.12
268.216	81.12
268.448	92.12
268.681	87.12
268.913	87.12
269.145	87.12
269.377	89.12
269.609	95.12
269.841	92.12
270.073	74.12
270.306	78.12
270.538	98.12
270.77	75.12
271.002	90.12
271.234	102.12
271.466	91.12
271.698	81.12
271.93	94.12
272.162	79.12
272.394	91.12
272.626	80.12
272.858	90.12
273.09	87.12
273.322	95.12
273.553	78.12
273.785	81.12
274.017	82.12
274.249	91.12
274.481	78.12
274.713	108.12
274.945	91.12
275.176	88.12
275.408	105.12
275.64	88.12
275.872	71.12
276.104	99.12
276.335	91.12
276.567	90.12
276.799	115.12
277.031	104.12
277.262	86.12
277.494	74.12
277.726	80.12
277.957	83.12
278.189	80.12
278.421	87.12
278.652	88.12
278.884	74.12
279.115	86.12
279.347	70.12
279.579	88.12
279.81	81.12
280.042	79.12
280.273	75.12
280.505	88.12
280.736	85.12
280.968	90.12
281.199	90.12
281.431	87.12
281.662	89.12
281.894	95.12
282.125	107.12
282.356	113.12
282.588	130.12
282.819	107.12
283.051	87.12
283.282	75.12
283.513	96.12
283.745	73.12
283.976	88.12
284.207	86.12
284.439	85.12
284.67	95.12
284.901	82.12
285.132	82.12
285.364	92.12
285.595	80.12
285.826	94.12
286.057	105.12
286.288	97.12
286.52	92.12
286.751	82.12
286.982	90.12
287.213	78.12
287.444	90.12
287.675	86.12
287.906	91.12
288.138	99.12
288.369	82.12
288.6	103.12
288.831	86.12
289.062	78.12
289.293	82.12
289.524	95.12
289.755	99.12
289.986	91.12
290.217	73.12
290.448	80.12
290.679	82.12
290.91	87.12
291.141	84.12
291.371	79.12
291.602	95.12
291.833	92.12
292.064	80.12
292.295	84.12
292.526	94.12
292.757	90.12
292.987	80.12
293.218	69.12
293.449	96.12
293.68	90.12
293.91	85.12
294.141	105.12
294.372	92.12
294.603	103.12
294.833	88.12
295.064	88.12
295.295	84.12
295.525	93.12
295.756	103.12
295.987	101.12
296.217	136.12
296.448	119.12
296.679	102.12
296.909	87.12
297.14	85.12
297.37	104.12
297.601	76.12
297.831	85.12
298.062	94.12
298.292	92.12
298.523	96.12
298.753	81.12
298.984	86.12
299.214	89.12
299.445	94.12
299.675	97.12
299.905	88.12
300.136	88.12
300.366	97.12
300.597	95.12
300.827	90.12
301.057	104.12
301.288	95.12
301.518	87.12
301.748	100.12
301.979	120.12
302.209	88.12
302.439	82.12
302.669	87.12
302.9	89.12
303.13	91.12
303.36	89.12
303.59	96.12
303.82	99.12
304.051	112.12
304.281	96.12
304.511	94.12
304.741	96.12
304.971	82.12
305.201	86.12
305.431	88.12
305.661	80.12
305.891	90.12
306.121	96.12
306.352	105.12
306.582	99.12
306.812	99.12
307.042	97.12
307.272	84.12
307.502	94.12
307.731	100.12
307.961	85.12
308.191	88.12
308.421	85.12
308.651	87.12
308.881	83.12
309.111	87.12
309.341	92.12
309.571	99.12
309.8	90.12
310.03	99.12
310.26	94.12
310.49	83.12
310.72	100.12
310.949	101.12
311.179	92.12
311.409	86.12
311.639	91.12
311.868	102.12
312.098	84.12
312.328	93.12
312.557	94.12
312.787	118.12
313.017	96.12
313.246	103.12
313.476	80.12
313.706	88.12
313.935	84.12
314.165	87.12
314.394	115.12
314.624	90.12
314.853	100.12
315.083	87.12
315.312	103.12
315.542	91.12
315.771	99.12
316.001	82.12
316.23	90.12
316.46	92.12
316.689	99.12
316.919	93.12
317.148	84.12
317.377	91.12
317.607	89.12
317.836	94.12
318.065	99.12
318.295	84.12
318.524	87.12
318.753	92.12
318.983	86.12
319.212	110.12
319.441	89.12
319.67	97.12
319.9	90.12
320.129	98.12
320.358	91.12
320.587	87.12
320.816	92.12
321.046	97.12
321.275	83.12
321.504	91.12
321.733	85.12
321.962	100.12
322.191	86.12
322.42	95.12
322.649	113.12
322.878	108.12
323.108	116.12
323.337	118.12
323.566	135.12
323.795	139.12
324.024	184.12
324.253	344.12
324.482	712.12
324.71	1483.12
324.939	1970.12
325.168	734.12
325.397	221.12
325.626	127.12
325.855	115.12
326.084	115.12
326.313	122.12
326.542	146.12
326.77	196.12
326.999	420.12
327.228	830.12
327.457	1524.12
327.686	1243.12
327.914	350.12
328.143	178.12
328.372	144.12
328.6	117.12
328.829	118.12
329.058	123.12
329.287	120.12
329.515	113.12
329.744	106.12
329.972	112.12
330.201	110.12
330.43	108.12
330.658	108.12
330.887	125.12
331.115	108.12
331.344	90.12
331.572	91.12
331.801	102.12
332.03	107.12
332.258	107.12
332.486	89.12
332.715	89.12
332.943	107.12
333.172	86.12
333.4	80.12
333.629	109.12
333.857	110.12
334.085	114.12
334.314	101.12
334.542	107.12
334.771	111.12
334.999	81.12
335.227	104.12
335.455	90.12
335.684	102.12
335.912	103.12
336.14	112.12
336.369	105.12
336.597	101.12
336.825	94.12
337.053	96.12
337.281	107.12
337.51	89.12
337.738	92.12
337.966	100.12
338.194	92.12
338.422	92.12
338.65	103.12
338.878	99.12
339.106	97.12
339.334	94.12
339.562	82.12
339.79	96.12
340.018	95.12
340.246	78.12
340.474	86.12
340.702	87.12
340.93	98.12
341.158	81.12
341.386	95.12
341.614	105.12
341.842	76.12
342.07	94.12
342.298	100.12
342.526	90.12
342.754	80.12
342.981	90.12
343.209	92.12
343.437	87.12
343.665	86.12
343.893	98.12
344.12	97.12
344.348	81.12
344.576	99.12
344.804	90.12
345.031	88.12
345.259	87.12
345.487	96.12
345.714	85.12
345.942	98.12
346.17	95.12
346.397	105.12
346.625	88.12
346.853	104.12
347.08	103.12
347.308	84.12
347.535	87.12
347.763	100.12
347.99	96.12
348.218	106.12
348.445	97.12
348.673	100.12
348.9	106.12
349.128	96.12
349.355	89.12
349.583	102.12
349.81	102.12
350.037	91.12
350.265	98.12
350.492	106.12
350.72	98.12
350.947	101.12
351.174	106.12
351.402	123.12
351.629	109.12
351.856	116.12
352.083	105.12
352.311	87.12
352.538	96.12
352.765	115.12
352.992	107.12
353.22	108.12
353.447	114.12
353.674	107.12
353.901	89.12
354.128	94.12
354.355	99.12
354.583	95.12
354.81	94.12
355.037	100.12
355.264	98.12
355.491	91.12
355.718	94.12
355.945	86.12
356.172	95.12
356.399	98.12
356.626	92.12
356.853	100.12
357.08	86.12
357.307	82.12
357.534	112.12
357.761	84.12
357.988	87.12
358.215	108.12
358.441	87.12
358.668	88.12
358.895	90.12
359.122	86.12
359.349	88.12
359.576	79.12
359.802	89.12
360.029	100.12
360.256	111.12
360.483	88.12
360.709	84.12
360.936	106.12
361.163	86.12
361.39	85.12
361.616	90.12
361.843	92.12
362.07	89.12
362.296	117.12
362.523	89.12
362.749	103.12
362.976	95.12
363.203	82.12
363.429	88.12
363.656	88.12
363.882	86.12
364.109	80.12
364.335	101.12
364.562	104.12
364.788	98.12
365.015	96.12
365.241	102.12
365.468	102.12
365.694	90.12
365.92	92.12
366.147	82.12
366.373	94.12
366.599	73.12
366.826	90.12
367.052	94.12
367.278	102.12
367.505	75.12
367.731	102.12
367.957	86.12
368.184	105.12
368.41	94.12
368.636	103.12
368.862	119.12
369.089	93.12
369.315	84.12
369.541	86.12
369.767	88.12
369.993	90.12
370.219	104.12
370.445	88.12
370.672	98.12
370.898	91.12
371.124	78.12
371.35	90.12
371.576	70.12
371.802	82.12
372.028	78.12
372.254	102.12
372.48	102.12
372.706	86.12
372.932	90.12
373.158	76.12
373.384	71.12
373.61	87.12
373.835	86.12
374.061	95.12
374.287	92.12
374.513	82.12
374.739	85.12
374.965	102.12
375.191	79.12
375.416	69.12
375.642	96.12
375.868	82.12
376.094	90.12
376.319	83.12
376.545	84.12
376.771	90.12
376.997	89.12
377.222	93.12
377.448	96.12
377.674	89.12
377.899	97.12
378.125	88.12
378.35	89.12
378.576	86.12
378.802	98.12
379.027	101.12
379.253	97.12
379.478	104.12
379.704	81.12
379.929	98.12
380.155	93.12
380.38	100.12
380.606	106.12
380.831	87.12
381.057	103.12
381.282	96.12
381.507	103.12
381.733	110.12
381.958	104.12
382.184	92.12
382.409	104.12
382.634	114.12
382.86	110.12
383.085	99.12
383.31	105.12
383.535	97.12
383.761	91.12
383.986	101.12
384.211	112.12
384.436	88.12
384.662	79.12
384.887	106.12
385.112	98.12
385.337	90.12
385.562	94.12
385.787	102.12
386.013	108.12
386.238	108.12
386.463	98.12
386.688	113.12
386.913	95.12
387.138	100.12
387.363	102.12
387.588	96.12
387.813	95.12
388.038	103.12
388.263	106.12
388.488	104.12
388.713	80.12
388.938	89.12
389.163	93.12
389.387	117.12
389.612	99.12
389.837	104.12
390.062	93.12
390.287	110.12
390.512	94.12
390.736	97.12
390.961	79.12
391.186	90.12
391.411	94.12
391.636	102.12
391.86	83.12
392.085	83.12
392.31	83.12
392.534	90.12
392.759	91.12
392.984	97.12
393.208	85.12
393.433	75.12
393.658	92.12
393.882	85.12
394.107	104.12
394.331	69.12
394.556	94.12
394.78	88.12
395.005	82.12
395.229	99.12
395.454	100.12
395.678	93.12
395.903	91.12
396.127	95.12
396.352	86.12
396.576	107.12
396.801	82.12
397.025	73.12
397.249	98.12
397.474	86.12
397.698	89.12
397.922	88.12
398.147	90.12
398.371	83.12
398.595	88.12
398.82	81.12
399.044	90.12
399.268	84.12
399.492	85.12
399.717	94.12
399.941	96.12
400.165	92.12
400.389	90.12
400.613	77.12
400.837	91.12
401.062	85.12
401.286	102.12
401.51	98.12
401.734	85.12
401.958	99.12
402.182	124.12
402.406	134.12
402.63	116.12
402.854	104.12
403.078	78.12
403.302	78.12
403.526	75.12
403.75	93.12
403.974	84.12
404.198	91.12
404.422	89.12
404.645	94.12
404.869	89.12
405.093	87.12
405.317	85.12
405.541	94.12
405.765	92.12
405.988	119.12
406.212	157.12
406.436	217.12
406.66	132.12
406.883	91.12
407.107	88.12
407.331	98.12
407.555	100.12
407.778	97.12
408.002	98.12
408.226	83.12
408.449	89.12
408.673	100.12
408.896	119.12
409.12	98.12
409.344	82.12
409.567	88.12
409.791	89.12
410.014	80.12
410.238	86.12
410.461	80.12
410.685	83.12
410.908	94.12
411.132	101.12
411.355	102.12
411.578	82.12
411.802	104.12
412.025	91.12
412.249	92.12
412.472	73.12
412.695	94.12
412.919	90.12
413.142	87.12
413.365	91.12
413.589	106.12
413.812	84.12
414.035	91.12
414.258	88.12
414.482	84.12
414.705	98.12
414.928	91.12
415.151	92.12
415.374	83.12
415.597	84.12
415.821	78.12
416.044	91.12
416.267	101.12
416.49	93.12
416.713	93.12
416.936	93.12
417.159	96.12
417.382	94.12
417.605	84.12
417.828	94.12
418.051	96.12
418.274	82.12
418.497	94.12
418.72	93.12
418.943	82.12
419.166	94.12
419.389	89.12
419.611	103.12
419.834	90.12
420.057	83.12
420.28	86.12
420.503	97.12
420.726	88.12
420.948	84.12
421.171	83.12
421.394	85.12
421.617	87.12
421.839	94.12
422.062	92.12
422.285	80.12
422.507	101.12
422.73	114.12
422.953	92.12
423.175	97.12
423.398	94.12
423.621	99.12
423.843	95.12
424.066	95.12
424.288	90.12
424.511	98.12
424.733	106.12
424.956	95.12
425.178	78.12
425.401	89.12
425.623	108.12
425.846	91.12
426.068	79.12
426.291	94.12
426.513	87.12
426.735	98.12
426.958	87.12
427.18	114.12
427.402	129.12
427.625	151.12
427.847	118.12
428.069	103.12
428.292	72.12
428.514	78.12
428.736	74.12
428.958	83.12
429.181	90.12
429.403	88.12
429.625	84.12
429.847	87.12
430.069	108.12
430.292	95.12
430.514	79.12
430.736	93.12
430.958	85.12
431.18	80.12
431.402	101.12
431.624	73.12
431.846	85.12
432.068	87.12
432.29	95.12
432.512	87.12
432.734	72.12
432.956	90.12
433.178	85.12
433.4	107.12
433.622	84.12
433.844	91.12
434.066	105.12
434.287	92.12
434.509	89.12
434.731	85.12
434.953	88.12
435.175	92.12
435.397	82.12
435.618	92.12
435.84	94.12
436.062	118.12
436.284	109.12
436.505	106.12
436.727	82.12
436.949	96.12
437.17	101.12
437.392	102.12
437.614	103.12
437.835	102.12
438.057	112.12
438.278	100.12
438.5	106.12
438.721	107.12
438.943	99.12
439.165	106.12
439.386	92.12
439.608	80.12
439.829	98.12
440.05	119.12
440.272	128.12
440.493	108.12
440.715	88.12
440.936	92.12
441.158	92.12
441.379	98.12
441.6	94.12
441.822	87.12
442.043	103.12
442.264	113.12
442.486	89.12
442.707	92.12
442.928	87.12
443.149	104.12
443.371	114.12
443.592	106.12
443.813	113.12
444.034	118.12
444.255	98.12
444.476	84.12
444.698	83.12
444.919	92.12
445.14	142.12
445.361	139.12
445.582	115.12
445.803	122.12
446.024	133.12
446.245	140.12
446.466	104.12
446.687	87.12
446.908	91.12
447.129	80.12
447.35	90.12
447.571	84.12
447.792	93.12
448.013	92.12
448.234	97.12
448.455	96.12
448.675	120.12
448.896	120.12
449.117	97.12
449.338	110.12
449.559	127.12
449.779	136.12
450	100.12
450.221	88.12
450.442	98.12
450.662	94.12
450.883	108.12
451.104	102.12
451.324	98.12
451.545	88.12
451.766	98.12
451.986	102.12
452.207	100.12
452.428	103.12
452.648	90.12
452.869	109.12
453.089	109.12
453.31	119.12
453.53	99.12
453.751	108.12
453.971	107.12
454.192	107.12
454.412	99.12
454.633	86.12
454.853	90.12
455.073	85.12
455.294	92.12
455.514	98.12
455.734	80.12
455.955	90.12
456.175	86.12
456.395	88.12
456.616	93.12
456.836	89.12
457.056	84.12
457.276	81.12
457.497	90.12
457.717	89.12
457.937	88.12
458.157	97.12
458.377	100.12
458.598	94.12
458.818	137.12
459.038	145.12
459.258	100.12
459.478	81.12
459.698	88.12
459.918	85.12
460.138	76.12
460.358	91.12
460.578	85.12
460.798	86.12
461.018	92.12
461.238	90.12
461.458	86.12
461.678	87.12
461.898	81.12
462.118	98.12
462.338	79.12
462.558	84.12
462.777	93.12
462.997	84.12
463.217	86.12
463.437	93.12
463.657	82.12
463.876	89.12
464.096	81.12
464.316	92.12
464.536	97.12
464.755	94.12
464.975	88.12
465.195	152.12
465.414	131.12
465.634	89.12
465.854	104.12
466.073	94.12
466.293	88.12
466.512	92.12
466.732	74.12
466.951	101.12
467.171	94.12
467.391	94.12
467.61	105.12
467.829	94.12
468.049	89.12
468.268	65.12
468.488	80.12
468.707	82.12
468.927	90.12
469.146	83.12
469.365	87.12
469.585	84.12
469.804	99.12
470.023	90.12
470.243	86.12
470.462	99.12
470.681	106.12
470.901	92.12
471.12	86.12
471.339	73.12
471.558	78.12
471.777	80.12
471.997	84.12
472.216	86.12
472.435	99.12
472.654	97.12
472.873	92.12
473.092	98.12
473.311	94.12
473.53	95.12
473.749	88.12
473.968	106.12
474.187	102.12
474.406	95.12
474.625	96.12
474.844	95.12
475.063	96.12
475.282	84.12
475.501	84.12
475.72	79.12
475.939	90.12
476.158	74.12
476.377	85.12
476.596	92.12
476.814	86.12
477.033	90.12
477.252	103.12
477.471	92.12
477.69	88.12
477.908	92.12
478.127	98.12
478.346	93.12
478.564	94.12
478.783	99.12
479.002	84.12
479.22	88.12
479.439	99.12
479.658	98.12
479.876	104.12
480.095	95.12
480.313	96.12
480.532	75.12
480.751	88.12
480.969	90.12
481.188	105.12
481.406	88.12
481.624	82.12
481.843	88.12
482.061	86.12
482.28	89.12
482.498	85.12
482.717	106.12
482.935	94.12
483.153	92.12
483.372	86.12
483.59	95.12
483.808	87.12
484.027	84.12
484.245	108.12
484.463	84.12
484.681	93.12
484.9	95.12
485.118	87.12
485.336	87.12
485.554	97.12
485.772	111.12
485.99	89.12
486.209	98.12
486.427	116.12
486.645	111.12
486.863	112.12
487.081	102.12
487.299	88.12
487.517	104.12
487.735	93.12
487.953	87.12
488.171	99.12
488.389	88.12
488.607	108.12
488.825	94.12
489.043	97.12
489.261	101.12
489.479	86.12
489.696	102.12
489.914	81.12
490.132	90.12
490.35	103.12
490.568	96.12
490.786	68.12
491.003	91.12
491.221	104.12
491.439	90.12
491.657	105.12
491.874	88.12
492.092	98.12
492.31	73.12
492.527	92.12
492.745	70.12
492.963	82.12
493.18	89.12
493.398	101.12
493.615	103.12
493.833	97.12
494.05	92.12
494.268	83.12
494.485	79.12
494.703	92.12
494.92	93.12
495.138	98.12
495.355	108.12
495.573	84.12
495.79	91.12
496.008	84.12
496.225	95.12
496.442	84.12
496.66	84.12
496.877	91.12
497.094	82.12
497.312	76.12
497.529	97.12
497.746	99.12
497.963	81.12
498.181	93.12
498.398	108.12
498.615	123.12
498.832	98.12
499.049	74.12
499.267	86.12
499.484	89.12
499.701	98.12
499.918	104.12
500.135	100.12
500.352	80.12
500.569	84.12
500.786	96.12
501.003	97.12
501.22	80.12
501.437	99.12
501.654	96.12
501.871	117.12
502.088	95.12
502.305	97.12
502.522	89.12
502.739	87.12
502.956	88.12
503.172	91.12
503.389	89.12
503.606	95.12
503.823	87.12
504.04	88.12
504.256	81.12
504.473	84.12
504.69	82.12
504.907	89.12
505.123	83.12
505.34	82.12
505.557	90.12
505.773	100.12
505.99	92.12
506.207	102.12
506.423	82.12
506.64	73.12
506.856	88.12
507.073	80.12
507.289	79.12
507.506	95.12
507.722	103.12
507.939	89.12
508.155	99.12
508.372	84.12
508.588	88.12
508.805	98.12
509.021	95.12
509.238	105.12
509.454	86.12
509.67	93.12
509.887	90.12
510.103	128.12
510.319	197.12
510.536	658.12
510.752	2030.12
510.968	559.12
511.184	134.12
511.401	96.12
511.617	93.12
511.833	95.12
512.049	84.12
512.265	100.12
512.481	92.12
512.698	92.12
512.914	94.12
513.13	98.12
513.346	91.12
513.562	98.12
513.778	90.12
513.994	95.12
514.21	107.12
514.426	109.12
514.642	126.12
514.858	118.12
515.074	148.12
515.29	398.12
515.506	1275.12
515.721	482.12
