Data from Uncirc_1986_H10_HRD10591_00010.txt Node
Date: Wed Jan 03 12:14:28 EST 2024
User: Yrep
Spectrometer: HR+D1059
Trigger mode: 1
Integration Time (sec): 1.000000E-1
Scans to average: 1
Electric dark correction enabled: true
Nonlinearity correction enabled: false
Boxcar width: 0
XAxis mode: Wavelengths
Number of Pixels in Spectrum: 2048
>>>>>Begin Spectral Data<<<<<
223.165	-20.56
223.4	-20.56
223.635	-20.56
223.869	-17.56
224.104	-14.56
224.338	-12.56
224.573	-11.56
224.808	-11.56
225.042	-20.56
225.277	-4.56
225.511	-1.56
225.746	3.44
225.98	8.44
226.215	16.44
226.449	25.44
226.683	13.44
226.918	18.44
227.152	29.44
227.387	42.44
227.621	36.44
227.856	41.44
228.09	45.44
228.324	46.44
228.559	55.44
228.793	60.44
229.027	75.44
229.262	57.44
229.496	85.44
229.73	81.44
229.964	75.44
230.199	64.44
230.433	64.44
230.667	68.44
230.901	69.44
231.136	85.44
231.37	77.44
231.604	68.44
231.838	70.44
232.072	74.44
232.306	87.44
232.541	87.44
232.775	90.44
233.009	74.44
233.243	88.44
233.477	88.44
233.711	86.44
233.945	77.44
234.179	96.44
234.413	90.44
234.647	88.44
234.881	86.44
235.115	73.44
235.349	92.44
235.583	80.44
235.817	76.44
236.051	87.44
236.285	72.44
236.519	76.44
236.753	76.44
236.987	76.44
237.221	85.44
237.455	94.44
237.689	73.44
237.922	68.44
238.156	70.44
238.39	81.44
238.624	59.44
238.858	76.44
239.091	68.44
239.325	71.44
239.559	77.44
239.793	75.44
240.027	84.44
240.26	67.44
240.494	80.44
240.728	88.44
240.961	86.44
241.195	73.44
241.429	68.44
241.662	76.44
241.896	83.44
242.13	75.44
242.363	87.44
242.597	90.44
242.83	80.44
243.064	72.44
243.298	66.44
243.531	86.44
243.765	77.44
243.998	77.44
244.232	78.44
244.465	87.44
244.699	93.44
244.932	77.44
245.166	58.44
245.399	74.44
245.633	88.44
245.866	86.44
246.099	83.44
246.333	81.44
246.566	69.44
246.8	67.44
247.033	84.44
247.266	86.44
247.5	86.44
247.733	84.44
247.966	76.44
248.2	82.44
248.433	83.44
248.666	77.44
248.899	74.44
249.133	78.44
249.366	83.44
249.599	110.44
249.832	89.44
250.066	71.44
250.299	90.44
250.532	77.44
250.765	92.44
250.998	66.44
251.231	85.44
251.465	85.44
251.698	75.44
251.931	92.44
252.164	87.44
252.397	76.44
252.63	78.44
252.863	84.44
253.096	64.44
253.329	86.44
253.562	83.44
253.795	82.44
254.028	89.44
254.261	106.44
254.494	92.44
254.727	92.44
254.96	94.44
255.193	89.44
255.426	71.44
255.659	78.44
255.892	73.44
256.124	84.44
256.357	97.44
256.59	114.44
256.823	73.44
257.056	93.44
257.289	69.44
257.521	76.44
257.754	96.44
257.987	74.44
258.22	91.44
258.452	77.44
258.685	74.44
258.918	80.44
259.151	89.44
259.383	76.44
259.616	73.44
259.849	81.44
260.081	81.44
260.314	80.44
260.547	100.44
260.779	80.44
261.012	84.44
261.244	82.44
261.477	99.44
261.71	86.44
261.942	101.44
262.175	125.44
262.407	93.44
262.64	90.44
262.872	88.44
263.105	92.44
263.337	87.44
263.57	81.44
263.802	85.44
264.035	103.44
264.267	71.44
264.499	83.44
264.732	89.44
264.964	86.44
265.197	97.44
265.429	90.44
265.661	99.44
265.894	85.44
266.126	89.44
266.358	100.44
266.591	76.44
266.823	76.44
267.055	71.44
267.287	73.44
267.52	75.44
267.752	85.44
267.984	69.44
268.216	90.44
268.448	93.44
268.681	96.44
268.913	85.44
269.145	91.44
269.377	94.44
269.609	72.44
269.841	92.44
270.073	92.44
270.306	92.44
270.538	83.44
270.77	82.44
271.002	94.44
271.234	80.44
271.466	76.44
271.698	80.44
271.93	100.44
272.162	78.44
272.394	93.44
272.626	83.44
272.858	80.44
273.09	69.44
273.322	89.44
273.553	84.44
273.785	85.44
274.017	91.44
274.249	80.44
274.481	82.44
274.713	77.44
274.945	82.44
275.176	81.44
275.408	91.44
275.64	93.44
275.872	93.44
276.104	85.44
276.335	85.44
276.567	88.44
276.799	117.44
277.031	109.44
277.262	104.44
277.494	96.44
277.726	88.44
277.957	102.44
278.189	74.44
278.421	88.44
278.652	93.44
278.884	88.44
279.115	97.44
279.347	82.44
279.579	86.44
279.81	74.44
280.042	75.44
280.273	82.44
280.505	78.44
280.736	102.44
280.968	102.44
281.199	73.44
281.431	76.44
281.662	89.44
281.894	92.44
282.125	104.44
282.356	112.44
282.588	139.44
282.819	112.44
283.051	102.44
283.282	73.44
283.513	99.44
283.745	85.44
283.976	101.44
284.207	92.44
284.439	97.44
284.67	95.44
284.901	97.44
285.132	91.44
285.364	100.44
285.595	88.44
285.826	100.44
286.057	96.44
286.288	86.44
286.52	84.44
286.751	105.44
286.982	98.44
287.213	92.44
287.444	79.44
287.675	99.44
287.906	98.44
288.138	90.44
288.369	96.44
288.6	98.44
288.831	106.44
289.062	89.44
289.293	98.44
289.524	104.44
289.755	86.44
289.986	85.44
290.217	81.44
290.448	84.44
290.679	90.44
290.91	68.44
291.141	82.44
291.371	96.44
291.602	100.44
291.833	83.44
292.064	90.44
292.295	91.44
292.526	97.44
292.757	99.44
292.987	67.44
293.218	93.44
293.449	96.44
293.68	85.44
293.91	74.44
294.141	93.44
294.372	98.44
294.603	101.44
294.833	94.44
295.064	99.44
295.295	82.44
295.525	75.44
295.756	104.44
295.987	109.44
296.217	149.44
296.448	122.44
296.679	106.44
296.909	84.44
297.14	98.44
297.37	89.44
297.601	95.44
297.831	87.44
298.062	92.44
298.292	100.44
298.523	112.44
298.753	91.44
298.984	99.44
299.214	110.44
299.445	77.44
299.675	80.44
299.905	103.44
300.136	86.44
300.366	102.44
300.597	90.44
300.827	96.44
301.057	86.44
301.288	90.44
301.518	104.44
301.748	80.44
301.979	119.44
302.209	107.44
302.439	94.44
302.669	75.44
302.9	100.44
303.13	96.44
303.36	110.44
303.59	91.44
303.82	94.44
304.051	110.44
304.281	101.44
304.511	81.44
304.741	91.44
304.971	95.44
305.201	102.44
305.431	109.44
305.661	94.44
305.891	84.44
306.121	97.44
306.352	99.44
306.582	90.44
306.812	92.44
307.042	78.44
307.272	93.44
307.502	104.44
307.731	82.44
307.961	92.44
308.191	101.44
308.421	90.44
308.651	98.44
308.881	109.44
309.111	89.44
309.341	76.44
309.571	105.44
309.8	104.44
310.03	92.44
310.26	103.44
310.49	90.44
310.72	95.44
310.949	108.44
311.179	90.44
311.409	95.44
311.639	85.44
311.868	100.44
312.098	89.44
312.328	97.44
312.557	91.44
312.787	97.44
313.017	104.44
313.246	101.44
313.476	99.44
313.706	93.44
313.935	95.44
314.165	102.44
314.394	93.44
314.624	91.44
314.853	104.44
315.083	96.44
315.312	105.44
315.542	96.44
315.771	89.44
316.001	88.44
316.23	104.44
316.46	94.44
316.689	102.44
316.919	91.44
317.148	103.44
317.377	97.44
317.607	101.44
317.836	92.44
318.065	93.44
318.295	96.44
318.524	101.44
318.753	99.44
318.983	96.44
319.212	115.44
319.441	117.44
319.67	116.44
319.9	92.44
320.129	97.44
320.358	91.44
320.587	104.44
320.816	92.44
321.046	100.44
321.275	90.44
321.504	100.44
321.733	88.44
321.962	103.44
322.191	108.44
322.42	100.44
322.649	100.44
322.878	128.44
323.108	124.44
323.337	124.44
323.566	139.44
323.795	170.44
324.024	200.44
324.253	405.44
324.482	887.44
324.71	1840.44
324.939	2471.44
325.168	885.44
325.397	259.44
325.626	155.44
325.855	128.44
326.084	114.44
326.313	133.44
326.542	148.44
326.77	249.44
326.999	480.44
327.228	1012.44
327.457	1884.44
327.686	1532.44
327.914	401.44
328.143	196.44
328.372	149.44
328.6	137.44
328.829	113.44
329.058	129.44
329.287	140.44
329.515	117.44
329.744	111.44
329.972	104.44
330.201	102.44
330.43	110.44
330.658	115.44
330.887	140.44
331.115	129.44
331.344	103.44
331.572	102.44
331.801	105.44
332.03	108.44
332.258	88.44
332.486	106.44
332.715	106.44
332.943	97.44
333.172	104.44
333.4	112.44
333.629	113.44
333.857	123.44
334.085	108.44
334.314	94.44
334.542	96.44
334.771	98.44
334.999	106.44
335.227	96.44
335.455	101.44
335.684	98.44
335.912	104.44
336.14	94.44
336.369	91.44
336.597	96.44
336.825	96.44
337.053	85.44
337.281	86.44
337.51	89.44
337.738	100.44
337.966	100.44
338.194	104.44
338.422	96.44
338.65	91.44
338.878	98.44
339.106	88.44
339.334	96.44
339.562	94.44
339.79	97.44
340.018	99.44
340.246	100.44
340.474	97.44
340.702	101.44
340.93	87.44
341.158	91.44
341.386	93.44
341.614	96.44
341.842	101.44
342.07	92.44
342.298	80.44
342.526	93.44
342.754	90.44
342.981	85.44
343.209	94.44
343.437	103.44
343.665	90.44
343.893	87.44
344.12	91.44
344.348	92.44
344.576	107.44
344.804	112.44
345.031	97.44
345.259	108.44
345.487	78.44
345.714	98.44
345.942	94.44
346.17	105.44
346.397	109.44
346.625	101.44
346.853	110.44
347.08	84.44
347.308	106.44
347.535	113.44
347.763	94.44
347.99	89.44
348.218	86.44
348.445	101.44
348.673	100.44
348.9	102.44
349.128	98.44
349.355	96.44
349.583	85.44
349.81	89.44
350.037	103.44
350.265	111.44
350.492	96.44
350.72	113.44
350.947	103.44
351.174	115.44
351.402	115.44
351.629	113.44
351.856	100.44
352.083	107.44
352.311	93.44
352.538	95.44
352.765	124.44
352.992	120.44
353.22	106.44
353.447	106.44
353.674	99.44
353.901	93.44
354.128	88.44
354.355	108.44
354.583	105.44
354.81	90.44
355.037	95.44
355.264	86.44
355.491	84.44
355.718	96.44
355.945	93.44
356.172	96.44
356.399	71.44
356.626	92.44
356.853	97.44
357.08	91.44
357.307	96.44
357.534	96.44
357.761	101.44
357.988	95.44
358.215	109.44
358.441	108.44
358.668	103.44
358.895	92.44
359.122	86.44
359.349	84.44
359.576	98.44
359.802	111.44
360.029	112.44
360.256	98.44
360.483	120.44
360.709	96.44
360.936	104.44
361.163	99.44
361.39	95.44
361.616	93.44
361.843	92.44
362.07	99.44
362.296	99.44
362.523	98.44
362.749	106.44
362.976	87.44
363.203	97.44
363.429	84.44
363.656	93.44
363.882	93.44
364.109	102.44
364.335	94.44
364.562	91.44
364.788	85.44
365.015	93.44
365.241	120.44
365.468	119.44
365.694	97.44
365.92	102.44
366.147	98.44
366.373	97.44
366.599	76.44
366.826	78.44
367.052	86.44
367.278	96.44
367.505	89.44
367.731	104.44
367.957	100.44
368.184	105.44
368.41	86.44
368.636	115.44
368.862	118.44
369.089	116.44
369.315	108.44
369.541	92.44
369.767	108.44
369.993	100.44
370.219	98.44
370.445	81.44
370.672	77.44
370.898	103.44
371.124	91.44
371.35	85.44
371.576	90.44
371.802	83.44
372.028	93.44
372.254	92.44
372.48	92.44
372.706	91.44
372.932	80.44
373.158	90.44
373.384	109.44
373.61	87.44
373.835	90.44
374.061	93.44
374.287	107.44
374.513	97.44
374.739	84.44
374.965	89.44
375.191	92.44
375.416	90.44
375.642	84.44
375.868	85.44
376.094	87.44
376.319	96.44
376.545	94.44
376.771	96.44
376.997	93.44
377.222	84.44
377.448	88.44
377.674	105.44
377.899	98.44
378.125	98.44
378.35	101.44
378.576	102.44
378.802	84.44
379.027	107.44
379.253	92.44
379.478	97.44
379.704	108.44
379.929	97.44
380.155	78.44
380.38	91.44
380.606	93.44
380.831	88.44
381.057	104.44
381.282	86.44
381.507	92.44
381.733	100.44
381.958	94.44
382.184	101.44
382.409	100.44
382.634	103.44
382.86	89.44
383.085	99.44
383.31	111.44
383.535	95.44
383.761	100.44
383.986	103.44
384.211	104.44
384.436	99.44
384.662	99.44
384.887	103.44
385.112	82.44
385.337	101.44
385.562	113.44
385.787	104.44
386.013	97.44
386.238	113.44
386.463	108.44
386.688	110.44
386.913	110.44
387.138	103.44
387.363	114.44
387.588	102.44
387.813	97.44
388.038	86.44
388.263	113.44
388.488	106.44
388.713	90.44
388.938	96.44
389.163	99.44
389.387	94.44
389.612	107.44
389.837	92.44
390.062	106.44
390.287	94.44
390.512	85.44
390.736	86.44
390.961	105.44
391.186	99.44
391.411	92.44
391.636	92.44
391.86	87.44
392.085	76.44
392.31	84.44
392.534	96.44
392.759	82.44
392.984	97.44
393.208	89.44
393.433	97.44
393.658	99.44
393.882	95.44
394.107	89.44
394.331	94.44
394.556	76.44
394.78	110.44
395.005	88.44
395.229	91.44
395.454	87.44
395.678	103.44
395.903	97.44
396.127	91.44
396.352	93.44
396.576	86.44
396.801	104.44
397.025	91.44
397.249	80.44
397.474	107.44
397.698	87.44
397.922	92.44
398.147	95.44
398.371	77.44
398.595	76.44
398.82	100.44
399.044	82.44
399.268	85.44
399.492	92.44
399.717	92.44
399.941	99.44
400.165	92.44
400.389	93.44
400.613	85.44
400.837	79.44
401.062	98.44
401.286	90.44
401.51	104.44
401.734	93.44
401.958	113.44
402.182	125.44
402.406	155.44
402.63	119.44
402.854	104.44
403.078	100.44
403.302	101.44
403.526	74.44
403.75	75.44
403.974	103.44
404.198	92.44
404.422	93.44
404.645	85.44
404.869	77.44
405.093	90.44
405.317	95.44
405.541	92.44
405.765	103.44
405.988	114.44
406.212	170.44
406.436	231.44
406.66	131.44
406.883	106.44
407.107	92.44
407.331	104.44
407.555	95.44
407.778	91.44
408.002	92.44
408.226	97.44
408.449	90.44
408.673	88.44
408.896	106.44
409.12	107.44
409.344	92.44
409.567	85.44
409.791	91.44
410.014	92.44
410.238	90.44
410.461	96.44
410.685	90.44
410.908	95.44
411.132	102.44
411.355	105.44
411.578	91.44
411.802	75.44
412.025	85.44
412.249	79.44
412.472	82.44
412.695	94.44
412.919	90.44
413.142	83.44
413.365	90.44
413.589	92.44
413.812	93.44
414.035	82.44
414.258	91.44
414.482	83.44
414.705	97.44
414.928	101.44
415.151	102.44
415.374	115.44
415.597	86.44
415.821	83.44
416.044	94.44
416.267	97.44
416.49	98.44
416.713	90.44
416.936	88.44
417.159	103.44
417.382	85.44
417.605	89.44
417.828	93.44
418.051	88.44
418.274	91.44
418.497	91.44
418.72	96.44
418.943	83.44
419.166	84.44
419.389	108.44
419.611	101.44
419.834	92.44
420.057	109.44
420.28	103.44
420.503	98.44
420.726	74.44
420.948	88.44
421.171	94.44
421.394	99.44
421.617	112.44
421.839	87.44
422.062	98.44
422.285	104.44
422.507	113.44
422.73	118.44
422.953	100.44
423.175	87.44
423.398	91.44
423.621	94.44
423.843	84.44
424.066	96.44
424.288	88.44
424.511	92.44
424.733	96.44
424.956	101.44
425.178	98.44
425.401	102.44
425.623	100.44
425.846	90.44
426.068	106.44
426.291	89.44
426.513	89.44
426.735	91.44
426.958	99.44
427.18	106.44
427.402	147.44
427.625	167.44
427.847	123.44
428.069	104.44
428.292	92.44
428.514	91.44
428.736	101.44
428.958	98.44
429.181	89.44
429.403	93.44
429.625	97.44
429.847	75.44
430.069	100.44
430.292	91.44
430.514	87.44
430.736	107.44
430.958	114.44
431.18	85.44
431.402	89.44
431.624	97.44
431.846	93.44
432.068	84.44
432.29	91.44
432.512	94.44
432.734	81.44
432.956	93.44
433.178	99.44
433.4	103.44
433.622	92.44
433.844	75.44
434.066	92.44
434.287	100.44
434.509	107.44
434.731	94.44
434.953	88.44
435.175	94.44
435.397	99.44
435.618	100.44
435.84	124.44
436.062	152.44
436.284	130.44
436.505	101.44
436.727	116.44
436.949	102.44
437.17	94.44
437.392	85.44
437.614	104.44
437.835	114.44
438.057	130.44
438.278	112.44
438.5	112.44
438.721	140.44
438.943	102.44
439.165	85.44
439.386	73.44
439.608	86.44
439.829	96.44
440.05	130.44
440.272	158.44
440.493	103.44
440.715	83.44
440.936	97.44
441.158	90.44
441.379	78.44
441.6	90.44
441.822	100.44
442.043	111.44
442.264	110.44
442.486	103.44
442.707	94.44
442.928	108.44
443.149	129.44
443.371	134.44
443.592	115.44
443.813	112.44
444.034	100.44
444.255	98.44
444.476	84.44
444.698	89.44
444.919	94.44
445.14	130.44
445.361	110.44
445.582	110.44
445.803	148.44
446.024	141.44
446.245	139.44
446.466	104.44
446.687	95.44
446.908	92.44
447.129	91.44
447.35	83.44
447.571	100.44
447.792	100.44
448.013	113.44
448.234	103.44
448.455	113.44
448.675	116.44
448.896	115.44
449.117	97.44
449.338	110.44
449.559	126.44
449.779	153.44
450	96.44
450.221	103.44
450.442	97.44
450.662	108.44
450.883	109.44
451.104	93.44
451.324	109.44
451.545	77.44
451.766	91.44
451.986	88.44
452.207	94.44
452.428	108.44
452.648	97.44
452.869	122.44
453.089	116.44
453.31	107.44
453.53	93.44
453.751	104.44
453.971	98.44
454.192	106.44
454.412	102.44
454.633	107.44
454.853	92.44
455.073	100.44
455.294	85.44
455.514	91.44
455.734	99.44
455.955	98.44
456.175	96.44
456.395	91.44
456.616	80.44
456.836	84.44
457.056	97.44
457.276	91.44
457.497	93.44
457.717	86.44
457.937	80.44
458.157	76.44
458.377	87.44
458.598	103.44
458.818	140.44
459.038	168.44
459.258	133.44
459.478	105.44
459.698	99.44
459.918	87.44
460.138	78.44
460.358	82.44
460.578	88.44
460.798	101.44
461.018	94.44
461.238	86.44
461.458	89.44
461.678	80.44
461.898	80.44
462.118	89.44
462.338	89.44
462.558	91.44
462.777	85.44
462.997	107.44
463.217	92.44
463.437	82.44
463.657	96.44
463.876	99.44
464.096	96.44
464.316	98.44
464.536	101.44
464.755	110.44
464.975	117.44
465.195	168.44
465.414	166.44
465.634	107.44
465.854	111.44
466.073	86.44
466.293	97.44
466.512	89.44
466.732	90.44
466.951	89.44
467.171	93.44
467.391	99.44
467.61	109.44
467.829	113.44
468.049	92.44
468.268	82.44
468.488	102.44
468.707	92.44
468.927	68.44
469.146	86.44
469.365	102.44
469.585	93.44
469.804	107.44
470.023	93.44
470.243	101.44
470.462	107.44
470.681	113.44
470.901	107.44
471.12	88.44
471.339	80.44
471.558	91.44
471.777	98.44
471.997	95.44
472.216	81.44
472.435	95.44
472.654	101.44
472.873	83.44
473.092	93.44
473.311	83.44
473.53	102.44
473.749	81.44
473.968	105.44
474.187	119.44
474.406	106.44
474.625	85.44
474.844	72.44
475.063	85.44
475.282	84.44
475.501	89.44
475.72	110.44
475.939	84.44
476.158	98.44
476.377	98.44
476.596	95.44
476.814	102.44
477.033	93.44
477.252	82.44
477.471	94.44
477.69	74.44
477.908	83.44
478.127	84.44
478.346	92.44
478.564	98.44
478.783	98.44
479.002	96.44
479.22	104.44
479.439	110.44
479.658	114.44
479.876	98.44
480.095	90.44
480.313	91.44
480.532	96.44
480.751	78.44
480.969	99.44
481.188	109.44
481.406	90.44
481.624	80.44
481.843	100.44
482.061	84.44
482.28	90.44
482.498	92.44
482.717	93.44
482.935	91.44
483.153	100.44
483.372	88.44
483.59	89.44
483.808	103.44
484.027	107.44
484.245	95.44
484.463	89.44
484.681	100.44
484.9	97.44
485.118	93.44
485.336	98.44
485.554	101.44
485.772	104.44
485.99	98.44
486.209	112.44
486.427	115.44
486.645	110.44
486.863	129.44
487.081	108.44
487.299	90.44
487.517	91.44
487.735	91.44
487.953	95.44
488.171	98.44
488.389	94.44
488.607	95.44
488.825	96.44
489.043	93.44
489.261	83.44
489.479	80.44
489.696	83.44
489.914	80.44
490.132	94.44
490.35	89.44
490.568	93.44
490.786	110.44
491.003	105.44
491.221	91.44
491.439	97.44
491.657	103.44
491.874	92.44
492.092	89.44
492.31	93.44
492.527	97.44
492.745	97.44
492.963	99.44
493.18	89.44
493.398	86.44
493.615	102.44
493.833	89.44
494.05	89.44
494.268	106.44
494.485	83.44
494.703	104.44
494.92	91.44
495.138	92.44
495.355	101.44
495.573	89.44
495.79	83.44
496.008	96.44
496.225	91.44
496.442	93.44
496.66	94.44
496.877	82.44
497.094	101.44
497.312	98.44
497.529	79.44
497.746	101.44
497.963	92.44
498.181	96.44
498.398	85.44
498.615	115.44
498.832	111.44
499.049	93.44
499.267	96.44
499.484	88.44
499.701	89.44
499.918	93.44
500.135	93.44
500.352	105.44
500.569	100.44
500.786	110.44
501.003	87.44
501.22	72.44
501.437	91.44
501.654	84.44
501.871	120.44
502.088	104.44
502.305	107.44
502.522	93.44
502.739	81.44
502.956	101.44
503.172	81.44
503.389	99.44
503.606	102.44
503.823	100.44
504.04	89.44
504.256	82.44
504.473	94.44
504.69	79.44
504.907	88.44
505.123	97.44
505.34	93.44
505.557	68.44
505.773	77.44
505.99	89.44
506.207	92.44
506.423	83.44
506.64	88.44
506.856	106.44
507.073	80.44
507.289	99.44
507.506	106.44
507.722	126.44
507.939	106.44
508.155	92.44
508.372	91.44
508.588	85.44
508.805	92.44
509.021	107.44
509.238	107.44
509.454	101.44
509.67	105.44
509.887	115.44
510.103	142.44
510.319	224.44
510.536	774.44
510.752	2472.44
510.968	668.44
511.184	173.44
511.401	121.44
511.617	114.44
511.833	94.44
512.049	91.44
512.265	90.44
512.481	92.44
512.698	93.44
512.914	99.44
513.13	104.44
513.346	86.44
513.562	104.44
513.778	98.44
513.994	107.44
514.21	106.44
