Data from Uncirc_1986_H10_HRD10591_00087.txt Node
Date: Wed Jan 03 12:14:43 EST 2024
User: Yrep
Spectrometer: HR+D1059
Trigger mode: 1
Integration Time (sec): 1.000000E-1
Scans to average: 1
Electric dark correction enabled: true
Nonlinearity correction enabled: false
Boxcar width: 0
XAxis mode: Wavelengths
Number of Pixels in Spectrum: 2048
>>>>>Begin Spectral Data<<<<<
223.165	-4.12
223.4	-4.12
223.635	-4.12
223.869	-8.12
224.104	-28.12
224.338	-9.12
224.573	-34.12
224.808	-22.12
225.042	-13.12
225.277	-7.12
225.511	11.88
225.746	-3.12
225.98	14.88
226.215	14.88
226.449	11.88
226.683	23.88
226.918	25.88
227.152	25.88
227.387	34.88
227.621	47.88
227.856	27.88
228.09	41.88
228.324	45.88
228.559	64.88
228.793	171.88
229.027	462.88
229.262	529.88
229.496	644.88
229.73	831.88
229.964	838.88
230.199	561.88
230.433	487.88
230.667	497.88
230.901	480.88
231.136	461.88
231.37	464.88
231.604	465.88
231.838	445.88
232.072	476.88
232.306	441.88
232.541	478.88
232.775	477.88
233.009	475.88
233.243	477.88
233.477	490.88
233.711	506.88
233.945	535.88
234.179	529.88
234.413	535.88
234.647	507.88
234.881	528.88
235.115	557.88
235.349	544.88
235.583	565.88
235.817	614.88
236.051	660.88
236.285	613.88
236.519	617.88
236.753	709.88
236.987	935.88
237.221	1465.88
237.455	1578.88
237.689	930.88
237.922	779.88
238.156	748.88
238.39	699.88
238.624	646.88
238.858	678.88
239.091	670.88
239.325	693.88
239.559	691.88
239.793	745.88
240.027	781.88
240.26	931.88
240.494	1017.88
240.728	995.88
240.961	964.88
241.195	845.88
241.429	827.88
241.662	789.88
241.896	801.88
242.13	786.88
242.363	802.88
242.597	804.88
242.83	847.88
243.064	849.88
243.298	847.88
243.531	852.88
243.765	853.88
243.998	855.88
244.232	862.88
244.465	917.88
244.699	901.88
244.932	915.88
245.166	932.88
245.399	911.88
245.633	932.88
245.866	937.88
246.099	958.88
246.333	971.88
246.566	945.88
246.8	974.88
247.033	1031.88
247.266	1113.88
247.5	1122.88
247.733	1195.88
247.966	1152.88
248.2	1188.88
248.433	1213.88
248.666	1239.88
248.899	1397.88
249.133	1491.88
249.366	1489.88
249.599	1339.88
249.832	1226.88
250.066	1246.88
250.299	1282.88
250.532	1389.88
250.765	1553.88
250.998	1788.88
251.231	1699.88
251.465	1513.88
251.698	1477.88
251.931	1422.88
252.164	1406.88
252.397	1471.88
252.63	1516.88
252.863	1617.88
253.096	1749.88
253.329	1788.88
253.562	1674.88
253.795	1609.88
254.028	1611.88
254.261	1648.88
254.494	1870.88
254.727	2211.88
254.96	2395.88
255.193	2030.88
255.426	1803.88
255.659	1679.88
255.892	1651.88
256.124	1595.88
256.357	1605.88
256.59	1550.88
256.823	1512.88
257.056	1540.88
257.289	1589.88
257.521	1560.88
257.754	1613.88
257.987	1570.88
258.22	1521.88
258.452	1556.88
258.685	1603.88
258.918	1609.88
259.151	1668.88
259.383	1731.88
259.616	1763.88
259.849	1811.88
260.081	1985.88
260.314	2134.88
260.547	2111.88
260.779	1929.88
261.012	1810.88
261.244	1791.88
261.477	1723.88
261.71	1750.88
261.942	1769.88
262.175	1853.88
262.407	1788.88
262.64	1675.88
262.872	1711.88
263.105	1688.88
263.337	1701.88
263.57	1743.88
263.802	1729.88
264.035	1689.88
264.267	1739.88
264.499	1701.88
264.732	1702.88
264.964	1753.88
265.197	1715.88
265.429	1758.88
265.661	1756.88
265.894	1764.88
266.126	1747.88
266.358	1822.88
266.591	1817.88
266.823	1877.88
267.055	1966.88
267.287	1879.88
267.52	1908.88
267.752	1910.88
267.984	1898.88
268.216	1914.88
268.448	1971.88
268.681	2082.88
268.913	2192.88
269.145	2420.88
269.377	2480.88
269.609	2380.88
269.841	2297.88
270.073	2446.88
270.306	2733.88
270.538	2949.88
270.77	2756.88
271.002	2545.88
271.234	2562.88
271.466	2638.88
271.698	2813.88
271.93	2843.88
272.162	2868.88
272.394	2773.88
272.626	2607.88
272.858	2459.88
273.09	2381.88
273.322	2338.88
273.553	2297.88
273.785	2292.88
274.017	2270.88
274.249	2276.88
274.481	2302.88
274.713	2333.88
274.945	2377.88
275.176	2355.88
275.408	2289.88
275.64	2333.88
275.872	2305.88
276.104	2328.88
276.335	2371.88
276.567	2410.88
276.799	2630.88
277.031	2851.88
277.262	2937.88
277.494	2862.88
277.726	2677.88
277.957	2560.88
278.189	2510.88
278.421	2465.88
278.652	2467.88
278.884	2448.88
279.115	2340.88
279.347	2426.88
279.579	2436.88
279.81	2398.88
280.042	2398.88
280.273	2454.88
280.505	2474.88
280.736	2425.88
280.968	2416.88
281.199	2432.88
281.431	2527.88
281.662	2469.88
281.894	2486.88
282.125	2558.88
282.356	2693.88
282.588	2882.88
282.819	2763.88
283.051	2556.88
283.282	2521.88
283.513	2614.88
283.745	2643.88
283.976	2678.88
284.207	2682.88
284.439	2685.88
284.67	2634.88
284.901	2700.88
285.132	2699.88
285.364	2656.88
285.595	2697.88
285.826	2692.88
286.057	2667.88
286.288	2683.88
286.52	2713.88
286.751	2675.88
286.982	2717.88
287.213	2723.88
287.444	2765.88
287.675	2841.88
287.906	2906.88
288.138	2953.88
288.369	2961.88
288.6	2969.88
288.831	2916.88
289.062	2839.88
289.293	2853.88
289.524	2820.88
289.755	2830.88
289.986	2799.88
290.217	2822.88
290.448	2784.88
290.679	2839.88
290.91	2834.88
291.141	2853.88
291.371	2873.88
291.602	2807.88
291.833	2795.88
292.064	2817.88
292.295	2850.88
292.526	2879.88
292.757	2841.88
292.987	2873.88
293.218	2830.88
293.449	2947.88
293.68	2899.88
293.91	2886.88
294.141	2886.88
294.372	2808.88
294.603	2862.88
294.833	2946.88
295.064	2918.88
295.295	2951.88
295.525	2907.88
295.756	2981.88
295.987	3024.88
296.217	3219.88
296.448	3138.88
296.679	2987.88
296.909	2975.88
297.14	3012.88
297.37	3086.88
297.601	3081.88
297.831	3075.88
298.062	3091.88
298.292	3022.88
298.523	3162.88
298.753	3134.88
298.984	3095.88
299.214	3118.88
299.445	3125.88
299.675	3097.88
299.905	3161.88
300.136	3173.88
300.366	3167.88
300.597	3209.88
300.827	3326.88
301.057	3343.88
301.288	3375.88
301.518	3357.88
301.748	3346.88
301.979	3434.88
302.209	3466.88
302.439	3397.88
302.669	3354.88
302.9	3323.88
303.13	3300.88
303.36	3347.88
303.59	3361.88
303.82	3394.88
304.051	3371.88
304.281	3389.88
304.511	3301.88
304.741	3307.88
304.971	3304.88
305.201	3319.88
305.431	3275.88
305.661	3310.88
305.891	3271.88
306.121	3288.88
306.352	3381.88
306.582	3312.88
306.812	3209.88
307.042	3300.88
307.272	3288.88
307.502	3268.88
307.731	3321.88
307.961	3252.88
308.191	3275.88
308.421	3285.88
308.651	3343.88
308.881	3301.88
309.111	3411.88
309.341	3445.88
309.571	3450.88
309.8	3517.88
310.03	3660.88
310.26	3651.88
310.49	3636.88
310.72	3724.88
310.949	3867.88
311.179	3830.88
311.409	3680.88
311.639	3718.88
311.868	3653.88
312.098	3715.88
312.328	3781.88
312.557	3922.88
312.787	4043.88
313.017	3947.88
313.246	3877.88
313.476	3726.88
313.706	3813.88
313.935	3942.88
314.165	3971.88
314.394	4035.88
314.624	3916.88
314.853	3861.88
315.083	3787.88
315.312	3774.88
315.542	3709.88
315.771	3664.88
316.001	3714.88
316.23	3738.88
316.46	3686.88
316.689	3779.88
316.919	3865.88
317.148	3833.88
317.377	3852.88
317.607	3757.88
317.836	3730.88
318.065	3667.88
318.295	3642.88
318.524	3693.88
318.753	3693.88
318.983	3683.88
319.212	3671.88
319.441	3763.88
319.67	3839.88
319.9	3774.88
320.129	3731.88
320.358	3680.88
320.587	3742.88
320.816	3807.88
321.046	3905.88
321.275	3822.88
321.504	3936.88
321.733	3859.88
321.962	3945.88
322.191	4063.88
322.42	4178.88
322.649	4277.88
322.878	4347.88
323.108	4397.88
323.337	4649.88
323.566	4735.88
323.795	5112.88
324.024	5649.88
324.253	7493.88
324.482	11346.88
324.71	15529.88
324.939	15623.88
325.168	13624.88
325.397	6849.88
325.626	5371.88
325.855	4950.88
326.084	4858.88
326.313	4877.88
326.542	5013.88
326.77	5679.88
326.999	7140.88
327.228	10635.88
327.457	14733.88
327.686	14102.88
327.914	7547.88
328.143	5971.88
328.372	5582.88
328.6	5343.88
328.829	5309.88
329.058	5467.88
329.287	5411.88
329.515	5046.88
329.744	4920.88
329.972	4896.88
330.201	4992.88
330.43	5196.88
330.658	5498.88
330.887	5859.88
331.115	5394.88
331.344	5055.88
331.572	4893.88
331.801	5027.88
332.03	5061.88
332.258	5061.88
332.486	4980.88
332.715	5029.88
332.943	5190.88
333.172	5321.88
333.4	5430.88
333.629	5579.88
333.857	5680.88
334.085	5590.88
334.314	5529.88
334.542	5524.88
334.771	5490.88
334.999	5363.88
335.227	5268.88
335.455	5101.88
335.684	5051.88
335.912	4979.88
336.14	5026.88
336.369	4947.88
336.597	5052.88
336.825	4972.88
337.053	4945.88
337.281	4845.88
337.51	4782.88
337.738	4818.88
337.966	4691.88
338.194	4711.88
338.422	4668.88
338.65	4513.88
338.878	4539.88
339.106	4484.88
339.334	4498.88
339.562	4481.88
339.79	4449.88
340.018	4384.88
340.246	4445.88
340.474	4449.88
340.702	4460.88
340.93	4407.88
341.158	4430.88
341.386	4459.88
341.614	4540.88
341.842	4418.88
342.07	4397.88
342.298	4356.88
342.526	4310.88
342.754	4313.88
342.981	4352.88
343.209	4438.88
343.437	4725.88
343.665	4961.88
343.893	5188.88
344.12	5191.88
344.348	4996.88
344.576	4802.88
344.804	4701.88
345.031	4671.88
345.259	4685.88
345.487	4507.88
345.714	4404.88
345.942	4298.88
346.17	4252.88
346.397	4220.88
346.625	4153.88
346.853	4198.88
347.08	4237.88
347.308	4273.88
347.535	4333.88
347.763	4441.88
347.99	4287.88
348.218	4277.88
348.445	4376.88
348.673	4253.88
348.9	4256.88
349.128	4171.88
349.355	4059.88
349.583	4137.88
349.81	4101.88
350.037	4095.88
350.265	4007.88
350.492	4097.88
350.72	4063.88
350.947	4135.88
351.174	4244.88
351.402	4196.88
351.629	4210.88
351.856	4183.88
352.083	4202.88
352.311	4301.88
352.538	4354.88
352.765	4231.88
352.992	4160.88
353.22	4124.88
353.447	4113.88
353.674	4076.88
353.901	3972.88
354.128	3944.88
354.355	4006.88
354.583	4006.88
354.81	4037.88
355.037	3971.88
355.264	3912.88
355.491	3924.88
355.718	3950.88
355.945	3964.88
356.172	3931.88
356.399	3968.88
356.626	3962.88
356.853	4007.88
357.08	3988.88
357.307	3990.88
357.534	3964.88
357.761	3961.88
357.988	4006.88
358.215	3955.88
358.441	3918.88
358.668	3956.88
358.895	4097.88
359.122	4121.88
359.349	4134.88
359.576	4318.88
359.802	4490.88
360.029	4703.88
360.256	4635.88
360.483	4476.88
360.709	4249.88
360.936	4245.88
361.163	4238.88
361.39	4308.88
361.616	4199.88
361.843	4182.88
362.07	4245.88
362.296	4237.88
362.523	4177.88
362.749	4183.88
362.976	4152.88
363.203	4070.88
363.429	4082.88
363.656	4046.88
363.882	4059.88
364.109	4027.88
364.335	3933.88
364.562	4023.88
364.788	4030.88
365.015	4078.88
365.241	4057.88
365.468	4069.88
365.694	4157.88
365.92	4059.88
366.147	4058.88
366.373	4050.88
366.599	4095.88
366.826	4003.88
367.052	4006.88
367.278	4060.88
367.505	4079.88
367.731	4053.88
367.957	4062.88
368.184	4119.88
368.41	4261.88
368.636	4203.88
368.862	4276.88
369.089	4180.88
369.315	4183.88
369.541	4114.88
369.767	4110.88
369.993	4183.88
370.219	4257.88
370.445	4171.88
370.672	4220.88
370.898	4251.88
371.124	4240.88
371.35	4354.88
371.576	4315.88
371.802	4309.88
372.028	4222.88
372.254	4274.88
372.48	4277.88
372.706	4381.88
372.932	4465.88
373.158	4412.88
373.384	4370.88
373.61	4310.88
373.835	4381.88
374.061	4433.88
374.287	4473.88
374.513	4494.88
374.739	4645.88
374.965	4734.88
375.191	4697.88
375.416	4676.88
375.642	4533.88
375.868	4480.88
376.094	4493.88
376.319	4370.88
376.545	4382.88
376.771	4312.88
376.997	4287.88
377.222	4323.88
377.448	4388.88
377.674	4334.88
377.899	4229.88
378.125	4224.88
378.35	4323.88
378.576	4277.88
378.802	4302.88
379.027	4275.88
379.253	4261.88
379.478	4244.88
379.704	4256.88
379.929	4300.88
380.155	4333.88
380.38	4315.88
380.606	4382.88
380.831	4288.88
381.057	4349.88
381.282	4365.88
381.507	4362.88
381.733	4304.88
381.958	4404.88
382.184	4497.88
382.409	4529.88
382.634	4546.88
382.86	4591.88
383.085	4685.88
383.31	4692.88
383.535	4723.88
383.761	4740.88
383.986	4856.88
384.211	4910.88
384.436	4993.88
384.662	5045.88
384.887	5134.88
385.112	5113.88
385.337	5206.88
385.562	5147.88
385.787	5172.88
386.013	5321.88
386.238	5305.88
386.463	5299.88
386.688	5262.88
386.913	5165.88
387.138	5130.88
387.363	5137.88
387.588	5020.88
387.813	5145.88
388.038	5137.88
388.263	5125.88
388.488	5150.88
388.713	5153.88
388.938	5155.88
389.163	5077.88
389.387	5121.88
389.612	5019.88
389.837	5127.88
390.062	4981.88
390.287	5088.88
390.512	5091.88
390.736	5127.88
390.961	5294.88
391.186	5331.88
391.411	5453.88
391.636	5570.88
391.86	5717.88
392.085	5794.88
392.31	5587.88
392.534	5529.88
392.759	5463.88
392.984	5404.88
393.208	5313.88
393.433	5390.88
393.658	5335.88
393.882	5333.88
394.107	5403.88
394.331	5425.88
394.556	5401.88
394.78	5549.88
395.005	5534.88
395.229	5529.88
395.454	5731.88
395.678	5750.88
395.903	5826.88
396.127	5849.88
396.352	5655.88
396.576	5477.88
396.801	5409.88
397.025	5506.88
397.249	5612.88
397.474	5715.88
397.698	5888.88
397.922	5981.88
398.147	6105.88
398.371	6135.88
398.595	6223.88
398.82	6492.88
399.044	7051.88
399.268	7843.88
399.492	8852.88
399.717	9557.88
399.941	9348.88
400.165	8765.88
400.389	8045.88
400.613	7343.88
400.837	6786.88
401.062	6656.88
401.286	6582.88
401.51	6487.88
401.734	6406.88
401.958	6599.88
402.182	6691.88
402.406	6781.88
402.63	6900.88
402.854	7002.88
403.078	7030.88
403.302	7207.88
403.526	7307.88
403.75	7270.88
403.974	7319.88
404.198	7366.88
404.422	7452.88
404.645	7333.88
404.869	7233.88
405.093	7589.88
405.317	7585.88
405.541	7637.88
405.765	7301.88
405.988	7189.88
406.212	7392.88
406.436	7622.88
406.66	7699.88
406.883	7681.88
407.107	8310.88
407.331	8875.88
407.555	9401.88
407.778	9148.88
408.002	8311.88
408.226	7843.88
408.449	7701.88
408.673	7660.88
408.896	7892.88
409.12	8066.88
409.344	7527.88
409.567	7214.88
409.791	7143.88
410.014	7034.88
410.238	6985.88
410.461	6978.88
410.685	7024.88
410.908	7134.88
411.132	7337.88
411.355	7357.88
411.578	7007.88
411.802	6721.88
412.025	6692.88
412.249	6867.88
412.472	6811.88
412.695	6906.88
412.919	6601.88
413.142	6430.88
413.365	6406.88
413.589	6525.88
413.812	6362.88
414.035	6261.88
414.258	6318.88
414.482	6389.88
414.705	6441.88
414.928	6365.88
415.151	6362.88
415.374	6416.88
415.597	6378.88
415.821	6338.88
416.044	6212.88
416.267	6249.88
416.49	6171.88
416.713	6173.88
416.936	6248.88
417.159	6287.88
417.382	6305.88
417.605	6340.88
417.828	6539.88
418.051	6706.88
418.274	6554.88
418.497	6422.88
418.72	6591.88
418.943	6495.88
419.166	6917.88
419.389	7241.88
419.611	7237.88
419.834	6922.88
420.057	6782.88
420.28	6577.88
420.503	6497.88
420.726	6485.88
420.948	6669.88
421.171	7119.88
421.394	7121.88
421.617	6501.88
421.839	6476.88
422.062	6612.88
422.285	6770.88
422.507	7509.88
422.73	8187.88
422.953	7440.88
423.175	7066.88
423.398	6945.88
423.621	6987.88
423.843	7202.88
424.066	7269.88
424.288	7156.88
424.511	7385.88
424.733	7900.88
424.956	8390.88
425.178	7801.88
425.401	8073.88
425.623	7885.88
425.846	6952.88
426.068	6687.88
426.291	6615.88
426.513	6559.88
426.735	6750.88
426.958	7171.88
427.18	7985.88
427.402	9225.88
427.625	9257.88
427.847	7726.88
428.069	6827.88
428.292	6390.88
428.514	6171.88
428.736	6014.88
428.958	6059.88
429.181	5800.88
429.403	5848.88
429.625	6031.88
429.847	6373.88
430.069	6944.88
430.292	6492.88
430.514	5886.88
430.736	5817.88
430.958	5780.88
431.18	5649.88
431.402	5718.88
431.624	5668.88
431.846	5762.88
432.068	5759.88
432.29	5814.88
432.512	5739.88
432.734	5889.88
432.956	5786.88
433.178	5897.88
433.4	5822.88
433.622	5792.88
433.844	5852.88
434.066	5773.88
434.287	5932.88
434.509	6080.88
434.731	6274.88
434.953	6506.88
435.175	6688.88
435.397	6722.88
435.618	6634.88
435.84	7108.88
436.062	8049.88
436.284	7889.88
436.505	6687.88
436.727	6309.88
436.949	6084.88
437.17	5852.88
437.392	5849.88
437.614	5977.88
437.835	6415.88
438.057	7505.88
438.278	8198.88
438.5	8128.88
438.721	8989.88
438.943	7845.88
439.165	6511.88
439.386	6294.88
439.608	6300.88
439.829	6438.88
440.05	6824.88
440.272	7174.88
440.493	6490.88
440.715	6239.88
440.936	6183.88
441.158	6195.88
441.379	6345.88
441.6	6620.88
441.822	6914.88
442.043	7373.88
442.264	8281.88
442.486	7927.88
442.707	6930.88
442.928	6740.88
443.149	7029.88
443.371	7209.88
443.592	7726.88
443.813	8827.88
444.034	8772.88
444.255	7628.88
444.476	7405.88
444.698	7599.88
444.919	7662.88
445.14	7482.88
445.361	7348.88
445.582	7550.88
445.803	8169.88
446.024	8913.88
446.245	8466.88
446.466	7599.88
446.687	6600.88
446.908	6211.88
447.129	5919.88
447.35	5789.88
447.571	5633.88
447.792	5528.88
448.013	5668.88
448.234	5860.88
448.455	6595.88
448.675	7981.88
448.896	8456.88
449.117	6969.88
449.338	7110.88
449.559	8562.88
449.779	8742.88
450	6635.88
450.221	5827.88
450.442	5613.88
450.662	5494.88
450.883	5648.88
451.104	5658.88
451.324	5577.88
451.545	5475.88
451.766	5212.88
451.986	5098.88
452.207	5095.88
452.428	5169.88
452.648	5065.88
452.869	5138.88
453.089	5216.88
453.31	5334.88
453.53	5155.88
453.751	5098.88
453.971	5061.88
454.192	5247.88
454.412	5036.88
454.633	4953.88
454.853	4889.88
455.073	4961.88
455.294	5440.88
455.514	5942.88
455.734	5460.88
455.955	4853.88
456.175	4755.88
456.395	4704.88
456.616	4628.88
456.836	4663.88
457.056	4696.88
457.276	4591.88
457.497	4797.88
457.717	4709.88
457.937	4826.88
458.157	4937.88
458.377	4985.88
458.598	5321.88
458.818	6050.88
459.038	6874.88
459.258	6776.88
459.478	5978.88
459.698	5839.88
459.918	5895.88
460.138	6009.88
460.358	6297.88
460.578	6251.88
460.798	6384.88
461.018	6342.88
461.238	6198.88
461.458	6125.88
461.678	6112.88
461.898	6324.88
462.118	6315.88
462.338	6691.88
462.558	6788.88
462.777	7111.88
462.997	7649.88
463.217	8105.88
463.437	7839.88
463.657	7275.88
463.876	7148.88
464.096	7087.88
464.316	7139.88
464.536	7225.88
464.755	6936.88
464.975	6912.88
465.195	7013.88
465.414	7089.88
465.634	6262.88
465.854	5929.88
466.073	5653.88
466.293	5478.88
466.512	5369.88
466.732	5190.88
466.951	5206.88
467.171	5210.88
467.391	5346.88
467.61	5348.88
467.829	5251.88
468.049	5182.88
468.268	5056.88
468.488	4973.88
468.707	4932.88
468.927	4995.88
469.146	5004.88
469.365	5011.88
469.585	5090.88
469.804	5315.88
470.023	5395.88
470.243	5460.88
470.462	5433.88
470.681	5589.88
470.901	5513.88
471.12	5376.88
471.339	5306.88
471.558	5264.88
471.777	5145.88
471.997	5089.88
472.216	5031.88
472.435	5163.88
472.654	5073.88
472.873	4901.88
473.092	4907.88
473.311	4889.88
473.53	5013.88
473.749	5112.88
473.968	5693.88
474.187	6882.88
474.406	6361.88
474.625	5371.88
474.844	5073.88
475.063	5035.88
475.282	4975.88
475.501	5082.88
475.72	5118.88
475.939	5152.88
476.158	5241.88
476.377	5209.88
476.596	5213.88
476.814	5334.88
477.033	5323.88
477.252	5466.88
477.471	5425.88
477.69	5673.88
477.908	5741.88
478.127	5938.88
478.346	5968.88
478.564	6045.88
478.783	6102.88
479.002	6342.88
479.22	6262.88
479.439	6340.88
479.658	6448.88
479.876	6594.88
480.095	6809.88
480.313	7184.88
480.532	7005.88
480.751	6865.88
480.969	6879.88
481.188	6820.88
481.406	6586.88
481.624	6195.88
481.843	6120.88
482.061	5995.88
482.28	5954.88
482.498	6016.88
482.717	5890.88
482.935	5902.88
483.153	5878.88
483.372	5925.88
483.59	5807.88
483.808	5846.88
484.027	5894.88
484.245	5929.88
484.463	6049.88
484.681	6052.88
484.9	6146.88
485.118	6053.88
485.336	6165.88
485.554	6243.88
485.772	6316.88
485.99	6258.88
486.209	6326.88
486.427	6286.88
486.645	6385.88
486.863	6429.88
487.081	6373.88
487.299	6398.88
487.517	6321.88
487.735	6286.88
487.953	6247.88
