Data from Uncirc_1986_H10_HRD10591_00038.txt Node
Date: Wed Jan 03 12:14:34 EST 2024
User: Yrep
Spectrometer: HR+D1059
Trigger mode: 1
Integration Time (sec): 1.000000E-1
Scans to average: 1
Electric dark correction enabled: true
Nonlinearity correction enabled: false
Boxcar width: 0
XAxis mode: Wavelengths
Number of Pixels in Spectrum: 2048
>>>>>Begin Spectral Data<<<<<
223.165	-20.38
223.4	-20.38
223.635	-20.38
223.869	-20.38
224.104	-14.38
224.338	-13.38
224.573	-12.38
224.808	-11.38
225.042	-8.38
225.277	-12.38
225.511	-7.38
225.746	6.62
225.98	10.62
226.215	14.62
226.449	29.62
226.683	20.62
226.918	16.62
227.152	21.62
227.387	33.62
227.621	37.62
227.856	45.62
228.09	57.62
228.324	61.62
228.559	57.62
228.793	66.62
229.027	66.62
229.262	66.62
229.496	63.62
229.73	81.62
229.964	58.62
230.199	74.62
230.433	60.62
230.667	75.62
230.901	77.62
231.136	77.62
231.37	73.62
231.604	74.62
231.838	72.62
232.072	83.62
232.306	85.62
232.541	87.62
232.775	86.62
233.009	73.62
233.243	79.62
233.477	93.62
233.711	74.62
233.945	88.62
234.179	79.62
234.413	75.62
234.647	79.62
234.881	75.62
235.115	73.62
235.349	68.62
235.583	64.62
235.817	79.62
236.051	89.62
236.285	90.62
236.519	81.62
236.753	61.62
236.987	79.62
237.221	86.62
237.455	89.62
237.689	81.62
237.922	79.62
238.156	88.62
238.39	83.62
238.624	87.62
238.858	81.62
239.091	81.62
239.325	70.62
239.559	74.62
239.793	72.62
240.027	86.62
240.26	79.62
240.494	82.62
240.728	81.62
240.961	68.62
241.195	76.62
241.429	67.62
241.662	72.62
241.896	83.62
242.13	79.62
242.363	70.62
242.597	83.62
242.83	91.62
243.064	80.62
243.298	83.62
243.531	90.62
243.765	87.62
243.998	56.62
244.232	82.62
244.465	85.62
244.699	93.62
244.932	79.62
245.166	72.62
245.399	66.62
245.633	77.62
245.866	70.62
246.099	85.62
246.333	73.62
246.566	63.62
246.8	75.62
247.033	88.62
247.266	74.62
247.5	68.62
247.733	88.62
247.966	73.62
248.2	92.62
248.433	87.62
248.666	83.62
248.899	81.62
249.133	93.62
249.366	93.62
249.599	86.62
249.832	90.62
250.066	90.62
250.299	86.62
250.532	81.62
250.765	74.62
250.998	81.62
251.231	86.62
251.465	79.62
251.698	82.62
251.931	73.62
252.164	81.62
252.397	83.62
252.63	71.62
252.863	79.62
253.096	74.62
253.329	74.62
253.562	75.62
253.795	79.62
254.028	77.62
254.261	74.62
254.494	98.62
254.727	79.62
254.96	71.62
255.193	79.62
255.426	83.62
255.659	74.62
255.892	84.62
256.124	87.62
256.357	95.62
256.59	86.62
256.823	80.62
257.056	84.62
257.289	84.62
257.521	79.62
257.754	72.62
257.987	70.62
258.22	94.62
258.452	89.62
258.685	85.62
258.918	92.62
259.151	80.62
259.383	79.62
259.616	74.62
259.849	87.62
260.081	75.62
260.314	88.62
260.547	88.62
260.779	89.62
261.012	84.62
261.244	79.62
261.477	72.62
261.71	90.62
261.942	97.62
262.175	130.62
262.407	81.62
262.64	90.62
262.872	80.62
263.105	73.62
263.337	88.62
263.57	67.62
263.802	85.62
264.035	82.62
264.267	94.62
264.499	78.62
264.732	74.62
264.964	79.62
265.197	80.62
265.429	78.62
265.661	77.62
265.894	74.62
266.126	73.62
266.358	94.62
266.591	73.62
266.823	69.62
267.055	93.62
267.287	74.62
267.52	84.62
267.752	81.62
267.984	65.62
268.216	86.62
268.448	90.62
268.681	81.62
268.913	87.62
269.145	73.62
269.377	83.62
269.609	87.62
269.841	71.62
270.073	84.62
270.306	87.62
270.538	87.62
270.77	79.62
271.002	80.62
271.234	86.62
271.466	72.62
271.698	85.62
271.93	85.62
272.162	77.62
272.394	77.62
272.626	72.62
272.858	77.62
273.09	81.62
273.322	89.62
273.553	79.62
273.785	75.62
274.017	85.62
274.249	75.62
274.481	77.62
274.713	87.62
274.945	88.62
275.176	89.62
275.408	79.62
275.64	95.62
275.872	73.62
276.104	101.62
276.335	98.62
276.567	99.62
276.799	97.62
277.031	93.62
277.262	87.62
277.494	77.62
277.726	82.62
277.957	81.62
278.189	86.62
278.421	76.62
278.652	78.62
278.884	88.62
279.115	102.62
279.347	92.62
279.579	96.62
279.81	82.62
280.042	86.62
280.273	75.62
280.505	78.62
280.736	78.62
280.968	86.62
281.199	93.62
281.431	87.62
281.662	87.62
281.894	100.62
282.125	110.62
282.356	107.62
282.588	126.62
282.819	100.62
283.051	82.62
283.282	83.62
283.513	88.62
283.745	92.62
283.976	90.62
284.207	90.62
284.439	71.62
284.67	100.62
284.901	92.62
285.132	91.62
285.364	84.62
285.595	88.62
285.826	89.62
286.057	86.62
286.288	86.62
286.52	83.62
286.751	99.62
286.982	93.62
287.213	83.62
287.444	96.62
287.675	81.62
287.906	80.62
288.138	83.62
288.369	94.62
288.6	98.62
288.831	100.62
289.062	99.62
289.293	95.62
289.524	85.62
289.755	80.62
289.986	63.62
290.217	102.62
290.448	84.62
290.679	89.62
290.91	99.62
291.141	89.62
291.371	94.62
291.602	94.62
291.833	101.62
292.064	75.62
292.295	73.62
292.526	88.62
292.757	89.62
292.987	98.62
293.218	91.62
293.449	81.62
293.68	83.62
293.91	72.62
294.141	87.62
294.372	88.62
294.603	94.62
294.833	95.62
295.064	87.62
295.295	97.62
295.525	89.62
295.756	97.62
295.987	104.62
296.217	106.62
296.448	104.62
296.679	72.62
296.909	87.62
297.14	85.62
297.37	87.62
297.601	81.62
297.831	100.62
298.062	84.62
298.292	88.62
298.523	84.62
298.753	88.62
298.984	89.62
299.214	80.62
299.445	87.62
299.675	97.62
299.905	93.62
300.136	77.62
300.366	79.62
300.597	94.62
300.827	87.62
301.057	95.62
301.288	95.62
301.518	84.62
301.748	98.62
301.979	85.62
302.209	85.62
302.439	91.62
302.669	81.62
302.9	86.62
303.13	88.62
303.36	78.62
303.59	99.62
303.82	103.62
304.051	97.62
304.281	90.62
304.511	95.62
304.741	97.62
304.971	87.62
305.201	86.62
305.431	84.62
305.661	83.62
305.891	75.62
306.121	91.62
306.352	100.62
306.582	89.62
306.812	93.62
307.042	84.62
307.272	79.62
307.502	92.62
307.731	111.62
307.961	101.62
308.191	94.62
308.421	105.62
308.651	83.62
308.881	86.62
309.111	100.62
309.341	85.62
309.571	96.62
309.8	102.62
310.03	90.62
310.26	98.62
310.49	89.62
310.72	102.62
310.949	111.62
311.179	99.62
311.409	84.62
311.639	97.62
311.868	96.62
312.098	92.62
312.328	85.62
312.557	106.62
312.787	97.62
313.017	95.62
313.246	101.62
313.476	90.62
313.706	98.62
313.935	101.62
314.165	99.62
314.394	99.62
314.624	89.62
314.853	90.62
315.083	78.62
315.312	86.62
315.542	87.62
315.771	85.62
316.001	89.62
316.23	87.62
316.46	96.62
316.689	84.62
316.919	100.62
317.148	102.62
317.377	97.62
317.607	81.62
317.836	114.62
318.065	97.62
318.295	83.62
318.524	98.62
318.753	91.62
318.983	77.62
319.212	100.62
319.441	118.62
319.67	105.62
319.9	79.62
320.129	102.62
320.358	93.62
320.587	105.62
320.816	97.62
321.046	103.62
321.275	104.62
321.504	79.62
321.733	102.62
321.962	95.62
322.191	106.62
322.42	97.62
322.649	101.62
322.878	94.62
323.108	107.62
323.337	131.62
323.566	119.62
323.795	120.62
324.024	180.62
324.253	334.62
324.482	657.62
324.71	1350.62
324.939	1795.62
325.168	665.62
325.397	197.62
325.626	147.62
325.855	115.62
326.084	105.62
326.313	117.62
326.542	128.62
326.77	170.62
326.999	370.62
327.228	734.62
327.457	1380.62
327.686	1127.62
327.914	319.62
328.143	181.62
328.372	120.62
328.6	90.62
328.829	110.62
329.058	114.62
329.287	119.62
329.515	105.62
329.744	98.62
329.972	107.62
330.201	102.62
330.43	97.62
330.658	131.62
330.887	108.62
331.115	103.62
331.344	97.62
331.572	106.62
331.801	95.62
332.03	98.62
332.258	85.62
332.486	106.62
332.715	100.62
332.943	85.62
333.172	101.62
333.4	88.62
333.629	94.62
333.857	93.62
334.085	98.62
334.314	104.62
334.542	86.62
334.771	85.62
334.999	76.62
335.227	90.62
335.455	91.62
335.684	87.62
335.912	104.62
336.14	103.62
336.369	91.62
336.597	106.62
336.825	89.62
337.053	94.62
337.281	98.62
337.51	92.62
337.738	87.62
337.966	95.62
338.194	92.62
338.422	91.62
338.65	93.62
338.878	91.62
339.106	103.62
339.334	97.62
339.562	98.62
339.79	79.62
340.018	94.62
340.246	97.62
340.474	79.62
340.702	93.62
340.93	101.62
341.158	102.62
341.386	111.62
341.614	105.62
341.842	101.62
342.07	96.62
342.298	87.62
342.526	87.62
342.754	74.62
342.981	73.62
343.209	87.62
343.437	101.62
343.665	92.62
343.893	101.62
344.12	96.62
344.348	81.62
344.576	85.62
344.804	85.62
345.031	94.62
345.259	97.62
345.487	80.62
345.714	108.62
345.942	98.62
346.17	86.62
346.397	91.62
346.625	99.62
346.853	97.62
347.08	87.62
347.308	111.62
347.535	97.62
347.763	100.62
347.99	105.62
348.218	96.62
348.445	97.62
348.673	106.62
348.9	93.62
349.128	89.62
349.355	89.62
349.583	100.62
349.81	96.62
350.037	93.62
350.265	90.62
350.492	81.62
350.72	85.62
350.947	91.62
351.174	82.62
351.402	120.62
351.629	98.62
351.856	91.62
352.083	118.62
352.311	112.62
352.538	98.62
352.765	91.62
352.992	90.62
353.22	113.62
353.447	103.62
353.674	107.62
353.901	102.62
354.128	113.62
354.355	87.62
354.583	80.62
354.81	94.62
355.037	85.62
355.264	97.62
355.491	93.62
355.718	84.62
355.945	103.62
356.172	88.62
356.399	99.62
356.626	89.62
356.853	91.62
357.08	99.62
357.307	93.62
357.534	90.62
357.761	90.62
357.988	103.62
358.215	99.62
358.441	81.62
358.668	78.62
358.895	98.62
359.122	93.62
359.349	86.62
359.576	85.62
359.802	93.62
360.029	89.62
360.256	97.62
360.483	102.62
360.709	93.62
360.936	99.62
361.163	90.62
361.39	97.62
361.616	117.62
361.843	98.62
362.07	106.62
362.296	93.62
362.523	74.62
362.749	83.62
362.976	85.62
363.203	87.62
363.429	82.62
363.656	100.62
363.882	85.62
364.109	91.62
364.335	97.62
364.562	91.62
364.788	98.62
365.015	82.62
365.241	91.62
365.468	109.62
365.694	102.62
365.92	100.62
366.147	91.62
366.373	87.62
366.599	87.62
366.826	79.62
367.052	89.62
367.278	93.62
367.505	93.62
367.731	97.62
367.957	97.62
368.184	94.62
368.41	95.62
368.636	103.62
368.862	118.62
369.089	101.62
369.315	90.62
369.541	99.62
369.767	95.62
369.993	98.62
370.219	96.62
370.445	89.62
370.672	88.62
370.898	92.62
371.124	88.62
371.35	73.62
371.576	82.62
371.802	65.62
372.028	98.62
372.254	88.62
372.48	87.62
372.706	89.62
372.932	80.62
373.158	89.62
373.384	83.62
373.61	83.62
373.835	92.62
374.061	95.62
374.287	85.62
374.513	87.62
374.739	95.62
374.965	81.62
375.191	82.62
375.416	68.62
375.642	91.62
375.868	94.62
376.094	98.62
376.319	98.62
376.545	92.62
376.771	73.62
376.997	87.62
377.222	87.62
377.448	103.62
377.674	97.62
377.899	81.62
378.125	89.62
378.35	97.62
378.576	86.62
378.802	83.62
379.027	102.62
379.253	85.62
379.478	97.62
379.704	99.62
379.929	85.62
380.155	87.62
380.38	95.62
380.606	100.62
380.831	81.62
381.057	81.62
381.282	101.62
381.507	81.62
381.733	87.62
381.958	89.62
382.184	84.62
382.409	98.62
382.634	95.62
382.86	91.62
383.085	87.62
383.31	90.62
383.535	89.62
383.761	101.62
383.986	85.62
384.211	91.62
384.436	101.62
384.662	93.62
384.887	107.62
385.112	94.62
385.337	89.62
385.562	101.62
385.787	82.62
386.013	106.62
386.238	115.62
386.463	88.62
386.688	100.62
386.913	112.62
387.138	104.62
387.363	113.62
387.588	105.62
387.813	103.62
388.038	107.62
388.263	105.62
388.488	99.62
388.713	89.62
388.938	89.62
389.163	89.62
389.387	89.62
389.612	95.62
389.837	87.62
390.062	89.62
390.287	98.62
390.512	84.62
390.736	94.62
390.961	96.62
391.186	89.62
391.411	95.62
391.636	92.62
391.86	88.62
392.085	83.62
392.31	95.62
392.534	71.62
392.759	87.62
392.984	75.62
393.208	83.62
393.433	100.62
393.658	82.62
393.882	86.62
394.107	91.62
394.331	87.62
394.556	102.62
394.78	94.62
395.005	95.62
395.229	89.62
395.454	90.62
395.678	94.62
395.903	92.62
396.127	89.62
396.352	82.62
396.576	83.62
396.801	93.62
397.025	87.62
397.249	93.62
397.474	91.62
397.698	96.62
397.922	86.62
398.147	85.62
398.371	78.62
398.595	79.62
398.82	84.62
399.044	75.62
399.268	87.62
399.492	83.62
399.717	77.62
399.941	89.62
400.165	91.62
400.389	91.62
400.613	94.62
400.837	101.62
401.062	86.62
401.286	84.62
401.51	90.62
401.734	81.62
401.958	95.62
402.182	102.62
402.406	133.62
402.63	116.62
402.854	90.62
403.078	84.62
403.302	90.62
403.526	88.62
403.75	90.62
403.974	87.62
404.198	81.62
404.422	80.62
404.645	90.62
404.869	81.62
405.093	84.62
405.317	97.62
405.541	92.62
405.765	103.62
405.988	116.62
406.212	170.62
406.436	189.62
406.66	128.62
406.883	97.62
407.107	95.62
407.331	88.62
407.555	95.62
407.778	91.62
408.002	89.62
408.226	94.62
408.449	93.62
408.673	89.62
408.896	96.62
409.12	90.62
409.344	92.62
409.567	87.62
409.791	86.62
410.014	79.62
410.238	82.62
410.461	87.62
410.685	108.62
410.908	94.62
411.132	112.62
411.355	77.62
411.578	92.62
411.802	83.62
412.025	92.62
412.249	98.62
412.472	82.62
412.695	82.62
412.919	88.62
413.142	81.62
413.365	94.62
413.589	89.62
413.812	87.62
414.035	85.62
414.258	98.62
414.482	86.62
414.705	77.62
414.928	90.62
415.151	86.62
415.374	98.62
415.597	88.62
415.821	95.62
416.044	91.62
416.267	94.62
416.49	98.62
416.713	90.62
416.936	90.62
417.159	94.62
417.382	74.62
417.605	82.62
417.828	84.62
418.051	84.62
418.274	91.62
418.497	78.62
418.72	96.62
418.943	91.62
419.166	88.62
419.389	88.62
419.611	97.62
419.834	93.62
420.057	81.62
420.28	95.62
420.503	94.62
420.726	92.62
420.948	97.62
421.171	100.62
421.394	93.62
421.617	94.62
421.839	92.62
422.062	94.62
422.285	95.62
422.507	96.62
422.73	104.62
422.953	94.62
423.175	90.62
423.398	95.62
423.621	85.62
423.843	88.62
424.066	84.62
424.288	95.62
424.511	76.62
424.733	98.62
424.956	99.62
425.178	105.62
425.401	103.62
425.623	89.62
425.846	89.62
426.068	92.62
426.291	99.62
426.513	92.62
426.735	109.62
426.958	89.62
427.18	93.62
427.402	118.62
427.625	146.62
427.847	117.62
428.069	83.62
428.292	89.62
428.514	81.62
428.736	84.62
428.958	72.62
429.181	72.62
429.403	89.62
429.625	81.62
429.847	98.62
430.069	97.62
430.292	83.62
430.514	95.62
430.736	93.62
430.958	85.62
431.18	90.62
431.402	90.62
431.624	79.62
431.846	88.62
432.068	77.62
432.29	82.62
432.512	85.62
432.734	80.62
432.956	79.62
433.178	97.62
433.4	98.62
433.622	96.62
433.844	83.62
434.066	85.62
434.287	82.62
434.509	93.62
434.731	96.62
434.953	82.62
435.175	97.62
435.397	86.62
435.618	89.62
435.84	118.62
436.062	114.62
436.284	99.62
436.505	99.62
436.727	105.62
436.949	105.62
437.17	82.62
437.392	85.62
437.614	95.62
437.835	93.62
438.057	98.62
438.278	99.62
438.5	96.62
438.721	98.62
438.943	91.62
439.165	94.62
439.386	86.62
439.608	103.62
439.829	111.62
440.05	112.62
440.272	124.62
440.493	96.62
440.715	81.62
440.936	95.62
441.158	85.62
441.379	79.62
441.6	91.62
441.822	74.62
442.043	83.62
442.264	103.62
442.486	99.62
442.707	91.62
442.928	85.62
443.149	116.62
443.371	112.62
443.592	112.62
443.813	100.62
444.034	87.62
444.255	89.62
444.476	88.62
444.698	90.62
444.919	94.62
445.14	122.62
445.361	121.62
445.582	93.62
445.803	122.62
446.024	120.62
446.245	103.62
446.466	113.62
446.687	83.62
446.908	102.62
447.129	93.62
447.35	105.62
447.571	94.62
447.792	97.62
448.013	80.62
448.234	90.62
448.455	99.62
448.675	100.62
448.896	113.62
449.117	98.62
449.338	99.62
449.559	109.62
449.779	101.62
450	87.62
450.221	94.62
450.442	95.62
450.662	96.62
450.883	105.62
451.104	99.62
451.324	79.62
451.545	77.62
451.766	85.62
451.986	94.62
452.207	92.62
452.428	86.62
452.648	101.62
452.869	104.62
453.089	102.62
453.31	98.62
453.53	95.62
453.751	89.62
453.971	90.62
454.192	94.62
454.412	94.62
454.633	86.62
454.853	95.62
455.073	91.62
455.294	93.62
455.514	89.62
455.734	79.62
455.955	94.62
456.175	93.62
456.395	88.62
456.616	88.62
456.836	87.62
457.056	82.62
457.276	88.62
457.497	83.62
457.717	79.62
457.937	62.62
458.157	90.62
458.377	90.62
458.598	93.62
458.818	130.62
459.038	131.62
459.258	113.62
459.478	109.62
459.698	99.62
459.918	81.62
460.138	79.62
460.358	91.62
460.578	87.62
460.798	85.62
461.018	91.62
461.238	75.62
461.458	82.62
461.678	78.62
461.898	82.62
462.118	84.62
462.338	74.62
462.558	79.62
462.777	91.62
462.997	86.62
463.217	90.62
463.437	100.62
463.657	71.62
463.876	92.62
464.096	84.62
464.316	93.62
464.536	93.62
464.755	88.62
464.975	100.62
465.195	133.62
465.414	140.62
465.634	89.62
465.854	90.62
466.073	97.62
466.293	87.62
466.512	79.62
466.732	82.62
466.951	71.62
467.171	79.62
467.391	98.62
467.61	77.62
467.829	88.62
468.049	93.62
468.268	89.62
468.488	82.62
468.707	84.62
468.927	96.62
469.146	94.62
469.365	93.62
469.585	90.62
469.804	98.62
470.023	97.62
470.243	108.62
470.462	92.62
470.681	111.62
470.901	82.62
471.12	78.62
471.339	92.62
471.558	82.62
471.777	93.62
471.997	91.62
472.216	83.62
472.435	99.62
472.654	97.62
472.873	74.62
473.092	96.62
473.311	92.62
473.53	86.62
473.749	72.62
473.968	97.62
474.187	110.62
474.406	88.62
474.625	68.62
474.844	79.62
475.063	82.62
475.282	79.62
475.501	81.62
475.72	95.62
475.939	87.62
476.158	90.62
476.377	83.62
476.596	96.62
476.814	90.62
477.033	87.62
477.252	85.62
477.471	87.62
477.69	83.62
477.908	94.62
478.127	83.62
478.346	65.62
478.564	80.62
478.783	87.62
479.002	91.62
479.22	94.62
479.439	87.62
479.658	77.62
479.876	97.62
480.095	103.62
480.313	95.62
480.532	93.62
480.751	72.62
480.969	72.62
481.188	100.62
481.406	88.62
481.624	91.62
481.843	88.62
482.061	94.62
482.28	98.62
482.498	81.62
482.717	93.62
482.935	92.62
483.153	88.62
483.372	90.62
483.59	79.62
483.808	95.62
484.027	95.62
484.245	95.62
484.463	84.62
484.681	93.62
484.9	100.62
485.118	83.62
485.336	101.62
485.554	102.62
485.772	95.62
485.99	84.62
486.209	97.62
486.427	98.62
486.645	92.62
486.863	94.62
487.081	94.62
487.299	102.62
487.517	88.62
487.735	87.62
487.953	104.62
488.171	86.62
488.389	95.62
488.607	89.62
488.825	81.62
489.043	86.62
489.261	93.62
489.479	94.62
489.696	83.62
489.914	85.62
490.132	78.62
490.35	91.62
490.568	79.62
490.786	79.62
491.003	72.62
491.221	104.62
491.439	83.62
491.657	93.62
491.874	92.62
492.092	80.62
492.31	94.62
492.527	89.62
492.745	87.62
492.963	78.62
493.18	83.62
493.398	91.62
493.615	92.62
493.833	97.62
494.05	94.62
494.268	109.62
494.485	88.62
494.703	100.62
494.92	82.62
495.138	85.62
495.355	85.62
495.573	91.62
495.79	89.62
496.008	85.62
496.225	100.62
496.442	88.62
496.66	93.62
496.877	88.62
497.094	88.62
497.312	94.62
497.529	99.62
497.746	91.62
497.963	95.62
498.181	99.62
498.398	98.62
498.615	102.62
498.832	113.62
499.049	85.62
499.267	90.62
499.484	89.62
499.701	95.62
499.918	79.62
500.135	77.62
500.352	89.62
500.569	93.62
500.786	88.62
501.003	88.62
501.22	93.62
501.437	71.62
501.654	97.62
501.871	97.62
502.088	87.62
502.305	96.62
502.522	91.62
502.739	82.62
502.956	96.62
503.172	82.62
503.389	74.62
503.606	91.62
503.823	102.62
504.04	97.62
504.256	91.62
504.473	86.62
504.69	86.62
504.907	94.62
505.123	90.62
505.34	94.62
505.557	86.62
505.773	77.62
505.99	77.62
506.207	87.62
506.423	89.62
506.64	97.62
506.856	84.62
507.073	80.62
507.289	87.62
507.506	91.62
507.722	107.62
507.939	93.62
508.155	90.62
508.372	87.62
508.588	97.62
508.805	77.62
509.021	87.62
509.238	94.62
509.454	99.62
509.67	98.62
509.887	119.62
510.103	126.62
510.319	178.62
510.536	622.62
510.752	1911.62
510.968	545.62
511.184	147.62
511.401	108.62
511.617	99.62
511.833	79.62
512.049	84.62
512.265	88.62
512.481	84.62
512.698	85.62
512.914	97.62
513.13	92.62
513.346	95.62
513.562	93.62
513.778	90.62
513.994	90.62
514.21	102.62
514.426	116.62
514.642	113.62
514.858	119.62
515.074	142.62
515.29	359.62
515.506	1140.62
515.721	423.62
515.937	125.62
516.153	105.62
516.369	96.62
516.585	82.62
516.801	85.62
