Data from Uncirc_1986_H10_HRD10591_00005.txt Node
Date: Wed Jan 03 12:14:27 EST 2024
User: Yrep
Spectrometer: HR+D1059
Trigger mode: 1
Integration Time (sec): 1.000000E-1
Scans to average: 1
Electric dark correction enabled: true
Nonlinearity correction enabled: false
Boxcar width: 0
XAxis mode: Wavelengths
Number of Pixels in Spectrum: 2048
>>>>>Begin Spectral Data<<<<<
223.165	-10.94
223.4	-10.94
223.635	-10.94
223.869	-11.94
224.104	-28.94
224.338	-18.94
224.573	-7.94
224.808	-15.94
225.042	-1.94
225.277	-9.94
225.511	-7.94
225.746	1.06
225.98	18.06
226.215	8.06
226.449	13.06
226.683	9.06
226.918	36.06
227.152	29.06
227.387	46.06
227.621	39.06
227.856	53.06
228.09	58.06
228.324	59.06
228.559	64.06
228.793	50.06
229.027	68.06
229.262	62.06
229.496	68.06
229.73	71.06
229.964	84.06
230.199	72.06
230.433	84.06
230.667	79.06
230.901	90.06
231.136	71.06
231.37	92.06
231.604	77.06
231.838	81.06
232.072	93.06
232.306	85.06
232.541	76.06
232.775	82.06
233.009	94.06
233.243	84.06
233.477	84.06
233.711	83.06
233.945	83.06
234.179	94.06
234.413	66.06
234.647	85.06
234.881	98.06
235.115	82.06
235.349	76.06
235.583	75.06
235.817	89.06
236.051	69.06
236.285	98.06
236.519	84.06
236.753	88.06
236.987	70.06
237.221	89.06
237.455	82.06
237.689	89.06
237.922	94.06
238.156	86.06
238.39	73.06
238.624	69.06
238.858	76.06
239.091	66.06
239.325	71.06
239.559	77.06
239.793	73.06
240.027	84.06
240.26	73.06
240.494	74.06
240.728	78.06
240.961	78.06
241.195	73.06
241.429	86.06
241.662	79.06
241.896	80.06
242.13	81.06
242.363	73.06
242.597	83.06
242.83	80.06
243.064	83.06
243.298	81.06
243.531	72.06
243.765	80.06
243.998	64.06
244.232	92.06
244.465	79.06
244.699	76.06
244.932	75.06
245.166	92.06
245.399	84.06
245.633	81.06
245.866	74.06
246.099	86.06
246.333	80.06
246.566	88.06
246.8	77.06
247.033	89.06
247.266	80.06
247.5	82.06
247.733	82.06
247.966	76.06
248.2	76.06
248.433	84.06
248.666	78.06
248.899	75.06
249.133	86.06
249.366	104.06
249.599	96.06
249.832	88.06
250.066	73.06
250.299	74.06
250.532	82.06
250.765	80.06
250.998	86.06
251.231	93.06
251.465	90.06
251.698	77.06
251.931	77.06
252.164	71.06
252.397	65.06
252.63	77.06
252.863	92.06
253.096	76.06
253.329	100.06
253.562	83.06
253.795	82.06
254.028	91.06
254.261	82.06
254.494	68.06
254.727	78.06
254.96	85.06
255.193	81.06
255.426	84.06
255.659	82.06
255.892	73.06
256.124	84.06
256.357	68.06
256.59	88.06
256.823	79.06
257.056	80.06
257.289	98.06
257.521	89.06
257.754	91.06
257.987	80.06
258.22	96.06
258.452	77.06
258.685	82.06
258.918	98.06
259.151	85.06
259.383	86.06
259.616	69.06
259.849	84.06
260.081	85.06
260.314	82.06
260.547	88.06
260.779	82.06
261.012	83.06
261.244	90.06
261.477	78.06
261.71	97.06
261.942	105.06
262.175	122.06
262.407	84.06
262.64	94.06
262.872	101.06
263.105	97.06
263.337	89.06
263.57	71.06
263.802	89.06
264.035	75.06
264.267	94.06
264.499	94.06
264.732	95.06
264.964	68.06
265.197	82.06
265.429	112.06
265.661	86.06
265.894	99.06
266.126	85.06
266.358	93.06
266.591	73.06
266.823	76.06
267.055	81.06
267.287	88.06
267.52	80.06
267.752	93.06
267.984	90.06
268.216	81.06
268.448	77.06
268.681	97.06
268.913	90.06
269.145	90.06
269.377	75.06
269.609	94.06
269.841	90.06
270.073	77.06
270.306	85.06
270.538	85.06
270.77	62.06
271.002	87.06
271.234	91.06
271.466	77.06
271.698	84.06
271.93	96.06
272.162	92.06
272.394	95.06
272.626	88.06
272.858	86.06
273.09	91.06
273.322	77.06
273.553	80.06
273.785	77.06
274.017	82.06
274.249	100.06
274.481	96.06
274.713	70.06
274.945	84.06
275.176	81.06
275.408	84.06
275.64	94.06
275.872	103.06
276.104	87.06
276.335	88.06
276.567	114.06
276.799	123.06
277.031	105.06
277.262	106.06
277.494	84.06
277.726	90.06
277.957	83.06
278.189	84.06
278.421	90.06
278.652	98.06
278.884	108.06
279.115	94.06
279.347	89.06
279.579	84.06
279.81	84.06
280.042	80.06
280.273	87.06
280.505	90.06
280.736	73.06
280.968	91.06
281.199	74.06
281.431	94.06
281.662	98.06
281.894	90.06
282.125	105.06
282.356	128.06
282.588	137.06
282.819	114.06
283.051	73.06
283.282	100.06
283.513	99.06
283.745	86.06
283.976	88.06
284.207	87.06
284.439	88.06
284.67	97.06
284.901	90.06
285.132	92.06
285.364	76.06
285.595	93.06
285.826	100.06
286.057	85.06
286.288	86.06
286.52	102.06
286.751	101.06
286.982	91.06
287.213	93.06
287.444	86.06
287.675	87.06
287.906	77.06
288.138	98.06
288.369	100.06
288.6	103.06
288.831	82.06
289.062	74.06
289.293	84.06
289.524	84.06
289.755	95.06
289.986	81.06
290.217	93.06
290.448	70.06
290.679	78.06
290.91	93.06
291.141	75.06
291.371	103.06
291.602	92.06
291.833	89.06
292.064	88.06
292.295	89.06
292.526	86.06
292.757	96.06
292.987	89.06
293.218	94.06
293.449	75.06
293.68	92.06
293.91	96.06
294.141	104.06
294.372	91.06
294.603	92.06
294.833	82.06
295.064	97.06
295.295	97.06
295.525	118.06
295.756	100.06
295.987	124.06
296.217	136.06
296.448	116.06
296.679	98.06
296.909	88.06
297.14	97.06
297.37	84.06
297.601	98.06
297.831	101.06
298.062	97.06
298.292	90.06
298.523	98.06
298.753	89.06
298.984	81.06
299.214	91.06
299.445	94.06
299.675	97.06
299.905	75.06
300.136	95.06
300.366	81.06
300.597	96.06
300.827	96.06
301.057	96.06
301.288	110.06
301.518	93.06
301.748	103.06
301.979	98.06
302.209	76.06
302.439	98.06
302.669	97.06
302.9	100.06
303.13	88.06
303.36	103.06
303.59	97.06
303.82	98.06
304.051	94.06
304.281	98.06
304.511	92.06
304.741	96.06
304.971	90.06
305.201	103.06
305.431	82.06
305.661	93.06
305.891	86.06
306.121	110.06
306.352	105.06
306.582	96.06
306.812	89.06
307.042	112.06
307.272	92.06
307.502	95.06
307.731	90.06
307.961	96.06
308.191	100.06
308.421	94.06
308.651	87.06
308.881	97.06
309.111	98.06
309.341	105.06
309.571	109.06
309.8	91.06
310.03	108.06
310.26	106.06
310.49	109.06
310.72	108.06
310.949	116.06
311.179	85.06
311.409	86.06
311.639	96.06
311.868	88.06
312.098	89.06
312.328	101.06
312.557	111.06
312.787	115.06
313.017	115.06
313.246	101.06
313.476	93.06
313.706	87.06
313.935	101.06
314.165	92.06
314.394	99.06
314.624	102.06
314.853	97.06
315.083	93.06
315.312	90.06
315.542	86.06
315.771	88.06
316.001	99.06
316.23	92.06
316.46	90.06
316.689	88.06
316.919	82.06
317.148	97.06
317.377	100.06
317.607	83.06
317.836	89.06
318.065	93.06
318.295	90.06
318.524	92.06
318.753	103.06
318.983	97.06
319.212	110.06
319.441	94.06
319.67	113.06
319.9	87.06
320.129	90.06
320.358	93.06
320.587	106.06
320.816	96.06
321.046	112.06
321.275	98.06
321.504	97.06
321.733	99.06
321.962	91.06
322.191	106.06
322.42	101.06
322.649	117.06
322.878	110.06
323.108	110.06
323.337	124.06
323.566	127.06
323.795	164.06
324.024	218.06
324.253	409.06
324.482	824.06
324.71	1780.06
324.939	2364.06
325.168	846.06
325.397	256.06
325.626	141.06
325.855	131.06
326.084	126.06
326.313	140.06
326.542	161.06
326.77	226.06
326.999	459.06
327.228	957.06
327.457	1824.06
327.686	1478.06
327.914	378.06
328.143	182.06
328.372	148.06
328.6	122.06
328.829	121.06
329.058	121.06
329.287	125.06
329.515	110.06
329.744	114.06
329.972	110.06
330.201	111.06
330.43	108.06
330.658	125.06
330.887	150.06
331.115	122.06
331.344	103.06
331.572	92.06
331.801	104.06
332.03	89.06
332.258	92.06
332.486	88.06
332.715	87.06
332.943	94.06
333.172	100.06
333.4	100.06
333.629	112.06
333.857	101.06
334.085	99.06
334.314	95.06
334.542	108.06
334.771	92.06
334.999	101.06
335.227	90.06
335.455	91.06
335.684	109.06
335.912	108.06
336.14	100.06
336.369	105.06
336.597	103.06
336.825	103.06
337.053	96.06
337.281	81.06
337.51	93.06
337.738	108.06
337.966	99.06
338.194	84.06
338.422	86.06
338.65	98.06
338.878	101.06
339.106	87.06
339.334	84.06
339.562	72.06
339.79	84.06
340.018	88.06
340.246	94.06
340.474	85.06
340.702	105.06
340.93	98.06
341.158	92.06
341.386	116.06
341.614	101.06
341.842	87.06
342.07	107.06
342.298	89.06
342.526	88.06
342.754	91.06
342.981	81.06
343.209	96.06
343.437	100.06
343.665	102.06
343.893	107.06
344.12	92.06
344.348	93.06
344.576	91.06
344.804	105.06
345.031	86.06
345.259	96.06
345.487	96.06
345.714	114.06
345.942	111.06
346.17	103.06
346.397	104.06
346.625	111.06
346.853	96.06
347.08	97.06
347.308	105.06
347.535	124.06
347.763	107.06
347.99	103.06
348.218	114.06
348.445	110.06
348.673	98.06
348.9	93.06
349.128	106.06
349.355	97.06
349.583	98.06
349.81	105.06
350.037	103.06
350.265	92.06
350.492	101.06
350.72	88.06
350.947	102.06
351.174	109.06
351.402	118.06
351.629	108.06
351.856	105.06
352.083	106.06
352.311	92.06
352.538	103.06
352.765	120.06
352.992	106.06
353.22	115.06
353.447	96.06
353.674	104.06
353.901	94.06
354.128	85.06
354.355	91.06
354.583	97.06
354.81	112.06
355.037	92.06
355.264	109.06
355.491	108.06
355.718	93.06
355.945	100.06
356.172	80.06
356.399	102.06
356.626	102.06
356.853	109.06
357.08	89.06
357.307	96.06
357.534	89.06
357.761	93.06
357.988	91.06
358.215	92.06
358.441	80.06
358.668	85.06
358.895	101.06
359.122	91.06
359.349	95.06
359.576	105.06
359.802	96.06
360.029	108.06
360.256	98.06
360.483	101.06
360.709	98.06
360.936	104.06
361.163	101.06
361.39	102.06
361.616	91.06
361.843	104.06
362.07	99.06
362.296	96.06
362.523	98.06
362.749	103.06
362.976	84.06
363.203	87.06
363.429	90.06
363.656	88.06
363.882	87.06
364.109	114.06
364.335	104.06
364.562	91.06
364.788	90.06
365.015	99.06
365.241	108.06
365.468	113.06
365.694	114.06
365.92	104.06
366.147	96.06
366.373	94.06
366.599	93.06
366.826	94.06
367.052	78.06
367.278	107.06
367.505	96.06
367.731	104.06
367.957	84.06
368.184	97.06
368.41	106.06
368.636	107.06
368.862	128.06
369.089	105.06
369.315	95.06
369.541	93.06
369.767	88.06
369.993	99.06
370.219	99.06
370.445	94.06
370.672	101.06
370.898	95.06
371.124	95.06
371.35	97.06
371.576	105.06
371.802	93.06
372.028	94.06
372.254	92.06
372.48	88.06
372.706	96.06
372.932	89.06
373.158	81.06
373.384	76.06
373.61	92.06
373.835	88.06
374.061	97.06
374.287	97.06
374.513	99.06
374.739	102.06
374.965	84.06
375.191	101.06
375.416	106.06
375.642	104.06
375.868	86.06
376.094	88.06
376.319	91.06
376.545	93.06
376.771	86.06
376.997	102.06
377.222	91.06
377.448	88.06
377.674	98.06
377.899	86.06
378.125	84.06
378.35	91.06
378.576	86.06
378.802	91.06
379.027	88.06
379.253	93.06
379.478	92.06
379.704	84.06
379.929	96.06
380.155	115.06
380.38	104.06
380.606	104.06
380.831	92.06
381.057	98.06
381.282	98.06
381.507	99.06
381.733	96.06
381.958	87.06
382.184	99.06
382.409	96.06
382.634	104.06
382.86	95.06
383.085	97.06
383.31	106.06
383.535	105.06
383.761	96.06
383.986	101.06
384.211	100.06
384.436	115.06
384.662	110.06
384.887	114.06
385.112	108.06
385.337	105.06
385.562	118.06
385.787	119.06
386.013	109.06
386.238	120.06
386.463	113.06
386.688	107.06
386.913	105.06
387.138	101.06
387.363	96.06
387.588	100.06
387.813	100.06
388.038	101.06
388.263	109.06
388.488	122.06
388.713	98.06
388.938	99.06
389.163	100.06
389.387	92.06
389.612	96.06
389.837	100.06
390.062	102.06
390.287	97.06
390.512	99.06
390.736	88.06
390.961	113.06
391.186	118.06
391.411	99.06
391.636	90.06
391.86	93.06
392.085	96.06
392.31	92.06
392.534	93.06
392.759	98.06
392.984	100.06
393.208	107.06
393.433	108.06
393.658	100.06
393.882	90.06
394.107	98.06
394.331	89.06
394.556	91.06
394.78	114.06
395.005	103.06
395.229	84.06
395.454	87.06
395.678	89.06
395.903	96.06
396.127	86.06
396.352	87.06
396.576	93.06
396.801	87.06
397.025	87.06
397.249	83.06
397.474	83.06
397.698	99.06
397.922	98.06
398.147	92.06
398.371	84.06
398.595	91.06
398.82	91.06
399.044	99.06
399.268	85.06
399.492	75.06
399.717	85.06
399.941	117.06
400.165	101.06
400.389	104.06
400.613	90.06
400.837	113.06
401.062	89.06
401.286	80.06
401.51	106.06
401.734	88.06
401.958	111.06
402.182	124.06
402.406	169.06
402.63	127.06
402.854	104.06
403.078	94.06
403.302	89.06
403.526	88.06
403.75	81.06
403.974	88.06
404.198	101.06
404.422	84.06
404.645	104.06
404.869	100.06
405.093	97.06
405.317	100.06
405.541	106.06
405.765	107.06
405.988	105.06
406.212	179.06
406.436	233.06
406.66	155.06
406.883	103.06
407.107	102.06
407.331	96.06
407.555	105.06
407.778	98.06
408.002	102.06
408.226	99.06
408.449	95.06
408.673	93.06
408.896	106.06
409.12	88.06
409.344	94.06
409.567	90.06
409.791	107.06
410.014	116.06
410.238	98.06
410.461	86.06
410.685	102.06
410.908	97.06
411.132	134.06
411.355	112.06
411.578	106.06
411.802	92.06
412.025	92.06
412.249	89.06
412.472	93.06
412.695	98.06
412.919	101.06
413.142	91.06
413.365	90.06
413.589	117.06
413.812	97.06
414.035	88.06
414.258	88.06
414.482	101.06
414.705	81.06
414.928	99.06
415.151	103.06
415.374	113.06
415.597	84.06
415.821	99.06
416.044	83.06
416.267	83.06
416.49	104.06
416.713	91.06
416.936	92.06
417.159	100.06
417.382	84.06
417.605	92.06
417.828	97.06
418.051	88.06
418.274	98.06
418.497	85.06
418.72	76.06
418.943	91.06
419.166	95.06
419.389	88.06
419.611	107.06
419.834	93.06
420.057	83.06
420.28	89.06
420.503	101.06
420.726	69.06
420.948	81.06
421.171	97.06
421.394	92.06
421.617	98.06
421.839	91.06
422.062	102.06
422.285	97.06
422.507	92.06
422.73	117.06
422.953	106.06
423.175	101.06
423.398	93.06
423.621	94.06
423.843	79.06
424.066	92.06
424.288	97.06
424.511	89.06
424.733	86.06
424.956	114.06
425.178	96.06
425.401	106.06
425.623	128.06
425.846	99.06
426.068	88.06
426.291	87.06
426.513	86.06
426.735	80.06
426.958	101.06
427.18	120.06
427.402	154.06
427.625	170.06
427.847	132.06
428.069	112.06
428.292	91.06
428.514	69.06
428.736	101.06
428.958	81.06
429.181	92.06
429.403	94.06
429.625	107.06
429.847	106.06
430.069	106.06
430.292	106.06
430.514	94.06
430.736	82.06
430.958	84.06
431.18	88.06
431.402	83.06
431.624	108.06
431.846	90.06
432.068	86.06
432.29	92.06
432.512	78.06
432.734	84.06
432.956	97.06
433.178	88.06
433.4	107.06
433.622	99.06
433.844	103.06
434.066	89.06
434.287	92.06
434.509	90.06
434.731	93.06
434.953	84.06
435.175	89.06
435.397	80.06
435.618	97.06
435.84	102.06
436.062	131.06
436.284	125.06
436.505	101.06
436.727	102.06
436.949	95.06
437.17	97.06
437.392	81.06
437.614	96.06
437.835	119.06
438.057	111.06
438.278	127.06
438.5	100.06
438.721	125.06
438.943	111.06
439.165	93.06
439.386	98.06
439.608	107.06
439.829	108.06
440.05	111.06
440.272	167.06
440.493	105.06
440.715	86.06
440.936	104.06
441.158	90.06
441.379	82.06
441.6	91.06
441.822	105.06
442.043	98.06
442.264	115.06
442.486	112.06
442.707	97.06
442.928	123.06
443.149	126.06
443.371	132.06
443.592	119.06
443.813	124.06
444.034	110.06
444.255	88.06
444.476	91.06
444.698	100.06
444.919	86.06
445.14	135.06
445.361	138.06
445.582	101.06
445.803	136.06
446.024	126.06
446.245	138.06
446.466	105.06
446.687	99.06
446.908	94.06
447.129	100.06
447.35	84.06
447.571	89.06
447.792	103.06
448.013	106.06
448.234	109.06
448.455	100.06
448.675	133.06
448.896	123.06
449.117	103.06
449.338	117.06
449.559	145.06
449.779	141.06
450	105.06
450.221	98.06
450.442	101.06
450.662	103.06
450.883	116.06
451.104	130.06
451.324	113.06
451.545	100.06
451.766	95.06
451.986	96.06
452.207	87.06
452.428	104.06
452.648	77.06
452.869	124.06
453.089	129.06
453.31	120.06
453.53	106.06
453.751	93.06
453.971	107.06
454.192	114.06
454.412	110.06
454.633	85.06
454.853	92.06
455.073	102.06
455.294	105.06
455.514	111.06
455.734	91.06
455.955	108.06
456.175	91.06
456.395	94.06
456.616	96.06
456.836	80.06
457.056	88.06
457.276	110.06
457.497	87.06
457.717	88.06
457.937	89.06
458.157	81.06
458.377	93.06
458.598	99.06
458.818	152.06
459.038	151.06
459.258	131.06
459.478	99.06
459.698	96.06
459.918	80.06
460.138	81.06
460.358	77.06
460.578	96.06
460.798	104.06
461.018	104.06
461.238	95.06
461.458	74.06
461.678	81.06
461.898	94.06
462.118	98.06
462.338	86.06
462.558	98.06
462.777	84.06
462.997	94.06
463.217	95.06
463.437	88.06
463.657	89.06
463.876	94.06
464.096	85.06
464.316	97.06
464.536	90.06
464.755	102.06
464.975	110.06
465.195	154.06
465.414	156.06
465.634	96.06
465.854	107.06
466.073	91.06
466.293	103.06
466.512	94.06
466.732	80.06
466.951	89.06
467.171	97.06
467.391	95.06
467.61	100.06
467.829	96.06
468.049	90.06
468.268	88.06
468.488	76.06
468.707	84.06
468.927	91.06
469.146	109.06
469.365	92.06
469.585	82.06
469.804	100.06
470.023	106.06
470.243	86.06
470.462	115.06
470.681	104.06
470.901	94.06
471.12	105.06
471.339	90.06
471.558	74.06
471.777	103.06
471.997	104.06
472.216	92.06
472.435	103.06
472.654	100.06
472.873	93.06
473.092	89.06
473.311	78.06
473.53	98.06
473.749	102.06
473.968	96.06
474.187	97.06
474.406	96.06
474.625	94.06
474.844	90.06
475.063	96.06
475.282	98.06
475.501	94.06
475.72	78.06
475.939	110.06
476.158	93.06
476.377	87.06
476.596	90.06
476.814	86.06
477.033	98.06
477.252	81.06
477.471	80.06
477.69	98.06
477.908	94.06
478.127	85.06
478.346	101.06
478.564	94.06
478.783	103.06
479.002	98.06
479.22	97.06
479.439	110.06
479.658	98.06
479.876	77.06
480.095	86.06
480.313	96.06
480.532	101.06
480.751	93.06
480.969	97.06
481.188	108.06
481.406	102.06
481.624	94.06
481.843	99.06
482.061	84.06
482.28	75.06
482.498	87.06
482.717	92.06
482.935	80.06
483.153	86.06
483.372	89.06
483.59	97.06
483.808	105.06
484.027	91.06
484.245	99.06
484.463	96.06
484.681	93.06
484.9	99.06
485.118	95.06
485.336	99.06
485.554	102.06
485.772	107.06
485.99	110.06
486.209	121.06
486.427	116.06
486.645	110.06
486.863	118.06
487.081	105.06
487.299	109.06
487.517	98.06
487.735	107.06
487.953	97.06
488.171	97.06
488.389	90.06
488.607	98.06
488.825	69.06
489.043	96.06
489.261	100.06
489.479	89.06
489.696	86.06
489.914	88.06
490.132	102.06
490.35	94.06
490.568	73.06
490.786	101.06
491.003	88.06
491.221	93.06
491.439	99.06
491.657	99.06
491.874	100.06
492.092	83.06
492.31	97.06
492.527	92.06
492.745	91.06
492.963	99.06
493.18	86.06
493.398	94.06
493.615	96.06
493.833	109.06
494.05	92.06
494.268	86.06
494.485	102.06
494.703	105.06
494.92	84.06
495.138	91.06
495.355	91.06
495.573	86.06
495.79	101.06
496.008	106.06
496.225	99.06
496.442	109.06
496.66	95.06
496.877	81.06
497.094	104.06
497.312	112.06
497.529	96.06
497.746	101.06
497.963	88.06
498.181	101.06
498.398	101.06
498.615	123.06
498.832	89.06
499.049	104.06
499.267	92.06
499.484	85.06
499.701	108.06
499.918	110.06
500.135	94.06
500.352	84.06
500.569	82.06
500.786	99.06
501.003	93.06
501.22	100.06
501.437	87.06
501.654	92.06
501.871	95.06
502.088	106.06
502.305	99.06
502.522	84.06
502.739	79.06
502.956	97.06
503.172	83.06
503.389	107.06
503.606	106.06
503.823	102.06
504.04	88.06
504.256	97.06
504.473	90.06
504.69	88.06
504.907	114.06
505.123	95.06
505.34	109.06
505.557	101.06
505.773	103.06
505.99	87.06
506.207	109.06
506.423	99.06
506.64	108.06
506.856	101.06
507.073	91.06
507.289	92.06
507.506	104.06
507.722	118.06
507.939	91.06
508.155	93.06
508.372	93.06
508.588	80.06
508.805	105.06
509.021	101.06
509.238	112.06
509.454	88.06
509.67	94.06
509.887	105.06
510.103	133.06
510.319	230.06
510.536	802.06
510.752	2482.06
510.968	672.06
511.184	168.06
511.401	97.06
511.617	92.06
511.833	100.06
512.049	107.06
512.265	73.06
512.481	104.06
512.698	87.06
512.914	92.06
513.13	78.06
513.346	99.06
513.562	92.06
513.778	107.06
