Data from Uncirc_1986_H10_HRD10591_00051.txt Node
Date: Wed Jan 03 12:14:36 EST 2024
User: Yrep
Spectrometer: HR+D1059
Trigger mode: 1
Integration Time (sec): 1.000000E-1
Scans to average: 1
Electric dark correction enabled: true
Nonlinearity correction enabled: false
Boxcar width: 0
XAxis mode: Wavelengths
Number of Pixels in Spectrum: 2048
>>>>>Begin Spectral Data<<<<<
223.165	-21.56
223.4	-21.56
223.635	-21.56
223.869	-28.56
224.104	-2.56
224.338	-24.56
224.573	-18.56
224.808	-6.56
225.042	0.44
225.277	1.44
225.511	0.44
225.746	2.44
225.98	3.44
226.215	10.44
226.449	11.44
226.683	21.44
226.918	26.44
227.152	24.44
227.387	24.44
227.621	30.44
227.856	41.44
228.09	54.44
228.324	41.44
228.559	52.44
228.793	57.44
229.027	42.44
229.262	77.44
229.496	66.44
229.73	68.44
229.964	73.44
230.199	79.44
230.433	77.44
230.667	81.44
230.901	78.44
231.136	81.44
231.37	80.44
231.604	84.44
231.838	79.44
232.072	80.44
232.306	87.44
232.541	70.44
232.775	81.44
233.009	75.44
233.243	82.44
233.477	87.44
233.711	72.44
233.945	76.44
234.179	77.44
234.413	75.44
234.647	91.44
234.881	69.44
235.115	81.44
235.349	79.44
235.583	95.44
235.817	92.44
236.051	79.44
236.285	79.44
236.519	70.44
236.753	74.44
236.987	96.44
237.221	70.44
237.455	80.44
237.689	96.44
237.922	81.44
238.156	77.44
238.39	73.44
238.624	74.44
238.858	67.44
239.091	66.44
239.325	83.44
239.559	75.44
239.793	73.44
240.027	93.44
240.26	75.44
240.494	64.44
240.728	72.44
240.961	63.44
241.195	86.44
241.429	70.44
241.662	86.44
241.896	81.44
242.13	81.44
242.363	74.44
242.597	72.44
242.83	88.44
243.064	70.44
243.298	77.44
243.531	79.44
243.765	85.44
243.998	77.44
244.232	85.44
244.465	89.44
244.699	67.44
244.932	71.44
245.166	86.44
245.399	80.44
245.633	83.44
245.866	66.44
246.099	69.44
246.333	89.44
246.566	77.44
246.8	66.44
247.033	77.44
247.266	65.44
247.5	77.44
247.733	75.44
247.966	65.44
248.2	69.44
248.433	83.44
248.666	85.44
248.899	81.44
249.133	86.44
249.366	93.44
249.599	95.44
249.832	99.44
250.066	67.44
250.299	75.44
250.532	88.44
250.765	81.44
250.998	78.44
251.231	89.44
251.465	84.44
251.698	83.44
251.931	68.44
252.164	77.44
252.397	81.44
252.63	81.44
252.863	80.44
253.096	72.44
253.329	77.44
253.562	80.44
253.795	86.44
254.028	89.44
254.261	79.44
254.494	92.44
254.727	81.44
254.96	79.44
255.193	69.44
255.426	73.44
255.659	71.44
255.892	74.44
256.124	88.44
256.357	82.44
256.59	94.44
256.823	89.44
257.056	85.44
257.289	73.44
257.521	79.44
257.754	77.44
257.987	82.44
258.22	78.44
258.452	89.44
258.685	91.44
258.918	78.44
259.151	88.44
259.383	58.44
259.616	56.44
259.849	70.44
260.081	80.44
260.314	80.44
260.547	84.44
260.779	79.44
261.012	87.44
261.244	93.44
261.477	95.44
261.71	83.44
261.942	103.44
262.175	106.44
262.407	68.44
262.64	91.44
262.872	81.44
263.105	80.44
263.337	88.44
263.57	90.44
263.802	88.44
264.035	73.44
264.267	82.44
264.499	83.44
264.732	108.44
264.964	66.44
265.197	81.44
265.429	81.44
265.661	77.44
265.894	81.44
266.126	79.44
266.358	88.44
266.591	70.44
266.823	79.44
267.055	87.44
267.287	81.44
267.52	83.44
267.752	72.44
267.984	81.44
268.216	89.44
268.448	93.44
268.681	83.44
268.913	85.44
269.145	94.44
269.377	89.44
269.609	81.44
269.841	72.44
270.073	81.44
270.306	85.44
270.538	87.44
270.77	83.44
271.002	89.44
271.234	93.44
271.466	92.44
271.698	83.44
271.93	93.44
272.162	88.44
272.394	89.44
272.626	95.44
272.858	90.44
273.09	91.44
273.322	80.44
273.553	87.44
273.785	84.44
274.017	79.44
274.249	94.44
274.481	90.44
274.713	85.44
274.945	83.44
275.176	88.44
275.408	94.44
275.64	83.44
275.872	87.44
276.104	86.44
276.335	91.44
276.567	95.44
276.799	96.44
277.031	98.44
277.262	92.44
277.494	81.44
277.726	83.44
277.957	93.44
278.189	83.44
278.421	78.44
278.652	82.44
278.884	93.44
279.115	87.44
279.347	80.44
279.579	93.44
279.81	76.44
280.042	89.44
280.273	88.44
280.505	93.44
280.736	91.44
280.968	94.44
281.199	90.44
281.431	94.44
281.662	84.44
281.894	77.44
282.125	107.44
282.356	107.44
282.588	127.44
282.819	107.44
283.051	83.44
283.282	93.44
283.513	81.44
283.745	93.44
283.976	80.44
284.207	88.44
284.439	87.44
284.67	93.44
284.901	75.44
285.132	95.44
285.364	72.44
285.595	81.44
285.826	81.44
286.057	77.44
286.288	88.44
286.52	80.44
286.751	84.44
286.982	94.44
287.213	92.44
287.444	75.44
287.675	85.44
287.906	76.44
288.138	85.44
288.369	91.44
288.6	97.44
288.831	94.44
289.062	81.44
289.293	79.44
289.524	98.44
289.755	82.44
289.986	93.44
290.217	97.44
290.448	86.44
290.679	89.44
290.91	85.44
291.141	81.44
291.371	85.44
291.602	99.44
291.833	79.44
292.064	83.44
292.295	94.44
292.526	97.44
292.757	91.44
292.987	99.44
293.218	84.44
293.449	95.44
293.68	90.44
293.91	84.44
294.141	85.44
294.372	92.44
294.603	98.44
294.833	92.44
295.064	85.44
295.295	82.44
295.525	75.44
295.756	91.44
295.987	109.44
296.217	135.44
296.448	134.44
296.679	98.44
296.909	71.44
297.14	85.44
297.37	90.44
297.601	81.44
297.831	103.44
298.062	87.44
298.292	85.44
298.523	103.44
298.753	93.44
298.984	82.44
299.214	104.44
299.445	99.44
299.675	101.44
299.905	90.44
300.136	90.44
300.366	81.44
300.597	93.44
300.827	96.44
301.057	105.44
301.288	114.44
301.518	91.44
301.748	91.44
301.979	111.44
302.209	77.44
302.439	92.44
302.669	85.44
302.9	85.44
303.13	87.44
303.36	101.44
303.59	110.44
303.82	97.44
304.051	77.44
304.281	96.44
304.511	99.44
304.741	74.44
304.971	112.44
305.201	89.44
305.431	87.44
305.661	94.44
305.891	99.44
306.121	94.44
306.352	109.44
306.582	101.44
306.812	86.44
307.042	93.44
307.272	75.44
307.502	95.44
307.731	90.44
307.961	94.44
308.191	99.44
308.421	87.44
308.651	92.44
308.881	88.44
309.111	89.44
309.341	96.44
309.571	89.44
309.8	100.44
310.03	102.44
310.26	95.44
310.49	69.44
310.72	105.44
310.949	99.44
311.179	105.44
311.409	88.44
311.639	88.44
311.868	101.44
312.098	91.44
312.328	96.44
312.557	100.44
312.787	94.44
313.017	112.44
313.246	99.44
313.476	88.44
313.706	80.44
313.935	100.44
314.165	99.44
314.394	101.44
314.624	99.44
314.853	95.44
315.083	93.44
315.312	103.44
315.542	85.44
315.771	85.44
316.001	89.44
316.23	85.44
316.46	93.44
316.689	95.44
316.919	94.44
317.148	100.44
317.377	81.44
317.607	85.44
317.836	87.44
318.065	96.44
318.295	97.44
318.524	101.44
318.753	112.44
318.983	93.44
319.212	104.44
319.441	93.44
319.67	102.44
319.9	91.44
320.129	104.44
320.358	89.44
320.587	99.44
320.816	105.44
321.046	84.44
321.275	100.44
321.504	93.44
321.733	84.44
321.962	89.44
322.191	112.44
322.42	104.44
322.649	98.44
322.878	109.44
323.108	125.44
323.337	112.44
323.566	127.44
323.795	143.44
324.024	186.44
324.253	365.44
324.482	771.44
324.71	1570.44
324.939	2046.44
325.168	760.44
325.397	234.44
325.626	135.44
325.855	131.44
326.084	129.44
326.313	141.44
326.542	150.44
326.77	228.44
326.999	420.44
327.228	872.44
327.457	1613.44
327.686	1271.44
327.914	345.44
328.143	185.44
328.372	145.44
328.6	127.44
328.829	115.44
329.058	121.44
329.287	123.44
329.515	117.44
329.744	93.44
329.972	107.44
330.201	105.44
330.43	107.44
330.658	117.44
330.887	143.44
331.115	122.44
331.344	103.44
331.572	97.44
331.801	112.44
332.03	99.44
332.258	99.44
332.486	101.44
332.715	97.44
332.943	106.44
333.172	94.44
333.4	96.44
333.629	109.44
333.857	112.44
334.085	107.44
334.314	102.44
334.542	118.44
334.771	101.44
334.999	96.44
335.227	90.44
335.455	93.44
335.684	79.44
335.912	91.44
336.14	97.44
336.369	97.44
336.597	95.44
336.825	93.44
337.053	90.44
337.281	87.44
337.51	94.44
337.738	102.44
337.966	86.44
338.194	99.44
338.422	91.44
338.65	90.44
338.878	98.44
339.106	79.44
339.334	90.44
339.562	74.44
339.79	91.44
340.018	85.44
340.246	89.44
340.474	79.44
340.702	97.44
340.93	88.44
341.158	108.44
341.386	88.44
341.614	115.44
341.842	93.44
342.07	97.44
342.298	88.44
342.526	83.44
342.754	97.44
342.981	81.44
343.209	91.44
343.437	88.44
343.665	101.44
343.893	107.44
344.12	101.44
344.348	80.44
344.576	92.44
344.804	98.44
345.031	95.44
345.259	91.44
345.487	78.44
345.714	102.44
345.942	84.44
346.17	97.44
346.397	93.44
346.625	99.44
346.853	80.44
347.08	102.44
347.308	98.44
347.535	101.44
347.763	90.44
347.99	101.44
348.218	93.44
348.445	107.44
348.673	103.44
348.9	97.44
349.128	84.44
349.355	88.44
349.583	111.44
349.81	102.44
350.037	94.44
350.265	90.44
350.492	85.44
350.72	90.44
350.947	97.44
351.174	103.44
351.402	103.44
351.629	86.44
351.856	103.44
352.083	106.44
352.311	108.44
352.538	100.44
352.765	104.44
352.992	106.44
353.22	117.44
353.447	109.44
353.674	113.44
353.901	104.44
354.128	89.44
354.355	80.44
354.583	87.44
354.81	92.44
355.037	97.44
355.264	120.44
355.491	96.44
355.718	95.44
355.945	108.44
356.172	86.44
356.399	104.44
356.626	96.44
356.853	85.44
357.08	75.44
357.307	91.44
357.534	97.44
357.761	95.44
357.988	94.44
358.215	88.44
358.441	75.44
358.668	77.44
358.895	87.44
359.122	93.44
359.349	93.44
359.576	91.44
359.802	112.44
360.029	90.44
360.256	107.44
360.483	102.44
360.709	99.44
360.936	95.44
361.163	93.44
361.39	96.44
361.616	87.44
361.843	98.44
362.07	101.44
362.296	95.44
362.523	82.44
362.749	93.44
362.976	98.44
363.203	90.44
363.429	80.44
363.656	93.44
363.882	77.44
364.109	93.44
364.335	81.44
364.562	90.44
364.788	95.44
365.015	84.44
365.241	97.44
365.468	94.44
365.694	102.44
365.92	97.44
366.147	88.44
366.373	95.44
366.599	100.44
366.826	93.44
367.052	92.44
367.278	104.44
367.505	86.44
367.731	93.44
367.957	80.44
368.184	78.44
368.41	93.44
368.636	98.44
368.862	109.44
369.089	103.44
369.315	93.44
369.541	89.44
369.767	85.44
369.993	93.44
370.219	85.44
370.445	96.44
370.672	98.44
370.898	83.44
371.124	82.44
371.35	83.44
371.576	82.44
371.802	73.44
372.028	97.44
372.254	96.44
372.48	96.44
372.706	90.44
372.932	72.44
373.158	88.44
373.384	97.44
373.61	86.44
373.835	91.44
374.061	77.44
374.287	89.44
374.513	86.44
374.739	94.44
374.965	98.44
375.191	92.44
375.416	77.44
375.642	96.44
375.868	92.44
376.094	93.44
376.319	76.44
376.545	87.44
376.771	74.44
376.997	85.44
377.222	83.44
377.448	94.44
377.674	80.44
377.899	105.44
378.125	98.44
378.35	80.44
378.576	92.44
378.802	110.44
379.027	88.44
379.253	85.44
379.478	83.44
379.704	91.44
379.929	105.44
380.155	92.44
380.38	89.44
380.606	102.44
380.831	95.44
381.057	82.44
381.282	98.44
381.507	92.44
381.733	95.44
381.958	82.44
382.184	95.44
382.409	87.44
382.634	92.44
382.86	93.44
383.085	94.44
383.31	104.44
383.535	107.44
383.761	107.44
383.986	89.44
384.211	99.44
384.436	88.44
384.662	96.44
384.887	99.44
385.112	106.44
385.337	95.44
385.562	113.44
385.787	106.44
386.013	109.44
386.238	99.44
386.463	92.44
386.688	102.44
386.913	101.44
387.138	94.44
387.363	87.44
387.588	103.44
387.813	100.44
388.038	79.44
388.263	102.44
388.488	98.44
388.713	95.44
388.938	94.44
389.163	105.44
389.387	95.44
389.612	100.44
389.837	103.44
390.062	86.44
390.287	96.44
390.512	89.44
390.736	95.44
390.961	102.44
391.186	100.44
391.411	93.44
391.636	83.44
391.86	81.44
392.085	90.44
392.31	77.44
392.534	77.44
392.759	87.44
392.984	94.44
393.208	93.44
393.433	98.44
393.658	95.44
393.882	104.44
394.107	86.44
394.331	93.44
394.556	86.44
394.78	83.44
395.005	88.44
395.229	88.44
395.454	91.44
395.678	93.44
395.903	85.44
396.127	70.44
396.352	77.44
396.576	85.44
396.801	90.44
397.025	97.44
397.249	95.44
397.474	82.44
397.698	82.44
397.922	93.44
398.147	81.44
398.371	80.44
398.595	81.44
398.82	92.44
399.044	79.44
399.268	88.44
399.492	98.44
399.717	103.44
399.941	81.44
400.165	89.44
400.389	80.44
400.613	86.44
400.837	72.44
401.062	94.44
401.286	99.44
401.51	94.44
401.734	102.44
401.958	105.44
402.182	118.44
402.406	149.44
402.63	111.44
402.854	101.44
403.078	97.44
403.302	99.44
403.526	100.44
403.75	95.44
403.974	86.44
404.198	96.44
404.422	85.44
404.645	82.44
404.869	85.44
405.093	90.44
405.317	107.44
405.541	106.44
405.765	98.44
405.988	111.44
406.212	160.44
406.436	229.44
406.66	130.44
406.883	93.44
407.107	103.44
407.331	98.44
407.555	107.44
407.778	89.44
408.002	101.44
408.226	91.44
408.449	83.44
408.673	79.44
408.896	92.44
409.12	87.44
409.344	68.44
409.567	86.44
409.791	96.44
410.014	92.44
410.238	86.44
410.461	77.44
410.685	90.44
410.908	103.44
411.132	98.44
411.355	94.44
411.578	95.44
411.802	81.44
412.025	86.44
412.249	93.44
412.472	89.44
412.695	101.44
412.919	98.44
413.142	81.44
413.365	96.44
413.589	90.44
413.812	84.44
414.035	81.44
414.258	85.44
414.482	96.44
414.705	77.44
414.928	88.44
415.151	95.44
415.374	110.44
415.597	94.44
415.821	97.44
416.044	90.44
416.267	94.44
416.49	88.44
416.713	99.44
416.936	93.44
417.159	94.44
417.382	97.44
417.605	67.44
417.828	86.44
418.051	89.44
418.274	100.44
418.497	92.44
418.72	85.44
418.943	85.44
419.166	93.44
419.389	94.44
419.611	89.44
419.834	73.44
420.057	97.44
420.28	84.44
420.503	83.44
420.726	74.44
420.948	104.44
421.171	74.44
421.394	95.44
421.617	85.44
421.839	88.44
422.062	84.44
422.285	79.44
422.507	95.44
422.73	101.44
422.953	101.44
423.175	83.44
423.398	96.44
423.621	97.44
423.843	97.44
424.066	93.44
424.288	90.44
424.511	88.44
424.733	91.44
424.956	110.44
425.178	96.44
425.401	97.44
425.623	107.44
425.846	88.44
426.068	84.44
426.291	90.44
426.513	74.44
426.735	89.44
426.958	94.44
427.18	103.44
427.402	134.44
427.625	166.44
427.847	134.44
428.069	105.44
428.292	89.44
428.514	90.44
428.736	72.44
428.958	101.44
429.181	79.44
429.403	85.44
429.625	90.44
429.847	91.44
430.069	104.44
430.292	79.44
430.514	77.44
430.736	79.44
430.958	79.44
431.18	95.44
431.402	89.44
431.624	93.44
431.846	102.44
432.068	85.44
432.29	111.44
432.512	84.44
432.734	89.44
432.956	88.44
433.178	82.44
433.4	93.44
433.622	78.44
433.844	90.44
434.066	84.44
434.287	92.44
434.509	82.44
434.731	74.44
434.953	82.44
435.175	91.44
435.397	97.44
435.618	81.44
435.84	95.44
436.062	109.44
436.284	101.44
436.505	105.44
436.727	106.44
436.949	89.44
437.17	73.44
437.392	81.44
437.614	94.44
437.835	100.44
438.057	117.44
438.278	124.44
438.5	106.44
438.721	114.44
438.943	100.44
439.165	85.44
439.386	86.44
439.608	84.44
439.829	110.44
440.05	111.44
440.272	146.44
440.493	90.44
440.715	96.44
440.936	85.44
441.158	72.44
441.379	75.44
441.6	103.44
441.822	107.44
442.043	87.44
442.264	95.44
442.486	96.44
442.707	85.44
442.928	103.44
443.149	113.44
443.371	103.44
443.592	101.44
443.813	104.44
444.034	104.44
444.255	82.44
444.476	74.44
444.698	92.44
444.919	87.44
445.14	124.44
445.361	121.44
445.582	109.44
445.803	106.44
446.024	119.44
446.245	143.44
446.466	94.44
446.687	100.44
446.908	88.44
447.129	95.44
447.35	72.44
447.571	79.44
447.792	99.44
448.013	96.44
448.234	107.44
448.455	103.44
448.675	129.44
448.896	114.44
449.117	107.44
449.338	112.44
449.559	123.44
449.779	130.44
450	90.44
450.221	95.44
450.442	96.44
450.662	102.44
450.883	112.44
451.104	103.44
451.324	77.44
451.545	94.44
451.766	94.44
451.986	62.44
452.207	82.44
452.428	108.44
452.648	102.44
452.869	101.44
453.089	109.44
453.31	109.44
453.53	81.44
453.751	91.44
453.971	105.44
454.192	117.44
454.412	88.44
454.633	86.44
454.853	84.44
455.073	84.44
455.294	103.44
455.514	104.44
455.734	92.44
455.955	98.44
456.175	93.44
456.395	89.44
456.616	79.44
456.836	98.44
457.056	72.44
457.276	84.44
457.497	89.44
457.717	86.44
457.937	88.44
458.157	77.44
458.377	84.44
458.598	104.44
458.818	138.44
459.038	142.44
459.258	107.44
459.478	88.44
459.698	94.44
459.918	88.44
460.138	92.44
460.358	86.44
460.578	94.44
460.798	79.44
461.018	88.44
461.238	90.44
461.458	93.44
461.678	89.44
461.898	91.44
462.118	86.44
462.338	82.44
462.558	65.44
462.777	81.44
462.997	77.44
463.217	75.44
463.437	88.44
463.657	87.44
463.876	101.44
464.096	92.44
464.316	89.44
464.536	93.44
464.755	99.44
464.975	100.44
465.195	160.44
465.414	151.44
465.634	97.44
465.854	82.44
466.073	96.44
466.293	91.44
466.512	89.44
466.732	92.44
466.951	99.44
467.171	94.44
467.391	83.44
467.61	89.44
467.829	98.44
468.049	89.44
468.268	74.44
468.488	91.44
468.707	83.44
468.927	86.44
469.146	89.44
469.365	79.44
469.585	90.44
469.804	89.44
470.023	90.44
470.243	79.44
470.462	103.44
470.681	97.44
470.901	96.44
471.12	88.44
471.339	80.44
471.558	95.44
471.777	94.44
471.997	81.44
472.216	97.44
472.435	98.44
472.654	88.44
472.873	77.44
473.092	107.44
473.311	86.44
473.53	98.44
473.749	75.44
473.968	91.44
474.187	99.44
474.406	85.44
474.625	69.44
474.844	89.44
475.063	95.44
475.282	95.44
475.501	94.44
475.72	87.44
475.939	79.44
476.158	74.44
476.377	82.44
476.596	85.44
476.814	92.44
477.033	93.44
477.252	87.44
477.471	87.44
477.69	81.44
477.908	94.44
478.127	91.44
478.346	102.44
478.564	76.44
478.783	83.44
479.002	80.44
479.22	101.44
479.439	98.44
479.658	91.44
479.876	97.44
480.095	84.44
480.313	81.44
480.532	88.44
480.751	92.44
480.969	93.44
481.188	122.44
481.406	103.44
481.624	95.44
481.843	100.44
482.061	94.44
482.28	90.44
482.498	77.44
482.717	88.44
482.935	85.44
483.153	93.44
483.372	100.44
483.59	67.44
483.808	98.44
484.027	84.44
484.245	95.44
484.463	93.44
484.681	92.44
484.9	94.44
485.118	86.44
485.336	90.44
485.554	101.44
485.772	97.44
485.99	102.44
486.209	104.44
486.427	99.44
486.645	106.44
486.863	121.44
487.081	102.44
487.299	92.44
487.517	91.44
487.735	96.44
487.953	85.44
488.171	73.44
488.389	101.44
488.607	96.44
488.825	88.44
489.043	99.44
489.261	86.44
489.479	96.44
489.696	88.44
489.914	85.44
490.132	98.44
490.35	90.44
490.568	73.44
490.786	81.44
491.003	93.44
491.221	94.44
491.439	93.44
491.657	97.44
491.874	95.44
492.092	79.44
492.31	98.44
492.527	97.44
492.745	91.44
492.963	101.44
493.18	99.44
493.398	80.44
493.615	89.44
493.833	111.44
494.05	77.44
494.268	97.44
494.485	90.44
494.703	97.44
494.92	86.44
495.138	87.44
495.355	85.44
495.573	70.44
495.79	97.44
496.008	93.44
496.225	93.44
496.442	79.44
496.66	93.44
496.877	89.44
497.094	83.44
497.312	85.44
497.529	94.44
497.746	84.44
497.963	84.44
498.181	93.44
498.398	102.44
498.615	100.44
498.832	101.44
499.049	85.44
499.267	96.44
499.484	96.44
499.701	91.44
499.918	81.44
500.135	81.44
500.352	111.44
500.569	106.44
500.786	72.44
501.003	98.44
501.22	87.44
501.437	77.44
501.654	81.44
501.871	100.44
502.088	97.44
502.305	93.44
502.522	81.44
502.739	97.44
502.956	104.44
503.172	97.44
503.389	83.44
503.606	114.44
503.823	98.44
504.04	85.44
504.256	101.44
504.473	80.44
504.69	95.44
504.907	87.44
505.123	101.44
505.34	81.44
505.557	99.44
505.773	82.44
505.99	96.44
506.207	80.44
506.423	80.44
506.64	94.44
506.856	81.44
507.073	103.44
507.289	105.44
507.506	103.44
507.722	106.44
507.939	112.44
508.155	94.44
508.372	89.44
508.588	93.44
508.805	102.44
509.021	90.44
509.238	95.44
509.454	103.44
509.67	102.44
509.887	104.44
510.103	141.44
510.319	213.44
510.536	725.44
510.752	2265.44
510.968	634.44
511.184	149.44
511.401	114.44
511.617	89.44
511.833	96.44
512.049	90.44
512.265	106.44
512.481	88.44
512.698	93.44
512.914	95.44
513.13	83.44
513.346	84.44
513.562	104.44
513.778	105.44
513.994	82.44
514.21	91.44
514.426	104.44
514.642	126.44
514.858	134.44
515.074	158.44
515.29	456.44
515.506	1404.44
515.721	490.44
515.937	136.44
