Data from Uncirc_1986_H10_HRD10591_00001.txt Node
Date: Wed Jan 03 12:14:26 EST 2024
User: Yrep
Spectrometer: HR+D1059
Trigger mode: 1
Integration Time (sec): 1.000000E-1
Scans to average: 1
Electric dark correction enabled: true
Nonlinearity correction enabled: false
Boxcar width: 0
XAxis mode: Wavelengths
Number of Pixels in Spectrum: 2048
>>>>>Begin Spectral Data<<<<<
223.165	-16.44
223.4	-16.44
223.635	-16.44
223.869	-8.44
224.104	-31.44
224.338	-4.44
224.573	-17.44
224.808	-6.44
225.042	-9.44
225.277	11.56
225.511	3.56
225.746	6.56
225.98	0.56
226.215	14.56
226.449	7.56
226.683	16.56
226.918	18.56
227.152	14.56
227.387	39.56
227.621	46.56
227.856	44.56
228.09	55.56
228.324	50.56
228.559	42.56
228.793	58.56
229.027	66.56
229.262	66.56
229.496	75.56
229.73	79.56
229.964	80.56
230.199	70.56
230.433	95.56
230.667	72.56
230.901	79.56
231.136	78.56
231.37	88.56
231.604	75.56
231.838	71.56
232.072	66.56
232.306	78.56
232.541	78.56
232.775	76.56
233.009	86.56
233.243	80.56
233.477	91.56
233.711	70.56
233.945	65.56
234.179	81.56
234.413	81.56
234.647	84.56
234.881	81.56
235.115	71.56
235.349	78.56
235.583	75.56
235.817	78.56
236.051	75.56
236.285	72.56
236.519	71.56
236.753	69.56
236.987	73.56
237.221	70.56
237.455	71.56
237.689	60.56
237.922	67.56
238.156	76.56
238.39	74.56
238.624	79.56
238.858	86.56
239.091	87.56
239.325	74.56
239.559	90.56
239.793	70.56
240.027	74.56
240.26	90.56
240.494	90.56
240.728	67.56
240.961	76.56
241.195	86.56
241.429	67.56
241.662	70.56
241.896	68.56
242.13	71.56
242.363	70.56
242.597	62.56
242.83	84.56
243.064	82.56
243.298	82.56
243.531	70.56
243.765	84.56
243.998	68.56
244.232	81.56
244.465	84.56
244.699	90.56
244.932	84.56
245.166	82.56
245.399	82.56
245.633	60.56
245.866	69.56
246.099	74.56
246.333	56.56
246.566	71.56
246.8	76.56
247.033	75.56
247.266	67.56
247.5	79.56
247.733	89.56
247.966	81.56
248.2	94.56
248.433	85.56
248.666	68.56
248.899	73.56
249.133	90.56
249.366	83.56
249.599	86.56
249.832	82.56
250.066	86.56
250.299	87.56
250.532	98.56
250.765	78.56
250.998	74.56
251.231	84.56
251.465	82.56
251.698	80.56
251.931	79.56
252.164	83.56
252.397	99.56
252.63	78.56
252.863	84.56
253.096	85.56
253.329	66.56
253.562	77.56
253.795	94.56
254.028	79.56
254.261	85.56
254.494	71.56
254.727	99.56
254.96	84.56
255.193	74.56
255.426	80.56
255.659	80.56
255.892	61.56
256.124	79.56
256.357	72.56
256.59	81.56
256.823	88.56
257.056	88.56
257.289	92.56
257.521	72.56
257.754	94.56
257.987	86.56
258.22	85.56
258.452	88.56
258.685	78.56
258.918	88.56
259.151	77.56
259.383	75.56
259.616	76.56
259.849	95.56
260.081	82.56
260.314	72.56
260.547	89.56
260.779	72.56
261.012	82.56
261.244	79.56
261.477	83.56
261.71	82.56
261.942	114.56
262.175	119.56
262.407	97.56
262.64	88.56
262.872	85.56
263.105	75.56
263.337	96.56
263.57	82.56
263.802	85.56
264.035	79.56
264.267	70.56
264.499	85.56
264.732	79.56
264.964	82.56
265.197	75.56
265.429	88.56
265.661	84.56
265.894	78.56
266.126	86.56
266.358	73.56
266.591	88.56
266.823	92.56
267.055	81.56
267.287	94.56
267.52	87.56
267.752	94.56
267.984	88.56
268.216	83.56
268.448	88.56
268.681	80.56
268.913	90.56
269.145	88.56
269.377	93.56
269.609	96.56
269.841	87.56
270.073	86.56
270.306	83.56
270.538	69.56
270.77	81.56
271.002	92.56
271.234	89.56
271.466	98.56
271.698	91.56
271.93	58.56
272.162	100.56
272.394	86.56
272.626	95.56
272.858	90.56
273.09	87.56
273.322	82.56
273.553	94.56
273.785	83.56
274.017	76.56
274.249	90.56
274.481	94.56
274.713	84.56
274.945	92.56
275.176	82.56
275.408	95.56
275.64	91.56
275.872	86.56
276.104	82.56
276.335	87.56
276.567	92.56
276.799	97.56
277.031	101.56
277.262	92.56
277.494	98.56
277.726	87.56
277.957	70.56
278.189	84.56
278.421	83.56
278.652	87.56
278.884	91.56
279.115	87.56
279.347	76.56
279.579	85.56
279.81	81.56
280.042	87.56
280.273	81.56
280.505	71.56
280.736	87.56
280.968	94.56
281.199	73.56
281.431	75.56
281.662	94.56
281.894	90.56
282.125	102.56
282.356	114.56
282.588	118.56
282.819	114.56
283.051	84.56
283.282	82.56
283.513	97.56
283.745	98.56
283.976	91.56
284.207	92.56
284.439	86.56
284.67	84.56
284.901	78.56
285.132	82.56
285.364	83.56
285.595	87.56
285.826	93.56
286.057	103.56
286.288	98.56
286.52	87.56
286.751	75.56
286.982	85.56
287.213	96.56
287.444	80.56
287.675	90.56
287.906	107.56
288.138	84.56
288.369	94.56
288.6	87.56
288.831	94.56
289.062	90.56
289.293	92.56
289.524	86.56
289.755	74.56
289.986	89.56
290.217	80.56
290.448	75.56
290.679	82.56
290.91	79.56
291.141	86.56
291.371	92.56
291.602	79.56
291.833	83.56
292.064	97.56
292.295	85.56
292.526	85.56
292.757	83.56
292.987	82.56
293.218	80.56
293.449	87.56
293.68	79.56
293.91	88.56
294.141	90.56
294.372	86.56
294.603	84.56
294.833	80.56
295.064	89.56
295.295	91.56
295.525	76.56
295.756	83.56
295.987	95.56
296.217	118.56
296.448	119.56
296.679	104.56
296.909	90.56
297.14	101.56
297.37	105.56
297.601	90.56
297.831	92.56
298.062	96.56
298.292	82.56
298.523	87.56
298.753	91.56
298.984	85.56
299.214	90.56
299.445	93.56
299.675	86.56
299.905	85.56
300.136	90.56
300.366	96.56
300.597	80.56
300.827	94.56
301.057	96.56
301.288	92.56
301.518	97.56
301.748	92.56
301.979	98.56
302.209	90.56
302.439	89.56
302.669	94.56
302.9	91.56
303.13	88.56
303.36	95.56
303.59	92.56
303.82	108.56
304.051	90.56
304.281	76.56
304.511	85.56
304.741	80.56
304.971	77.56
305.201	97.56
305.431	104.56
305.661	89.56
305.891	88.56
306.121	102.56
306.352	108.56
306.582	99.56
306.812	95.56
307.042	94.56
307.272	100.56
307.502	86.56
307.731	88.56
307.961	80.56
308.191	88.56
308.421	82.56
308.651	88.56
308.881	96.56
309.111	113.56
309.341	79.56
309.571	98.56
309.8	82.56
310.03	91.56
310.26	101.56
310.49	94.56
310.72	112.56
310.949	98.56
311.179	96.56
311.409	100.56
311.639	87.56
311.868	81.56
312.098	102.56
312.328	82.56
312.557	89.56
312.787	92.56
313.017	91.56
313.246	94.56
313.476	98.56
313.706	101.56
313.935	92.56
314.165	96.56
314.394	95.56
314.624	99.56
314.853	82.56
315.083	108.56
315.312	95.56
315.542	84.56
315.771	85.56
316.001	97.56
316.23	94.56
316.46	80.56
316.689	94.56
316.919	99.56
317.148	107.56
317.377	87.56
317.607	94.56
317.836	97.56
318.065	85.56
318.295	79.56
318.524	86.56
318.753	74.56
318.983	102.56
319.212	83.56
319.441	101.56
319.67	102.56
319.9	101.56
320.129	105.56
320.358	84.56
320.587	94.56
320.816	88.56
321.046	109.56
321.275	102.56
321.504	91.56
321.733	100.56
321.962	96.56
322.191	78.56
322.42	90.56
322.649	97.56
322.878	97.56
323.108	104.56
323.337	122.56
323.566	119.56
323.795	130.56
324.024	184.56
324.253	332.56
324.482	681.56
324.71	1395.56
324.939	1864.56
325.168	682.56
325.397	222.56
325.626	147.56
325.855	118.56
326.084	123.56
326.313	112.56
326.542	135.56
326.77	205.56
326.999	394.56
327.228	800.56
327.457	1458.56
327.686	1125.56
327.914	318.56
328.143	180.56
328.372	123.56
328.6	120.56
328.829	103.56
329.058	101.56
329.287	109.56
329.515	95.56
329.744	113.56
329.972	114.56
330.201	102.56
330.43	102.56
330.658	114.56
330.887	115.56
331.115	102.56
331.344	98.56
331.572	100.56
331.801	102.56
332.03	100.56
332.258	104.56
332.486	90.56
332.715	92.56
332.943	95.56
333.172	104.56
333.4	100.56
333.629	95.56
333.857	105.56
334.085	98.56
334.314	90.56
334.542	87.56
334.771	93.56
334.999	101.56
335.227	93.56
335.455	101.56
335.684	102.56
335.912	99.56
336.14	107.56
336.369	86.56
336.597	94.56
336.825	108.56
337.053	109.56
337.281	103.56
337.51	89.56
337.738	98.56
337.966	91.56
338.194	102.56
338.422	86.56
338.65	104.56
338.878	97.56
339.106	98.56
339.334	91.56
339.562	92.56
339.79	103.56
340.018	84.56
340.246	84.56
340.474	106.56
340.702	87.56
340.93	90.56
341.158	88.56
341.386	91.56
341.614	97.56
341.842	94.56
342.07	88.56
342.298	96.56
342.526	95.56
342.754	104.56
342.981	86.56
343.209	93.56
343.437	114.56
343.665	113.56
343.893	84.56
344.12	79.56
344.348	84.56
344.576	102.56
344.804	103.56
345.031	85.56
345.259	96.56
345.487	86.56
345.714	83.56
345.942	94.56
346.17	98.56
346.397	89.56
346.625	82.56
346.853	97.56
347.08	90.56
347.308	84.56
347.535	84.56
347.763	81.56
347.99	105.56
348.218	91.56
348.445	98.56
348.673	92.56
348.9	93.56
349.128	97.56
349.355	88.56
349.583	100.56
349.81	87.56
350.037	90.56
350.265	103.56
350.492	81.56
350.72	92.56
350.947	93.56
351.174	98.56
351.402	117.56
351.629	106.56
351.856	98.56
352.083	97.56
352.311	111.56
352.538	112.56
352.765	94.56
352.992	101.56
353.22	106.56
353.447	110.56
353.674	99.56
353.901	94.56
354.128	103.56
354.355	107.56
354.583	112.56
354.81	86.56
355.037	103.56
355.264	101.56
355.491	74.56
355.718	96.56
355.945	99.56
356.172	88.56
356.399	89.56
356.626	90.56
356.853	77.56
357.08	90.56
357.307	84.56
357.534	91.56
357.761	86.56
357.988	84.56
358.215	98.56
358.441	109.56
358.668	99.56
358.895	89.56
359.122	80.56
359.349	81.56
359.576	91.56
359.802	86.56
360.029	102.56
360.256	110.56
360.483	104.56
360.709	88.56
360.936	85.56
361.163	95.56
361.39	83.56
361.616	85.56
361.843	80.56
362.07	86.56
362.296	96.56
362.523	92.56
362.749	98.56
362.976	92.56
363.203	98.56
363.429	87.56
363.656	98.56
363.882	88.56
364.109	97.56
364.335	98.56
364.562	84.56
364.788	82.56
365.015	91.56
365.241	94.56
365.468	98.56
365.694	101.56
365.92	80.56
366.147	91.56
366.373	94.56
366.599	83.56
366.826	91.56
367.052	82.56
367.278	85.56
367.505	100.56
367.731	97.56
367.957	82.56
368.184	93.56
368.41	98.56
368.636	108.56
368.862	101.56
369.089	103.56
369.315	90.56
369.541	116.56
369.767	78.56
369.993	88.56
370.219	88.56
370.445	97.56
370.672	75.56
370.898	86.56
371.124	85.56
371.35	87.56
371.576	88.56
371.802	87.56
372.028	87.56
372.254	92.56
372.48	98.56
372.706	90.56
372.932	83.56
373.158	94.56
373.384	86.56
373.61	96.56
373.835	99.56
374.061	74.56
374.287	98.56
374.513	97.56
374.739	80.56
374.965	87.56
375.191	74.56
375.416	77.56
375.642	86.56
375.868	99.56
376.094	98.56
376.319	88.56
376.545	78.56
376.771	73.56
376.997	81.56
377.222	89.56
377.448	93.56
377.674	94.56
377.899	89.56
378.125	91.56
378.35	75.56
378.576	87.56
378.802	73.56
379.027	98.56
379.253	97.56
379.478	90.56
379.704	103.56
379.929	94.56
380.155	101.56
380.38	88.56
380.606	94.56
380.831	99.56
381.057	124.56
381.282	85.56
381.507	95.56
381.733	92.56
381.958	100.56
382.184	92.56
382.409	96.56
382.634	102.56
382.86	97.56
383.085	102.56
383.31	102.56
383.535	98.56
383.761	90.56
383.986	109.56
384.211	90.56
384.436	88.56
384.662	109.56
384.887	109.56
385.112	107.56
385.337	105.56
385.562	95.56
385.787	99.56
386.013	118.56
386.238	119.56
386.463	106.56
386.688	105.56
386.913	111.56
387.138	97.56
387.363	110.56
387.588	113.56
387.813	108.56
388.038	96.56
388.263	114.56
388.488	106.56
388.713	97.56
388.938	92.56
389.163	102.56
389.387	97.56
389.612	101.56
389.837	90.56
390.062	88.56
390.287	91.56
390.512	92.56
390.736	86.56
390.961	75.56
391.186	91.56
391.411	92.56
391.636	100.56
391.86	86.56
392.085	81.56
392.31	86.56
392.534	84.56
392.759	94.56
392.984	94.56
393.208	88.56
393.433	98.56
393.658	96.56
393.882	89.56
394.107	99.56
394.331	96.56
394.556	81.56
394.78	92.56
395.005	99.56
395.229	82.56
395.454	86.56
395.678	90.56
395.903	91.56
396.127	74.56
396.352	87.56
396.576	72.56
396.801	98.56
397.025	87.56
397.249	91.56
397.474	90.56
397.698	93.56
397.922	80.56
398.147	90.56
398.371	91.56
398.595	75.56
398.82	73.56
399.044	90.56
399.268	77.56
399.492	98.56
399.717	91.56
399.941	88.56
400.165	94.56
400.389	86.56
400.613	90.56
400.837	72.56
401.062	83.56
401.286	82.56
401.51	90.56
401.734	84.56
401.958	94.56
402.182	117.56
402.406	122.56
402.63	113.56
402.854	97.56
403.078	88.56
403.302	90.56
403.526	82.56
403.75	95.56
403.974	95.56
404.198	94.56
404.422	94.56
404.645	90.56
404.869	88.56
405.093	106.56
405.317	82.56
405.541	91.56
405.765	102.56
405.988	102.56
406.212	147.56
406.436	194.56
406.66	131.56
406.883	90.56
407.107	97.56
407.331	96.56
407.555	92.56
407.778	97.56
408.002	99.56
408.226	83.56
408.449	79.56
408.673	72.56
408.896	101.56
409.12	100.56
409.344	82.56
409.567	97.56
409.791	115.56
410.014	81.56
410.238	106.56
410.461	87.56
410.685	88.56
410.908	99.56
411.132	107.56
411.355	108.56
411.578	99.56
411.802	96.56
412.025	91.56
412.249	92.56
412.472	94.56
412.695	95.56
412.919	70.56
413.142	92.56
413.365	84.56
413.589	80.56
413.812	83.56
414.035	95.56
414.258	103.56
414.482	84.56
414.705	101.56
414.928	102.56
415.151	73.56
415.374	86.56
415.597	96.56
415.821	97.56
416.044	85.56
416.267	80.56
416.49	79.56
416.713	93.56
416.936	80.56
417.159	74.56
417.382	80.56
417.605	95.56
417.828	103.56
418.051	82.56
418.274	74.56
418.497	74.56
418.72	87.56
418.943	96.56
419.166	84.56
419.389	92.56
419.611	94.56
419.834	92.56
420.057	93.56
420.28	78.56
420.503	80.56
420.726	87.56
420.948	86.56
421.171	94.56
421.394	90.56
421.617	99.56
421.839	104.56
422.062	93.56
422.285	102.56
422.507	100.56
422.73	102.56
422.953	99.56
423.175	86.56
423.398	82.56
423.621	83.56
423.843	76.56
424.066	98.56
424.288	98.56
424.511	87.56
424.733	97.56
424.956	99.56
425.178	93.56
425.401	94.56
425.623	89.56
425.846	83.56
426.068	110.56
426.291	95.56
426.513	93.56
426.735	82.56
426.958	95.56
427.18	104.56
427.402	126.56
427.625	146.56
427.847	110.56
428.069	98.56
428.292	93.56
428.514	80.56
428.736	95.56
428.958	88.56
429.181	70.56
429.403	88.56
429.625	82.56
429.847	91.56
430.069	102.56
430.292	97.56
430.514	88.56
430.736	84.56
430.958	89.56
431.18	94.56
431.402	99.56
431.624	79.56
431.846	70.56
432.068	92.56
432.29	94.56
432.512	86.56
432.734	90.56
432.956	87.56
433.178	91.56
433.4	93.56
433.622	86.56
433.844	86.56
434.066	88.56
434.287	90.56
434.509	85.56
434.731	101.56
434.953	95.56
435.175	90.56
435.397	93.56
435.618	90.56
435.84	84.56
436.062	110.56
436.284	101.56
436.505	98.56
436.727	105.56
436.949	92.56
437.17	92.56
437.392	89.56
437.614	102.56
437.835	98.56
438.057	114.56
438.278	104.56
438.5	100.56
438.721	113.56
438.943	103.56
439.165	87.56
439.386	84.56
439.608	86.56
439.829	87.56
440.05	104.56
440.272	133.56
440.493	95.56
440.715	91.56
440.936	98.56
441.158	82.56
441.379	84.56
441.6	106.56
441.822	84.56
442.043	90.56
442.264	103.56
442.486	99.56
442.707	86.56
442.928	99.56
443.149	127.56
443.371	113.56
443.592	103.56
443.813	99.56
444.034	100.56
444.255	90.56
444.476	90.56
444.698	80.56
444.919	95.56
445.14	128.56
445.361	111.56
445.582	109.56
445.803	131.56
446.024	113.56
446.245	116.56
446.466	110.56
446.687	83.56
446.908	108.56
447.129	83.56
447.35	83.56
447.571	100.56
447.792	81.56
448.013	91.56
448.234	103.56
448.455	83.56
448.675	122.56
448.896	115.56
449.117	101.56
449.338	100.56
449.559	111.56
449.779	123.56
450	85.56
450.221	86.56
450.442	86.56
450.662	78.56
450.883	95.56
451.104	106.56
451.324	86.56
451.545	89.56
451.766	86.56
451.986	98.56
452.207	88.56
452.428	86.56
452.648	84.56
452.869	114.56
453.089	109.56
453.31	101.56
453.53	93.56
453.751	94.56
453.971	91.56
454.192	107.56
454.412	90.56
454.633	77.56
454.853	89.56
455.073	83.56
455.294	101.56
455.514	90.56
455.734	84.56
455.955	83.56
456.175	86.56
456.395	102.56
456.616	82.56
456.836	100.56
457.056	91.56
457.276	80.56
457.497	90.56
457.717	95.56
457.937	96.56
458.157	91.56
458.377	90.56
458.598	97.56
458.818	117.56
459.038	132.56
459.258	100.56
459.478	74.56
459.698	78.56
459.918	79.56
460.138	85.56
460.358	84.56
460.578	89.56
460.798	91.56
461.018	89.56
461.238	89.56
461.458	79.56
461.678	83.56
461.898	84.56
462.118	83.56
462.338	72.56
462.558	85.56
462.777	91.56
462.997	99.56
463.217	98.56
463.437	79.56
463.657	76.56
463.876	90.56
464.096	90.56
464.316	82.56
464.536	96.56
464.755	86.56
464.975	93.56
465.195	151.56
465.414	138.56
465.634	98.56
465.854	91.56
466.073	84.56
466.293	91.56
466.512	80.56
466.732	75.56
466.951	86.56
467.171	90.56
467.391	87.56
467.61	101.56
467.829	80.56
468.049	91.56
468.268	94.56
468.488	83.56
468.707	96.56
468.927	80.56
469.146	80.56
469.365	82.56
469.585	96.56
469.804	86.56
470.023	93.56
470.243	100.56
470.462	99.56
470.681	87.56
470.901	86.56
471.12	83.56
471.339	79.56
471.558	73.56
471.777	84.56
471.997	84.56
472.216	92.56
472.435	86.56
472.654	90.56
472.873	82.56
473.092	91.56
473.311	92.56
473.53	83.56
473.749	86.56
473.968	107.56
474.187	104.56
474.406	99.56
474.625	94.56
474.844	88.56
475.063	93.56
475.282	84.56
475.501	88.56
475.72	88.56
475.939	79.56
476.158	95.56
476.377	91.56
476.596	85.56
476.814	81.56
477.033	88.56
477.252	75.56
477.471	86.56
477.69	92.56
477.908	83.56
478.127	95.56
478.346	91.56
478.564	99.56
478.783	96.56
479.002	78.56
479.22	100.56
479.439	86.56
479.658	98.56
479.876	93.56
480.095	81.56
480.313	96.56
480.532	96.56
480.751	105.56
480.969	94.56
481.188	112.56
481.406	95.56
481.624	86.56
481.843	73.56
482.061	84.56
482.28	103.56
482.498	83.56
482.717	98.56
482.935	91.56
483.153	80.56
483.372	90.56
483.59	89.56
483.808	94.56
484.027	91.56
484.245	79.56
484.463	95.56
484.681	101.56
484.9	93.56
485.118	97.56
485.336	100.56
485.554	104.56
485.772	98.56
485.99	114.56
486.209	105.56
486.427	88.56
486.645	93.56
486.863	109.56
487.081	103.56
487.299	99.56
487.517	85.56
487.735	94.56
487.953	93.56
488.171	91.56
488.389	86.56
488.607	108.56
488.825	95.56
489.043	91.56
489.261	88.56
489.479	100.56
489.696	90.56
489.914	86.56
490.132	82.56
490.35	84.56
490.568	88.56
490.786	98.56
491.003	81.56
491.221	94.56
491.439	94.56
491.657	92.56
491.874	88.56
492.092	93.56
492.31	94.56
492.527	96.56
492.745	93.56
492.963	73.56
493.18	94.56
493.398	96.56
493.615	96.56
493.833	88.56
494.05	101.56
494.268	90.56
494.485	84.56
494.703	89.56
494.92	95.56
495.138	100.56
495.355	81.56
495.573	100.56
495.79	90.56
496.008	99.56
496.225	98.56
496.442	91.56
496.66	106.56
496.877	93.56
497.094	101.56
497.312	104.56
497.529	82.56
497.746	94.56
497.963	94.56
498.181	90.56
498.398	86.56
498.615	92.56
498.832	90.56
499.049	79.56
499.267	89.56
499.484	86.56
499.701	91.56
499.918	75.56
500.135	90.56
500.352	87.56
500.569	103.56
500.786	95.56
501.003	82.56
501.22	85.56
501.437	92.56
501.654	89.56
501.871	94.56
502.088	97.56
502.305	92.56
502.522	81.56
502.739	96.56
502.956	90.56
503.172	87.56
503.389	82.56
503.606	109.56
503.823	90.56
504.04	94.56
504.256	90.56
504.473	104.56
504.69	101.56
504.907	90.56
505.123	113.56
505.34	102.56
505.557	83.56
505.773	97.56
505.99	92.56
506.207	94.56
506.423	84.56
506.64	86.56
506.856	90.56
507.073	85.56
507.289	93.56
507.506	97.56
507.722	101.56
507.939	113.56
508.155	84.56
508.372	94.56
508.588	98.56
508.805	78.56
509.021	86.56
509.238	104.56
509.454	99.56
509.67	97.56
509.887	117.56
510.103	114.56
510.319	182.56
510.536	623.56
510.752	1919.56
510.968	535.56
511.184	126.56
511.401	102.56
511.617	91.56
511.833	90.56
512.049	100.56
512.265	97.56
512.481	86.56
512.698	94.56
512.914	92.56
513.13	100.56
513.346	97.56
513.562	91.56
513.778	100.56
513.994	108.56
514.21	105.56
514.426	110.56
514.642	117.56
514.858	111.56
515.074	161.56
515.29	382.56
515.506	1172.56
515.721	442.56
515.937	158.56
516.153	108.56
