Data from Uncirc_1986_H10_HRD10591_00035.txt Node
Date: Wed Jan 03 12:14:33 EST 2024
User: Yrep
Spectrometer: HR+D1059
Trigger mode: 1
Integration Time (sec): 1.000000E-1
Scans to average: 1
Electric dark correction enabled: true
Nonlinearity correction enabled: false
Boxcar width: 0
XAxis mode: Wavelengths
Number of Pixels in Spectrum: 2048
>>>>>Begin Spectral Data<<<<<
223.165	-21.25
223.4	-21.25
223.635	-21.25
223.869	-15.25
224.104	-22.25
224.338	-20.25
224.573	-14.25
224.808	-19.25
225.042	-5.25
225.277	-13.25
225.511	-7.25
225.746	0.75
225.98	5.75
226.215	8.75
226.449	12.75
226.683	26.75
226.918	39.75
227.152	43.75
227.387	31.75
227.621	40.75
227.856	49.75
228.09	49.75
228.324	59.75
228.559	48.75
228.793	54.75
229.027	66.75
229.262	65.75
229.496	56.75
229.73	77.75
229.964	63.75
230.199	67.75
230.433	75.75
230.667	81.75
230.901	80.75
231.136	82.75
231.37	84.75
231.604	83.75
231.838	91.75
232.072	80.75
232.306	86.75
232.541	92.75
232.775	81.75
233.009	80.75
233.243	82.75
233.477	79.75
233.711	70.75
233.945	97.75
234.179	87.75
234.413	85.75
234.647	80.75
234.881	87.75
235.115	80.75
235.349	71.75
235.583	73.75
235.817	83.75
236.051	71.75
236.285	79.75
236.519	80.75
236.753	58.75
236.987	72.75
237.221	82.75
237.455	82.75
237.689	81.75
237.922	80.75
238.156	70.75
238.39	66.75
238.624	71.75
238.858	81.75
239.091	76.75
239.325	71.75
239.559	80.75
239.793	72.75
240.027	78.75
240.26	80.75
240.494	79.75
240.728	85.75
240.961	67.75
241.195	84.75
241.429	80.75
241.662	72.75
241.896	80.75
242.13	68.75
242.363	75.75
242.597	80.75
242.83	81.75
243.064	81.75
243.298	84.75
243.531	73.75
243.765	77.75
243.998	60.75
244.232	82.75
244.465	81.75
244.699	84.75
244.932	81.75
245.166	88.75
245.399	81.75
245.633	82.75
245.866	87.75
246.099	66.75
246.333	74.75
246.566	88.75
246.8	81.75
247.033	74.75
247.266	74.75
247.5	77.75
247.733	86.75
247.966	73.75
248.2	80.75
248.433	87.75
248.666	74.75
248.899	77.75
249.133	79.75
249.366	100.75
249.599	97.75
249.832	73.75
250.066	94.75
250.299	78.75
250.532	84.75
250.765	72.75
250.998	73.75
251.231	73.75
251.465	70.75
251.698	72.75
251.931	80.75
252.164	80.75
252.397	81.75
252.63	90.75
252.863	70.75
253.096	82.75
253.329	69.75
253.562	68.75
253.795	76.75
254.028	70.75
254.261	82.75
254.494	88.75
254.727	85.75
254.96	80.75
255.193	71.75
255.426	93.75
255.659	78.75
255.892	76.75
256.124	66.75
256.357	88.75
256.59	80.75
256.823	92.75
257.056	90.75
257.289	79.75
257.521	80.75
257.754	84.75
257.987	86.75
258.22	85.75
258.452	73.75
258.685	92.75
258.918	81.75
259.151	96.75
259.383	83.75
259.616	76.75
259.849	86.75
260.081	77.75
260.314	97.75
260.547	74.75
260.779	75.75
261.012	80.75
261.244	88.75
261.477	91.75
261.71	95.75
261.942	109.75
262.175	117.75
262.407	80.75
262.64	70.75
262.872	83.75
263.105	83.75
263.337	80.75
263.57	86.75
263.802	86.75
264.035	76.75
264.267	86.75
264.499	90.75
264.732	77.75
264.964	80.75
265.197	84.75
265.429	77.75
265.661	84.75
265.894	78.75
266.126	90.75
266.358	90.75
266.591	63.75
266.823	73.75
267.055	94.75
267.287	91.75
267.52	60.75
267.752	90.75
267.984	78.75
268.216	77.75
268.448	80.75
268.681	71.75
268.913	85.75
269.145	100.75
269.377	87.75
269.609	85.75
269.841	85.75
270.073	77.75
270.306	99.75
270.538	76.75
270.77	80.75
271.002	87.75
271.234	83.75
271.466	87.75
271.698	88.75
271.93	72.75
272.162	86.75
272.394	85.75
272.626	74.75
272.858	72.75
273.09	92.75
273.322	85.75
273.553	76.75
273.785	84.75
274.017	83.75
274.249	96.75
274.481	89.75
274.713	80.75
274.945	89.75
275.176	81.75
275.408	85.75
275.64	72.75
275.872	100.75
276.104	79.75
276.335	86.75
276.567	98.75
276.799	114.75
277.031	101.75
277.262	88.75
277.494	90.75
277.726	85.75
277.957	74.75
278.189	82.75
278.421	94.75
278.652	82.75
278.884	87.75
279.115	77.75
279.347	76.75
279.579	89.75
279.81	88.75
280.042	93.75
280.273	93.75
280.505	83.75
280.736	89.75
280.968	82.75
281.199	82.75
281.431	77.75
281.662	76.75
281.894	89.75
282.125	104.75
282.356	102.75
282.588	134.75
282.819	114.75
283.051	91.75
283.282	100.75
283.513	79.75
283.745	90.75
283.976	79.75
284.207	96.75
284.439	77.75
284.67	88.75
284.901	73.75
285.132	78.75
285.364	82.75
285.595	82.75
285.826	81.75
286.057	97.75
286.288	80.75
286.52	89.75
286.751	84.75
286.982	84.75
287.213	86.75
287.444	100.75
287.675	91.75
287.906	81.75
288.138	88.75
288.369	86.75
288.6	89.75
288.831	98.75
289.062	100.75
289.293	75.75
289.524	85.75
289.755	100.75
289.986	85.75
290.217	96.75
290.448	96.75
290.679	82.75
290.91	88.75
291.141	76.75
291.371	73.75
291.602	97.75
291.833	84.75
292.064	90.75
292.295	83.75
292.526	85.75
292.757	71.75
292.987	81.75
293.218	83.75
293.449	84.75
293.68	74.75
293.91	97.75
294.141	90.75
294.372	78.75
294.603	93.75
294.833	82.75
295.064	105.75
295.295	68.75
295.525	88.75
295.756	100.75
295.987	103.75
296.217	113.75
296.448	126.75
296.679	97.75
296.909	97.75
297.14	96.75
297.37	91.75
297.601	93.75
297.831	96.75
298.062	93.75
298.292	88.75
298.523	92.75
298.753	85.75
298.984	90.75
299.214	82.75
299.445	77.75
299.675	87.75
299.905	89.75
300.136	88.75
300.366	78.75
300.597	93.75
300.827	108.75
301.057	84.75
301.288	92.75
301.518	96.75
301.748	82.75
301.979	97.75
302.209	87.75
302.439	103.75
302.669	97.75
302.9	88.75
303.13	70.75
303.36	100.75
303.59	96.75
303.82	109.75
304.051	86.75
304.281	86.75
304.511	81.75
304.741	105.75
304.971	72.75
305.201	93.75
305.431	84.75
305.661	96.75
305.891	90.75
306.121	80.75
306.352	94.75
306.582	99.75
306.812	94.75
307.042	97.75
307.272	96.75
307.502	92.75
307.731	78.75
307.961	98.75
308.191	97.75
308.421	105.75
308.651	88.75
308.881	100.75
309.111	97.75
309.341	99.75
309.571	93.75
309.8	100.75
310.03	98.75
310.26	89.75
310.49	97.75
310.72	94.75
310.949	103.75
311.179	100.75
311.409	84.75
311.639	90.75
311.868	99.75
312.098	92.75
312.328	99.75
312.557	104.75
312.787	92.75
313.017	96.75
313.246	103.75
313.476	106.75
313.706	92.75
313.935	91.75
314.165	99.75
314.394	107.75
314.624	78.75
314.853	101.75
315.083	92.75
315.312	89.75
315.542	103.75
315.771	86.75
316.001	89.75
316.23	79.75
316.46	89.75
316.689	93.75
316.919	90.75
317.148	97.75
317.377	80.75
317.607	88.75
317.836	89.75
318.065	89.75
318.295	87.75
318.524	83.75
318.753	92.75
318.983	84.75
319.212	97.75
319.441	98.75
319.67	92.75
319.9	84.75
320.129	90.75
320.358	87.75
320.587	92.75
320.816	95.75
321.046	81.75
321.275	86.75
321.504	87.75
321.733	97.75
321.962	93.75
322.191	94.75
322.42	93.75
322.649	126.75
322.878	109.75
323.108	101.75
323.337	119.75
323.566	117.75
323.795	149.75
324.024	193.75
324.253	350.75
324.482	774.75
324.71	1548.75
324.939	2046.75
325.168	773.75
325.397	220.75
325.626	136.75
325.855	116.75
326.084	122.75
326.313	136.75
326.542	140.75
326.77	209.75
326.999	411.75
327.228	865.75
327.457	1600.75
327.686	1278.75
327.914	351.75
328.143	198.75
328.372	135.75
328.6	121.75
328.829	121.75
329.058	115.75
329.287	112.75
329.515	98.75
329.744	90.75
329.972	96.75
330.201	103.75
330.43	112.75
330.658	117.75
330.887	134.75
331.115	98.75
331.344	96.75
331.572	95.75
331.801	101.75
332.03	102.75
332.258	103.75
332.486	93.75
332.715	101.75
332.943	105.75
333.172	93.75
333.4	92.75
333.629	108.75
333.857	89.75
334.085	97.75
334.314	95.75
334.542	100.75
334.771	99.75
334.999	88.75
335.227	97.75
335.455	101.75
335.684	96.75
335.912	100.75
336.14	99.75
336.369	101.75
336.597	89.75
336.825	101.75
337.053	81.75
337.281	88.75
337.51	94.75
337.738	94.75
337.966	102.75
338.194	92.75
338.422	103.75
338.65	93.75
338.878	89.75
339.106	87.75
339.334	85.75
339.562	86.75
339.79	82.75
340.018	90.75
340.246	97.75
340.474	91.75
340.702	95.75
340.93	89.75
341.158	93.75
341.386	92.75
341.614	86.75
341.842	103.75
342.07	93.75
342.298	95.75
342.526	98.75
342.754	86.75
342.981	88.75
343.209	90.75
343.437	79.75
343.665	79.75
343.893	85.75
344.12	88.75
344.348	86.75
344.576	99.75
344.804	97.75
345.031	96.75
345.259	90.75
345.487	87.75
345.714	90.75
345.942	87.75
346.17	87.75
346.397	93.75
346.625	95.75
346.853	101.75
347.08	97.75
347.308	87.75
347.535	98.75
347.763	99.75
347.99	101.75
348.218	102.75
348.445	118.75
348.673	98.75
348.9	96.75
349.128	96.75
349.355	104.75
349.583	88.75
349.81	104.75
350.037	93.75
350.265	78.75
350.492	93.75
350.72	100.75
350.947	115.75
351.174	105.75
351.402	117.75
351.629	101.75
351.856	105.75
352.083	98.75
352.311	102.75
352.538	108.75
352.765	104.75
352.992	119.75
353.22	93.75
353.447	109.75
353.674	100.75
353.901	89.75
354.128	93.75
354.355	90.75
354.583	87.75
354.81	105.75
355.037	93.75
355.264	90.75
355.491	91.75
355.718	87.75
355.945	87.75
356.172	90.75
356.399	98.75
356.626	104.75
356.853	96.75
357.08	80.75
357.307	93.75
357.534	78.75
357.761	95.75
357.988	111.75
358.215	96.75
358.441	100.75
358.668	88.75
358.895	94.75
359.122	89.75
359.349	82.75
359.576	88.75
359.802	81.75
360.029	115.75
360.256	105.75
360.483	100.75
360.709	88.75
360.936	80.75
361.163	87.75
361.39	83.75
361.616	90.75
361.843	92.75
362.07	96.75
362.296	83.75
362.523	81.75
362.749	77.75
362.976	77.75
363.203	95.75
363.429	84.75
363.656	93.75
363.882	94.75
364.109	80.75
364.335	94.75
364.562	86.75
364.788	97.75
365.015	100.75
365.241	108.75
365.468	99.75
365.694	110.75
365.92	90.75
366.147	90.75
366.373	91.75
366.599	91.75
366.826	99.75
367.052	90.75
367.278	86.75
367.505	77.75
367.731	75.75
367.957	94.75
368.184	92.75
368.41	97.75
368.636	102.75
368.862	126.75
369.089	105.75
369.315	102.75
369.541	88.75
369.767	94.75
369.993	89.75
370.219	83.75
370.445	78.75
370.672	88.75
370.898	89.75
371.124	84.75
371.35	87.75
371.576	83.75
371.802	96.75
372.028	90.75
372.254	102.75
372.48	88.75
372.706	94.75
372.932	84.75
373.158	82.75
373.384	89.75
373.61	81.75
373.835	96.75
374.061	79.75
374.287	96.75
374.513	84.75
374.739	72.75
374.965	81.75
375.191	79.75
375.416	96.75
375.642	80.75
375.868	100.75
376.094	85.75
376.319	100.75
376.545	81.75
376.771	88.75
376.997	91.75
377.222	81.75
377.448	84.75
377.674	93.75
377.899	76.75
378.125	93.75
378.35	83.75
378.576	89.75
378.802	96.75
379.027	94.75
379.253	86.75
379.478	85.75
379.704	82.75
379.929	72.75
380.155	89.75
380.38	78.75
380.606	92.75
380.831	100.75
381.057	81.75
381.282	85.75
381.507	102.75
381.733	90.75
381.958	81.75
382.184	94.75
382.409	110.75
382.634	98.75
382.86	93.75
383.085	97.75
383.31	88.75
383.535	105.75
383.761	99.75
383.986	94.75
384.211	99.75
384.436	89.75
384.662	100.75
384.887	96.75
385.112	103.75
385.337	84.75
385.562	99.75
385.787	105.75
386.013	108.75
386.238	106.75
386.463	103.75
386.688	100.75
386.913	95.75
387.138	93.75
387.363	94.75
387.588	93.75
387.813	93.75
388.038	99.75
388.263	93.75
388.488	96.75
388.713	91.75
388.938	76.75
389.163	93.75
389.387	88.75
389.612	97.75
389.837	74.75
390.062	99.75
390.287	87.75
390.512	91.75
390.736	92.75
390.961	77.75
391.186	111.75
391.411	97.75
391.636	77.75
391.86	80.75
392.085	95.75
392.31	93.75
392.534	89.75
392.759	86.75
392.984	74.75
393.208	98.75
393.433	84.75
393.658	75.75
393.882	103.75
394.107	66.75
394.331	77.75
394.556	80.75
394.78	81.75
395.005	84.75
395.229	88.75
395.454	90.75
395.678	84.75
395.903	73.75
396.127	88.75
396.352	95.75
396.576	88.75
396.801	95.75
397.025	91.75
397.249	100.75
397.474	85.75
397.698	84.75
397.922	90.75
398.147	79.75
398.371	80.75
398.595	90.75
398.82	87.75
399.044	70.75
399.268	87.75
399.492	94.75
399.717	85.75
399.941	99.75
400.165	109.75
400.389	97.75
400.613	87.75
400.837	100.75
401.062	64.75
401.286	106.75
401.51	80.75
401.734	96.75
401.958	96.75
402.182	119.75
402.406	159.75
402.63	121.75
402.854	94.75
403.078	80.75
403.302	93.75
403.526	90.75
403.75	90.75
403.974	89.75
404.198	94.75
404.422	92.75
404.645	93.75
404.869	96.75
405.093	95.75
405.317	92.75
405.541	100.75
405.765	90.75
405.988	111.75
406.212	165.75
406.436	206.75
406.66	130.75
406.883	97.75
407.107	88.75
407.331	96.75
407.555	98.75
407.778	102.75
408.002	104.75
408.226	89.75
408.449	89.75
408.673	62.75
408.896	92.75
409.12	93.75
409.344	83.75
409.567	88.75
409.791	95.75
410.014	105.75
410.238	90.75
410.461	85.75
410.685	88.75
410.908	100.75
411.132	102.75
411.355	86.75
411.578	79.75
411.802	83.75
412.025	101.75
412.249	87.75
412.472	81.75
412.695	90.75
412.919	88.75
413.142	76.75
413.365	68.75
413.589	87.75
413.812	101.75
414.035	88.75
414.258	101.75
414.482	76.75
414.705	98.75
414.928	71.75
415.151	83.75
415.374	84.75
415.597	93.75
415.821	80.75
416.044	63.75
416.267	73.75
416.49	90.75
416.713	83.75
416.936	95.75
417.159	97.75
417.382	81.75
417.605	90.75
417.828	88.75
418.051	86.75
418.274	100.75
418.497	86.75
418.72	86.75
418.943	81.75
419.166	80.75
419.389	93.75
419.611	91.75
419.834	90.75
420.057	79.75
420.28	82.75
420.503	88.75
420.726	83.75
420.948	80.75
421.171	96.75
421.394	82.75
421.617	89.75
421.839	82.75
422.062	95.75
422.285	99.75
422.507	82.75
422.73	97.75
422.953	105.75
423.175	101.75
423.398	88.75
423.621	86.75
423.843	90.75
424.066	80.75
424.288	94.75
424.511	105.75
424.733	102.75
424.956	108.75
425.178	89.75
425.401	89.75
425.623	106.75
425.846	95.75
426.068	94.75
426.291	93.75
426.513	81.75
426.735	89.75
426.958	82.75
427.18	94.75
427.402	140.75
427.625	158.75
427.847	118.75
428.069	112.75
428.292	94.75
428.514	89.75
428.736	62.75
428.958	83.75
429.181	72.75
429.403	87.75
429.625	78.75
429.847	100.75
430.069	93.75
430.292	98.75
430.514	89.75
430.736	96.75
430.958	78.75
431.18	73.75
431.402	73.75
431.624	86.75
431.846	84.75
432.068	65.75
432.29	86.75
432.512	87.75
432.734	81.75
432.956	96.75
433.178	94.75
433.4	98.75
433.622	94.75
433.844	88.75
434.066	104.75
434.287	104.75
434.509	85.75
434.731	85.75
434.953	84.75
435.175	91.75
435.397	91.75
435.618	93.75
435.84	120.75
436.062	124.75
436.284	111.75
436.505	83.75
436.727	94.75
436.949	90.75
437.17	86.75
437.392	86.75
437.614	104.75
437.835	106.75
438.057	92.75
438.278	112.75
438.5	89.75
438.721	121.75
438.943	112.75
439.165	95.75
439.386	83.75
439.608	90.75
439.829	95.75
440.05	121.75
440.272	130.75
440.493	110.75
440.715	86.75
440.936	97.75
441.158	82.75
441.379	88.75
441.6	88.75
441.822	77.75
442.043	85.75
442.264	106.75
442.486	110.75
442.707	100.75
442.928	98.75
443.149	124.75
443.371	127.75
443.592	108.75
443.813	105.75
444.034	104.75
444.255	80.75
444.476	82.75
444.698	92.75
444.919	85.75
445.14	127.75
445.361	110.75
445.582	104.75
445.803	126.75
446.024	128.75
446.245	120.75
446.466	106.75
446.687	88.75
446.908	97.75
447.129	71.75
447.35	84.75
447.571	84.75
447.792	89.75
448.013	94.75
448.234	100.75
448.455	84.75
448.675	121.75
448.896	118.75
449.117	112.75
449.338	97.75
449.559	135.75
449.779	128.75
450	98.75
450.221	80.75
450.442	70.75
450.662	84.75
450.883	104.75
451.104	111.75
451.324	100.75
451.545	84.75
451.766	84.75
451.986	83.75
452.207	87.75
452.428	90.75
452.648	90.75
452.869	97.75
453.089	102.75
453.31	129.75
453.53	81.75
453.751	82.75
453.971	82.75
454.192	86.75
454.412	101.75
454.633	86.75
454.853	72.75
455.073	79.75
455.294	87.75
455.514	100.75
455.734	88.75
455.955	85.75
456.175	94.75
456.395	80.75
456.616	91.75
456.836	86.75
457.056	88.75
457.276	82.75
457.497	82.75
457.717	80.75
457.937	95.75
458.157	85.75
458.377	80.75
458.598	95.75
458.818	142.75
459.038	165.75
459.258	112.75
459.478	80.75
459.698	90.75
459.918	92.75
460.138	84.75
460.358	89.75
460.578	86.75
460.798	100.75
461.018	87.75
461.238	88.75
461.458	88.75
461.678	96.75
461.898	78.75
462.118	98.75
462.338	77.75
462.558	92.75
462.777	96.75
462.997	86.75
463.217	90.75
463.437	86.75
463.657	84.75
463.876	69.75
464.096	86.75
464.316	85.75
464.536	89.75
464.755	100.75
464.975	114.75
465.195	159.75
465.414	174.75
465.634	105.75
465.854	84.75
466.073	81.75
466.293	92.75
466.512	88.75
466.732	94.75
466.951	78.75
467.171	92.75
467.391	90.75
467.61	96.75
467.829	96.75
468.049	86.75
468.268	74.75
468.488	73.75
468.707	84.75
468.927	89.75
469.146	96.75
469.365	74.75
469.585	84.75
469.804	95.75
470.023	107.75
470.243	108.75
470.462	102.75
470.681	114.75
470.901	83.75
471.12	78.75
471.339	83.75
471.558	83.75
471.777	91.75
471.997	92.75
472.216	83.75
472.435	92.75
472.654	77.75
472.873	86.75
473.092	93.75
473.311	85.75
473.53	80.75
473.749	80.75
473.968	84.75
474.187	91.75
474.406	95.75
474.625	94.75
474.844	79.75
475.063	92.75
475.282	72.75
475.501	80.75
475.72	79.75
475.939	88.75
476.158	101.75
476.377	88.75
476.596	78.75
476.814	84.75
477.033	94.75
477.252	88.75
477.471	65.75
477.69	68.75
477.908	106.75
478.127	93.75
478.346	78.75
478.564	85.75
478.783	91.75
479.002	81.75
479.22	89.75
479.439	93.75
479.658	99.75
479.876	70.75
480.095	97.75
480.313	92.75
480.532	81.75
480.751	91.75
480.969	101.75
481.188	97.75
481.406	96.75
481.624	97.75
481.843	93.75
482.061	86.75
482.28	90.75
482.498	91.75
482.717	86.75
482.935	78.75
483.153	89.75
483.372	83.75
483.59	84.75
483.808	95.75
484.027	97.75
484.245	80.75
484.463	87.75
484.681	95.75
484.9	88.75
485.118	90.75
485.336	93.75
485.554	87.75
485.772	94.75
485.99	97.75
486.209	105.75
486.427	83.75
486.645	103.75
486.863	115.75
487.081	98.75
487.299	99.75
487.517	85.75
487.735	91.75
487.953	86.75
488.171	95.75
488.389	111.75
488.607	90.75
488.825	89.75
489.043	92.75
489.261	95.75
489.479	85.75
489.696	89.75
489.914	95.75
490.132	86.75
490.35	88.75
490.568	79.75
490.786	92.75
491.003	86.75
491.221	81.75
491.439	87.75
491.657	82.75
491.874	96.75
492.092	80.75
492.31	88.75
492.527	81.75
492.745	90.75
492.963	73.75
493.18	85.75
493.398	92.75
493.615	102.75
493.833	110.75
494.05	90.75
494.268	96.75
494.485	99.75
494.703	80.75
494.92	87.75
495.138	95.75
495.355	98.75
495.573	78.75
495.79	86.75
496.008	79.75
496.225	77.75
496.442	82.75
496.66	93.75
496.877	105.75
497.094	93.75
497.312	83.75
497.529	86.75
497.746	83.75
497.963	86.75
498.181	83.75
498.398	91.75
498.615	100.75
498.832	112.75
499.049	93.75
499.267	99.75
499.484	96.75
499.701	94.75
499.918	82.75
500.135	82.75
500.352	83.75
500.569	103.75
500.786	98.75
501.003	93.75
501.22	85.75
501.437	86.75
501.654	110.75
501.871	104.75
502.088	88.75
502.305	95.75
502.522	101.75
502.739	84.75
502.956	84.75
503.172	103.75
503.389	79.75
503.606	98.75
503.823	106.75
504.04	81.75
504.256	87.75
504.473	90.75
504.69	93.75
504.907	102.75
505.123	90.75
505.34	83.75
505.557	83.75
505.773	103.75
505.99	89.75
506.207	75.75
506.423	84.75
506.64	86.75
506.856	87.75
507.073	95.75
507.289	86.75
507.506	96.75
507.722	115.75
507.939	109.75
508.155	92.75
508.372	94.75
508.588	102.75
508.805	97.75
509.021	94.75
509.238	90.75
509.454	103.75
509.67	96.75
509.887	110.75
510.103	119.75
510.319	202.75
510.536	690.75
510.752	2198.75
510.968	612.75
511.184	150.75
511.401	102.75
511.617	81.75
511.833	85.75
512.049	98.75
512.265	92.75
512.481	92.75
512.698	92.75
512.914	77.75
513.13	95.75
513.346	97.75
513.562	87.75
513.778	91.75
513.994	102.75
514.21	99.75
514.426	110.75
514.642	128.75
514.858	128.75
515.074	148.75
515.29	430.75
515.506	1356.75
515.721	497.75
515.937	139.75
516.153	109.75
516.369	86.75
