Data from Uncirc_1986_H10_HRD10591_00071.txt Node
Date: Wed Jan 03 12:14:40 EST 2024
User: Yrep
Spectrometer: HR+D1059
Trigger mode: 1
Integration Time (sec): 1.000000E-1
Scans to average: 1
Electric dark correction enabled: true
Nonlinearity correction enabled: false
Boxcar width: 0
XAxis mode: Wavelengths
Number of Pixels in Spectrum: 2048
>>>>>Begin Spectral Data<<<<<
223.165	-22.69
223.4	-22.69
223.635	-22.69
223.869	-16.69
224.104	-26.69
224.338	-20.69
224.573	-20.69
224.808	-5.69
225.042	-3.69
225.277	3.31
225.511	-5.69
225.746	3.31
225.98	-0.69
226.215	9.31
226.449	27.31
226.683	19.31
226.918	35.31
227.152	25.31
227.387	36.31
227.621	40.31
227.856	45.31
228.09	45.31
228.324	50.31
228.559	53.31
228.793	78.31
229.027	63.31
229.262	64.31
229.496	61.31
229.73	78.31
229.964	93.31
230.199	86.31
230.433	76.31
230.667	79.31
230.901	91.31
231.136	80.31
231.37	72.31
231.604	86.31
231.838	77.31
232.072	81.31
232.306	89.31
232.541	86.31
232.775	63.31
233.009	87.31
233.243	87.31
233.477	78.31
233.711	73.31
233.945	73.31
234.179	68.31
234.413	79.31
234.647	76.31
234.881	79.31
235.115	76.31
235.349	81.31
235.583	70.31
235.817	80.31
236.051	86.31
236.285	75.31
236.519	81.31
236.753	70.31
236.987	73.31
237.221	100.31
237.455	85.31
237.689	79.31
237.922	76.31
238.156	67.31
238.39	55.31
238.624	77.31
238.858	63.31
239.091	68.31
239.325	72.31
239.559	54.31
239.793	81.31
240.027	77.31
240.26	93.31
240.494	63.31
240.728	80.31
240.961	73.31
241.195	77.31
241.429	70.31
241.662	94.31
241.896	77.31
242.13	76.31
242.363	79.31
242.597	80.31
242.83	70.31
243.064	69.31
243.298	87.31
243.531	72.31
243.765	76.31
243.998	85.31
244.232	81.31
244.465	79.31
244.699	73.31
244.932	67.31
245.166	76.31
245.399	65.31
245.633	77.31
245.866	70.31
246.099	75.31
246.333	91.31
246.566	72.31
246.8	73.31
247.033	82.31
247.266	90.31
247.5	82.31
247.733	80.31
247.966	71.31
248.2	77.31
248.433	83.31
248.666	82.31
248.899	79.31
249.133	93.31
249.366	83.31
249.599	83.31
249.832	87.31
250.066	76.31
250.299	70.31
250.532	83.31
250.765	78.31
250.998	83.31
251.231	85.31
251.465	67.31
251.698	85.31
251.931	73.31
252.164	79.31
252.397	89.31
252.63	81.31
252.863	61.31
253.096	83.31
253.329	82.31
253.562	72.31
253.795	85.31
254.028	75.31
254.261	71.31
254.494	78.31
254.727	87.31
254.96	69.31
255.193	73.31
255.426	71.31
255.659	84.31
255.892	73.31
256.124	82.31
256.357	85.31
256.59	96.31
256.823	88.31
257.056	77.31
257.289	73.31
257.521	79.31
257.754	81.31
257.987	81.31
258.22	80.31
258.452	92.31
258.685	85.31
258.918	91.31
259.151	86.31
259.383	72.31
259.616	75.31
259.849	75.31
260.081	82.31
260.314	77.31
260.547	82.31
260.779	69.31
261.012	80.31
261.244	86.31
261.477	77.31
261.71	91.31
261.942	104.31
262.175	110.31
262.407	99.31
262.64	91.31
262.872	81.31
263.105	85.31
263.337	71.31
263.57	89.31
263.802	86.31
264.035	91.31
264.267	81.31
264.499	79.31
264.732	83.31
264.964	84.31
265.197	89.31
265.429	90.31
265.661	70.31
265.894	71.31
266.126	75.31
266.358	79.31
266.591	72.31
266.823	85.31
267.055	88.31
267.287	105.31
267.52	85.31
267.752	87.31
267.984	87.31
268.216	72.31
268.448	85.31
268.681	86.31
268.913	86.31
269.145	94.31
269.377	86.31
269.609	87.31
269.841	83.31
270.073	98.31
270.306	89.31
270.538	87.31
270.77	89.31
271.002	98.31
271.234	93.31
271.466	84.31
271.698	82.31
271.93	87.31
272.162	84.31
272.394	75.31
272.626	68.31
272.858	78.31
273.09	84.31
273.322	80.31
273.553	73.31
273.785	90.31
274.017	87.31
274.249	75.31
274.481	88.31
274.713	90.31
274.945	84.31
275.176	97.31
275.408	88.31
275.64	88.31
275.872	87.31
276.104	85.31
276.335	82.31
276.567	107.31
276.799	88.31
277.031	88.31
277.262	89.31
277.494	87.31
277.726	95.31
277.957	84.31
278.189	88.31
278.421	71.31
278.652	77.31
278.884	94.31
279.115	95.31
279.347	78.31
279.579	72.31
279.81	95.31
280.042	87.31
280.273	81.31
280.505	91.31
280.736	78.31
280.968	78.31
281.199	89.31
281.431	79.31
281.662	87.31
281.894	83.31
282.125	94.31
282.356	113.31
282.588	125.31
282.819	109.31
283.051	98.31
283.282	85.31
283.513	86.31
283.745	97.31
283.976	83.31
284.207	88.31
284.439	68.31
284.67	77.31
284.901	82.31
285.132	87.31
285.364	81.31
285.595	84.31
285.826	88.31
286.057	88.31
286.288	85.31
286.52	85.31
286.751	79.31
286.982	94.31
287.213	84.31
287.444	89.31
287.675	85.31
287.906	88.31
288.138	70.31
288.369	95.31
288.6	87.31
288.831	91.31
289.062	70.31
289.293	85.31
289.524	92.31
289.755	92.31
289.986	72.31
290.217	72.31
290.448	88.31
290.679	92.31
290.91	86.31
291.141	77.31
291.371	92.31
291.602	86.31
291.833	64.31
292.064	90.31
292.295	88.31
292.526	72.31
292.757	95.31
292.987	89.31
293.218	87.31
293.449	85.31
293.68	81.31
293.91	72.31
294.141	83.31
294.372	83.31
294.603	84.31
294.833	72.31
295.064	88.31
295.295	92.31
295.525	83.31
295.756	91.31
295.987	97.31
296.217	133.31
296.448	125.31
296.679	68.31
296.909	89.31
297.14	83.31
297.37	81.31
297.601	88.31
297.831	99.31
298.062	75.31
298.292	84.31
298.523	89.31
298.753	86.31
298.984	102.31
299.214	85.31
299.445	93.31
299.675	95.31
299.905	100.31
300.136	104.31
300.366	84.31
300.597	85.31
300.827	91.31
301.057	89.31
301.288	93.31
301.518	93.31
301.748	84.31
301.979	86.31
302.209	86.31
302.439	84.31
302.669	88.31
302.9	102.31
303.13	88.31
303.36	77.31
303.59	81.31
303.82	96.31
304.051	104.31
304.281	103.31
304.511	78.31
304.741	87.31
304.971	85.31
305.201	95.31
305.431	96.31
305.661	101.31
305.891	79.31
306.121	86.31
306.352	100.31
306.582	88.31
306.812	94.31
307.042	96.31
307.272	88.31
307.502	91.31
307.731	86.31
307.961	91.31
308.191	96.31
308.421	80.31
308.651	67.31
308.881	95.31
309.111	94.31
309.341	85.31
309.571	97.31
309.8	84.31
310.03	85.31
310.26	93.31
310.49	94.31
310.72	83.31
310.949	107.31
311.179	102.31
311.409	84.31
311.639	100.31
311.868	100.31
312.098	92.31
312.328	99.31
312.557	105.31
312.787	95.31
313.017	96.31
313.246	98.31
313.476	94.31
313.706	91.31
313.935	87.31
314.165	84.31
314.394	99.31
314.624	93.31
314.853	101.31
315.083	85.31
315.312	81.31
315.542	93.31
315.771	90.31
316.001	95.31
316.23	99.31
316.46	94.31
316.689	93.31
316.919	82.31
317.148	92.31
317.377	98.31
317.607	84.31
317.836	86.31
318.065	99.31
318.295	79.31
318.524	91.31
318.753	93.31
318.983	92.31
319.212	99.31
319.441	100.31
319.67	105.31
319.9	102.31
320.129	99.31
320.358	94.31
320.587	85.31
320.816	95.31
321.046	94.31
321.275	112.31
321.504	104.31
321.733	105.31
321.962	86.31
322.191	101.31
322.42	116.31
322.649	104.31
322.878	99.31
323.108	118.31
323.337	118.31
323.566	110.31
323.795	144.31
324.024	189.31
324.253	343.31
324.482	759.31
324.71	1541.31
324.939	1979.31
325.168	755.31
325.397	223.31
325.626	139.31
325.855	107.31
326.084	135.31
326.313	125.31
326.542	157.31
326.77	209.31
326.999	435.31
327.228	855.31
327.457	1568.31
327.686	1243.31
327.914	337.31
328.143	170.31
328.372	143.31
328.6	117.31
328.829	105.31
329.058	92.31
329.287	125.31
329.515	103.31
329.744	104.31
329.972	97.31
330.201	112.31
330.43	106.31
330.658	105.31
330.887	131.31
331.115	112.31
331.344	113.31
331.572	97.31
331.801	98.31
332.03	99.31
332.258	87.31
332.486	87.31
332.715	91.31
332.943	84.31
333.172	88.31
333.4	90.31
333.629	108.31
333.857	101.31
334.085	87.31
334.314	78.31
334.542	101.31
334.771	108.31
334.999	92.31
335.227	89.31
335.455	91.31
335.684	88.31
335.912	90.31
336.14	115.31
336.369	91.31
336.597	93.31
336.825	100.31
337.053	87.31
337.281	85.31
337.51	108.31
337.738	85.31
337.966	88.31
338.194	94.31
338.422	95.31
338.65	91.31
338.878	93.31
339.106	88.31
339.334	97.31
339.562	84.31
339.79	83.31
340.018	97.31
340.246	85.31
340.474	98.31
340.702	88.31
340.93	100.31
341.158	84.31
341.386	85.31
341.614	97.31
341.842	99.31
342.07	90.31
342.298	95.31
342.526	87.31
342.754	79.31
342.981	80.31
343.209	93.31
343.437	110.31
343.665	95.31
343.893	84.31
344.12	82.31
344.348	92.31
344.576	92.31
344.804	92.31
345.031	92.31
345.259	85.31
345.487	94.31
345.714	103.31
345.942	90.31
346.17	88.31
346.397	102.31
346.625	95.31
346.853	90.31
347.08	89.31
347.308	103.31
347.535	96.31
347.763	94.31
347.99	96.31
348.218	92.31
348.445	110.31
348.673	93.31
348.9	91.31
349.128	97.31
349.355	84.31
349.583	97.31
349.81	104.31
350.037	92.31
350.265	87.31
350.492	83.31
350.72	83.31
350.947	96.31
351.174	109.31
351.402	103.31
351.629	98.31
351.856	92.31
352.083	109.31
352.311	109.31
352.538	106.31
352.765	96.31
352.992	109.31
353.22	108.31
353.447	88.31
353.674	95.31
353.901	93.31
354.128	97.31
354.355	107.31
354.583	104.31
354.81	95.31
355.037	88.31
355.264	93.31
355.491	95.31
355.718	82.31
355.945	93.31
356.172	101.31
356.399	111.31
356.626	86.31
356.853	91.31
357.08	89.31
357.307	79.31
357.534	92.31
357.761	83.31
357.988	102.31
358.215	84.31
358.441	88.31
358.668	82.31
358.895	71.31
359.122	83.31
359.349	85.31
359.576	102.31
359.802	97.31
360.029	108.31
360.256	112.31
360.483	97.31
360.709	93.31
360.936	88.31
361.163	87.31
361.39	85.31
361.616	102.31
361.843	99.31
362.07	98.31
362.296	92.31
362.523	88.31
362.749	89.31
362.976	86.31
363.203	99.31
363.429	80.31
363.656	81.31
363.882	95.31
364.109	78.31
364.335	84.31
364.562	95.31
364.788	86.31
365.015	93.31
365.241	68.31
365.468	97.31
365.694	99.31
365.92	90.31
366.147	101.31
366.373	89.31
366.599	85.31
366.826	70.31
367.052	88.31
367.278	88.31
367.505	89.31
367.731	93.31
367.957	87.31
368.184	84.31
368.41	94.31
368.636	111.31
368.862	116.31
369.089	100.31
369.315	101.31
369.541	96.31
369.767	92.31
369.993	96.31
370.219	89.31
370.445	91.31
370.672	95.31
370.898	76.31
371.124	82.31
371.35	79.31
371.576	79.31
371.802	87.31
372.028	91.31
372.254	74.31
372.48	84.31
372.706	92.31
372.932	87.31
373.158	87.31
373.384	100.31
373.61	100.31
373.835	95.31
374.061	88.31
374.287	81.31
374.513	88.31
374.739	90.31
374.965	86.31
375.191	94.31
375.416	94.31
375.642	73.31
375.868	96.31
376.094	101.31
376.319	84.31
376.545	89.31
376.771	79.31
376.997	91.31
377.222	84.31
377.448	83.31
377.674	82.31
377.899	80.31
378.125	89.31
378.35	93.31
378.576	88.31
378.802	94.31
379.027	91.31
379.253	95.31
379.478	84.31
379.704	99.31
379.929	87.31
380.155	89.31
380.38	79.31
380.606	92.31
380.831	91.31
381.057	87.31
381.282	81.31
381.507	92.31
381.733	92.31
381.958	100.31
382.184	78.31
382.409	85.31
382.634	95.31
382.86	98.31
383.085	89.31
383.31	98.31
383.535	93.31
383.761	105.31
383.986	91.31
384.211	81.31
384.436	91.31
384.662	89.31
384.887	99.31
385.112	82.31
385.337	103.31
385.562	96.31
385.787	99.31
386.013	104.31
386.238	89.31
386.463	104.31
386.688	115.31
386.913	110.31
387.138	99.31
387.363	97.31
387.588	103.31
387.813	109.31
388.038	94.31
388.263	100.31
388.488	96.31
388.713	80.31
388.938	87.31
389.163	93.31
389.387	104.31
389.612	93.31
389.837	80.31
390.062	85.31
390.287	83.31
390.512	89.31
390.736	85.31
390.961	86.31
391.186	90.31
391.411	96.31
391.636	80.31
391.86	89.31
392.085	91.31
392.31	79.31
392.534	83.31
392.759	79.31
392.984	87.31
393.208	84.31
393.433	87.31
393.658	100.31
393.882	93.31
394.107	78.31
394.331	90.31
394.556	88.31
394.78	75.31
395.005	89.31
395.229	69.31
395.454	91.31
395.678	71.31
395.903	86.31
396.127	86.31
396.352	78.31
396.576	83.31
396.801	78.31
397.025	80.31
397.249	78.31
397.474	78.31
397.698	82.31
397.922	92.31
398.147	83.31
398.371	91.31
398.595	104.31
398.82	81.31
399.044	86.31
399.268	86.31
399.492	93.31
399.717	75.31
399.941	81.31
400.165	84.31
400.389	94.31
400.613	101.31
400.837	69.31
401.062	91.31
401.286	83.31
401.51	108.31
401.734	95.31
401.958	112.31
402.182	112.31
402.406	160.31
402.63	101.31
402.854	88.31
403.078	91.31
403.302	86.31
403.526	70.31
403.75	94.31
403.974	92.31
404.198	86.31
404.422	87.31
404.645	88.31
404.869	81.31
405.093	89.31
405.317	79.31
405.541	90.31
405.765	99.31
405.988	104.31
406.212	159.31
406.436	216.31
406.66	144.31
406.883	103.31
407.107	87.31
407.331	104.31
407.555	89.31
407.778	86.31
408.002	100.31
408.226	77.31
408.449	72.31
408.673	88.31
408.896	93.31
409.12	92.31
409.344	95.31
409.567	92.31
409.791	99.31
410.014	108.31
410.238	83.31
410.461	89.31
410.685	104.31
410.908	96.31
411.132	108.31
411.355	80.31
411.578	98.31
411.802	82.31
412.025	84.31
412.249	89.31
412.472	84.31
412.695	84.31
412.919	85.31
413.142	78.31
413.365	94.31
413.589	92.31
413.812	80.31
414.035	79.31
414.258	76.31
414.482	70.31
414.705	99.31
414.928	82.31
415.151	91.31
415.374	92.31
415.597	76.31
415.821	73.31
416.044	87.31
416.267	92.31
416.49	91.31
416.713	83.31
416.936	80.31
417.159	96.31
417.382	76.31
417.605	92.31
417.828	99.31
418.051	79.31
418.274	67.31
418.497	75.31
418.72	83.31
418.943	84.31
419.166	85.31
419.389	80.31
419.611	87.31
419.834	87.31
420.057	88.31
420.28	94.31
420.503	92.31
420.726	85.31
420.948	95.31
421.171	87.31
421.394	93.31
421.617	109.31
421.839	87.31
422.062	93.31
422.285	87.31
422.507	101.31
422.73	84.31
422.953	89.31
423.175	81.31
423.398	87.31
423.621	94.31
423.843	97.31
424.066	75.31
424.288	85.31
424.511	83.31
424.733	95.31
424.956	110.31
425.178	95.31
425.401	102.31
425.623	96.31
425.846	94.31
426.068	91.31
426.291	97.31
426.513	78.31
426.735	88.31
426.958	102.31
427.18	99.31
427.402	130.31
427.625	157.31
427.847	131.31
428.069	102.31
428.292	86.31
428.514	80.31
428.736	85.31
428.958	91.31
429.181	86.31
429.403	78.31
429.625	103.31
429.847	106.31
430.069	97.31
430.292	91.31
430.514	80.31
430.736	85.31
430.958	93.31
431.18	88.31
431.402	84.31
431.624	92.31
431.846	89.31
432.068	77.31
432.29	86.31
432.512	76.31
432.734	80.31
432.956	97.31
433.178	97.31
433.4	102.31
433.622	85.31
433.844	91.31
434.066	96.31
434.287	85.31
434.509	96.31
434.731	87.31
434.953	94.31
435.175	81.31
435.397	85.31
435.618	96.31
435.84	96.31
436.062	107.31
436.284	107.31
436.505	90.31
436.727	95.31
436.949	89.31
437.17	79.31
437.392	93.31
437.614	98.31
437.835	102.31
438.057	117.31
438.278	105.31
438.5	85.31
438.721	104.31
438.943	103.31
439.165	86.31
439.386	87.31
439.608	89.31
439.829	95.31
440.05	114.31
440.272	126.31
440.493	99.31
440.715	89.31
440.936	91.31
441.158	94.31
441.379	82.31
441.6	90.31
441.822	97.31
442.043	73.31
442.264	112.31
442.486	94.31
442.707	89.31
442.928	93.31
443.149	118.31
443.371	121.31
443.592	109.31
443.813	102.31
444.034	104.31
444.255	87.31
444.476	83.31
444.698	83.31
444.919	87.31
445.14	140.31
445.361	125.31
445.582	111.31
445.803	123.31
446.024	119.31
446.245	132.31
446.466	112.31
446.687	95.31
446.908	81.31
447.129	93.31
447.35	91.31
447.571	93.31
447.792	90.31
448.013	101.31
448.234	84.31
448.455	99.31
448.675	118.31
448.896	117.31
449.117	113.31
449.338	100.31
449.559	107.31
449.779	119.31
450	91.31
450.221	98.31
450.442	98.31
450.662	92.31
450.883	96.31
451.104	106.31
451.324	96.31
451.545	85.31
451.766	76.31
451.986	79.31
452.207	77.31
452.428	93.31
452.648	86.31
452.869	119.31
453.089	103.31
453.31	92.31
453.53	76.31
453.751	87.31
453.971	94.31
454.192	86.31
454.412	79.31
454.633	83.31
454.853	90.31
455.073	96.31
455.294	91.31
455.514	95.31
455.734	85.31
455.955	80.31
456.175	80.31
456.395	77.31
456.616	92.31
456.836	92.31
457.056	88.31
457.276	93.31
457.497	83.31
457.717	87.31
457.937	94.31
458.157	86.31
458.377	92.31
458.598	108.31
458.818	136.31
459.038	135.31
459.258	107.31
459.478	91.31
459.698	80.31
459.918	90.31
460.138	85.31
460.358	90.31
460.578	79.31
460.798	97.31
461.018	82.31
461.238	93.31
461.458	88.31
461.678	84.31
461.898	93.31
462.118	93.31
462.338	87.31
462.558	77.31
462.777	90.31
462.997	84.31
463.217	97.31
463.437	82.31
463.657	87.31
463.876	89.31
464.096	88.31
464.316	78.31
464.536	77.31
464.755	94.31
464.975	99.31
465.195	155.31
465.414	133.31
465.634	100.31
465.854	83.31
466.073	97.31
466.293	89.31
466.512	71.31
466.732	95.31
466.951	89.31
467.171	86.31
467.391	89.31
467.61	106.31
467.829	99.31
468.049	92.31
468.268	87.31
468.488	91.31
468.707	89.31
468.927	78.31
469.146	75.31
469.365	94.31
469.585	83.31
469.804	98.31
470.023	101.31
470.243	88.31
470.462	106.31
470.681	103.31
470.901	88.31
471.12	93.31
471.339	71.31
471.558	87.31
471.777	99.31
471.997	91.31
472.216	89.31
472.435	106.31
472.654	78.31
472.873	88.31
473.092	85.31
473.311	91.31
473.53	71.31
473.749	92.31
473.968	95.31
474.187	117.31
474.406	102.31
474.625	84.31
474.844	71.31
475.063	68.31
475.282	93.31
475.501	86.31
475.72	90.31
475.939	78.31
476.158	91.31
476.377	87.31
476.596	95.31
476.814	79.31
477.033	76.31
477.252	87.31
477.471	84.31
477.69	81.31
477.908	81.31
478.127	85.31
478.346	92.31
478.564	80.31
478.783	73.31
479.002	89.31
479.22	94.31
479.439	103.31
479.658	97.31
479.876	93.31
480.095	94.31
480.313	94.31
480.532	94.31
480.751	92.31
480.969	95.31
481.188	112.31
481.406	112.31
481.624	94.31
481.843	102.31
482.061	85.31
482.28	75.31
482.498	94.31
482.717	94.31
482.935	95.31
483.153	99.31
483.372	89.31
483.59	95.31
483.808	92.31
484.027	83.31
484.245	93.31
484.463	88.31
484.681	96.31
484.9	101.31
485.118	87.31
485.336	93.31
485.554	98.31
485.772	93.31
485.99	98.31
486.209	95.31
486.427	105.31
486.645	113.31
486.863	100.31
487.081	103.31
487.299	105.31
487.517	96.31
487.735	97.31
487.953	88.31
488.171	91.31
488.389	93.31
488.607	103.31
488.825	83.31
489.043	81.31
489.261	87.31
489.479	96.31
489.696	94.31
489.914	103.31
490.132	70.31
490.35	91.31
490.568	95.31
490.786	98.31
491.003	93.31
491.221	100.31
491.439	87.31
491.657	91.31
491.874	88.31
492.092	77.31
492.31	99.31
492.527	81.31
492.745	91.31
492.963	94.31
493.18	83.31
493.398	96.31
493.615	87.31
493.833	64.31
494.05	77.31
494.268	83.31
494.485	102.31
494.703	83.31
494.92	82.31
495.138	85.31
495.355	102.31
495.573	96.31
495.79	84.31
496.008	83.31
496.225	87.31
496.442	86.31
496.66	108.31
496.877	82.31
497.094	88.31
497.312	87.31
497.529	90.31
497.746	93.31
497.963	95.31
498.181	92.31
498.398	107.31
498.615	98.31
498.832	101.31
499.049	96.31
499.267	77.31
499.484	87.31
499.701	82.31
499.918	82.31
500.135	82.31
500.352	80.31
500.569	94.31
500.786	88.31
501.003	92.31
501.22	87.31
501.437	87.31
501.654	85.31
501.871	113.31
502.088	102.31
502.305	102.31
502.522	89.31
502.739	90.31
502.956	90.31
503.172	106.31
503.389	112.31
503.606	89.31
503.823	94.31
504.04	99.31
504.256	95.31
504.473	82.31
504.69	91.31
504.907	100.31
505.123	81.31
505.34	85.31
505.557	82.31
505.773	93.31
505.99	96.31
506.207	100.31
506.423	76.31
506.64	109.31
506.856	88.31
507.073	104.31
507.289	105.31
507.506	96.31
507.722	102.31
507.939	97.31
508.155	92.31
508.372	99.31
508.588	103.31
508.805	93.31
509.021	96.31
509.238	86.31
509.454	100.31
509.67	86.31
509.887	115.31
510.103	125.31
510.319	212.31
510.536	711.31
510.752	2147.31
510.968	596.31
511.184	128.31
511.401	105.31
511.617	83.31
511.833	82.31
512.049	89.31
512.265	89.31
512.481	106.31
512.698	72.31
512.914	86.31
513.13	81.31
513.346	101.31
513.562	96.31
513.778	96.31
513.994	92.31
514.21	95.31
514.426	109.31
514.642	122.31
514.858	101.31
515.074	161.31
515.29	430.31
515.506	1303.31
515.721	487.31
515.937	136.31
516.153	107.31
516.369	91.31
516.585	87.31
