Data from Uncirc_1986_H10_HRD10591_00090.txt Node
Date: Wed Jan 03 12:14:44 EST 2024
User: Yrep
Spectrometer: HR+D1059
Trigger mode: 1
Integration Time (sec): 1.000000E-1
Scans to average: 1
Electric dark correction enabled: true
Nonlinearity correction enabled: false
Boxcar width: 0
XAxis mode: Wavelengths
Number of Pixels in Spectrum: 2048
>>>>>Begin Spectral Data<<<<<
223.165	-20.12
223.4	-20.12
223.635	-20.12
223.869	-14.12
224.104	-26.12
224.338	-13.12
224.573	-17.12
224.808	-11.12
225.042	-21.12
225.277	-8.12
225.511	1.88
225.746	14.88
225.98	8.88
226.215	16.88
226.449	0.88
226.683	20.88
226.918	24.88
227.152	41.88
227.387	47.88
227.621	38.88
227.856	54.88
228.09	53.88
228.324	50.88
228.559	44.88
228.793	54.88
229.027	57.88
229.262	64.88
229.496	68.88
229.73	71.88
229.964	78.88
230.199	65.88
230.433	84.88
230.667	92.88
230.901	85.88
231.136	76.88
231.37	68.88
231.604	60.88
231.838	81.88
232.072	86.88
232.306	83.88
232.541	80.88
232.775	76.88
233.009	83.88
233.243	96.88
233.477	81.88
233.711	76.88
233.945	76.88
234.179	83.88
234.413	63.88
234.647	89.88
234.881	83.88
235.115	75.88
235.349	79.88
235.583	78.88
235.817	80.88
236.051	72.88
236.285	81.88
236.519	76.88
236.753	71.88
236.987	81.88
237.221	78.88
237.455	71.88
237.689	80.88
237.922	71.88
238.156	86.88
238.39	73.88
238.624	69.88
238.858	81.88
239.091	86.88
239.325	79.88
239.559	66.88
239.793	69.88
240.027	63.88
240.26	78.88
240.494	71.88
240.728	84.88
240.961	75.88
241.195	73.88
241.429	81.88
241.662	72.88
241.896	84.88
242.13	71.88
242.363	70.88
242.597	69.88
242.83	85.88
243.064	86.88
243.298	90.88
243.531	74.88
243.765	70.88
243.998	76.88
244.232	82.88
244.465	69.88
244.699	69.88
244.932	79.88
245.166	86.88
245.399	69.88
245.633	67.88
245.866	71.88
246.099	81.88
246.333	83.88
246.566	73.88
246.8	82.88
247.033	70.88
247.266	82.88
247.5	81.88
247.733	76.88
247.966	84.88
248.2	72.88
248.433	79.88
248.666	76.88
248.899	71.88
249.133	76.88
249.366	80.88
249.599	90.88
249.832	76.88
250.066	78.88
250.299	91.88
250.532	76.88
250.765	81.88
250.998	77.88
251.231	78.88
251.465	76.88
251.698	85.88
251.931	78.88
252.164	70.88
252.397	84.88
252.63	76.88
252.863	81.88
253.096	85.88
253.329	71.88
253.562	82.88
253.795	84.88
254.028	80.88
254.261	80.88
254.494	77.88
254.727	81.88
254.96	67.88
255.193	90.88
255.426	76.88
255.659	82.88
255.892	97.88
256.124	77.88
256.357	80.88
256.59	80.88
256.823	64.88
257.056	83.88
257.289	84.88
257.521	84.88
257.754	68.88
257.987	88.88
258.22	80.88
258.452	77.88
258.685	89.88
258.918	73.88
259.151	72.88
259.383	76.88
259.616	85.88
259.849	81.88
260.081	83.88
260.314	80.88
260.547	66.88
260.779	74.88
261.012	63.88
261.244	90.88
261.477	95.88
261.71	84.88
261.942	102.88
262.175	113.88
262.407	76.88
262.64	87.88
262.872	86.88
263.105	92.88
263.337	95.88
263.57	68.88
263.802	100.88
264.035	80.88
264.267	78.88
264.499	95.88
264.732	81.88
264.964	79.88
265.197	80.88
265.429	97.88
265.661	80.88
265.894	76.88
266.126	73.88
266.358	79.88
266.591	82.88
266.823	80.88
267.055	86.88
267.287	89.88
267.52	67.88
267.752	81.88
267.984	82.88
268.216	70.88
268.448	84.88
268.681	92.88
268.913	83.88
269.145	77.88
269.377	77.88
269.609	82.88
269.841	80.88
270.073	88.88
270.306	96.88
270.538	96.88
270.77	71.88
271.002	81.88
271.234	72.88
271.466	94.88
271.698	73.88
271.93	81.88
272.162	87.88
272.394	87.88
272.626	74.88
272.858	97.88
273.09	86.88
273.322	83.88
273.553	84.88
273.785	89.88
274.017	87.88
274.249	87.88
274.481	85.88
274.713	82.88
274.945	85.88
275.176	81.88
275.408	81.88
275.64	104.88
275.872	84.88
276.104	92.88
276.335	96.88
276.567	80.88
276.799	100.88
277.031	94.88
277.262	80.88
277.494	92.88
277.726	85.88
277.957	81.88
278.189	78.88
278.421	84.88
278.652	80.88
278.884	74.88
279.115	102.88
279.347	76.88
279.579	81.88
279.81	83.88
280.042	97.88
280.273	80.88
280.505	85.88
280.736	77.88
280.968	83.88
281.199	88.88
281.431	91.88
281.662	77.88
281.894	93.88
282.125	84.88
282.356	113.88
282.588	133.88
282.819	106.88
283.051	81.88
283.282	80.88
283.513	79.88
283.745	85.88
283.976	93.88
284.207	95.88
284.439	88.88
284.67	77.88
284.901	100.88
285.132	97.88
285.364	94.88
285.595	70.88
285.826	81.88
286.057	76.88
286.288	88.88
286.52	98.88
286.751	81.88
286.982	72.88
287.213	78.88
287.444	78.88
287.675	82.88
287.906	89.88
288.138	95.88
288.369	97.88
288.6	80.88
288.831	79.88
289.062	98.88
289.293	86.88
289.524	83.88
289.755	91.88
289.986	82.88
290.217	92.88
290.448	80.88
290.679	94.88
290.91	76.88
291.141	86.88
291.371	84.88
291.602	85.88
291.833	91.88
292.064	98.88
292.295	102.88
292.526	82.88
292.757	84.88
292.987	84.88
293.218	90.88
293.449	72.88
293.68	76.88
293.91	74.88
294.141	74.88
294.372	78.88
294.603	100.88
294.833	88.88
295.064	97.88
295.295	88.88
295.525	93.88
295.756	88.88
295.987	117.88
296.217	129.88
296.448	118.88
296.679	97.88
296.909	92.88
297.14	90.88
297.37	111.88
297.601	78.88
297.831	106.88
298.062	103.88
298.292	92.88
298.523	87.88
298.753	81.88
298.984	78.88
299.214	87.88
299.445	99.88
299.675	88.88
299.905	93.88
300.136	98.88
300.366	97.88
300.597	88.88
300.827	85.88
301.057	100.88
301.288	85.88
301.518	88.88
301.748	79.88
301.979	95.88
302.209	84.88
302.439	73.88
302.669	90.88
302.9	93.88
303.13	94.88
303.36	89.88
303.59	90.88
303.82	89.88
304.051	85.88
304.281	91.88
304.511	111.88
304.741	88.88
304.971	92.88
305.201	88.88
305.431	88.88
305.661	88.88
305.891	110.88
306.121	96.88
306.352	95.88
306.582	98.88
306.812	102.88
307.042	101.88
307.272	96.88
307.502	88.88
307.731	106.88
307.961	94.88
308.191	72.88
308.421	92.88
308.651	90.88
308.881	83.88
309.111	82.88
309.341	94.88
309.571	85.88
309.8	81.88
310.03	82.88
310.26	93.88
310.49	90.88
310.72	96.88
310.949	95.88
311.179	100.88
311.409	92.88
311.639	98.88
311.868	89.88
312.098	107.88
312.328	93.88
312.557	110.88
312.787	100.88
313.017	96.88
313.246	95.88
313.476	106.88
313.706	84.88
313.935	92.88
314.165	88.88
314.394	102.88
314.624	85.88
314.853	92.88
315.083	76.88
315.312	77.88
315.542	89.88
315.771	99.88
316.001	84.88
316.23	95.88
316.46	85.88
316.689	76.88
316.919	84.88
317.148	79.88
317.377	96.88
317.607	75.88
317.836	87.88
318.065	81.88
318.295	98.88
318.524	104.88
318.753	94.88
318.983	100.88
319.212	112.88
319.441	101.88
319.67	114.88
319.9	101.88
320.129	78.88
320.358	94.88
320.587	85.88
320.816	93.88
321.046	94.88
321.275	89.88
321.504	71.88
321.733	94.88
321.962	97.88
322.191	93.88
322.42	102.88
322.649	97.88
322.878	119.88
323.108	106.88
323.337	119.88
323.566	119.88
323.795	145.88
324.024	192.88
324.253	353.88
324.482	739.88
324.71	1559.88
324.939	2039.88
325.168	771.88
325.397	219.88
325.626	150.88
325.855	127.88
326.084	126.88
326.313	128.88
326.542	141.88
326.77	194.88
326.999	414.88
327.228	871.88
327.457	1598.88
327.686	1268.88
327.914	337.88
328.143	184.88
328.372	132.88
328.6	129.88
328.829	115.88
329.058	113.88
329.287	124.88
329.515	97.88
329.744	96.88
329.972	106.88
330.201	102.88
330.43	113.88
330.658	121.88
330.887	125.88
331.115	112.88
331.344	96.88
331.572	119.88
331.801	92.88
332.03	97.88
332.258	85.88
332.486	92.88
332.715	98.88
332.943	94.88
333.172	96.88
333.4	99.88
333.629	98.88
333.857	97.88
334.085	100.88
334.314	107.88
334.542	110.88
334.771	110.88
334.999	89.88
335.227	90.88
335.455	84.88
335.684	94.88
335.912	89.88
336.14	90.88
336.369	89.88
336.597	89.88
336.825	103.88
337.053	94.88
337.281	88.88
337.51	70.88
337.738	89.88
337.966	78.88
338.194	102.88
338.422	96.88
338.65	81.88
338.878	103.88
339.106	95.88
339.334	106.88
339.562	85.88
339.79	86.88
340.018	92.88
340.246	90.88
340.474	98.88
340.702	104.88
340.93	78.88
341.158	88.88
341.386	99.88
341.614	78.88
341.842	90.88
342.07	88.88
342.298	92.88
342.526	86.88
342.754	102.88
342.981	85.88
343.209	95.88
343.437	86.88
343.665	91.88
343.893	81.88
344.12	100.88
344.348	88.88
344.576	89.88
344.804	84.88
345.031	95.88
345.259	88.88
345.487	93.88
345.714	106.88
345.942	87.88
346.17	91.88
346.397	74.88
346.625	88.88
346.853	96.88
347.08	97.88
347.308	91.88
347.535	85.88
347.763	96.88
347.99	107.88
348.218	84.88
348.445	99.88
348.673	100.88
348.9	100.88
349.128	102.88
349.355	107.88
349.583	85.88
349.81	88.88
350.037	103.88
350.265	97.88
350.492	90.88
350.72	88.88
350.947	102.88
351.174	99.88
351.402	102.88
351.629	104.88
351.856	104.88
352.083	104.88
352.311	100.88
352.538	106.88
352.765	105.88
352.992	107.88
353.22	99.88
353.447	105.88
353.674	99.88
353.901	96.88
354.128	97.88
354.355	100.88
354.583	91.88
354.81	88.88
355.037	84.88
355.264	83.88
355.491	105.88
355.718	86.88
355.945	96.88
356.172	85.88
356.399	100.88
356.626	92.88
356.853	82.88
357.08	102.88
357.307	96.88
357.534	90.88
357.761	101.88
357.988	97.88
358.215	94.88
358.441	84.88
358.668	75.88
358.895	88.88
359.122	82.88
359.349	88.88
359.576	80.88
359.802	90.88
360.029	112.88
360.256	105.88
360.483	102.88
360.709	77.88
360.936	85.88
361.163	96.88
361.39	88.88
361.616	73.88
361.843	92.88
362.07	102.88
362.296	82.88
362.523	79.88
362.749	82.88
362.976	89.88
363.203	80.88
363.429	77.88
363.656	82.88
363.882	91.88
364.109	90.88
364.335	98.88
364.562	86.88
364.788	88.88
365.015	80.88
365.241	96.88
365.468	98.88
365.694	97.88
365.92	90.88
366.147	87.88
366.373	88.88
366.599	98.88
366.826	89.88
367.052	82.88
367.278	85.88
367.505	99.88
367.731	96.88
367.957	78.88
368.184	77.88
368.41	81.88
368.636	104.88
368.862	122.88
369.089	107.88
369.315	71.88
369.541	99.88
369.767	89.88
369.993	86.88
370.219	94.88
370.445	85.88
370.672	70.88
370.898	82.88
371.124	88.88
371.35	86.88
371.576	92.88
371.802	81.88
372.028	77.88
372.254	63.88
372.48	86.88
372.706	72.88
372.932	97.88
373.158	91.88
373.384	90.88
373.61	94.88
373.835	89.88
374.061	88.88
374.287	92.88
374.513	85.88
374.739	85.88
374.965	85.88
375.191	94.88
375.416	91.88
375.642	89.88
375.868	89.88
376.094	83.88
376.319	88.88
376.545	86.88
376.771	102.88
376.997	85.88
377.222	81.88
377.448	81.88
377.674	88.88
377.899	89.88
378.125	98.88
378.35	91.88
378.576	86.88
378.802	73.88
379.027	82.88
379.253	81.88
379.478	84.88
379.704	87.88
379.929	86.88
380.155	105.88
380.38	87.88
380.606	85.88
380.831	97.88
381.057	88.88
381.282	106.88
381.507	71.88
381.733	92.88
381.958	89.88
382.184	81.88
382.409	96.88
382.634	98.88
382.86	101.88
383.085	97.88
383.31	109.88
383.535	96.88
383.761	93.88
383.986	86.88
384.211	90.88
384.436	88.88
384.662	97.88
384.887	91.88
385.112	88.88
385.337	108.88
385.562	84.88
385.787	106.88
386.013	92.88
386.238	115.88
386.463	111.88
386.688	80.88
386.913	86.88
387.138	103.88
387.363	87.88
387.588	90.88
387.813	98.88
388.038	90.88
388.263	98.88
388.488	96.88
388.713	99.88
388.938	97.88
389.163	81.88
389.387	86.88
389.612	82.88
389.837	89.88
390.062	91.88
390.287	100.88
390.512	96.88
390.736	92.88
390.961	85.88
391.186	96.88
391.411	89.88
391.636	100.88
391.86	81.88
392.085	90.88
392.31	81.88
392.534	93.88
392.759	68.88
392.984	98.88
393.208	87.88
393.433	94.88
393.658	74.88
393.882	86.88
394.107	86.88
394.331	76.88
394.556	94.88
394.78	82.88
395.005	85.88
395.229	69.88
395.454	82.88
395.678	93.88
395.903	85.88
396.127	87.88
396.352	96.88
396.576	84.88
396.801	81.88
397.025	92.88
397.249	88.88
397.474	84.88
397.698	88.88
397.922	72.88
398.147	88.88
398.371	89.88
398.595	83.88
398.82	94.88
399.044	76.88
399.268	82.88
399.492	87.88
399.717	85.88
399.941	93.88
400.165	102.88
400.389	95.88
400.613	76.88
400.837	93.88
401.062	91.88
401.286	88.88
401.51	78.88
401.734	93.88
401.958	109.88
402.182	116.88
402.406	132.88
402.63	102.88
402.854	90.88
403.078	71.88
403.302	85.88
403.526	89.88
403.75	80.88
403.974	82.88
404.198	93.88
404.422	80.88
404.645	76.88
404.869	91.88
405.093	92.88
405.317	101.88
405.541	94.88
405.765	100.88
405.988	104.88
406.212	154.88
406.436	216.88
406.66	138.88
406.883	94.88
407.107	95.88
407.331	86.88
407.555	101.88
407.778	89.88
408.002	82.88
408.226	90.88
408.449	90.88
408.673	84.88
408.896	94.88
409.12	86.88
409.344	99.88
409.567	87.88
409.791	96.88
410.014	94.88
410.238	87.88
410.461	102.88
410.685	93.88
410.908	86.88
411.132	111.88
411.355	113.88
411.578	94.88
411.802	94.88
412.025	91.88
412.249	82.88
412.472	90.88
412.695	101.88
412.919	78.88
413.142	88.88
413.365	86.88
413.589	88.88
413.812	95.88
414.035	86.88
414.258	88.88
414.482	90.88
414.705	83.88
414.928	79.88
415.151	104.88
415.374	85.88
415.597	80.88
415.821	88.88
416.044	84.88
416.267	79.88
416.49	77.88
416.713	99.88
416.936	78.88
417.159	70.88
417.382	96.88
417.605	92.88
417.828	92.88
418.051	97.88
418.274	78.88
418.497	84.88
418.72	96.88
418.943	95.88
419.166	90.88
419.389	93.88
419.611	89.88
419.834	90.88
420.057	78.88
420.28	82.88
420.503	93.88
420.726	78.88
420.948	72.88
421.171	88.88
421.394	89.88
421.617	101.88
421.839	93.88
422.062	90.88
422.285	82.88
422.507	111.88
422.73	103.88
422.953	97.88
423.175	99.88
423.398	102.88
423.621	78.88
423.843	83.88
424.066	77.88
424.288	77.88
424.511	90.88
424.733	92.88
424.956	99.88
425.178	89.88
425.401	86.88
425.623	97.88
425.846	84.88
426.068	93.88
426.291	97.88
426.513	103.88
426.735	80.88
426.958	94.88
427.18	91.88
427.402	128.88
427.625	149.88
427.847	118.88
428.069	103.88
428.292	81.88
428.514	84.88
428.736	86.88
428.958	85.88
429.181	63.88
429.403	85.88
429.625	88.88
429.847	81.88
430.069	88.88
430.292	80.88
430.514	86.88
430.736	90.88
430.958	78.88
431.18	87.88
431.402	76.88
431.624	80.88
431.846	85.88
432.068	88.88
432.29	96.88
432.512	72.88
432.734	92.88
432.956	92.88
433.178	85.88
433.4	95.88
433.622	95.88
433.844	89.88
434.066	96.88
434.287	97.88
434.509	78.88
434.731	83.88
434.953	80.88
435.175	78.88
435.397	88.88
435.618	83.88
435.84	88.88
436.062	119.88
436.284	103.88
436.505	114.88
436.727	102.88
436.949	85.88
437.17	85.88
437.392	100.88
437.614	94.88
437.835	107.88
438.057	102.88
438.278	100.88
438.5	92.88
438.721	109.88
438.943	94.88
439.165	87.88
439.386	89.88
439.608	99.88
439.829	100.88
440.05	111.88
440.272	124.88
440.493	83.88
440.715	84.88
440.936	86.88
441.158	82.88
441.379	87.88
441.6	96.88
441.822	88.88
442.043	63.88
442.264	89.88
442.486	81.88
442.707	88.88
442.928	95.88
443.149	115.88
443.371	141.88
443.592	112.88
443.813	97.88
444.034	94.88
444.255	89.88
444.476	76.88
444.698	88.88
444.919	82.88
445.14	127.88
445.361	107.88
445.582	111.88
445.803	128.88
446.024	125.88
446.245	108.88
446.466	105.88
446.687	84.88
446.908	88.88
447.129	94.88
447.35	81.88
447.571	90.88
447.792	102.88
448.013	97.88
448.234	95.88
448.455	95.88
448.675	113.88
448.896	123.88
449.117	94.88
449.338	96.88
449.559	127.88
449.779	121.88
450	86.88
450.221	93.88
450.442	87.88
450.662	94.88
450.883	97.88
451.104	106.88
451.324	102.88
451.545	92.88
451.766	81.88
451.986	79.88
452.207	102.88
452.428	74.88
452.648	97.88
452.869	96.88
453.089	89.88
453.31	123.88
453.53	74.88
453.751	90.88
453.971	93.88
454.192	111.88
454.412	96.88
454.633	77.88
454.853	85.88
455.073	77.88
455.294	86.88
455.514	81.88
455.734	90.88
455.955	63.88
456.175	95.88
456.395	88.88
456.616	84.88
456.836	90.88
457.056	77.88
457.276	87.88
457.497	83.88
457.717	81.88
457.937	72.88
458.157	73.88
458.377	82.88
458.598	109.88
458.818	129.88
459.038	129.88
459.258	108.88
459.478	90.88
459.698	93.88
459.918	104.88
460.138	90.88
460.358	88.88
460.578	83.88
460.798	86.88
461.018	99.88
461.238	85.88
461.458	71.88
461.678	74.88
461.898	73.88
462.118	93.88
462.338	71.88
462.558	66.88
462.777	76.88
462.997	92.88
463.217	96.88
463.437	65.88
463.657	89.88
463.876	86.88
464.096	74.88
464.316	84.88
464.536	82.88
464.755	94.88
464.975	106.88
465.195	149.88
465.414	153.88
465.634	103.88
465.854	81.88
466.073	78.88
466.293	86.88
466.512	79.88
466.732	80.88
466.951	98.88
467.171	90.88
467.391	95.88
467.61	90.88
467.829	85.88
468.049	93.88
468.268	85.88
468.488	79.88
468.707	90.88
468.927	84.88
469.146	87.88
469.365	92.88
469.585	87.88
469.804	88.88
470.023	97.88
470.243	93.88
470.462	104.88
470.681	107.88
470.901	85.88
471.12	66.88
471.339	93.88
471.558	68.88
471.777	85.88
471.997	76.88
472.216	93.88
472.435	112.88
472.654	84.88
472.873	98.88
473.092	79.88
473.311	84.88
473.53	81.88
473.749	90.88
473.968	86.88
474.187	112.88
474.406	89.88
474.625	71.88
474.844	92.88
475.063	85.88
475.282	85.88
475.501	105.88
475.72	93.88
475.939	83.88
476.158	92.88
476.377	73.88
476.596	96.88
476.814	88.88
477.033	103.88
477.252	88.88
477.471	81.88
477.69	72.88
477.908	82.88
478.127	84.88
478.346	89.88
478.564	88.88
478.783	110.88
479.002	90.88
479.22	80.88
479.439	104.88
479.658	87.88
479.876	87.88
480.095	87.88
480.313	92.88
480.532	74.88
480.751	92.88
480.969	90.88
481.188	122.88
481.406	115.88
481.624	87.88
481.843	88.88
482.061	95.88
482.28	92.88
482.498	86.88
482.717	72.88
482.935	85.88
483.153	96.88
483.372	90.88
483.59	96.88
483.808	90.88
484.027	98.88
484.245	89.88
484.463	110.88
484.681	95.88
484.9	96.88
485.118	104.88
485.336	85.88
485.554	94.88
485.772	103.88
485.99	108.88
486.209	95.88
486.427	96.88
486.645	128.88
486.863	106.88
487.081	83.88
487.299	99.88
487.517	84.88
487.735	84.88
487.953	89.88
488.171	88.88
488.389	100.88
488.607	98.88
488.825	79.88
489.043	88.88
489.261	85.88
489.479	93.88
489.696	90.88
489.914	90.88
490.132	95.88
490.35	84.88
490.568	86.88
490.786	84.88
491.003	84.88
491.221	80.88
491.439	85.88
491.657	102.88
491.874	93.88
492.092	99.88
492.31	83.88
492.527	94.88
492.745	88.88
492.963	85.88
493.18	99.88
493.398	85.88
493.615	87.88
493.833	89.88
494.05	94.88
494.268	91.88
494.485	87.88
494.703	80.88
494.92	83.88
495.138	88.88
495.355	81.88
495.573	82.88
495.79	93.88
496.008	92.88
496.225	90.88
496.442	89.88
496.66	88.88
496.877	86.88
497.094	83.88
497.312	96.88
497.529	88.88
497.746	85.88
497.963	86.88
498.181	83.88
498.398	93.88
498.615	114.88
498.832	101.88
499.049	80.88
499.267	79.88
499.484	90.88
499.701	102.88
499.918	110.88
500.135	88.88
500.352	99.88
500.569	90.88
500.786	96.88
501.003	83.88
501.22	82.88
501.437	81.88
501.654	91.88
501.871	118.88
502.088	92.88
502.305	78.88
502.522	79.88
502.739	90.88
502.956	88.88
503.172	86.88
503.389	85.88
503.606	105.88
503.823	103.88
504.04	83.88
504.256	76.88
504.473	86.88
504.69	94.88
504.907	102.88
505.123	77.88
505.34	80.88
505.557	88.88
505.773	87.88
505.99	89.88
506.207	92.88
506.423	89.88
506.64	85.88
506.856	98.88
507.073	103.88
507.289	85.88
507.506	96.88
507.722	104.88
507.939	113.88
508.155	85.88
508.372	100.88
508.588	92.88
508.805	97.88
509.021	68.88
509.238	99.88
509.454	113.88
509.67	97.88
509.887	102.88
510.103	136.88
510.319	197.88
510.536	687.88
510.752	2126.88
510.968	596.88
511.184	150.88
511.401	121.88
511.617	97.88
511.833	94.88
512.049	89.88
512.265	101.88
512.481	88.88
512.698	105.88
512.914	80.88
513.13	84.88
513.346	101.88
513.562	92.88
513.778	94.88
513.994	85.88
514.21	93.88
514.426	122.88
514.642	130.88
514.858	125.88
515.074	152.88
515.29	392.88
515.506	1301.88
515.721	487.88
515.937	142.88
516.153	114.88
516.369	94.88
516.585	100.88
