Data from Uncirc_1986_H10_HRD10591_00011.txt Node
Date: Wed Jan 03 12:14:28 EST 2024
User: Yrep
Spectrometer: HR+D1059
Trigger mode: 1
Integration Time (sec): 1.000000E-1
Scans to average: 1
Electric dark correction enabled: true
Nonlinearity correction enabled: false
Boxcar width: 0
XAxis mode: Wavelengths
Number of Pixels in Spectrum: 2048
>>>>>Begin Spectral Data<<<<<
223.165	-31
223.4	-31
223.635	-31
223.869	-19
224.104	-21
224.338	-9
224.573	-26
224.808	-13
225.042	-11
225.277	-12
225.511	10
225.746	6
225.98	8
226.215	18
226.449	18
226.683	28
226.918	27
227.152	27
227.387	19
227.621	41
227.856	45
228.09	49
228.324	54
228.559	72
228.793	51
229.027	51
229.262	76
229.496	73
229.73	76
229.964	84
230.199	77
230.433	82
230.667	75
230.901	83
231.136	79
231.37	74
231.604	59
231.838	80
232.072	90
232.306	93
232.541	81
232.775	92
233.009	65
233.243	77
233.477	87
233.711	84
233.945	85
234.179	83
234.413	86
234.647	73
234.881	71
235.115	98
235.349	76
235.583	83
235.817	74
236.051	75
236.285	69
236.519	70
236.753	80
236.987	90
237.221	85
237.455	80
237.689	82
237.922	67
238.156	82
238.39	78
238.624	68
238.858	65
239.091	82
239.325	83
239.559	79
239.793	83
240.027	69
240.26	71
240.494	76
240.728	85
240.961	84
241.195	84
241.429	79
241.662	67
241.896	70
242.13	80
242.363	80
242.597	85
242.83	76
243.064	72
243.298	81
243.531	76
243.765	80
243.998	71
244.232	78
244.465	82
244.699	72
244.932	86
245.166	80
245.399	88
245.633	71
245.866	71
246.099	76
246.333	73
246.566	84
246.8	72
247.033	83
247.266	70
247.5	76
247.733	88
247.966	73
248.2	77
248.433	73
248.666	76
248.899	91
249.133	85
249.366	77
249.599	102
249.832	93
250.066	68
250.299	84
250.532	84
250.765	83
250.998	84
251.231	91
251.465	77
251.698	89
251.931	71
252.164	85
252.397	59
252.63	82
252.863	90
253.096	75
253.329	72
253.562	73
253.795	71
254.028	88
254.261	79
254.494	78
254.727	106
254.96	80
255.193	84
255.426	82
255.659	82
255.892	85
256.124	86
256.357	73
256.59	88
256.823	89
257.056	61
257.289	80
257.521	66
257.754	61
257.987	67
258.22	81
258.452	82
258.685	67
258.918	86
259.151	71
259.383	82
259.616	82
259.849	89
260.081	88
260.314	79
260.547	66
260.779	88
261.012	94
261.244	79
261.477	90
261.71	100
261.942	93
262.175	95
262.407	94
262.64	84
262.872	77
263.105	83
263.337	82
263.57	69
263.802	79
264.035	81
264.267	77
264.499	89
264.732	67
264.964	70
265.197	77
265.429	81
265.661	96
265.894	80
266.126	86
266.358	87
266.591	72
266.823	74
267.055	79
267.287	96
267.52	80
267.752	90
267.984	81
268.216	89
268.448	90
268.681	87
268.913	80
269.145	89
269.377	93
269.609	73
269.841	78
270.073	80
270.306	86
270.538	83
270.77	80
271.002	85
271.234	81
271.466	92
271.698	83
271.93	90
272.162	85
272.394	90
272.626	87
272.858	79
273.09	87
273.322	82
273.553	84
273.785	88
274.017	79
274.249	81
274.481	96
274.713	84
274.945	90
275.176	81
275.408	89
275.64	87
275.872	97
276.104	91
276.335	90
276.567	102
276.799	73
277.031	94
277.262	98
277.494	96
277.726	86
277.957	80
278.189	81
278.421	92
278.652	87
278.884	73
279.115	87
279.347	95
279.579	88
279.81	84
280.042	76
280.273	84
280.505	87
280.736	93
280.968	93
281.199	96
281.431	76
281.662	87
281.894	82
282.125	92
282.356	91
282.588	132
282.819	96
283.051	98
283.282	91
283.513	100
283.745	95
283.976	90
284.207	78
284.439	83
284.67	81
284.901	98
285.132	86
285.364	96
285.595	99
285.826	81
286.057	87
286.288	86
286.52	89
286.751	97
286.982	87
287.213	83
287.444	96
287.675	72
287.906	94
288.138	94
288.369	80
288.6	91
288.831	82
289.062	94
289.293	89
289.524	84
289.755	83
289.986	80
290.217	73
290.448	78
290.679	95
290.91	92
291.141	94
291.371	84
291.602	94
291.833	90
292.064	85
292.295	87
292.526	72
292.757	94
292.987	86
293.218	93
293.449	85
293.68	90
293.91	90
294.141	91
294.372	95
294.603	88
294.833	82
295.064	88
295.295	95
295.525	76
295.756	102
295.987	116
296.217	128
296.448	106
296.679	94
296.909	99
297.14	90
297.37	101
297.601	91
297.831	90
298.062	88
298.292	80
298.523	77
298.753	84
298.984	79
299.214	93
299.445	88
299.675	92
299.905	90
300.136	97
300.366	86
300.597	80
300.827	78
301.057	84
301.288	90
301.518	94
301.748	91
301.979	110
302.209	94
302.439	88
302.669	104
302.9	92
303.13	85
303.36	96
303.59	82
303.82	105
304.051	80
304.281	84
304.511	84
304.741	90
304.971	87
305.201	79
305.431	75
305.661	97
305.891	94
306.121	87
306.352	96
306.582	109
306.812	104
307.042	88
307.272	96
307.502	97
307.731	88
307.961	98
308.191	98
308.421	94
308.651	87
308.881	84
309.111	86
309.341	93
309.571	84
309.8	92
310.03	95
310.26	107
310.49	100
310.72	92
310.949	104
311.179	110
311.409	97
311.639	80
311.868	87
312.098	89
312.328	90
312.557	97
312.787	94
313.017	114
313.246	85
313.476	100
313.706	97
313.935	95
314.165	93
314.394	89
314.624	83
314.853	89
315.083	89
315.312	90
315.542	87
315.771	103
316.001	91
316.23	99
316.46	92
316.689	99
316.919	93
317.148	98
317.377	85
317.607	90
317.836	88
318.065	98
318.295	93
318.524	81
318.753	86
318.983	102
319.212	101
319.441	93
319.67	82
319.9	101
320.129	81
320.358	86
320.587	97
320.816	95
321.046	92
321.275	99
321.504	87
321.733	92
321.962	107
322.191	117
322.42	101
322.649	88
322.878	108
323.108	100
323.337	108
323.566	124
323.795	136
324.024	194
324.253	328
324.482	691
324.71	1422
324.939	1892
325.168	720
325.397	228
325.626	135
325.855	121
326.084	113
326.313	132
326.542	145
326.77	229
326.999	380
327.228	812
327.457	1501
327.686	1200
327.914	336
328.143	180
328.372	135
328.6	122
328.829	120
329.058	124
329.287	112
329.515	93
329.744	93
329.972	87
330.201	103
330.43	91
330.658	99
330.887	117
331.115	98
331.344	95
331.572	96
331.801	99
332.03	105
332.258	87
332.486	79
332.715	89
332.943	85
333.172	89
333.4	101
333.629	96
333.857	115
334.085	88
334.314	85
334.542	103
334.771	96
334.999	98
335.227	87
335.455	100
335.684	101
335.912	96
336.14	92
336.369	95
336.597	110
336.825	84
337.053	95
337.281	89
337.51	93
337.738	105
337.966	98
338.194	101
338.422	96
338.65	87
338.878	96
339.106	89
339.334	93
339.562	89
339.79	95
340.018	94
340.246	94
340.474	103
340.702	84
340.93	88
341.158	79
341.386	85
341.614	94
341.842	88
342.07	90
342.298	76
342.526	93
342.754	97
342.981	88
343.209	89
343.437	101
343.665	88
343.893	84
344.12	84
344.348	85
344.576	89
344.804	92
345.031	94
345.259	73
345.487	99
345.714	87
345.942	97
346.17	97
346.397	92
346.625	100
346.853	93
347.08	89
347.308	82
347.535	101
347.763	101
347.99	86
348.218	96
348.445	99
348.673	100
348.9	94
349.128	102
349.355	98
349.583	90
349.81	81
350.037	98
350.265	94
350.492	92
350.72	87
350.947	86
351.174	95
351.402	102
351.629	100
351.856	85
352.083	97
352.311	98
352.538	116
352.765	98
352.992	112
353.22	104
353.447	97
353.674	94
353.901	95
354.128	83
354.355	90
354.583	81
354.81	95
355.037	104
355.264	105
355.491	96
355.718	92
355.945	92
356.172	79
356.399	95
356.626	87
356.853	96
357.08	92
357.307	77
357.534	80
357.761	98
357.988	92
358.215	94
358.441	97
358.668	91
358.895	89
359.122	79
359.349	92
359.576	97
359.802	87
360.029	99
360.256	89
360.483	99
360.709	82
360.936	84
361.163	77
361.39	85
361.616	90
361.843	82
362.07	85
362.296	101
362.523	85
362.749	86
362.976	80
363.203	88
363.429	87
363.656	94
363.882	90
364.109	87
364.335	91
364.562	106
364.788	90
365.015	92
365.241	89
365.468	98
365.694	119
365.92	105
366.147	86
366.373	86
366.599	92
366.826	94
367.052	72
367.278	91
367.505	67
367.731	90
367.957	85
368.184	88
368.41	91
368.636	94
368.862	115
369.089	96
369.315	78
369.541	98
369.767	88
369.993	87
370.219	86
370.445	99
370.672	88
370.898	91
371.124	92
371.35	93
371.576	97
371.802	78
372.028	87
372.254	92
372.48	92
372.706	81
372.932	79
373.158	91
373.384	84
373.61	89
373.835	92
374.061	77
374.287	80
374.513	100
374.739	89
374.965	90
375.191	89
375.416	90
375.642	97
375.868	84
376.094	87
376.319	92
376.545	90
376.771	90
376.997	95
377.222	93
377.448	90
377.674	81
377.899	82
378.125	71
378.35	88
378.576	98
378.802	84
379.027	86
379.253	86
379.478	80
379.704	76
379.929	82
380.155	95
380.38	107
380.606	97
380.831	91
381.057	104
381.282	103
381.507	103
381.733	103
381.958	100
382.184	87
382.409	92
382.634	98
382.86	108
383.085	98
383.31	108
383.535	88
383.761	97
383.986	103
384.211	90
384.436	89
384.662	90
384.887	95
385.112	96
385.337	77
385.562	96
385.787	87
386.013	113
386.238	104
386.463	95
386.688	101
386.913	101
387.138	98
387.363	108
387.588	87
387.813	103
388.038	105
388.263	101
388.488	113
388.713	104
388.938	89
389.163	100
389.387	97
389.612	87
389.837	106
390.062	87
390.287	80
390.512	91
390.736	103
390.961	82
391.186	97
391.411	96
391.636	83
391.86	84
392.085	72
392.31	82
392.534	89
392.759	78
392.984	84
393.208	85
393.433	96
393.658	93
393.882	94
394.107	75
394.331	94
394.556	83
394.78	78
395.005	81
395.229	79
395.454	75
395.678	76
395.903	92
396.127	91
396.352	97
396.576	74
396.801	74
397.025	79
397.249	81
397.474	80
397.698	85
397.922	81
398.147	78
398.371	88
398.595	93
398.82	99
399.044	82
399.268	82
399.492	100
399.717	107
399.941	83
400.165	91
400.389	86
400.613	89
400.837	85
401.062	73
401.286	72
401.51	63
401.734	88
401.958	81
402.182	119
402.406	147
402.63	106
402.854	89
403.078	81
403.302	83
403.526	80
403.75	80
403.974	92
404.198	81
404.422	85
404.645	99
404.869	89
405.093	94
405.317	85
405.541	90
405.765	92
405.988	112
406.212	148
406.436	209
406.66	120
406.883	100
407.107	84
407.331	93
407.555	101
407.778	86
408.002	93
408.226	79
408.449	86
408.673	87
408.896	83
409.12	98
409.344	89
409.567	82
409.791	82
410.014	93
410.238	92
410.461	89
410.685	91
410.908	98
411.132	94
411.355	100
411.578	99
411.802	80
412.025	84
412.249	95
412.472	87
412.695	92
412.919	80
413.142	84
413.365	84
413.589	96
413.812	82
414.035	97
414.258	86
414.482	87
414.705	80
414.928	84
415.151	82
415.374	90
415.597	78
415.821	88
416.044	81
416.267	76
416.49	81
416.713	86
416.936	94
417.159	86
417.382	85
417.605	87
417.828	96
418.051	92
418.274	88
418.497	88
418.72	77
418.943	52
419.166	83
419.389	80
419.611	87
419.834	80
420.057	81
420.28	72
420.503	68
420.726	85
420.948	84
421.171	74
421.394	85
421.617	88
421.839	88
422.062	95
422.285	98
422.507	99
422.73	96
422.953	73
423.175	85
423.398	95
423.621	85
423.843	80
424.066	89
424.288	73
424.511	94
424.733	82
424.956	79
425.178	96
425.401	101
425.623	84
425.846	76
426.068	92
426.291	86
426.513	86
426.735	101
426.958	86
427.18	93
427.402	131
427.625	140
427.847	112
428.069	107
428.292	82
428.514	86
428.736	78
428.958	87
429.181	68
429.403	78
429.625	82
429.847	89
430.069	96
430.292	89
430.514	94
430.736	92
430.958	80
431.18	88
431.402	89
431.624	95
431.846	84
432.068	96
432.29	82
432.512	104
432.734	86
432.956	91
433.178	100
433.4	86
433.622	88
433.844	83
434.066	82
434.287	86
434.509	84
434.731	87
434.953	89
435.175	82
435.397	77
435.618	89
435.84	93
436.062	117
436.284	109
436.505	90
436.727	93
436.949	97
437.17	81
437.392	104
437.614	88
437.835	96
438.057	114
438.278	87
438.5	105
438.721	110
438.943	84
439.165	97
439.386	87
439.608	85
439.829	105
440.05	108
440.272	133
440.493	102
440.715	77
440.936	85
441.158	92
441.379	78
441.6	94
441.822	100
442.043	89
442.264	92
442.486	89
442.707	85
442.928	101
443.149	106
443.371	120
443.592	86
443.813	103
444.034	99
444.255	85
444.476	85
444.698	90
444.919	87
445.14	113
445.361	121
445.582	107
445.803	125
446.024	130
446.245	125
446.466	94
446.687	77
446.908	94
447.129	82
447.35	81
447.571	90
447.792	88
448.013	82
448.234	83
448.455	95
448.675	107
448.896	103
449.117	118
449.338	102
449.559	114
449.779	122
450	97
450.221	92
450.442	86
450.662	95
450.883	95
451.104	92
451.324	82
451.545	60
451.766	74
451.986	92
452.207	88
452.428	88
452.648	90
452.869	97
453.089	88
453.31	92
453.53	89
453.751	96
453.971	106
454.192	105
454.412	88
454.633	88
454.853	90
455.073	73
455.294	78
455.514	95
455.734	95
455.955	80
456.175	84
456.395	86
456.616	99
456.836	83
457.056	77
457.276	84
457.497	89
457.717	74
457.937	70
458.157	91
458.377	86
458.598	97
458.818	126
459.038	127
459.258	97
459.478	70
459.698	84
459.918	90
460.138	88
460.358	87
460.578	97
460.798	104
461.018	83
461.238	100
461.458	88
461.678	77
461.898	71
462.118	86
462.338	82
462.558	83
462.777	82
462.997	92
463.217	90
463.437	88
463.657	97
463.876	86
464.096	94
464.316	90
464.536	80
464.755	80
464.975	94
465.195	132
465.414	136
465.634	95
465.854	65
466.073	75
466.293	72
466.512	81
466.732	78
466.951	89
467.171	79
467.391	86
467.61	83
467.829	79
468.049	67
468.268	80
468.488	87
468.707	77
468.927	73
469.146	82
469.365	100
469.585	85
469.804	66
470.023	85
470.243	75
470.462	97
470.681	100
470.901	85
471.12	78
471.339	70
471.558	78
471.777	76
471.997	83
472.216	85
472.435	83
472.654	86
472.873	83
473.092	88
473.311	85
473.53	90
473.749	76
473.968	78
474.187	95
474.406	87
474.625	78
474.844	84
475.063	74
475.282	82
475.501	80
475.72	80
475.939	90
476.158	84
476.377	95
476.596	86
476.814	93
477.033	88
477.252	103
477.471	81
477.69	95
477.908	79
478.127	105
478.346	83
478.564	88
478.783	89
479.002	88
479.22	90
479.439	88
479.658	93
479.876	91
480.095	77
480.313	87
480.532	88
480.751	88
480.969	83
481.188	99
481.406	98
481.624	83
481.843	84
482.061	89
482.28	101
482.498	96
482.717	84
482.935	72
483.153	80
483.372	84
483.59	86
483.808	86
484.027	82
484.245	85
484.463	79
484.681	97
484.9	83
485.118	90
485.336	66
485.554	109
485.772	93
485.99	108
486.209	108
486.427	109
486.645	94
486.863	110
487.081	99
487.299	86
487.517	98
487.735	102
487.953	91
488.171	94
488.389	97
488.607	94
488.825	96
489.043	88
489.261	85
489.479	74
489.696	73
489.914	68
490.132	103
490.35	89
490.568	82
490.786	85
491.003	86
491.221	85
491.439	92
491.657	94
491.874	96
492.092	90
492.31	89
492.527	88
492.745	97
492.963	80
493.18	95
493.398	100
493.615	102
493.833	91
494.05	89
494.268	89
494.485	95
494.703	98
494.92	85
495.138	92
495.355	85
495.573	80
495.79	95
496.008	85
496.225	86
496.442	66
496.66	82
496.877	95
497.094	103
497.312	89
497.529	89
497.746	82
497.963	80
498.181	102
498.398	97
498.615	95
498.832	101
499.049	82
499.267	84
499.484	86
499.701	79
499.918	87
500.135	96
500.352	64
500.569	90
500.786	88
501.003	90
501.22	88
501.437	85
501.654	87
501.871	104
502.088	89
502.305	84
502.522	89
502.739	101
502.956	89
503.172	96
503.389	100
503.606	100
503.823	99
504.04	82
504.256	88
504.473	89
504.69	90
504.907	95
505.123	107
505.34	95
505.557	82
505.773	79
505.99	84
506.207	74
506.423	96
506.64	97
506.856	88
507.073	93
507.289	88
507.506	101
507.722	89
507.939	96
508.155	79
508.372	94
508.588	92
508.805	88
509.021	86
509.238	99
509.454	77
509.67	113
509.887	109
510.103	127
510.319	186
510.536	632
510.752	1912
510.968	536
511.184	142
511.401	108
511.617	87
511.833	97
512.049	99
512.265	80
512.481	83
512.698	92
512.914	82
513.13	96
513.346	88
513.562	84
513.778	92
513.994	93
514.21	92
514.426	115
514.642	140
514.858	127
515.074	142
515.29	369
515.506	1128
515.721	425
515.937	129
516.153	91
516.369	89
516.585	83
516.801	71
517.016	98
517.232	87
517.448	95
517.664	78
517.879	73
518.095	100
518.311	100
518.527	89
518.742	94
518.958	82
519.173	93
519.389	92
519.605	99
519.82	98
520.036	92
520.251	118
520.467	105
520.682	119
520.898	90
521.113	113
521.329	125
521.544	176
521.76	437
521.975	1903
522.19	1150
522.406	246
522.621	111
522.836	94
523.052	104
523.267	79
523.482	98
523.698	88
523.913	111
524.128	87
524.343	97
524.559	97
524.774	96
524.989	85
525.204	102
525.419	88
525.634	94
525.849	94
526.064	104
526.28	87
526.495	89
526.71	88
526.925	96
527.14	92
527.355	89
527.57	86
527.785	92
527.999	81
528.214	82
528.429	99
528.644	87
528.859	91
529.074	101
529.289	130
529.503	157
529.718	108
529.933	80
530.148	96
530.363	90
530.577	84
530.792	78
531.007	95
531.221	90
531.436	96
531.651	94
531.865	88
532.08	108
532.295	94
532.509	92
532.724	90
532.938	103
533.153	102
533.367	85
533.582	99
533.796	102
534.011	77
534.225	75
534.44	84
534.654	98
534.868	82
535.083	94
535.297	92
535.511	81
535.726	88
535.94	98
536.154	95
536.369	84
536.583	71
536.797	93
537.011	105
537.225	97
537.44	84
537.654	100
537.868	91
538.082	84
538.296	69
538.51	84
538.724	82
538.938	88
539.153	101
539.367	116
539.581	92
539.795	96
540.009	80
540.222	94
540.436	91
540.65	77
540.864	94
541.078	110
541.292	89
541.506	95
541.72	84
541.934	88
542.147	80
542.361	84
542.575	83
542.789	94
543.002	89
543.216	93
543.43	99
543.644	82
543.857	105
544.071	88
544.285	87
544.498	88
544.712	86
544.925	97
545.139	93
545.352	88
545.566	88
545.779	94
545.993	84
546.206	74
546.42	94
546.633	89
546.847	85
547.06	86
547.274	78
547.487	92
547.7	100
547.914	94
548.127	88
548.34	100
548.554	84
548.767	92
548.98	100
549.193	96
549.407	85
549.62	86
549.833	94
550.046	88
550.259	87
550.473	89
550.686	89
550.899	98
551.112	73
551.325	85
551.538	96
551.751	82
551.964	95
552.177	80
552.39	87
552.603	88
552.816	106
553.029	106
553.242	102
553.455	90
553.667	105
553.88	94
554.093	106
554.306	95
554.519	112
554.732	94
554.944	104
555.157	81
555.37	97
555.583	90
555.795	106
556.008	94
556.221	89
556.433	94
556.646	103
556.859	91
557.071	95
557.284	88
557.496	86
557.709	84
557.921	94
558.134	87
558.346	85
558.559	105
558.771	94
558.984	93
559.196	71
559.409	86
559.621	88
559.833	87
560.046	92
560.258	86
560.47	89
560.683	96
560.895	81
561.107	103
561.32	97
561.532	89
561.744	89
561.956	89
562.168	94
562.381	86
562.593	91
562.805	88
563.017	84
563.229	87
563.441	82
563.653	78
563.865	81
564.077	89
564.289	89
564.501	82
564.713	89
564.925	98
565.137	111
565.349	89
565.561	97
565.773	92
565.985	89
566.197	79
566.408	86
566.62	79
566.832	84
567.044	78
567.255	99
567.467	82
567.679	73
567.891	88
568.102	83
568.314	95
568.526	81
568.737	86
568.949	92
569.161	108
569.372	85
569.584	88
569.795	103
570.007	109
570.218	211
570.43	121
570.641	89
570.853	97
571.064	73
571.276	92
571.487	102
571.698	94
571.91	97
572.121	97
572.333	90
572.544	80
572.755	82
572.966	87
573.178	97
573.389	87
573.6	85
573.811	89
574.023	88
574.234	100
574.445	82
574.656	87
574.867	94
575.078	82
575.289	96
575.501	91
575.712	81
575.923	83
576.134	88
576.345	82
576.556	78
576.767	93
576.978	86
577.188	98
577.399	92
577.61	104
577.821	88
578.032	128
578.243	246
578.454	656
578.665	186
578.875	106
579.086	86
579.297	96
579.508	78
579.718	88
579.929	84
580.14	86
580.35	82
580.561	85
580.772	91
580.982	84
581.193	79
581.403	85
581.614	92
581.825	82
582.035	86
582.246	86
582.456	81
582.667	90
582.877	76
583.087	78
583.298	97
583.508	93
583.719	92
583.929	88
584.139	84
584.35	90
584.56	97
584.77	86
584.981	93
585.191	92
585.401	88
585.611	81
585.821	81
586.032	97
586.242	93
