Data from Uncirc_1986_H10_HRD10591_00015.txt Node
Date: Wed Jan 03 12:14:29 EST 2024
User: Yrep
Spectrometer: HR+D1059
Trigger mode: 1
Integration Time (sec): 1.000000E-1
Scans to average: 1
Electric dark correction enabled: true
Nonlinearity correction enabled: false
Boxcar width: 0
XAxis mode: Wavelengths
Number of Pixels in Spectrum: 2048
>>>>>Begin Spectral Data<<<<<
223.165	-13.06
223.4	-13.06
223.635	-13.06
223.869	-19.06
224.104	-24.06
224.338	1.94
224.573	-17.06
224.808	-4.06
225.042	-9.06
225.277	-6.06
225.511	3.94
225.746	-9.06
225.98	-0.06
226.215	-6.06
226.449	26.94
226.683	24.94
226.918	19.94
227.152	29.94
227.387	26.94
227.621	27.94
227.856	35.94
228.09	44.94
228.324	59.94
228.559	58.94
228.793	60.94
229.027	67.94
229.262	72.94
229.496	70.94
229.73	64.94
229.964	71.94
230.199	82.94
230.433	81.94
230.667	76.94
230.901	61.94
231.136	92.94
231.37	75.94
231.604	88.94
231.838	84.94
232.072	77.94
232.306	85.94
232.541	89.94
232.775	81.94
233.009	75.94
233.243	75.94
233.477	96.94
233.711	83.94
233.945	76.94
234.179	76.94
234.413	82.94
234.647	87.94
234.881	84.94
235.115	75.94
235.349	72.94
235.583	75.94
235.817	70.94
236.051	68.94
236.285	88.94
236.519	67.94
236.753	79.94
236.987	71.94
237.221	85.94
237.455	80.94
237.689	89.94
237.922	71.94
238.156	70.94
238.39	85.94
238.624	85.94
238.858	71.94
239.091	71.94
239.325	82.94
239.559	74.94
239.793	71.94
240.027	67.94
240.26	73.94
240.494	69.94
240.728	68.94
240.961	69.94
241.195	85.94
241.429	76.94
241.662	74.94
241.896	66.94
242.13	79.94
242.363	73.94
242.597	79.94
242.83	77.94
243.064	91.94
243.298	88.94
243.531	92.94
243.765	74.94
243.998	83.94
244.232	78.94
244.465	80.94
244.699	85.94
244.932	82.94
245.166	88.94
245.399	76.94
245.633	80.94
245.866	78.94
246.099	82.94
246.333	70.94
246.566	69.94
246.8	84.94
247.033	87.94
247.266	79.94
247.5	85.94
247.733	69.94
247.966	85.94
248.2	76.94
248.433	83.94
248.666	76.94
248.899	76.94
249.133	79.94
249.366	89.94
249.599	109.94
249.832	85.94
250.066	86.94
250.299	71.94
250.532	84.94
250.765	79.94
250.998	82.94
251.231	74.94
251.465	76.94
251.698	87.94
251.931	80.94
252.164	70.94
252.397	82.94
252.63	91.94
252.863	66.94
253.096	82.94
253.329	76.94
253.562	83.94
253.795	80.94
254.028	71.94
254.261	53.94
254.494	72.94
254.727	77.94
254.96	71.94
255.193	89.94
255.426	74.94
255.659	84.94
255.892	74.94
256.124	91.94
256.357	79.94
256.59	71.94
256.823	81.94
257.056	83.94
257.289	93.94
257.521	88.94
257.754	79.94
257.987	86.94
258.22	88.94
258.452	60.94
258.685	99.94
258.918	84.94
259.151	81.94
259.383	83.94
259.616	85.94
259.849	80.94
260.081	75.94
260.314	79.94
260.547	76.94
260.779	72.94
261.012	80.94
261.244	79.94
261.477	92.94
261.71	94.94
261.942	103.94
262.175	96.94
262.407	95.94
262.64	80.94
262.872	83.94
263.105	87.94
263.337	76.94
263.57	90.94
263.802	75.94
264.035	94.94
264.267	79.94
264.499	81.94
264.732	74.94
264.964	79.94
265.197	71.94
265.429	87.94
265.661	82.94
265.894	87.94
266.126	89.94
266.358	84.94
266.591	93.94
266.823	82.94
267.055	80.94
267.287	83.94
267.52	90.94
267.752	85.94
267.984	83.94
268.216	85.94
268.448	76.94
268.681	86.94
268.913	83.94
269.145	83.94
269.377	91.94
269.609	70.94
269.841	81.94
270.073	88.94
270.306	82.94
270.538	91.94
270.77	91.94
271.002	99.94
271.234	82.94
271.466	87.94
271.698	91.94
271.93	81.94
272.162	98.94
272.394	83.94
272.626	88.94
272.858	79.94
273.09	81.94
273.322	89.94
273.553	92.94
273.785	82.94
274.017	83.94
274.249	90.94
274.481	73.94
274.713	80.94
274.945	80.94
275.176	89.94
275.408	86.94
275.64	84.94
275.872	76.94
276.104	95.94
276.335	98.94
276.567	75.94
276.799	105.94
277.031	92.94
277.262	84.94
277.494	87.94
277.726	99.94
277.957	88.94
278.189	91.94
278.421	84.94
278.652	96.94
278.884	83.94
279.115	95.94
279.347	77.94
279.579	83.94
279.81	74.94
280.042	93.94
280.273	83.94
280.505	80.94
280.736	86.94
280.968	68.94
281.199	83.94
281.431	87.94
281.662	81.94
281.894	97.94
282.125	92.94
282.356	96.94
282.588	128.94
282.819	115.94
283.051	81.94
283.282	85.94
283.513	87.94
283.745	68.94
283.976	71.94
284.207	95.94
284.439	91.94
284.67	88.94
284.901	83.94
285.132	98.94
285.364	69.94
285.595	96.94
285.826	88.94
286.057	78.94
286.288	100.94
286.52	86.94
286.751	81.94
286.982	87.94
287.213	83.94
287.444	85.94
287.675	95.94
287.906	100.94
288.138	83.94
288.369	97.94
288.6	84.94
288.831	92.94
289.062	90.94
289.293	72.94
289.524	90.94
289.755	81.94
289.986	79.94
290.217	84.94
290.448	89.94
290.679	84.94
290.91	84.94
291.141	101.94
291.371	99.94
291.602	73.94
291.833	107.94
292.064	92.94
292.295	75.94
292.526	81.94
292.757	89.94
292.987	77.94
293.218	83.94
293.449	85.94
293.68	86.94
293.91	107.94
294.141	102.94
294.372	96.94
294.603	91.94
294.833	85.94
295.064	77.94
295.295	84.94
295.525	95.94
295.756	106.94
295.987	114.94
296.217	121.94
296.448	101.94
296.679	85.94
296.909	76.94
297.14	92.94
297.37	100.94
297.601	76.94
297.831	88.94
298.062	100.94
298.292	107.94
298.523	91.94
298.753	82.94
298.984	89.94
299.214	89.94
299.445	89.94
299.675	93.94
299.905	84.94
300.136	81.94
300.366	88.94
300.597	87.94
300.827	99.94
301.057	88.94
301.288	94.94
301.518	95.94
301.748	89.94
301.979	83.94
302.209	88.94
302.439	105.94
302.669	99.94
302.9	85.94
303.13	89.94
303.36	102.94
303.59	107.94
303.82	92.94
304.051	94.94
304.281	96.94
304.511	85.94
304.741	82.94
304.971	80.94
305.201	81.94
305.431	88.94
305.661	93.94
305.891	84.94
306.121	98.94
306.352	107.94
306.582	116.94
306.812	93.94
307.042	86.94
307.272	103.94
307.502	84.94
307.731	81.94
307.961	82.94
308.191	92.94
308.421	99.94
308.651	85.94
308.881	81.94
309.111	81.94
309.341	92.94
309.571	93.94
309.8	91.94
310.03	86.94
310.26	102.94
310.49	90.94
310.72	106.94
310.949	103.94
311.179	95.94
311.409	110.94
311.639	95.94
311.868	92.94
312.098	95.94
312.328	88.94
312.557	95.94
312.787	97.94
313.017	95.94
313.246	96.94
313.476	86.94
313.706	96.94
313.935	97.94
314.165	91.94
314.394	89.94
314.624	85.94
314.853	105.94
315.083	80.94
315.312	86.94
315.542	86.94
315.771	97.94
316.001	91.94
316.23	86.94
316.46	99.94
316.689	88.94
316.919	99.94
317.148	95.94
317.377	93.94
317.607	95.94
317.836	82.94
318.065	93.94
318.295	85.94
318.524	81.94
318.753	91.94
318.983	97.94
319.212	99.94
319.441	90.94
319.67	106.94
319.9	101.94
320.129	87.94
320.358	95.94
320.587	92.94
320.816	89.94
321.046	89.94
321.275	107.94
321.504	90.94
321.733	100.94
321.962	99.94
322.191	106.94
322.42	103.94
322.649	100.94
322.878	94.94
323.108	106.94
323.337	107.94
323.566	131.94
323.795	131.94
324.024	184.94
324.253	338.94
324.482	696.94
324.71	1386.94
324.939	1867.94
325.168	708.94
325.397	213.94
325.626	133.94
325.855	128.94
326.084	128.94
326.313	122.94
326.542	138.94
326.77	198.94
326.999	388.94
327.228	824.94
327.457	1463.94
327.686	1183.94
327.914	329.94
328.143	171.94
328.372	136.94
328.6	121.94
328.829	115.94
329.058	115.94
329.287	116.94
329.515	107.94
329.744	108.94
329.972	97.94
330.201	101.94
330.43	102.94
330.658	108.94
330.887	118.94
331.115	102.94
331.344	95.94
331.572	105.94
331.801	96.94
332.03	102.94
332.258	89.94
332.486	89.94
332.715	84.94
332.943	97.94
333.172	90.94
333.4	101.94
333.629	97.94
333.857	113.94
334.085	105.94
334.314	80.94
334.542	90.94
334.771	96.94
334.999	104.94
335.227	111.94
335.455	99.94
335.684	89.94
335.912	93.94
336.14	103.94
336.369	99.94
336.597	80.94
336.825	88.94
337.053	104.94
337.281	95.94
337.51	88.94
337.738	92.94
337.966	92.94
338.194	86.94
338.422	101.94
338.65	108.94
338.878	96.94
339.106	105.94
339.334	97.94
339.562	86.94
339.79	90.94
340.018	97.94
340.246	99.94
340.474	100.94
340.702	89.94
340.93	93.94
341.158	88.94
341.386	94.94
341.614	82.94
341.842	106.94
342.07	90.94
342.298	90.94
342.526	92.94
342.754	84.94
342.981	79.94
343.209	72.94
343.437	99.94
343.665	87.94
343.893	81.94
344.12	88.94
344.348	96.94
344.576	93.94
344.804	101.94
345.031	103.94
345.259	103.94
345.487	100.94
345.714	86.94
345.942	83.94
346.17	95.94
346.397	87.94
346.625	85.94
346.853	86.94
347.08	90.94
347.308	97.94
347.535	91.94
347.763	87.94
347.99	95.94
348.218	94.94
348.445	99.94
348.673	94.94
348.9	101.94
349.128	93.94
349.355	101.94
349.583	92.94
349.81	102.94
350.037	97.94
350.265	97.94
350.492	88.94
350.72	92.94
350.947	89.94
351.174	97.94
351.402	94.94
351.629	96.94
351.856	100.94
352.083	116.94
352.311	98.94
352.538	106.94
352.765	99.94
352.992	122.94
353.22	98.94
353.447	99.94
353.674	95.94
353.901	89.94
354.128	106.94
354.355	96.94
354.583	104.94
354.81	100.94
355.037	106.94
355.264	101.94
355.491	108.94
355.718	75.94
355.945	91.94
356.172	94.94
356.399	97.94
356.626	91.94
356.853	93.94
357.08	99.94
357.307	88.94
357.534	91.94
357.761	100.94
357.988	93.94
358.215	102.94
358.441	83.94
358.668	91.94
358.895	79.94
359.122	97.94
359.349	80.94
359.576	101.94
359.802	106.94
360.029	99.94
360.256	96.94
360.483	107.94
360.709	93.94
360.936	101.94
361.163	97.94
361.39	98.94
361.616	94.94
361.843	78.94
362.07	91.94
362.296	94.94
362.523	88.94
362.749	92.94
362.976	91.94
363.203	89.94
363.429	93.94
363.656	97.94
363.882	108.94
364.109	93.94
364.335	90.94
364.562	99.94
364.788	85.94
365.015	101.94
365.241	104.94
365.468	108.94
365.694	93.94
365.92	89.94
366.147	92.94
366.373	98.94
366.599	86.94
366.826	82.94
367.052	85.94
367.278	90.94
367.505	79.94
367.731	91.94
367.957	99.94
368.184	73.94
368.41	105.94
368.636	104.94
368.862	117.94
369.089	106.94
369.315	103.94
369.541	99.94
369.767	99.94
369.993	91.94
370.219	85.94
370.445	76.94
370.672	97.94
370.898	89.94
371.124	76.94
371.35	89.94
371.576	82.94
371.802	82.94
372.028	91.94
372.254	91.94
372.48	87.94
372.706	84.94
372.932	89.94
373.158	79.94
373.384	99.94
373.61	99.94
373.835	90.94
374.061	95.94
374.287	108.94
374.513	95.94
374.739	95.94
374.965	96.94
375.191	91.94
375.416	83.94
375.642	97.94
375.868	99.94
376.094	82.94
376.319	92.94
376.545	93.94
376.771	89.94
376.997	91.94
377.222	95.94
377.448	88.94
377.674	90.94
377.899	86.94
378.125	84.94
378.35	91.94
378.576	89.94
378.802	91.94
379.027	87.94
379.253	89.94
379.478	90.94
379.704	89.94
379.929	90.94
380.155	94.94
380.38	94.94
380.606	88.94
380.831	97.94
381.057	96.94
381.282	100.94
381.507	90.94
381.733	99.94
381.958	92.94
382.184	103.94
382.409	88.94
382.634	104.94
382.86	107.94
383.085	103.94
383.31	105.94
383.535	103.94
383.761	94.94
383.986	94.94
384.211	107.94
384.436	105.94
384.662	97.94
384.887	102.94
385.112	98.94
385.337	84.94
385.562	96.94
385.787	109.94
386.013	108.94
386.238	105.94
386.463	97.94
386.688	114.94
386.913	106.94
387.138	106.94
387.363	111.94
387.588	99.94
387.813	95.94
388.038	104.94
388.263	107.94
388.488	111.94
388.713	108.94
388.938	96.94
389.163	88.94
389.387	104.94
389.612	93.94
389.837	99.94
390.062	88.94
390.287	91.94
390.512	91.94
390.736	95.94
390.961	96.94
391.186	101.94
391.411	99.94
391.636	103.94
391.86	91.94
392.085	80.94
392.31	87.94
392.534	84.94
392.759	89.94
392.984	86.94
393.208	89.94
393.433	107.94
393.658	92.94
393.882	87.94
394.107	89.94
394.331	90.94
394.556	91.94
394.78	93.94
395.005	92.94
395.229	88.94
395.454	90.94
395.678	87.94
395.903	89.94
396.127	80.94
396.352	93.94
396.576	89.94
396.801	103.94
397.025	96.94
397.249	83.94
397.474	86.94
397.698	96.94
397.922	83.94
398.147	91.94
398.371	89.94
398.595	80.94
398.82	95.94
399.044	97.94
399.268	78.94
399.492	74.94
399.717	101.94
399.941	83.94
400.165	85.94
400.389	88.94
400.613	75.94
400.837	89.94
401.062	79.94
401.286	65.94
401.51	83.94
401.734	92.94
401.958	99.94
402.182	117.94
402.406	138.94
402.63	99.94
402.854	83.94
403.078	85.94
403.302	96.94
403.526	93.94
403.75	115.94
403.974	90.94
404.198	84.94
404.422	83.94
404.645	91.94
404.869	95.94
405.093	87.94
405.317	95.94
405.541	95.94
405.765	95.94
405.988	104.94
406.212	150.94
406.436	200.94
406.66	143.94
406.883	95.94
407.107	99.94
407.331	88.94
407.555	93.94
407.778	90.94
408.002	93.94
408.226	99.94
408.449	95.94
408.673	85.94
408.896	83.94
409.12	93.94
409.344	86.94
409.567	101.94
409.791	90.94
410.014	101.94
410.238	100.94
410.461	100.94
410.685	88.94
410.908	109.94
411.132	105.94
411.355	99.94
411.578	91.94
411.802	90.94
412.025	83.94
412.249	89.94
412.472	87.94
412.695	95.94
412.919	87.94
413.142	90.94
413.365	91.94
413.589	85.94
413.812	92.94
414.035	86.94
414.258	97.94
414.482	85.94
414.705	90.94
414.928	89.94
415.151	109.94
415.374	81.94
415.597	103.94
415.821	84.94
416.044	90.94
416.267	98.94
416.49	101.94
416.713	91.94
416.936	98.94
417.159	91.94
417.382	92.94
417.605	87.94
417.828	100.94
418.051	92.94
418.274	93.94
418.497	92.94
418.72	73.94
418.943	91.94
419.166	81.94
419.389	91.94
419.611	90.94
419.834	76.94
420.057	97.94
420.28	93.94
420.503	89.94
420.726	89.94
420.948	82.94
421.171	83.94
421.394	89.94
421.617	93.94
421.839	80.94
422.062	104.94
422.285	83.94
422.507	93.94
422.73	94.94
422.953	115.94
423.175	97.94
423.398	93.94
423.621	89.94
423.843	84.94
424.066	91.94
424.288	92.94
424.511	86.94
424.733	99.94
424.956	111.94
425.178	93.94
425.401	96.94
425.623	74.94
425.846	92.94
426.068	89.94
426.291	86.94
426.513	85.94
426.735	95.94
426.958	103.94
427.18	108.94
427.402	134.94
427.625	150.94
427.847	112.94
428.069	108.94
428.292	97.94
428.514	85.94
428.736	76.94
428.958	92.94
429.181	99.94
429.403	96.94
429.625	63.94
429.847	87.94
430.069	98.94
430.292	101.94
430.514	87.94
430.736	86.94
430.958	97.94
431.18	75.94
431.402	79.94
431.624	94.94
431.846	87.94
432.068	79.94
432.29	97.94
432.512	99.94
432.734	89.94
432.956	92.94
433.178	101.94
433.4	108.94
433.622	85.94
433.844	91.94
434.066	114.94
434.287	75.94
434.509	79.94
434.731	85.94
434.953	89.94
435.175	76.94
435.397	88.94
435.618	99.94
435.84	106.94
436.062	105.94
436.284	116.94
436.505	82.94
436.727	102.94
436.949	88.94
437.17	91.94
437.392	94.94
437.614	99.94
437.835	104.94
438.057	114.94
438.278	103.94
438.5	88.94
438.721	115.94
438.943	90.94
439.165	81.94
439.386	81.94
439.608	85.94
439.829	102.94
440.05	105.94
440.272	127.94
440.493	81.94
440.715	89.94
440.936	80.94
441.158	80.94
441.379	86.94
441.6	91.94
441.822	102.94
442.043	98.94
442.264	101.94
442.486	108.94
442.707	87.94
442.928	90.94
443.149	125.94
443.371	117.94
443.592	115.94
443.813	89.94
444.034	113.94
444.255	92.94
444.476	88.94
444.698	82.94
444.919	92.94
445.14	122.94
445.361	111.94
445.582	107.94
445.803	122.94
446.024	119.94
446.245	125.94
446.466	95.94
446.687	85.94
446.908	96.94
447.129	98.94
447.35	74.94
447.571	88.94
447.792	72.94
448.013	111.94
448.234	101.94
448.455	100.94
448.675	109.94
448.896	111.94
449.117	99.94
449.338	111.94
449.559	125.94
449.779	130.94
450	102.94
450.221	84.94
450.442	99.94
450.662	83.94
450.883	99.94
451.104	95.94
451.324	81.94
451.545	100.94
451.766	93.94
451.986	73.94
452.207	89.94
452.428	97.94
452.648	84.94
452.869	99.94
453.089	101.94
453.31	117.94
453.53	82.94
453.751	88.94
453.971	82.94
454.192	98.94
454.412	90.94
454.633	89.94
454.853	83.94
455.073	84.94
455.294	93.94
455.514	100.94
455.734	84.94
455.955	95.94
456.175	94.94
456.395	81.94
456.616	91.94
456.836	85.94
457.056	81.94
457.276	94.94
457.497	90.94
457.717	93.94
457.937	72.94
458.157	89.94
458.377	79.94
458.598	103.94
458.818	125.94
459.038	126.94
459.258	111.94
459.478	82.94
459.698	94.94
459.918	92.94
460.138	97.94
460.358	82.94
460.578	93.94
460.798	83.94
461.018	107.94
461.238	68.94
461.458	86.94
461.678	82.94
461.898	77.94
462.118	95.94
462.338	87.94
462.558	99.94
462.777	101.94
462.997	88.94
463.217	67.94
463.437	84.94
463.657	89.94
463.876	86.94
464.096	99.94
464.316	88.94
464.536	106.94
464.755	94.94
464.975	100.94
465.195	140.94
465.414	137.94
465.634	84.94
465.854	74.94
466.073	75.94
466.293	84.94
466.512	83.94
466.732	74.94
466.951	103.94
467.171	89.94
467.391	89.94
467.61	97.94
467.829	91.94
468.049	81.94
468.268	84.94
468.488	83.94
468.707	92.94
468.927	89.94
469.146	85.94
469.365	96.94
469.585	87.94
469.804	100.94
470.023	103.94
470.243	86.94
470.462	99.94
470.681	80.94
470.901	88.94
471.12	96.94
471.339	77.94
471.558	108.94
471.777	99.94
471.997	87.94
472.216	86.94
472.435	75.94
472.654	89.94
472.873	86.94
473.092	104.94
473.311	84.94
473.53	84.94
473.749	96.94
473.968	93.94
474.187	94.94
474.406	95.94
474.625	99.94
474.844	85.94
475.063	81.94
475.282	101.94
475.501	100.94
475.72	93.94
475.939	85.94
476.158	85.94
476.377	91.94
476.596	91.94
476.814	96.94
477.033	89.94
477.252	72.94
477.471	87.94
477.69	84.94
477.908	89.94
478.127	103.94
478.346	94.94
478.564	81.94
478.783	73.94
479.002	101.94
479.22	79.94
479.439	100.94
479.658	93.94
479.876	84.94
480.095	83.94
480.313	84.94
480.532	83.94
480.751	93.94
480.969	87.94
481.188	99.94
481.406	89.94
481.624	91.94
481.843	100.94
482.061	82.94
482.28	90.94
482.498	87.94
482.717	95.94
482.935	86.94
483.153	97.94
483.372	98.94
483.59	79.94
483.808	92.94
484.027	108.94
484.245	98.94
484.463	89.94
484.681	99.94
484.9	86.94
485.118	96.94
485.336	85.94
485.554	107.94
485.772	101.94
485.99	98.94
486.209	105.94
486.427	106.94
486.645	124.94
486.863	108.94
487.081	109.94
487.299	85.94
487.517	103.94
487.735	107.94
487.953	102.94
488.171	103.94
488.389	101.94
488.607	97.94
488.825	100.94
489.043	89.94
489.261	89.94
489.479	89.94
489.696	76.94
489.914	86.94
490.132	89.94
490.35	86.94
490.568	82.94
490.786	99.94
491.003	83.94
491.221	87.94
491.439	88.94
491.657	85.94
491.874	96.94
492.092	111.94
492.31	72.94
492.527	91.94
492.745	92.94
492.963	87.94
493.18	88.94
493.398	90.94
493.615	108.94
493.833	102.94
494.05	87.94
494.268	86.94
494.485	97.94
494.703	88.94
494.92	83.94
495.138	83.94
495.355	91.94
495.573	102.94
495.79	103.94
496.008	90.94
496.225	100.94
496.442	91.94
496.66	92.94
496.877	81.94
497.094	95.94
497.312	89.94
497.529	96.94
497.746	105.94
497.963	90.94
498.181	84.94
498.398	94.94
498.615	104.94
498.832	95.94
499.049	84.94
499.267	89.94
499.484	101.94
499.701	99.94
499.918	89.94
500.135	89.94
500.352	72.94
500.569	98.94
500.786	104.94
501.003	98.94
501.22	102.94
501.437	82.94
501.654	90.94
501.871	87.94
502.088	94.94
502.305	96.94
502.522	84.94
502.739	96.94
502.956	87.94
503.172	86.94
503.389	87.94
503.606	104.94
503.823	92.94
504.04	83.94
504.256	92.94
504.473	79.94
504.69	76.94
504.907	100.94
505.123	89.94
505.34	85.94
505.557	85.94
505.773	93.94
505.99	100.94
506.207	97.94
506.423	89.94
506.64	108.94
506.856	84.94
507.073	77.94
507.289	98.94
507.506	103.94
507.722	120.94
507.939	108.94
508.155	84.94
508.372	94.94
508.588	79.94
508.805	83.94
509.021	92.94
509.238	105.94
509.454	103.94
509.67	91.94
509.887	123.94
510.103	129.94
510.319	188.94
510.536	648.94
510.752	1975.94
510.968	551.94
511.184	147.94
511.401	103.94
511.617	96.94
511.833	85.94
512.049	104.94
512.265	93.94
512.481	98.94
512.698	99.94
512.914	85.94
513.13	98.94
513.346	95.94
513.562	89.94
513.778	87.94
513.994	96.94
514.21	98.94
514.426	109.94
514.642	126.94
514.858	119.94
515.074	144.94
515.29	393.94
515.506	1157.94
515.721	435.94
515.937	143.94
