Data from Uncirc_1986_H10_HRD10591_00098.txt Node
Date: Wed Jan 03 12:14:46 EST 2024
User: Yrep
Spectrometer: HR+D1059
Trigger mode: 1
Integration Time (sec): 1.000000E-1
Scans to average: 1
Electric dark correction enabled: true
Nonlinearity correction enabled: false
Boxcar width: 0
XAxis mode: Wavelengths
Number of Pixels in Spectrum: 2048
>>>>>Begin Spectral Data<<<<<
223.165	-25.81
223.4	-25.81
223.635	-25.81
223.869	-5.81
224.104	-27.81
224.338	-16.81
224.573	-22.81
224.808	-17.81
225.042	-5.81
225.277	-8.81
225.511	-3.81
225.746	0.19
225.98	8.19
226.215	22.19
226.449	8.19
226.683	28.19
226.918	35.19
227.152	33.19
227.387	39.19
227.621	29.19
227.856	40.19
228.09	51.19
228.324	53.19
228.559	67.19
228.793	73.19
229.027	60.19
229.262	57.19
229.496	84.19
229.73	80.19
229.964	92.19
230.199	81.19
230.433	94.19
230.667	74.19
230.901	80.19
231.136	84.19
231.37	74.19
231.604	84.19
231.838	77.19
232.072	84.19
232.306	83.19
232.541	85.19
232.775	82.19
233.009	92.19
233.243	88.19
233.477	90.19
233.711	74.19
233.945	82.19
234.179	98.19
234.413	75.19
234.647	97.19
234.881	80.19
235.115	85.19
235.349	80.19
235.583	96.19
235.817	81.19
236.051	76.19
236.285	77.19
236.519	78.19
236.753	86.19
236.987	89.19
237.221	93.19
237.455	89.19
237.689	88.19
237.922	81.19
238.156	104.19
238.39	74.19
238.624	80.19
238.858	84.19
239.091	83.19
239.325	83.19
239.559	100.19
239.793	89.19
240.027	82.19
240.26	85.19
240.494	83.19
240.728	71.19
240.961	90.19
241.195	92.19
241.429	64.19
241.662	75.19
241.896	74.19
242.13	62.19
242.363	71.19
242.597	69.19
242.83	84.19
243.064	89.19
243.298	80.19
243.531	61.19
243.765	76.19
243.998	84.19
244.232	82.19
244.465	80.19
244.699	77.19
244.932	82.19
245.166	69.19
245.399	90.19
245.633	86.19
245.866	66.19
246.099	80.19
246.333	85.19
246.566	76.19
246.8	82.19
247.033	83.19
247.266	78.19
247.5	76.19
247.733	83.19
247.966	92.19
248.2	80.19
248.433	88.19
248.666	89.19
248.899	85.19
249.133	85.19
249.366	91.19
249.599	92.19
249.832	82.19
250.066	88.19
250.299	90.19
250.532	74.19
250.765	88.19
250.998	92.19
251.231	76.19
251.465	69.19
251.698	89.19
251.931	87.19
252.164	82.19
252.397	75.19
252.63	103.19
252.863	82.19
253.096	92.19
253.329	94.19
253.562	81.19
253.795	76.19
254.028	85.19
254.261	90.19
254.494	94.19
254.727	89.19
254.96	92.19
255.193	93.19
255.426	67.19
255.659	96.19
255.892	85.19
256.124	88.19
256.357	84.19
256.59	96.19
256.823	69.19
257.056	91.19
257.289	88.19
257.521	87.19
257.754	83.19
257.987	67.19
258.22	81.19
258.452	94.19
258.685	93.19
258.918	87.19
259.151	75.19
259.383	82.19
259.616	87.19
259.849	79.19
260.081	77.19
260.314	78.19
260.547	91.19
260.779	93.19
261.012	90.19
261.244	102.19
261.477	89.19
261.71	89.19
261.942	100.19
262.175	114.19
262.407	101.19
262.64	68.19
262.872	81.19
263.105	99.19
263.337	89.19
263.57	97.19
263.802	92.19
264.035	94.19
264.267	84.19
264.499	86.19
264.732	76.19
264.964	76.19
265.197	79.19
265.429	89.19
265.661	75.19
265.894	91.19
266.126	89.19
266.358	77.19
266.591	93.19
266.823	77.19
267.055	76.19
267.287	92.19
267.52	88.19
267.752	92.19
267.984	93.19
268.216	83.19
268.448	93.19
268.681	84.19
268.913	87.19
269.145	92.19
269.377	95.19
269.609	93.19
269.841	82.19
270.073	83.19
270.306	82.19
270.538	68.19
270.77	84.19
271.002	81.19
271.234	99.19
271.466	104.19
271.698	78.19
271.93	92.19
272.162	100.19
272.394	96.19
272.626	88.19
272.858	92.19
273.09	106.19
273.322	86.19
273.553	82.19
273.785	94.19
274.017	90.19
274.249	90.19
274.481	89.19
274.713	68.19
274.945	96.19
275.176	76.19
275.408	104.19
275.64	89.19
275.872	90.19
276.104	101.19
276.335	96.19
276.567	98.19
276.799	103.19
277.031	104.19
277.262	97.19
277.494	88.19
277.726	90.19
277.957	88.19
278.189	93.19
278.421	94.19
278.652	100.19
278.884	85.19
279.115	95.19
279.347	92.19
279.579	102.19
279.81	76.19
280.042	89.19
280.273	85.19
280.505	92.19
280.736	85.19
280.968	80.19
281.199	86.19
281.431	84.19
281.662	86.19
281.894	84.19
282.125	96.19
282.356	107.19
282.588	132.19
282.819	104.19
283.051	90.19
283.282	99.19
283.513	84.19
283.745	93.19
283.976	85.19
284.207	86.19
284.439	87.19
284.67	83.19
284.901	92.19
285.132	93.19
285.364	97.19
285.595	105.19
285.826	82.19
286.057	89.19
286.288	93.19
286.52	97.19
286.751	100.19
286.982	75.19
287.213	91.19
287.444	98.19
287.675	109.19
287.906	80.19
288.138	89.19
288.369	91.19
288.6	94.19
288.831	89.19
289.062	89.19
289.293	89.19
289.524	83.19
289.755	92.19
289.986	86.19
290.217	108.19
290.448	102.19
290.679	85.19
290.91	99.19
291.141	97.19
291.371	85.19
291.602	95.19
291.833	98.19
292.064	92.19
292.295	82.19
292.526	85.19
292.757	81.19
292.987	94.19
293.218	84.19
293.449	101.19
293.68	80.19
293.91	94.19
294.141	89.19
294.372	93.19
294.603	93.19
294.833	80.19
295.064	86.19
295.295	97.19
295.525	96.19
295.756	98.19
295.987	126.19
296.217	134.19
296.448	117.19
296.679	86.19
296.909	96.19
297.14	96.19
297.37	105.19
297.601	89.19
297.831	89.19
298.062	100.19
298.292	95.19
298.523	90.19
298.753	92.19
298.984	81.19
299.214	89.19
299.445	85.19
299.675	105.19
299.905	103.19
300.136	106.19
300.366	100.19
300.597	101.19
300.827	90.19
301.057	106.19
301.288	93.19
301.518	87.19
301.748	85.19
301.979	100.19
302.209	94.19
302.439	91.19
302.669	96.19
302.9	100.19
303.13	90.19
303.36	102.19
303.59	106.19
303.82	118.19
304.051	94.19
304.281	93.19
304.511	92.19
304.741	90.19
304.971	95.19
305.201	98.19
305.431	96.19
305.661	76.19
305.891	101.19
306.121	111.19
306.352	95.19
306.582	104.19
306.812	93.19
307.042	100.19
307.272	107.19
307.502	91.19
307.731	90.19
307.961	97.19
308.191	100.19
308.421	95.19
308.651	100.19
308.881	97.19
309.111	86.19
309.341	101.19
309.571	94.19
309.8	92.19
310.03	101.19
310.26	98.19
310.49	97.19
310.72	110.19
310.949	81.19
311.179	112.19
311.409	87.19
311.639	101.19
311.868	102.19
312.098	105.19
312.328	96.19
312.557	107.19
312.787	101.19
313.017	96.19
313.246	98.19
313.476	94.19
313.706	104.19
313.935	107.19
314.165	90.19
314.394	106.19
314.624	101.19
314.853	96.19
315.083	92.19
315.312	91.19
315.542	94.19
315.771	121.19
316.001	101.19
316.23	106.19
316.46	101.19
316.689	93.19
316.919	85.19
317.148	95.19
317.377	97.19
317.607	93.19
317.836	105.19
318.065	99.19
318.295	93.19
318.524	90.19
318.753	101.19
318.983	88.19
319.212	127.19
319.441	107.19
319.67	116.19
319.9	105.19
320.129	86.19
320.358	87.19
320.587	99.19
320.816	98.19
321.046	97.19
321.275	98.19
321.504	98.19
321.733	90.19
321.962	75.19
322.191	110.19
322.42	112.19
322.649	99.19
322.878	108.19
323.108	123.19
323.337	116.19
323.566	120.19
323.795	173.19
324.024	195.19
324.253	340.19
324.482	724.19
324.71	1501.19
324.939	1906.19
325.168	740.19
325.397	220.19
325.626	146.19
325.855	128.19
326.084	123.19
326.313	143.19
326.542	151.19
326.77	214.19
326.999	410.19
327.228	836.19
327.457	1547.19
327.686	1228.19
327.914	344.19
328.143	202.19
328.372	141.19
328.6	108.19
328.829	120.19
329.058	95.19
329.287	120.19
329.515	113.19
329.744	127.19
329.972	101.19
330.201	105.19
330.43	129.19
330.658	110.19
330.887	135.19
331.115	125.19
331.344	104.19
331.572	109.19
331.801	103.19
332.03	93.19
332.258	100.19
332.486	93.19
332.715	94.19
332.943	88.19
333.172	90.19
333.4	85.19
333.629	104.19
333.857	120.19
334.085	119.19
334.314	110.19
334.542	116.19
334.771	107.19
334.999	117.19
335.227	93.19
335.455	107.19
335.684	100.19
335.912	97.19
336.14	104.19
336.369	92.19
336.597	106.19
336.825	103.19
337.053	104.19
337.281	106.19
337.51	94.19
337.738	107.19
337.966	90.19
338.194	100.19
338.422	100.19
338.65	75.19
338.878	92.19
339.106	93.19
339.334	87.19
339.562	98.19
339.79	96.19
340.018	97.19
340.246	93.19
340.474	106.19
340.702	107.19
340.93	73.19
341.158	90.19
341.386	104.19
341.614	94.19
341.842	92.19
342.07	89.19
342.298	99.19
342.526	96.19
342.754	87.19
342.981	82.19
343.209	91.19
343.437	98.19
343.665	91.19
343.893	98.19
344.12	93.19
344.348	92.19
344.576	95.19
344.804	99.19
345.031	94.19
345.259	93.19
345.487	109.19
345.714	106.19
345.942	95.19
346.17	96.19
346.397	105.19
346.625	93.19
346.853	91.19
347.08	90.19
347.308	104.19
347.535	118.19
347.763	95.19
347.99	105.19
348.218	94.19
348.445	100.19
348.673	99.19
348.9	93.19
349.128	100.19
349.355	102.19
349.583	101.19
349.81	91.19
350.037	93.19
350.265	93.19
350.492	93.19
350.72	95.19
350.947	104.19
351.174	113.19
351.402	120.19
351.629	105.19
351.856	115.19
352.083	117.19
352.311	102.19
352.538	107.19
352.765	100.19
352.992	116.19
353.22	110.19
353.447	92.19
353.674	101.19
353.901	98.19
354.128	84.19
354.355	98.19
354.583	105.19
354.81	93.19
355.037	90.19
355.264	100.19
355.491	102.19
355.718	108.19
355.945	101.19
356.172	93.19
356.399	100.19
356.626	101.19
356.853	89.19
357.08	93.19
357.307	101.19
357.534	97.19
357.761	88.19
357.988	84.19
358.215	102.19
358.441	91.19
358.668	106.19
358.895	89.19
359.122	82.19
359.349	85.19
359.576	91.19
359.802	88.19
360.029	98.19
360.256	108.19
360.483	98.19
360.709	92.19
360.936	84.19
361.163	96.19
361.39	87.19
361.616	102.19
361.843	84.19
362.07	96.19
362.296	93.19
362.523	100.19
362.749	93.19
362.976	94.19
363.203	109.19
363.429	97.19
363.656	86.19
363.882	88.19
364.109	95.19
364.335	101.19
364.562	107.19
364.788	85.19
365.015	85.19
365.241	107.19
365.468	112.19
365.694	104.19
365.92	97.19
366.147	92.19
366.373	96.19
366.599	101.19
366.826	97.19
367.052	97.19
367.278	89.19
367.505	89.19
367.731	83.19
367.957	100.19
368.184	104.19
368.41	99.19
368.636	106.19
368.862	120.19
369.089	100.19
369.315	96.19
369.541	90.19
369.767	94.19
369.993	100.19
370.219	92.19
370.445	84.19
370.672	106.19
370.898	104.19
371.124	89.19
371.35	98.19
371.576	91.19
371.802	83.19
372.028	85.19
372.254	84.19
372.48	101.19
372.706	85.19
372.932	96.19
373.158	103.19
373.384	84.19
373.61	95.19
373.835	93.19
374.061	98.19
374.287	88.19
374.513	95.19
374.739	84.19
374.965	100.19
375.191	91.19
375.416	90.19
375.642	98.19
375.868	105.19
376.094	90.19
376.319	92.19
376.545	89.19
376.771	100.19
376.997	97.19
377.222	98.19
377.448	105.19
377.674	96.19
377.899	89.19
378.125	87.19
378.35	96.19
378.576	90.19
378.802	70.19
379.027	92.19
379.253	104.19
379.478	105.19
379.704	96.19
379.929	84.19
380.155	85.19
380.38	96.19
380.606	91.19
380.831	87.19
381.057	94.19
381.282	96.19
381.507	84.19
381.733	84.19
381.958	101.19
382.184	101.19
382.409	103.19
382.634	101.19
382.86	90.19
383.085	102.19
383.31	102.19
383.535	100.19
383.761	84.19
383.986	109.19
384.211	86.19
384.436	105.19
384.662	92.19
384.887	96.19
385.112	107.19
385.337	107.19
385.562	104.19
385.787	99.19
386.013	118.19
386.238	106.19
386.463	107.19
386.688	107.19
386.913	115.19
387.138	99.19
387.363	92.19
387.588	101.19
387.813	100.19
388.038	104.19
388.263	118.19
388.488	96.19
388.713	103.19
388.938	77.19
389.163	108.19
389.387	98.19
389.612	102.19
389.837	91.19
390.062	96.19
390.287	96.19
390.512	86.19
390.736	97.19
390.961	96.19
391.186	90.19
391.411	89.19
391.636	109.19
391.86	97.19
392.085	87.19
392.31	76.19
392.534	89.19
392.759	86.19
392.984	74.19
393.208	90.19
393.433	91.19
393.658	93.19
393.882	80.19
394.107	91.19
394.331	106.19
394.556	84.19
394.78	90.19
395.005	99.19
395.229	91.19
395.454	98.19
395.678	91.19
395.903	105.19
396.127	108.19
396.352	110.19
396.576	99.19
396.801	78.19
397.025	90.19
397.249	85.19
397.474	106.19
397.698	96.19
397.922	87.19
398.147	101.19
398.371	80.19
398.595	84.19
398.82	70.19
399.044	91.19
399.268	90.19
399.492	92.19
399.717	77.19
399.941	92.19
400.165	91.19
400.389	95.19
400.613	82.19
400.837	88.19
401.062	85.19
401.286	78.19
401.51	98.19
401.734	89.19
401.958	96.19
402.182	126.19
402.406	145.19
402.63	119.19
402.854	104.19
403.078	86.19
403.302	93.19
403.526	75.19
403.75	96.19
403.974	91.19
404.198	102.19
404.422	96.19
404.645	93.19
404.869	82.19
405.093	99.19
405.317	100.19
405.541	91.19
405.765	102.19
405.988	120.19
406.212	165.19
406.436	216.19
406.66	118.19
406.883	101.19
407.107	107.19
407.331	85.19
407.555	93.19
407.778	98.19
408.002	98.19
408.226	92.19
408.449	85.19
408.673	74.19
408.896	91.19
409.12	85.19
409.344	104.19
409.567	104.19
409.791	113.19
410.014	91.19
410.238	82.19
410.461	95.19
410.685	103.19
410.908	97.19
411.132	108.19
411.355	100.19
411.578	92.19
411.802	88.19
412.025	89.19
412.249	101.19
412.472	87.19
412.695	94.19
412.919	100.19
413.142	98.19
413.365	84.19
413.589	100.19
413.812	103.19
414.035	108.19
414.258	96.19
414.482	84.19
414.705	83.19
414.928	82.19
415.151	88.19
415.374	93.19
415.597	82.19
415.821	84.19
416.044	85.19
416.267	90.19
416.49	83.19
416.713	95.19
416.936	89.19
417.159	96.19
417.382	86.19
417.605	87.19
417.828	86.19
418.051	89.19
418.274	86.19
418.497	84.19
418.72	97.19
418.943	102.19
419.166	97.19
419.389	100.19
419.611	92.19
419.834	85.19
420.057	98.19
420.28	77.19
420.503	97.19
420.726	90.19
420.948	98.19
421.171	91.19
421.394	94.19
421.617	77.19
421.839	74.19
422.062	74.19
422.285	84.19
422.507	92.19
422.73	95.19
422.953	97.19
423.175	83.19
423.398	98.19
423.621	93.19
423.843	84.19
424.066	85.19
424.288	90.19
424.511	96.19
424.733	91.19
424.956	105.19
425.178	100.19
425.401	111.19
425.623	100.19
425.846	99.19
426.068	85.19
426.291	91.19
426.513	88.19
426.735	90.19
426.958	92.19
427.18	96.19
427.402	143.19
427.625	155.19
427.847	128.19
428.069	89.19
428.292	87.19
428.514	77.19
428.736	70.19
428.958	91.19
429.181	86.19
429.403	110.19
429.625	87.19
429.847	94.19
430.069	107.19
430.292	92.19
430.514	94.19
430.736	96.19
430.958	96.19
431.18	88.19
431.402	90.19
431.624	70.19
431.846	81.19
432.068	86.19
432.29	86.19
432.512	106.19
432.734	71.19
432.956	101.19
433.178	104.19
433.4	89.19
433.622	83.19
433.844	94.19
434.066	97.19
434.287	84.19
434.509	87.19
434.731	100.19
434.953	92.19
435.175	91.19
435.397	88.19
435.618	82.19
435.84	93.19
436.062	105.19
436.284	109.19
436.505	104.19
436.727	108.19
436.949	96.19
437.17	98.19
437.392	88.19
437.614	85.19
437.835	108.19
438.057	98.19
438.278	100.19
438.5	103.19
438.721	111.19
438.943	106.19
439.165	89.19
439.386	86.19
439.608	100.19
439.829	93.19
440.05	122.19
440.272	122.19
440.493	92.19
440.715	93.19
440.936	86.19
441.158	84.19
441.379	97.19
441.6	97.19
441.822	89.19
442.043	101.19
442.264	88.19
442.486	91.19
442.707	96.19
442.928	96.19
443.149	115.19
443.371	121.19
443.592	108.19
443.813	105.19
444.034	92.19
444.255	91.19
444.476	81.19
444.698	99.19
444.919	100.19
445.14	157.19
445.361	118.19
445.582	116.19
445.803	136.19
446.024	133.19
446.245	138.19
446.466	110.19
446.687	78.19
446.908	90.19
447.129	98.19
447.35	99.19
447.571	84.19
447.792	98.19
448.013	91.19
448.234	98.19
448.455	94.19
448.675	118.19
448.896	127.19
449.117	100.19
449.338	109.19
449.559	142.19
449.779	136.19
450	106.19
450.221	75.19
450.442	91.19
450.662	93.19
450.883	108.19
451.104	97.19
451.324	104.19
451.545	96.19
451.766	86.19
451.986	74.19
452.207	90.19
452.428	103.19
452.648	87.19
452.869	125.19
453.089	103.19
453.31	122.19
453.53	104.19
453.751	92.19
453.971	116.19
454.192	123.19
454.412	90.19
454.633	91.19
454.853	90.19
455.073	84.19
455.294	96.19
455.514	80.19
455.734	112.19
455.955	85.19
456.175	89.19
456.395	108.19
456.616	96.19
456.836	95.19
457.056	78.19
457.276	72.19
457.497	100.19
457.717	89.19
457.937	88.19
458.157	89.19
458.377	102.19
458.598	104.19
458.818	134.19
459.038	146.19
459.258	102.19
459.478	92.19
459.698	84.19
459.918	89.19
460.138	89.19
460.358	92.19
460.578	110.19
460.798	99.19
461.018	87.19
461.238	86.19
461.458	100.19
461.678	88.19
461.898	92.19
462.118	88.19
462.338	86.19
462.558	82.19
462.777	78.19
462.997	85.19
463.217	96.19
463.437	96.19
463.657	88.19
463.876	80.19
464.096	88.19
464.316	84.19
464.536	102.19
464.755	89.19
464.975	106.19
465.195	147.19
465.414	145.19
465.634	91.19
465.854	90.19
466.073	99.19
466.293	98.19
466.512	87.19
466.732	90.19
466.951	96.19
467.171	82.19
467.391	92.19
467.61	85.19
467.829	85.19
468.049	92.19
468.268	96.19
468.488	84.19
468.707	87.19
468.927	87.19
469.146	88.19
469.365	87.19
469.585	94.19
469.804	82.19
470.023	91.19
470.243	89.19
470.462	109.19
470.681	101.19
470.901	99.19
471.12	70.19
471.339	82.19
471.558	107.19
471.777	98.19
471.997	97.19
472.216	85.19
472.435	114.19
472.654	77.19
472.873	86.19
473.092	102.19
473.311	87.19
473.53	92.19
473.749	91.19
473.968	84.19
474.187	105.19
474.406	94.19
474.625	91.19
474.844	98.19
475.063	97.19
475.282	93.19
475.501	92.19
475.72	94.19
475.939	97.19
476.158	96.19
476.377	81.19
476.596	91.19
476.814	77.19
477.033	84.19
477.252	91.19
477.471	96.19
477.69	88.19
477.908	86.19
478.127	73.19
478.346	91.19
478.564	80.19
478.783	68.19
479.002	94.19
479.22	94.19
479.439	92.19
479.658	114.19
479.876	116.19
480.095	89.19
480.313	84.19
480.532	95.19
480.751	86.19
480.969	122.19
481.188	148.19
481.406	121.19
481.624	100.19
481.843	83.19
482.061	94.19
482.28	110.19
482.498	85.19
482.717	84.19
482.935	91.19
483.153	80.19
483.372	76.19
483.59	99.19
483.808	103.19
484.027	94.19
484.245	91.19
484.463	84.19
484.681	89.19
484.9	102.19
485.118	96.19
485.336	93.19
485.554	100.19
485.772	97.19
485.99	89.19
486.209	92.19
486.427	119.19
486.645	118.19
486.863	98.19
487.081	102.19
487.299	88.19
487.517	101.19
487.735	99.19
487.953	99.19
488.171	100.19
488.389	88.19
488.607	102.19
488.825	91.19
489.043	100.19
489.261	93.19
489.479	95.19
489.696	92.19
489.914	84.19
490.132	83.19
490.35	91.19
490.568	90.19
490.786	87.19
491.003	87.19
491.221	100.19
491.439	85.19
491.657	83.19
491.874	96.19
492.092	90.19
492.31	88.19
492.527	86.19
492.745	92.19
492.963	96.19
493.18	108.19
493.398	93.19
493.615	98.19
493.833	96.19
494.05	100.19
494.268	86.19
494.485	90.19
494.703	98.19
494.92	88.19
495.138	91.19
495.355	103.19
495.573	95.19
495.79	76.19
496.008	102.19
496.225	94.19
496.442	96.19
496.66	104.19
496.877	81.19
497.094	102.19
497.312	104.19
497.529	100.19
497.746	86.19
497.963	90.19
498.181	100.19
498.398	96.19
498.615	108.19
498.832	98.19
499.049	89.19
499.267	105.19
499.484	90.19
499.701	106.19
499.918	91.19
500.135	93.19
500.352	81.19
500.569	98.19
500.786	93.19
501.003	92.19
501.22	94.19
501.437	102.19
501.654	91.19
501.871	103.19
502.088	96.19
502.305	90.19
502.522	101.19
502.739	103.19
502.956	100.19
503.172	80.19
503.389	97.19
503.606	103.19
503.823	88.19
504.04	104.19
504.256	98.19
504.473	88.19
504.69	89.19
504.907	88.19
505.123	83.19
505.34	89.19
505.557	86.19
505.773	92.19
505.99	90.19
506.207	88.19
506.423	86.19
506.64	104.19
506.856	93.19
507.073	88.19
507.289	99.19
507.506	96.19
507.722	109.19
507.939	107.19
508.155	104.19
508.372	96.19
508.588	94.19
508.805	101.19
509.021	82.19
509.238	106.19
509.454	93.19
509.67	105.19
509.887	101.19
510.103	140.19
510.319	204.19
510.536	681.19
510.752	2129.19
510.968	606.19
511.184	133.19
511.401	117.19
511.617	112.19
511.833	99.19
512.049	101.19
512.265	96.19
512.481	95.19
512.698	96.19
512.914	95.19
513.13	97.19
513.346	97.19
513.562	107.19
513.778	98.19
513.994	96.19
514.21	89.19
514.426	110.19
514.642	120.19
